F3,F4,C3,C4,P3,P4,Cz,Pz,Accel_x,Accel_y,Accel_z,Sample
-2.819433575496077538e-11,-8.185452315956354141e-12,-3.456079866737127304e-11,-1.236912794411182404e-10,-3.910827217623591423e-11,-1.273292582482099533e-10,-1.637090463191270828e-11,-1.500666257925331593e-11,9.408499717712402344e+00,-8.031646609306335449e-01,-1.912296712398529053e-01,2.010000000000000000e+02
3.659188760451343114e+00,-9.654885229422689008e+00,2.280827055585450580e+01,8.672547677403417765e+02,1.369218324664780084e+01,9.837008531245373888e+01,-7.351439175140058069e+00,2.871096522779680527e+00,9.408499717712402344e+00,-8.031646609306335449e-01,-1.912296712398529053e-01,2.020000000000000000e+02
6.736519699631571712e+00,-1.740459094324228317e+01,4.143953293559206941e+01,-7.537299514738333528e+02,2.332823578937222919e+01,1.975748381403827807e+02,-9.805019396165334911e+00,7.908586924080736935e+00,9.408499717712402344e+00,-8.031646609306335449e-01,-1.912296712398529053e-01,2.030000000000000000e+02
8.688116982171322888e+00,-2.320562534841542401e+01,5.546207876237986056e+01,-4.450109872731805808e+03,2.851562139129600837e+01,2.968126747853857523e+02,-6.254143658713019249e+00,1.579496623086561158e+01,9.408499717712402344e+00,-8.031646609306335449e-01,-1.912296712398529053e-01,2.040000000000000000e+02
9.196316233896141057e+00,-2.873322032660485092e+01,6.832354972623397771e+01,-6.848808254297382518e+03,3.273916146193460008e+01,3.938677521286590490e+02,3.136971373787673656e-01,2.534576356248180673e+01,9.408499717712402344e+00,-8.031646609306335449e-01,-1.912296712398529053e-01,2.050000000000000000e+02
8.432986803526091535e+00,-3.544070713540509132e+01,8.390541688259054354e+01,-4.510575011742930656e+03,4.000353919905955991e+01,4.869265867610665737e+02,5.975132437312822731e+00,3.442794424891280869e+01,9.408499717712402344e+00,-8.031646609306335449e-01,-1.912296712398529053e-01,2.060000000000000000e+02
7.088134819216520555e+00,-4.298355248997427225e+01,1.029784362932214208e+02,2.916251475609089539e+03,5.113317688313509279e+01,5.759298239629715681e+02,9.182457312667338556e+00,4.138900261652997870e+01,9.408499717712402344e+00,-8.031646609306335449e-01,-1.912296712398529053e-01,2.070000000000000000e+02
5.997923014189836977e+00,-4.974510590782983854e+01,1.228503721257657162e+02,1.217479949247368495e+04,6.315652628476163954e+01,6.620541570593632059e+02,1.113418797256008475e+01,4.587267703531779262e+01,9.523238182067871094e+00,-8.414105772972106934e-01,-7.649187743663787842e-02,2.080000000000000000e+02
5.578270155374866590e+00,-5.482593272520375649e+01,1.400801236145798612e+02,1.890318887516274117e+04,7.211805292109693255e+01,7.460799566451787541e+02,1.341376689478420303e+01,4.850240242317704542e+01,9.523238182067871094e+00,-8.414105772972106934e-01,-7.649187743663787842e-02,2.090000000000000000e+02
5.501365892214835185e+00,-5.924341391517032207e+01,1.532693864374141413e+02,2.084362863914747868e+04,7.648291013140533323e+01,8.275513127698759490e+02,1.582301327809227587e+01,4.991959036704702157e+01,9.523238182067871094e+00,-8.414105772972106934e-01,-7.649187743663787842e-02,2.100000000000000000e+02
4.935943458749989077e+00,-6.497327561406245877e+01,1.634372945156628703e+02,1.901135414201621825e+04,7.803097306258132448e+01,9.055442884899603087e+02,1.667608504340569198e+01,5.013943215825520383e+01,9.523238182067871094e+00,-8.414105772972106934e-01,-7.649187743663787842e-02,2.110000000000000000e+02
3.231335602351464331e+00,-7.282866228854345536e+01,1.722996567406662507e+02,1.617134574138716562e+04,7.974920073727662384e+01,9.799292463816418604e+02,1.493044199216637935e+01,4.878068162352610670e+01,9.523238182067871094e+00,-8.414105772972106934e-01,-7.649187743663787842e-02,2.120000000000000000e+02
5.570649510727889719e-01,-8.144280338762087013e+01,1.806975380480880631e+02,1.441860598831816606e+04,8.304319049915284268e+01,1.051600780467815639e+03,1.160527665911786244e+01,4.584894310852814669e+01,9.523238182067871094e+00,-8.414105772972106934e-01,-7.649187743663787842e-02,2.130000000000000000e+02
-2.074075333704058721e+00,-8.842496081920921824e+01,1.886226600888412577e+02,1.397301102247405288e+04,8.684657127962782397e+01,1.121497471014012262e+03,8.960926921590271377e+00,4.223914717413254039e+01,9.523238182067871094e+00,-8.414105772972106934e-01,-7.649187743663787842e-02,2.140000000000000000e+02
-3.559996124966801290e+00,-9.249972407146628939e+01,1.961818085513332335e+02,1.382393113861244274e+04,8.906780557412912458e+01,1.189657364896826039e+03,8.426336080333840073e+00,3.940105141772119168e+01,9.523238182067871094e+00,-8.414105772972106934e-01,-7.649187743663787842e-02,2.150000000000000000e+02
-3.705792968548394128e+00,-9.454418195445896345e+01,2.039487420009891139e+02,1.310124118468248344e+04,8.864501153536093625e+01,1.255410885180021069e+03,9.415483211818354903e+00,3.838044740988743797e+01,9.523238182067871094e+00,-8.414105772972106934e-01,-7.649187743663787842e-02,2.160000000000000000e+02
-3.617482163067961665e+00,-9.666766780568059403e+01,2.122791619006193287e+02,1.176350472954380893e+04,8.628044004878211126e+01,1.318387433766632967e+03,1.003775173843996527e+01,3.902472282026019457e+01,9.523238182067871094e+00,-8.414105772972106934e-01,-7.649187743663787842e-02,2.170000000000000000e+02
-5.027183593768768333e+00,-1.004375035870699548e+02,2.206398375977223623e+02,1.027979620350062760e+04,8.355576589815154875e+01,1.379140704982091847e+03,8.716130631432406517e+00,3.999078266576725582e+01,9.523238182067871094e+00,-8.414105772972106934e-01,-7.649187743663787842e-02,2.180000000000000000e+02
-9.008515969082964148e+00,-1.059134245330596968e+02,2.279820181656095883e+02,9.021870317850727588e+03,8.158820785892112326e+01,1.438727847725705942e+03,5.152797106779416936e+00,3.958528135791448221e+01,9.523238182067871094e+00,-8.414105772972106934e-01,-7.649187743663787842e-02,2.190000000000000000e+02
-1.518204528627666150e+01,-1.120542170237820301e+02,2.338320283556358845e+02,8.055961048726629087e+03,8.042961150646169699e+01,1.497769679249196997e+03,1.257152800362746348e-01,3.687562609215729026e+01,9.523238182067871094e+00,-8.414105772972106934e-01,-7.649187743663787842e-02,2.200000000000000000e+02
-2.214445297877546182e+01,-1.176927573757149048e+02,2.388309143049687009e+02,7.296069579791565047e+03,7.941483576941936917e+01,1.556003605526477259e+03,-5.201344993334942046e+00,3.234398808161358829e+01,9.523238182067871094e+00,-8.414105772972106934e-01,-7.649187743663787842e-02,2.210000000000000000e+02
-2.872496738662721327e+01,-1.220593737688017200e+02,2.440546095558866000e+02,6.599781757878405188e+03,7.786045950711559271e+01,1.612690396986074120e+03,-9.708768344632062508e+00,2.766536853353909464e+01,9.523238182067871094e+00,-8.414105772972106934e-01,-7.649187743663787842e-02,2.220000000000000000e+02
-3.482540694302588236e+01,-1.247637640579742992e+02,2.498552857067443256e+02,5.716937571328751801e+03,7.557228768927507190e+01,1.667386003664778400e+03,-1.255029346605306273e+01,2.470480554502364612e+01,9.523238182067871094e+00,-8.414105772972106934e-01,-7.649187743663787842e-02,2.230000000000000000e+02
-4.105664829543775340e+01,-1.258081234808270210e+02,2.554735371849997136e+02,4.393581576123404375e+03,7.299523591337310791e+01,1.720334222762119680e+03,-1.354686682567398748e+01,2.433002835716752088e+01,9.523238182067871094e+00,-8.414105772972106934e-01,-7.649187743663787842e-02,2.240000000000000000e+02
-4.770430657217275439e+01,-1.259038608703459658e+02,2.597654251876488161e+02,2.737989252500199655e+03,7.098066480149645940e+01,1.772191550415851452e+03,-1.360824088941080845e+01,2.579172662071914601e+01,9.523238182067871094e+00,-8.414105772972106934e-01,-7.649187743663787842e-02,2.250000000000000000e+02
-5.428381736310075212e+01,-1.266377856720616819e+02,2.621874101706016518e+02,1.335462795732128143e+03,7.015855053963332466e+01,1.823390552087863398e+03,-1.459133094844742118e+01,2.707847360727737396e+01,9.523238182067871094e+00,-8.414105772972106934e-01,-7.649187743663787842e-02,2.260000000000000000e+02
-6.024149724312746912e+01,-1.298901127923353442e+02,2.630249728665162365e+02,7.561181911868152383e+02,7.016190159587313246e+01,1.873664743635587001e+03,-1.832055576257198481e+01,2.603886006440416168e+01,9.523238182067871094e+00,-8.414105772972106934e-01,-7.649187743663787842e-02,2.270000000000000000e+02
-6.592066000017848637e+01,-1.367063042194603213e+02,2.628141435381508018e+02,7.677610457176851924e+02,6.938266807105173939e+01,1.922125900541735973e+03,-2.543069963722246030e+01,2.153261656802487778e+01,9.523238182067871094e+00,-8.414105772972106934e-01,-7.649187743663787842e-02,2.280000000000000000e+02
-7.247159330830481849e+01,-1.465271982909881672e+02,2.617901097220233169e+02,2.064247576311245211e+02,6.580381987195687543e+01,1.967877351370827455e+03,-3.500313722044893439e+01,1.391057566043309635e+01,9.523238182067871094e+00,-8.414105772972106934e-01,-7.649187743663787842e-02,2.290000000000000000e+02
-8.056660115025169944e+01,-1.574752319570358168e+02,2.600394211142470340e+02,-1.952068116995291348e+03,5.854446558915878995e+01,2.010727950142942063e+03,-4.526694786576445040e+01,4.669412134011054150e+00,9.523238182067871094e+00,-8.414105772972106934e-01,-7.649187743663787842e-02,2.300000000000000000e+02
-8.925956670877212673e+01,-1.675011628295671926e+02,2.580836249803910505e+02,-5.121334556267440348e+03,4.887196782006958529e+01,2.051422362857094413e+03,-5.469486628565800856e+01,-4.330129059933369717e+00,9.523238182067871094e+00,-8.414105772972106934e-01,-7.649187743663787842e-02,2.310000000000000000e+02
-9.641637076130655259e+01,-1.754565615848906646e+02,2.570503809474225818e+02,-6.824302257491421187e+03,3.961018985387909197e+01,2.091096476561675445e+03,-6.258836571011011074e+01,-1.156483644082800311e+01,9.523238182067871094e+00,-8.414105772972106934e-01,-7.649187743663787842e-02,2.320000000000000000e+02
-1.004966248096725394e+02,-1.813625702697843280e+02,2.580469903144858108e+02,-4.331616416544944514e+03,3.324119538538616325e+01,2.130366825135684849e+03,-6.894413424408799074e+01,-1.626612089726813792e+01,9.523238182067871094e+00,-8.414105772972106934e-01,-7.649187743663787842e-02,2.330000000000000000e+02
-1.019599166292805421e+02,-1.859415258055048525e+02,2.612540516936592212e+02,2.936272774662345910e+03,3.021186366263009404e+01,2.168846783985494767e+03,-7.406660868820358701e+01,-1.858176137770260539e+01,9.523238182067871094e+00,-8.414105772972106934e-01,-7.649187743663787842e-02,2.340000000000000000e+02
-1.028593354333097523e+02,-1.899989594727255735e+02,2.656395317569631516e+02,1.241561413016462393e+04,2.882343048633629223e+01,2.205534758156791213e+03,-7.835814138372415982e+01,-1.947105569348218523e+01,9.446745872497558594e+00,-9.179025292396545410e-01,-7.649187743663787842e-02,2.350000000000000000e+02
-1.049990372126458169e+02,-1.940752076882075698e+02,2.696556700336823269e+02,1.993161936785187208e+04,2.671881870103834444e+01,2.239708046858888338e+03,-8.221050891852678433e+01,-2.020608137008616723e+01,9.446745872497558594e+00,-9.179025292396545410e-01,-7.649187743663787842e-02,2.360000000000000000e+02
-1.084575300543710910e+02,-1.983191256350193044e+02,2.723697801678999895e+02,2.262596016544339727e+04,2.266031272335294489e+01,2.271473060428936151e+03,-8.571074503228805952e+01,-2.153118198179299725e+01,9.446745872497558594e+00,-9.179025292396545410e-01,-7.649187743663787842e-02,2.370000000000000000e+02
-1.117581398713359704e+02,-2.024121973699143382e+02,2.741345970832639978e+02,2.082320625180554271e+04,1.726784220858507979e+01,2.301550836540414821e+03,-8.829367379772588720e+01,-2.298392399280965037e+01,9.446745872497558594e+00,-9.179025292396545410e-01,-7.649187743663787842e-02,2.380000000000000000e+02
-1.132715731100129233e+02,-2.055476865841139897e+02,2.763275310581066151e+02,1.732508669334083243e+04,1.241452168593195893e+01,2.330648670908101849e+03,-8.882585511245270027e+01,-2.300012501015203270e+01,9.446745872497558594e+00,-9.179025292396545410e-01,-7.649187743663787842e-02,2.390000000000000000e+02
-1.123416192726676854e+02,-2.066199708069282224e+02,2.804532305661014107e+02,1.496423304900981384e+04,9.994333722640476481e+00,2.359087528693553395e+03,-8.629534345075285273e+01,-1.988709400593029386e+01,9.446745872497558594e+00,-9.179025292396545410e-01,-7.649187743663787842e-02,2.400000000000000000e+02
-1.092047983895859034e+02,-2.046825024197208904e+02,2.873084744838438382e+02,1.456641761335482443e+04,1.099413343384412656e+01,2.386938022004240338e+03,-8.061810695024905726e+01,-1.297217407025641478e+01,9.446745872497558594e+00,-9.179025292396545410e-01,-7.649187743663787842e-02,2.410000000000000000e+02
-1.041991567141026280e+02,-1.994275974884175184e+02,2.967042404632288708e+02,1.491890393409953322e+04,1.529471076924983208e+01,2.414298720882778071e+03,-7.280004324037781771e+01,-2.989825100857387952e+00,9.446745872497558594e+00,-9.179025292396545410e-01,-7.649187743663787842e-02,2.420000000000000000e+02
-9.734176205955009209e+01,-1.913937563764977767e+02,3.077670553560051303e+02,1.440212453388178983e+04,2.207768581667551189e+01,2.441332277718307523e+03,-6.430576620413171440e+01,8.532579765533682803e+00,9.446745872497558594e+00,-9.179025292396545410e-01,-7.649187743663787842e-02,2.430000000000000000e+02
-8.870132878526192144e+01,-1.817801634423194628e+02,3.194952586436770616e+02,1.258113697783935640e+04,3.041335806188271818e+01,2.468074232273060261e+03,-5.624000695911126968e+01,2.024577671144402302e+01,9.446745872497558594e+00,-9.179025292396545410e-01,-7.649187743663787842e-02,2.440000000000000000e+02
-7.898470752395655836e+01,-1.719795495005258772e+02,3.311974922862896165e+02,1.038419262424002591e+04,3.959906844305896811e+01,2.494312632198800202e+03,-4.902840048366238079e+01,3.144200042478587420e+01,9.446745872497558594e+00,-9.179025292396545410e-01,-7.649187743663787842e-02,2.450000000000000000e+02
-6.953728237106747656e+01,-1.630936279577236974e+02,3.426035292027163450e+02,8.980518524993392930e+03,4.905291984987024989e+01,2.519706797499084132e+03,-4.267053250205685799e+01,4.177605070165373036e+01,9.446745872497558594e+00,-9.179025292396545410e-01,-7.649187743663787842e-02,2.460000000000000000e+02
-6.164140261207853655e+01,-1.556989455131947580e+02,3.536536995076953644e+02,8.588141733355158067e+03,5.794677758200077733e+01,2.543968262016367589e+03,-3.706934923467065346e+01,5.080245638715859968e+01,9.446745872497558594e+00,-9.179025292396545410e-01,-7.649187743663787842e-02,2.470000000000000000e+02
-5.570361448575067698e+01,-1.499776298586785970e+02,3.641614062233452387e+02,8.358157464916617755e+03,6.508467369909021727e+01,2.566900450321605604e+03,-3.205659460312131159e+01,5.796525621385330851e+01,9.446745872497558594e+00,-9.179025292396545410e-01,-7.649187743663787842e-02,2.480000000000000000e+02
-5.100452795054184207e+01,-1.460561397660510465e+02,3.735868876430445198e+02,7.322633147583808750e+03,6.938229927412839970e+01,2.588360788897147359e+03,-2.724925269774666958e+01,6.304395437835796656e+01,9.446745872497558594e+00,-9.179025292396545410e-01,-7.649187743663787842e-02,2.490000000000000000e+02
-4.616059532006829613e+01,-1.441805094991785836e+02,3.811216921189097775e+02,5.402132164262719016e+03,7.067320517999678486e+01,2.608309853250986635e+03,-2.211217183672806641e+01,6.649290818531039804e+01,9.446745872497558594e+00,-9.179025292396545410e-01,-7.649187743663787842e-02,2.500000000000000000e+02
-3.993181568339537080e+01,-1.444853062384047462e+02,3.861366894205684730e+02,3.471289634660090087e+03,7.006647656021277726e+01,2.626912947374301439e+03,-1.632605146492346648e+01,6.922870179671826918e+01,9.446745872497558594e+00,-9.179025292396545410e-01,-7.649187743663787842e-02,2.510000000000000000e+02
-3.185217261821117063e+01,-1.465257156696492302e+02,3.887776535798702753e+02,2.423801113502280714e+03,6.935371059716135278e+01,2.644498523549429592e+03,-1.009811993434641408e+01,7.205275515406788145e+01,9.446745872497558594e+00,-9.179025292396545410e-01,-7.649187743663787842e-02,2.520000000000000000e+02
-2.236481425113970545e+01,-1.490661672380923619e+02,3.902714823960968715e+02,2.218541545751029844e+03,6.986942080249946230e+01,2.661332183545035150e+03,-4.018242860152668072e+00,7.531733828110691320e+01,9.446745872497558594e+00,-9.179025292396545410e-01,-7.649187743663787842e-02,2.530000000000000000e+02
-1.247515842041320866e+01,-1.505048805378003181e+02,3.925352283512797840e+02,1.858362392380351594e+03,7.179857366359237858e+01,2.677454227524256567e+03,1.436118947811337421e+00,7.910904162539804929e+01,9.446745872497558594e+00,-9.179025292396545410e-01,-7.649187743663787842e-02,2.540000000000000000e+02
-3.207990156393861980e+00,-1.497219008244969700e+02,3.971298792478278301e+02,4.111004462881319341e+02,7.450774056250702415e+01,2.692802467706022071e+03,6.268694632578444725e+00,8.361977996595987861e+01,9.446745872497558594e+00,-9.179025292396545410e-01,-7.649187743663787842e-02,2.550000000000000000e+02
4.760697690961933404e+00,-1.466942053763452805e+02,4.041980109276360054e+02,-1.918541143372740407e+03,7.745735465168854716e+01,2.707464102145020661e+03,1.082764838301864074e+01,8.915568684198910887e+01,9.446745872497558594e+00,-9.179025292396545410e-01,-7.649187743663787842e-02,2.560000000000000000e+02
1.113553310136899199e+01,-1.423979176393232819e+02,4.122420189356043920e+02,-3.843400200281355865e+03,8.072057905253495846e+01,2.721685515677594594e+03,1.527673560675179942e+01,9.567160531943545720e+01,9.446745872497558594e+00,-9.179025292396545410e-01,-7.649187743663787842e-02,2.570000000000000000e+02
1.585036215998661646e+01,-1.381562455543678425e+02,4.190850477206340656e+02,-4.302760976339119225e+03,8.465299182520902832e+01,2.735537000540240115e+03,1.920481022584885977e+01,1.023471466997016250e+02,9.446745872497558594e+00,-9.179025292396545410e-01,-7.649187743663787842e-02,2.580000000000000000e+02
1.898394427840230492e+01,-1.350141671823079150e+02,4.234113978764362400e+02,-3.782985648343004868e+03,8.923500453888300399e+01,2.748617226726573790e+03,2.182255387742566199e+01,1.078170606935104843e+02,9.446745872497558594e+00,-9.179025292396545410e-01,-7.649187743663787842e-02,2.590000000000000000e+02
2.078837772011183915e+01,-1.335309770430803837e+02,4.256884758772835085e+02,-4.142277145458694577e+03,9.390829454120512310e+01,2.760222108909825693e+03,2.265870790175904403e+01,1.110427235128249777e+02,9.446745872497558594e+00,-9.179025292396545410e-01,-7.649187743663787842e-02,2.600000000000000000e+02
2.164701246450022154e+01,-1.338591442495959996e+02,4.276993807348658265e+02,-6.767980652162759725e+03,9.809080858777679168e+01,2.769904724807091043e+03,2.218651110338828403e+01,1.121118351432153304e+02,9.446745872497558594e+00,-9.179025292396545410e-01,-7.649187743663787842e-02,2.610000000000000000e+02
2.186689921196852993e+01,-1.357725510434366356e+02,4.310848548607232260e+02,-1.068110716754453824e+04,1.017787032413430097e+02,2.777885620078008287e+03,2.178977001235011812e+01,1.122072851487944263e+02,9.446745872497558594e+00,-9.179025292396545410e-01,-7.649187743663787842e-02,2.620000000000000000e+02
2.149002152303569346e+01,-1.385813641964301155e+02,4.361589200789408096e+02,-1.260004469795216937e+04,1.055542079225556336e+02,2.784882856881347834e+03,2.298358172367693442e+01,1.127288139242900797e+02,9.446745872497558594e+00,-9.179025292396545410e-01,-7.649187743663787842e-02,2.630000000000000000e+02
2.040805311563224222e+01,-1.412564001794269757e+02,4.419593893926921737e+02,-9.332799371953773516e+03,1.099859690218688684e+02,2.791534633097904589e+03,2.641569626956948014e+01,1.143609777115246970e+02,9.446745872497558594e+00,-9.179025292396545410e-01,-7.649187743663787842e-02,2.640000000000000000e+02
1.869340533753336331e+01,-1.429712200946910059e+02,4.472954626246257703e+02,-5.982550149623289144e+02,1.150006080055188704e+02,2.797970125214222207e+03,3.138550386498877742e+01,1.169132498389524244e+02,9.446745872497558594e+00,-9.179025292396545410e-01,-7.649187743663787842e-02,2.650000000000000000e+02
1.670046626495803821e+01,-1.437520595283120315e+02,4.516367615734768606e+02,1.027740199991922782e+04,1.197621587982089295e+02,2.803863379258268651e+03,3.619693264813372480e+01,1.199130613518562996e+02,9.484992027282714844e+00,-8.796565532684326172e-01,-7.649187743663787842e-02,2.660000000000000000e+02
1.466817911962482412e+01,-1.446445801137306262e+02,4.549747035576729104e+02,1.857808488065148413e+04,1.230947023546173114e+02,2.808800265250521079e+03,3.897489221795296999e+01,1.230905359519161948e+02,9.484992027282714844e+00,-8.796565532684326172e-01,-7.649187743663787842e-02,2.670000000000000000e+02
1.220352515045294695e+01,-1.471129419251417971e+02,4.569700603863720971e+02,2.151425834963136003e+04,1.240714497032902273e+02,2.812552171735201227e+03,3.830133383144095660e+01,1.260385182558768520e+02,9.484992027282714844e+00,-8.796565532684326172e-01,-7.649187743663787842e-02,2.680000000000000000e+02
8.352678878444123711e+00,-1.520400977837373375e+02,4.565211754666802335e+02,1.986317384019670499e+04,1.223864443937427495e+02,2.815078390800090347e+03,3.339503729773548457e+01,1.274106214053817894e+02,9.484992027282714844e+00,-8.796565532684326172e-01,-7.649187743663787842e-02,2.690000000000000000e+02
2.429291504304387672e+00,-1.590354417937757887e+02,4.524454002913180375e+02,1.674317841523427705e+04,1.183750971805984591e+02,2.816388725612915096e+03,2.415514005527370500e+01,1.248951279855249368e+02,9.484992027282714844e+00,-8.796565532684326172e-01,-7.649187743663787842e-02,2.700000000000000000e+02
-5.110185041733245725e+00,-1.665302182406343547e+02,4.447196243895291445e+02,1.488549521991712209e+04,1.127735598763983944e+02,2.816474679523105351e+03,1.144597146226021778e+01,1.166862065216361088e+02,9.484992027282714844e+00,-8.796565532684326172e-01,-7.649187743663787842e-02,2.710000000000000000e+02
-1.268280605859990828e+01,-1.726127668337439900e+02,4.350156380409230223e+02,1.484806301652291586e+04,1.064030312629786295e+02,2.815372764334106250e+03,-2.624663336963067195e+00,1.034932568508379518e+02,9.484992027282714844e+00,-8.796565532684326172e-01,-7.649187743663787842e-02,2.720000000000000000e+02
-1.860346381038266372e+01,-1.760933409716881215e+02,4.258536740071017448e+02,1.539977852854195226e+04,9.995649867430984159e+01,2.813272933247761557e+03,-1.512887738166801910e+01,8.907990129917925515e+01,9.484992027282714844e+00,-8.796565532684326172e-01,-7.649187743663787842e-02,2.730000000000000000e+02
-2.219679475572007732e+01,-1.771711788584011629e+02,4.190118361327911316e+02,1.519892676240301989e+04,9.394196979896491939e+01,2.810562146199465133e+03,-2.370531531863645114e+01,7.822834387186742333e+01,9.484992027282714844e+00,-8.796565532684326172e-01,-7.649187743663787842e-02,2.740000000000000000e+02
-2.400745678398078553e+01,-1.772860391096697867e+02,4.145327183787040894e+02,1.399455630490670774e+04,8.867473596630884458e+01,2.807715519896796650e+03,-2.806423569100729765e+01,7.339329097675965841e+01,9.484992027282714844e+00,-8.796565532684326172e-01,-7.649187743663787842e-02,2.750000000000000000e+02
-2.505392490337024469e+01,-1.781696706389847122e+02,4.111173066382765455e+02,1.248313134989480022e+04,8.421116903122356234e+01,2.805039163307952094e+03,-3.020660274793749522e+01,7.288170343062051870e+01,9.484992027282714844e+00,-8.796565532684326172e-01,-7.649187743663787842e-02,2.760000000000000000e+02
-2.600132555705204140e+01,-1.806515718873617402e+02,4.074507955651316706e+02,1.140811789006877552e+04,8.032025500397867290e+01,2.802425017866508824e+03,-3.283561197229158779e+01,7.235337880510940067e+01,9.484992027282714844e+00,-8.796565532684326172e-01,-7.649187743663787842e-02,2.770000000000000000e+02
-2.704665663646491680e+01,-1.840256239010934110e+02,4.032871326071220892e+02,1.094590270445543138e+04,7.671753259545425863e+01,2.799372754905307374e+03,-3.708843157971608662e+01,6.854570733299647145e+01,9.484992027282714844e+00,-8.796565532684326172e-01,-7.649187743663787842e-02,2.780000000000000000e+02
-2.837234571205715383e+01,-1.864664371482211607e+02,3.995086073703043894e+02,1.076867961800602643e+04,7.358002330510248612e+01,2.795388150471863355e+03,-4.153258945087247866e+01,6.204423399034692466e+01,9.484992027282714844e+00,-8.796565532684326172e-01,-7.649187743663787842e-02,2.790000000000000000e+02
-3.040640818870073758e+01,-1.861986040458257321e+02,3.973689096921980308e+02,1.046007059768629733e+04,7.190549804510419563e+01,2.790468421919934826e+03,-4.335341422398181521e+01,5.673661216993480139e+01,9.484992027282714844e+00,-8.796565532684326172e-01,-7.649187743663787842e-02,2.800000000000000000e+02
-3.347848708462265677e+01,-1.825431426875765055e+02,3.976981669522865559e+02,9.757913861138686116e+03,7.315784283547577616e+01,2.785169030536137143e+03,-4.072215163009786920e+01,5.654660933794480115e+01,9.484992027282714844e+00,-8.796565532684326172e-01,-7.649187743663787842e-02,2.810000000000000000e+02
-3.726771721776114532e+01,-1.761032951944333718e+02,4.006206365003274641e+02,8.636320544086660448e+03,7.824615657066226504e+01,2.780097122066754309e+03,-3.429198712772142699e+01,6.239301648922878485e+01,9.484992027282714844e+00,-8.796565532684326172e-01,-7.649187743663787842e-02,2.820000000000000000e+02
-4.073429806423177979e+01,-1.680981175869112008e+02,4.057374141383590995e+02,7.432305505939344584e+03,8.666035345125078493e+01,2.775304266901384835e+03,-2.658719619798512213e+01,7.189689253967992499e+01,9.484992027282714844e+00,-8.796565532684326172e-01,-7.649187743663787842e-02,2.830000000000000000e+02
-4.269716155666546342e+01,-1.595212827355989873e+02,4.123865248166054016e+02,6.921398121988080675e+03,9.665405414186159305e+01,2.770253890338643942e+03,-1.996070730436628082e+01,8.169339008404767810e+01,9.484992027282714844e+00,-8.796565532684326172e-01,-7.649187743663787842e-02,2.840000000000000000e+02
-4.254369132306050005e+01,-1.507604394880737289e+02,4.197385769864171152e+02,8.000825464286652277e+03,1.064062790105228942e+02,2.764438050549839772e+03,-1.494400009216900571e+01,8.996035309407079694e+01,9.484992027282714844e+00,-8.796565532684326172e-01,-7.649187743663787842e-02,2.850000000000000000e+02
-4.044886686355343386e+01,-1.417483592425446943e+02,4.268080423391174918e+02,1.097027586907482146e+04,1.150676047321280748e+02,2.757946779594638883e+03,-1.028798049243022206e+01,9.694153950510792583e+01,9.484992027282714844e+00,-8.796565532684326172e-01,-7.649187743663787842e-02,2.860000000000000000e+02
-3.700494146622213520e+01,-1.323097357253509188e+02,4.325676916168633852e+02,1.500391018884547520e+04,1.226988644189129900e+02,2.751293406058652181e+03,-4.465665855376983018e+00,1.034052922864718767e+02,9.446745872497558594e+00,-8.796565532684326172e-01,-1.147378161549568176e-01,2.870000000000000000e+02
-3.272579808258180378e+01,-1.224357229366194844e+02,4.362138020995926126e+02,1.847320723933417321e+04,1.293082898186211196e+02,2.744643891663536579e+03,2.751336871280443575e+00,1.089413016663538087e+02,9.446745872497558594e+00,-8.796565532684326172e-01,-1.147378161549568176e-01,2.880000000000000000e+02
-2.788991700678349162e+01,-1.124662669624424751e+02,4.374687443221296235e+02,2.004061006267967969e+04,1.342259043556065308e+02,2.737374508458603032e+03,9.942404968311052471e+00,1.119432257686800654e+02,9.446745872497558594e+00,-8.796565532684326172e-01,-1.147378161549568176e-01,2.890000000000000000e+02
-2.278031724067247410e+01,-1.031757885197881421e+02,4.367674001337770733e+02,1.961734179350239356e+04,1.366807991722838551e+02,2.728578478422113221e+03,1.512486760146128972e+01,1.113070125839522007e+02,9.446745872497558594e+00,-8.796565532684326172e-01,-1.147378161549568176e-01,2.900000000000000000e+02
-1.797120786318978958e+01,-9.562353671987148118e+01,4.352320311947851224e+02,1.830567358107385735e+04,1.370246087397555357e+02,2.718057472159719509e+03,1.734687077582645998e+01,1.081313651503878646e+02,9.446745872497558594e+00,-8.796565532684326172e-01,-1.147378161549568176e-01,2.910000000000000000e+02
-1.426044171093963087e+01,-9.070703612552692618e+01,4.343718025692023730e+02,1.738566381740985162e+04,1.371601676044076612e+02,2.706708886265024375e+03,1.748423449987672029e+01,1.056214776628989966e+02,9.446745872497558594e+00,-8.796565532684326172e-01,-1.147378161549568176e-01,2.920000000000000000e+02
-1.219546241104825413e+01,-8.868458662353499733e+01,4.354926062739897361e+02,1.730784999746716494e+04,1.394275192268605679e+02,2.695805166267920868e+03,1.759869529985394365e+01,1.070279730175253121e+02,9.446745872497558594e+00,-8.796565532684326172e-01,-1.147378161549568176e-01,2.930000000000000000e+02
-1.156011327661207133e+01,-8.911853930422810777e+01,4.390168221880544479e+02,1.758372199172180990e+04,1.448100473381472284e+02,2.685864145491721956e+03,1.937561113777451283e+01,1.132670165405294256e+02,9.446745872497558594e+00,-8.796565532684326172e-01,-1.147378161549568176e-01,2.940000000000000000e+02
-1.132767695419698839e+01,-9.132755852090303961e+01,4.441454680359385065e+02,1.752829429890556275e+04,1.521088671219735033e+02,2.676248582825433914e+03,2.292312461374717714e+01,1.222435465120752838e+02,9.446745872497558594e+00,-8.796565532684326172e-01,-1.147378161549568176e-01,2.950000000000000000e+02
-1.026807680772324716e+01,-9.486328694069602818e+01,4.492300754851211195e+02,1.700690680416180112e+04,1.588713800468219688e+02,2.665850011162468036e+03,2.691967553447307182e+01,1.304785052044159670e+02,9.446745872497558594e+00,-8.796565532684326172e-01,-1.147378161549568176e-01,2.960000000000000000e+02
-7.809670266028774677e+00,-9.943347299662974592e+01,4.527520841741771847e+02,1.646648592584612925e+04,1.632493982448801262e+02,2.654108552702492943e+03,2.990700974093334708e+01,1.356498009085817671e+02,9.446745872497558594e+00,-8.796565532684326172e-01,-1.147378161549568176e-01,2.970000000000000000e+02
-4.434741645846600022e+00,-1.043383388699784007e+02,4.542474862548829151e+02,1.635599423189605477e+04,1.651919491527236232e+02,2.641367519218670168e+03,3.150848269444105654e+01,1.378972193983969419e+02,9.446745872497558594e+00,-8.796565532684326172e-01,-1.147378161549568176e-01,2.980000000000000000e+02
-1.200187545875877504e+00,-1.082097826862950427e+02,4.544165319147226683e+02,1.663781263870186740e+04,1.660944281815739032e+02,2.628354937494076694e+03,3.245311245374460896e+01,1.388883232395074288e+02,9.446745872497558594e+00,-8.796565532684326172e-01,-1.147378161549568176e-01,2.990000000000000000e+02
1.244601871084114464e+00,-1.096777801382824578e+02,4.543027006363198552e+02,1.688427703879267574e+04,1.674142151156829641e+02,2.615463407403113706e+03,3.350726427145980324e+01,1.397301342231831995e+02,9.446745872497558594e+00,-8.796565532684326172e-01,-1.147378161549568176e-01,3.000000000000000000e+02
3.210782809567064078e+00,-1.085867785990682819e+02,4.542771406100680451e+02,1.677132786252640290e+04,1.695284442716879312e+02,2.602539955554085282e+03,3.450213489421560098e+01,1.398444633579456990e+02,9.446745872497558594e+00,-8.796565532684326172e-01,-1.147378161549568176e-01,3.010000000000000000e+02
5.515024579795777981e+00,-1.065748119487381302e+02,4.537762098741551426e+02,1.639793450201913220e+04,1.717144431867452568e+02,2.589255637369110445e+03,3.448830127426907666e+01,1.378960247914381512e+02,9.446745872497558594e+00,-8.796565532684326172e-01,-1.147378161549568176e-01,3.020000000000000000e+02
8.424027473293193680e+00,-1.061672378473497673e+02,4.520454199426397963e+02,1.612481021779858929e+04,1.730737991802473061e+02,2.575554853852794622e+03,3.283761295432071847e+01,1.337845943986546899e+02,9.446745872497558594e+00,-8.796565532684326172e-01,-1.147378161549568176e-01,3.030000000000000000e+02
1.104391021517452032e+01,-1.089044012697245307e+02,4.491487798521164905e+02,1.616513657619298101e+04,1.734914703782983452e+02,2.561739666336377923e+03,3.010300567761072443e+01,1.295957716739113152e+02,9.446745872497558594e+00,-8.796565532684326172e-01,-1.147378161549568176e-01,3.040000000000000000e+02
1.181056575136898346e+01,-1.140582777122561424e+02,4.462159569229853560e+02,1.637819191905177649e+04,1.737953152706598985e+02,2.548173315742480554e+03,2.775204363650874484e+01,1.283885740184915107e+02,9.446745872497558594e+00,-8.796565532684326172e-01,-1.147378161549568176e-01,3.050000000000000000e+02
9.686869864275280406e+00,-1.191125381298531352e+02,4.446451177565227226e+02,1.644696541601232821e+04,1.750310755469257629e+02,2.534907028502495450e+03,2.708228159313620154e+01,1.318184848728300267e+02,9.446745872497558594e+00,-8.796565532684326172e-01,-1.147378161549568176e-01,3.060000000000000000e+02
5.024084303157451359e+00,-1.216427660498655143e+02,4.450218415240952936e+02,1.621709298883001611e+04,1.775549338187000785e+02,2.521550997592822569e+03,2.843355444329836246e+01,1.387634778714948993e+02,9.446745872497558594e+00,-8.796565532684326172e-01,-1.147378161549568176e-01,3.070000000000000000e+02
-6.013125510228292114e-01,-1.209676284113459701e+02,4.468002352907579962e+02,1.586226631056064252e+04,1.807930546756919057e+02,2.507489070767051089e+03,3.139036712492310244e+01,1.462047059760234333e+02,9.446745872497558594e+00,-8.796565532684326172e-01,-1.147378161549568176e-01,3.080000000000000000e+02
-5.334204401619558666e+00,-1.181954180356178483e+02,4.489919011784122631e+02,1.572907277839775088e+04,1.838852485631218769e+02,2.492311408340098751e+03,3.554100174198612194e+01,1.515285869915670673e+02,9.446745872497558594e+00,-8.796565532684326172e-01,-1.147378161549568176e-01,3.090000000000000000e+02
-7.973007664303111142e+00,-1.147987444967381805e+02,4.510777537421215584e+02,1.602233921860447299e+04,1.865634996083579153e+02,2.476158367593379808e+03,4.082507836548262503e+01,1.542060410407111704e+02,9.446745872497558594e+00,-8.796565532684326172e-01,-1.147378161549568176e-01,3.100000000000000000e+02
-8.322583989003874194e+00,-1.112120705294678942e+02,4.531787403492738804e+02,1.666855117842535765e+04,1.893550127938407286e+02,2.459674058435313782e+03,4.707968709737872359e+01,1.555380145889927803e+02,9.446745872497558594e+00,-8.796565532684326172e-01,-1.147378161549568176e-01,3.110000000000000000e+02
-6.993046217870983128e+00,-1.068446037036579668e+02,4.553600244534613921e+02,1.738693205884645431e+04,1.928645411446755134e+02,2.443530035854982543e+03,5.334284338589776553e+01,1.569548864503002505e+02,9.523238182067871094e+00,-9.561483860015869141e-01,-1.147378161549568176e-01,3.120000000000000000e+02
-5.009264798841911670e+00,-1.013937353545654787e+02,4.569250181221584626e+02,1.789131080522989578e+04,1.968735463243124286e+02,2.427878254868915974e+03,5.782125798237166237e+01,1.585473229160640471e+02,9.523238182067871094e+00,-9.561483860015869141e-01,-1.147378161549568176e-01,3.130000000000000000e+02
-3.500960371492737977e+00,-9.596043659950220217e+01,4.566023558550347161e+02,1.805929769432446483e+04,2.002423672376304467e+02,2.412234709245244630e+03,5.878310929532301543e+01,1.590747382793083489e+02,9.523238182067871094e+00,-9.561483860015869141e-01,-1.147378161549568176e-01,3.140000000000000000e+02
-3.508811724406655230e+00,-9.262503147400860826e+01,4.535748769624588022e+02,1.796494236521546554e+04,2.017837715197697435e+02,2.395925708956879134e+03,5.572290137003142263e+01,1.572655917803784291e+02,9.523238182067871094e+00,-9.561483860015869141e-01,-1.147378161549568176e-01,3.150000000000000000e+02
-5.829077527725416985e+00,-9.270182942652060376e+01,4.483635886442071978e+02,1.778500540721677680e+04,2.012520634810365436e+02,2.378682072426607647e+03,4.982932219135875584e+01,1.531328291873498415e+02,9.523238182067871094e+00,-9.561483860015869141e-01,-1.147378161549568176e-01,3.160000000000000000e+02
-1.084218827914486383e+01,-9.535931676463533790e+01,4.426148365931056787e+02,1.766505836450110655e+04,1.994653996142304777e+02,2.360829165665740220e+03,4.330982347574871483e+01,1.481376892044566489e+02,9.523238182067871094e+00,-9.561483860015869141e-01,-1.147378161549568176e-01,3.170000000000000000e+02
-1.834290671449537058e+01,-9.808378884356118022e+01,4.378610391233264636e+02,1.763937671799633608e+04,1.974841262571704874e+02,2.342948060409567915e+03,3.803774456744218924e+01,1.441260080976036875e+02,9.523238182067871094e+00,-9.561483860015869141e-01,-1.147378161549568176e-01,3.180000000000000000e+02
-2.746588835248758187e+01,-9.870339001150124147e+01,4.343223267102498539e+02,1.764829363130688944e+04,1.957361838518700097e+02,2.325418886316611861e+03,3.449044052989688680e+01,1.419681201989592978e+02,9.523238182067871094e+00,-9.561483860015869141e-01,-1.147378161549568176e-01,3.190000000000000000e+02
-3.688317757709342004e+01,-9.708428072913044105e+01,4.308145954282564389e+02,1.761940353283984587e+04,1.939328085454831125e+02,2.308282211053100582e+03,3.173705483118078519e+01,1.410403188013091835e+02,9.523238182067871094e+00,-9.561483860015869141e-01,-1.147378161549568176e-01,3.200000000000000000e+02
-4.538009303063154221e+01,-9.491681353851402037e+01,4.258512849441444814e+02,1.753684570734737281e+04,1.916917344362777840e+02,2.291423904813932040e+03,2.845659257357885963e+01,1.399565617492402225e+02,9.523238182067871094e+00,-9.561483860015869141e-01,-1.147378161549568176e-01,3.210000000000000000e+02
-5.257499624421058115e+01,-9.393591093485920851e+01,4.189893214014535943e+02,1.744279005906783277e+04,1.890790093542350405e+02,2.274763525535080589e+03,2.417760886549132238e+01,1.379147668032330216e+02,9.523238182067871094e+00,-9.561483860015869141e-01,-1.147378161549568176e-01,3.220000000000000000e+02
-5.921924869088218202e+01,-9.444240368292059884e+01,4.112809865607789561e+02,1.738285853382509958e+04,1.865116155904655670e+02,2.258245717229843649e+03,1.974463697452625865e+01,1.354996630116389156e+02,9.523238182067871094e+00,-9.561483860015869141e-01,-1.147378161549568176e-01,3.230000000000000000e+02
-6.667108730152352791e+01,-9.553088274682028214e+01,4.044967516621904906e+02,1.735925160993390455e+04,1.842755269379840684e+02,2.241782102398419738e+03,1.664328536636463696e+01,1.342212177678393914e+02,9.523238182067871094e+00,-9.561483860015869141e-01,-1.147378161549568176e-01,3.240000000000000000e+02
-7.585583617942290857e+01,-9.648595191820896844e+01,3.998252627778276747e+02,1.733680137769042267e+04,1.823039872808811879e+02,2.225321786134823924e+03,1.579468792287258339e+01,1.351743678278380685e+02,9.523238182067871094e+00,-9.561483860015869141e-01,-1.147378161549568176e-01,3.250000000000000000e+02
-8.656234351294233420e+01,-9.755545150520666198e+01,3.971523408590248891e+02,1.728698019676862168e+04,1.804488328636018650e+02,2.208949760488683296e+03,1.686651760453514726e+01,1.379781907989633964e+02,9.523238182067871094e+00,-9.561483860015869141e-01,-1.147378161549568176e-01,3.260000000000000000e+02
-9.764073221251976520e+01,-9.917490396238379446e+01,3.954555295753541486e+02,1.721680186296640386e+04,1.788517646158313710e+02,2.192792865641085882e+03,1.864012090755187501e+01,1.409097669374218071e+02,9.523238182067871094e+00,-9.561483860015869141e-01,-1.147378161549568176e-01,3.270000000000000000e+02
-1.077984431681766182e+02,-1.006481754485903082e+02,3.938763825024929019e+02,1.715471630805698805e+04,1.779397475123356571e+02,2.176761744820168133e+03,2.004129234539198023e+01,1.421265048547385277e+02,9.523238182067871094e+00,-9.561483860015869141e-01,-1.147378161549568176e-01,3.280000000000000000e+02
-1.161561759290660802e+02,-1.000691240707558052e+02,3.924812492645382918e+02,1.711883360515433014e+04,1.780641413724603126e+02,2.160471389394090693e+03,2.090887584213771788e+01,1.409547771624824009e+02,9.523238182067871094e+00,-9.561483860015869141e-01,-1.147378161549568176e-01,3.290000000000000000e+02
-1.221720704133256277e+02,-9.591224447890073179e+01,3.920444757027925107e+02,1.709995201626979178e+04,1.792020872527269830e+02,2.143535467245667860e+03,2.192938030452319254e+01,1.382462292153203975e+02,9.523238182067871094e+00,-9.561483860015869141e-01,-1.147378161549568176e-01,3.300000000000000000e+02
-1.253567093709782512e+02,-8.872088473909744266e+01,3.931293096092488213e+02,1.706969472410223534e+04,1.810179389242100569e+02,2.125956866528227692e+03,2.396946852313993759e+01,1.356826577139529491e+02,9.523238182067871094e+00,-9.561483860015869141e-01,-1.147378161549568176e-01,3.310000000000000000e+02
-1.253839695060998451e+02,-8.099601097455703780e+01,3.953853567091837249e+02,1.701875141210566289e+04,1.831712216111433236e+02,2.108143633088483966e+03,2.744627944936627273e+01,1.347305430001401874e+02,9.523238182067871094e+00,-9.561483860015869141e-01,-1.147378161549568176e-01,3.320000000000000000e+02
-1.225222567484275942e+02,-7.517651901393071512e+01,3.977428819397272264e+02,1.696355708264630084e+04,1.855448202373928552e+02,2.090472848485486793e+03,3.213931322031754689e+01,1.360310567879477048e+02,9.523238182067871094e+00,-9.561483860015869141e-01,-1.147378161549568176e-01,3.330000000000000000e+02
-1.176564169918929679e+02,-7.161441144772021516e+01,3.993132437480312547e+02,1.692355064801231856e+04,1.882398205982547097e+02,2.072900839961896963e+03,3.736397362528595067e+01,1.394290333714390044e+02,9.523238182067871094e+00,-9.561483860015869141e-01,-1.147378161549568176e-01,3.340000000000000000e+02
-1.115544768546822070e+02,-6.851118854589520879e+01,4.000991108656619417e+02,1.690003357166685964e+04,1.914202196000262575e+02,2.055089959112372526e+03,4.226903279052703510e+01,1.443130428300173662e+02,9.523238182067871094e+00,-9.561483860015869141e-01,-1.147378161549568176e-01,3.350000000000000000e+02
-1.040574258765379909e+02,-6.385260414006970109e+01,4.008231519766535484e+02,1.687805235605723647e+04,1.951578137864541986e+02,2.036909701314283211e+03,4.616011470725646859e+01,1.499025207652517793e+02,9.523238182067871094e+00,-9.561483860015869141e-01,-1.147378161549568176e-01,3.360000000000000000e+02
-9.425874302636646007e+01,-5.747250789055573250e+01,4.020605815606004398e+02,1.684548750368145193e+04,1.993380973424222020e+02,2.018707430806664433e+03,4.879068346643725818e+01,1.554154328846661883e+02,9.523238182067871094e+00,-9.561483860015869141e-01,-1.147378161549568176e-01,3.370000000000000000e+02
-8.179389270775686782e+01,-5.135846326412774943e+01,4.035453218238553745e+02,1.680623001624210519e+04,2.036131912930648014e+02,2.000988494652983718e+03,5.045602266274522663e+01,1.602113197928011914e+02,9.523238182067871094e+00,-9.561483860015869141e-01,-1.147378161549568176e-01,3.380000000000000000e+02
-6.798997680990623849e+01,-4.808023544803768345e+01,4.043410652769201761e+02,1.677267168015893913e+04,2.074415396104695901e+02,1.983854070027522084e+03,5.173162766760952991e+01,1.639268317183260706e+02,9.484992027282714844e+00,-9.179025292396545410e-01,-2.294756323099136353e-01,3.390000000000000000e+02
-5.553326914465594655e+01,-4.885321832486596350e+01,4.036960343600640044e+02,1.675039723662071628e+04,2.102533261080951661e+02,1.966832653340247816e+03,5.300396616449984322e+01,1.665178366263884300e+02,9.484992027282714844e+00,-9.179025292396545410e-01,-2.294756323099136353e-01,3.400000000000000000e+02
-4.674775757833913303e+01,-5.281057515316746276e+01,4.017384460733516107e+02,1.673273061641579989e+04,2.117008997170620432e+02,1.949299775563729327e+03,5.423237431414224829e+01,1.681630774551811101e+02,9.484992027282714844e+00,-9.179025292396545410e-01,-2.294756323099136353e-01,3.410000000000000000e+02
-4.206859569606785954e+01,-5.781461645302826469e+01,3.993621325309237591e+02,1.670995058204734960e+04,2.118821525122708636e+02,1.931051991347965668e+03,5.518588108876269871e+01,1.690921121713483899e+02,9.484992027282714844e+00,-9.179025292396545410e-01,-2.294756323099136353e-01,3.420000000000000000e+02
-4.020230066926217205e+01,-6.191410459159894231e+01,3.974537233750254472e+02,1.668108137428114060e+04,2.113941476907381229e+02,1.912470127105176289e+03,5.585480815336109117e+01,1.694253409696353856e+02,9.484992027282714844e+00,-9.179025292396545410e-01,-2.294756323099136353e-01,3.430000000000000000e+02
-3.975765096684710898e+01,-6.433299357105028093e+01,3.962134023239145790e+02,1.665455690784702892e+04,2.111277023764168916e+02,1.894173280071056070e+03,5.648304032679885722e+01,1.690555942638535498e+02,9.484992027282714844e+00,-9.179025292396545410e-01,-2.294756323099136353e-01,3.440000000000000000e+02
-4.065528190673182962e+01,-6.546786673566646186e+01,3.951593641359440880e+02,1.663771122256702438e+04,2.118245664486288433e+02,1.876540806675262502e+03,5.716418613604429311e+01,1.676672710568557250e+02,9.484992027282714844e+00,-9.179025292396545410e-01,-2.294756323099136353e-01,3.450000000000000000e+02
-4.390308921680468757e+01,-6.611908097689359920e+01,3.937248150244273575e+02,1.662774782172632695e+04,2.136031386618711849e+02,1.859498239385727175e+03,5.757598182690884414e+01,1.650447578541802613e+02,9.484992027282714844e+00,-9.179025292396545410e-01,-2.294756323099136353e-01,3.460000000000000000e+02
-5.004864996898743357e+01,-6.657512011245748340e+01,3.918519238804340148e+02,1.661484808913016241e+04,2.158242648942783717e+02,1.842653294120347255e+03,5.738356089033055696e+01,1.616207603621348881e+02,9.484992027282714844e+00,-9.179025292396545410e-01,-2.294756323099136353e-01,3.470000000000000000e+02
-5.797580570008051382e+01,-6.619474968451359587e+01,3.900920054987784624e+02,1.659397319194210286e+04,2.175462866173148768e+02,1.825607028888085551e+03,5.703274767015858515e+01,1.588290964585835354e+02,9.484992027282714844e+00,-9.179025292396545410e-01,-2.294756323099136353e-01,3.480000000000000000e+02
-6.532346218406462413e+01,-6.380649772854917501e+01,3.892195156278348804e+02,1.657168056019255164e+04,2.183348819028016123e+02,1.808255464621779538e+03,5.796543015058875881e+01,1.586891030161099252e+02,9.484992027282714844e+00,-9.179025292396545410e-01,-2.294756323099136353e-01,3.490000000000000000e+02
-7.017392199825633270e+01,-5.869145041730826051e+01,3.897302818506097992e+02,1.655931405722752970e+04,2.187319158946160087e+02,1.790916993066450686e+03,6.169284395485908590e+01,1.625639299199302741e+02,9.484992027282714844e+00,-9.179025292396545410e-01,-2.294756323099136353e-01,3.500000000000000000e+02
-7.244792500592427587e+01,-5.142435220667803719e+01,3.915766658766081036e+02,1.655942319106256400e+04,2.198300709068888636e+02,1.774151368102166089e+03,6.837016329581638274e+01,1.699231323487281315e+02,9.484992027282714844e+00,-9.179025292396545410e-01,-2.294756323099136353e-01,3.510000000000000000e+02
-7.378028713519597659e+01,-4.384515024563449970e+01,3.942197283861435153e+02,1.656110722926589733e+04,2.222042636953477768e+02,1.758318867863505147e+03,7.622088148784922623e+01,1.782540616887359306e+02,9.484992027282714844e+00,-9.179025292396545410e-01,-2.294756323099136353e-01,3.520000000000000000e+02
-7.611795292102249277e+01,-3.804495554516046241e+01,3.968480602713774488e+02,1.655138990114523767e+04,2.251706530998008020e+02,1.743176467873164256e+03,8.251008206078955709e+01,1.844647461211629320e+02,9.484992027282714844e+00,-9.179025292396545410e-01,-2.294756323099136353e-01,3.530000000000000000e+02
-8.034053275303995179e+01,-3.508295171907977306e+01,3.986027207915542476e+02,1.653186418420862901e+04,2.271309012846595579e+02,1.727920153422579915e+03,8.530120504303994267e+01,1.867664315997328686e+02,9.484992027282714844e+00,-9.179025292396545410e-01,-2.294756323099136353e-01,3.540000000000000000e+02
-8.598023609677716195e+01,-3.445162538490251336e+01,3.987505783479527963e+02,1.651982896970544243e+04,2.266821616497045397e+02,1.711731928982491354e+03,8.450347085398453828e+01,1.854662568600876966e+02,9.484992027282714844e+00,-9.179025292396545410e-01,-2.294756323099136353e-01,3.550000000000000000e+02
-9.198935775356403610e+01,-3.472275948809266310e+01,3.968523724409095621e+02,1.652864320757511086e+04,2.234092606998433439e+02,1.694372672019730544e+03,8.144304049006166224e+01,1.820653326731217021e+02,9.484992027282714844e+00,-9.179025292396545410e-01,-2.294756323099136353e-01,3.560000000000000000e+02
-9.760334688589068719e+01,-3.480123511639490630e+01,3.929652662574368378e+02,1.655079576379383434e+04,2.176918453599851091e+02,1.676286511893593342e+03,7.761936787825010242e+01,1.777013857531853773e+02,9.484992027282714844e+00,-9.179025292396545410e-01,-2.294756323099136353e-01,3.570000000000000000e+02
-1.025294426969054484e+02,-3.468541197927379471e+01,3.877871402047761649e+02,1.656215879305854105e+04,2.099666073375192354e+02,1.658157499526763331e+03,7.392247828615825256e+01,1.725891837188588624e+02,9.484992027282714844e+00,-9.179025292396545410e-01,-2.294756323099136353e-01,3.580000000000000000e+02
-1.065816368940897974e+02,-3.509254052989410866e+01,3.825644716756269190e+02,1.654840555024654168e+04,2.004605595458738208e+02,1.640431023109644229e+03,7.085673030780458248e+01,1.669937501178417278e+02,9.484992027282714844e+00,-9.179025292396545410e-01,-2.294756323099136353e-01,3.590000000000000000e+02
-1.094833766238323278e+02,-3.632277759559144670e+01,3.786651686008065099e+02,1.652620335634261573e+04,1.897177491680895400e+02,1.623263687674995708e+03,6.916465450853860375e+01,1.625256212466501893e+02,9.484992027282714844e+00,-9.179025292396545410e-01,-2.294756323099136353e-01,3.600000000000000000e+02
-1.112342820329649840e+02,-3.744884633763814463e+01,3.769614597417362347e+02,1.653161926077741373e+04,1.791313874198508529e+02,1.606794570455030225e+03,6.986931463209532467e+01,1.620009184851259079e+02,9.484992027282714844e+00,-9.179025292396545410e-01,-2.294756323099136353e-01,3.610000000000000000e+02
-1.125907969752473718e+02,-3.669307008010397908e+01,3.773794884669247267e+02,1.658085431658776361e+04,1.705460312121076640e+02,1.591250281604753127e+03,7.348378990585251813e+01,1.674337576105407379e+02,9.484992027282714844e+00,-9.179025292396545410e-01,-2.294756323099136353e-01,3.620000000000000000e+02
-1.148742382956135089e+02,-3.278544632881349230e+01,3.789449116589178175e+02,1.664180827884881728e+04,1.650457340521063543e+02,1.576657931959613052e+03,7.918071703225939473e+01,1.777877484524663032e+02,9.484992027282714844e+00,-9.179025292396545410e-01,-2.294756323099136353e-01,3.630000000000000000e+02
-1.189505605011534044e+02,-2.616128939126286923e+01,3.803390229456877023e+02,1.665055313127077170e+04,1.620875411732624798e+02,1.562537549214944192e+03,8.489928227173743380e+01,1.887555566437714560e+02,9.484992027282714844e+00,-9.179025292396545410e-01,-2.294756323099136353e-01,3.640000000000000000e+02
-1.242571197161115606e+02,-1.887243558575528368e+01,3.806008571880041700e+02,1.656340221968964033e+04,1.598894329784097863e+02,1.548062166920170966e+03,8.852543841949346870e+01,1.952335812757946769e+02,9.484992027282714844e+00,-9.179025292396545410e-01,-2.294756323099136353e-01,3.650000000000000000e+02
-1.289689282970715567e+02,-1.317566303948433415e+01,3.795310541536254050e+02,1.639604984044718367e+04,1.567233874077319342e+02,1.532645977205364034e+03,8.923722250996524963e+01,1.947277343960811322e+02,9.484992027282714844e+00,-9.179025292396545410e-01,-2.294756323099136353e-01,3.660000000000000000e+02
-1.313666678282734210e+02,-9.994580755397862504e+00,3.776203541516127871e+02,1.620971051184982571e+04,1.519219868304628562e+02,1.516394406529680964e+03,8.787578650776600853e+01,1.889231569510692452e+02,9.484992027282714844e+00,-9.179025292396545410e-01,-2.294756323099136353e-01,3.670000000000000000e+02
-1.312300575355839101e+02,-8.606195162366134355e+00,3.756658911369553380e+02,1.605554030577737285e+04,1.458362256337829876e+02,1.499939336904144511e+03,8.604501708658756343e+01,1.821114392478879154e+02,9.484992027282714844e+00,-9.179025292396545410e-01,-2.294756323099136353e-01,3.680000000000000000e+02
-1.299436698422432528e+02,-7.763961309554247237e+00,3.743593902852447854e+02,1.593141011660342156e+04,1.391105359223015512e+02,1.483833027329372271e+03,8.477289800476353321e+01,1.778365361416008454e+02,9.484992027282714844e+00,-9.179025292396545410e-01,-2.294756323099136353e-01,3.690000000000000000e+02
-1.292265990334497019e+02,-7.056103889842120225e+00,3.740290974018746510e+02,1.579366651834507320e+04,1.321636333606793414e+02,1.468103572846454881e+03,8.395788034725705984e+01,1.765918365696558112e+02,9.599730491638183594e+00,-9.943943619728088379e-01,-3.824593871831893921e-02,3.700000000000000000e+02
-1.297118923956735443e+02,-7.096433764357300333e+00,3.745764500172992939e+02,1.561115417364604400e+04,1.252624629985543834e+02,1.452347338187806599e+03,8.303748699806487821e+01,1.763368994676661714e+02,9.599730491638183594e+00,-9.943943619728088379e-01,-3.824593871831893921e-02,3.710000000000000000e+02
-1.306516749565735154e+02,-8.425274476747517838e+00,3.756082997100202192e+02,1.540620803934300784e+04,1.188288973399310180e+02,1.436176276771677294e+03,8.209883729639318517e+01,1.750443451264951591e+02,9.599730491638183594e+00,-9.943943619728088379e-01,-3.824593871831893921e-02,3.720000000000000000e+02
-1.308209474419300022e+02,-1.044581724721740557e+01,3.767354302028593338e+02,1.524122311524021279e+04,1.134863255109526108e+02,1.419556099384922163e+03,8.218712199128253815e+01,1.727960610704676583e+02,9.599730491638183594e+00,-9.943943619728088379e-01,-3.824593871831893921e-02,3.730000000000000000e+02
-1.295745395682305343e+02,-1.174253861159013468e+01,3.778570069139841507e+02,1.516476179497835619e+04,1.098013446617455884e+02,1.402799867741911385e+03,8.434394484680944970e+01,1.715611218608601121e+02,9.599730491638183594e+00,-9.943943619728088379e-01,-3.824593871831893921e-02,3.740000000000000000e+02
-1.271238186880124204e+02,-1.159321193589755694e+01,3.791499551614942902e+02,1.517035547337782918e+04,1.079766393004642850e+02,1.386321856760097944e+03,8.825872530063043087e+01,1.730638102291575251e+02,9.599730491638183594e+00,-9.943943619728088379e-01,-3.824593871831893921e-02,3.750000000000000000e+02
-1.241177742636792800e+02,-1.103765249688808581e+01,3.806655897904647645e+02,1.520577941770789948e+04,1.076449297974766068e+02,1.370376103308207348e+03,9.195283333080692501e+01,1.768712493467968443e+02,9.599730491638183594e+00,-9.943943619728088379e-01,-3.824593871831893921e-02,3.760000000000000000e+02
-1.212689306569595828e+02,-1.216848845334720863e+01,3.818670792142079335e+02,1.521972647076341127e+04,1.077615913911354255e+02,1.354928371864576548e+03,9.299300721132522085e+01,1.804359202112279945e+02,9.599730491638183594e+00,-9.943943619728088379e-01,-3.824593871831893921e-02,3.770000000000000000e+02
-1.193865785161814301e+02,-1.614377340137150441e+01,3.816519937429945912e+02,1.519959943899073733e+04,1.067176225099969997e+02,1.339691036730760061e+03,9.025453884911678415e+01,1.809235329466710027e+02,9.599730491638183594e+00,-9.943943619728088379e-01,-3.824593871831893921e-02,3.780000000000000000e+02
-1.194128819872720442e+02,-2.185449207621564938e+01,3.790466984201018477e+02,1.516911385287947633e+04,1.029316642316885009e+02,1.324314039757477076e+03,8.467770199911433338e+01,1.771353771388173755e+02,9.599730491638183594e+00,-9.943943619728088379e-01,-3.824593871831893921e-02,3.790000000000000000e+02
-1.219746444985363496e+02,-2.660847025994792148e+01,3.740741972199859902e+02,1.515637973872888870e+04,9.583518852752149542e+01,1.308633815155588309e+03,7.841845583134045228e+01,1.700159553317744212e+02,9.599730491638183594e+00,-9.943943619728088379e-01,-3.824593871831893921e-02,3.800000000000000000e+02
-1.267047249779452613e+02,-2.819636449426184299e+01,3.679861176274507670e+02,1.516747832990119605e+04,8.656581706714405300e+01,1.292787789391524711e+03,7.329477111035566850e+01,1.616917855105277795e+02,9.599730491638183594e+00,-9.943943619728088379e-01,-3.824593871831893921e-02,3.810000000000000000e+02
-1.321434956368939311e+02,-2.638006209167360794e+01,3.625547209879930506e+02,1.518727196591821303e+04,7.759131300517060481e+01,1.277076522833630406e+03,6.996768270089114594e+01,1.541719071110130699e+02,9.599730491638183594e+00,-9.943943619728088379e-01,-3.824593871831893921e-02,3.820000000000000000e+02
-1.365649410164486426e+02,-2.252028183803247430e+01,3.589921407211008955e+02,1.519882986349849671e+04,7.128690943276410508e+01,1.261710151997642242e+03,6.838448279807471408e+01,1.487355139918454370e+02,9.599730491638183594e+00,-9.943943619728088379e-01,-3.824593871831893921e-02,3.830000000000000000e+02
-1.390668444988239116e+02,-1.797946696538167544e+01,3.574128053335693949e+02,1.519863815672796954e+04,6.851863368246858954e+01,1.246735172280138613e+03,6.866327381713006162e+01,1.460413221220843525e+02,9.599730491638183594e+00,-9.943943619728088379e-01,-3.824593871831893921e-02,3.840000000000000000e+02
-1.399080679354992753e+02,-1.304426677954393199e+01,3.571757207264977296e+02,1.519575704924828824e+04,6.836582207183482751e+01,1.232202519267178104e+03,7.125292614639693056e+01,1.462829878964530508e+02,9.599730491638183594e+00,-9.943943619728088379e-01,-3.824593871831893921e-02,3.850000000000000000e+02
-1.398193237769953612e+02,-7.361789693853552308e+00,3.575889095345050919e+02,1.520125968259338515e+04,6.911267950802493942e+01,1.218308618375182050e+03,7.615396182439098993e+01,1.489684905667349994e+02,9.599730491638183594e+00,-9.943943619728088379e-01,-3.824593871831893921e-02,3.860000000000000000e+02
-1.391026062065175211e+02,-1.204189712399454493e+00,3.582117861448300573e+02,1.521982841320678926e+04,6.953482586398740750e+01,1.205250355116009814e+03,8.213151842411139114e+01,1.526503902140148057e+02,9.599730491638183594e+00,-9.943943619728088379e-01,-3.824593871831893921e-02,3.870000000000000000e+02
-1.375327039798885380e+02,3.929380034969881308e+00,3.586067095003750183e+02,1.524804144066860499e+04,6.940660400849037615e+01,1.192926635770575558e+03,8.696611658059350702e+01,1.552254160743954117e+02,9.599730491638183594e+00,-9.943943619728088379e-01,-3.824593871831893921e-02,3.880000000000000000e+02
-1.351422825041154283e+02,6.063760056681360311e+00,3.580867955959042774e+02,1.527715614570252910e+04,6.905325893805638771e+01,1.180920360575758423e+03,8.874655643050289200e+01,1.549014675995948664e+02,9.599730491638183594e+00,-9.943943619728088379e-01,-3.824593871831893921e-02,3.890000000000000000e+02
-1.329562510564205695e+02,4.176689558020882487e+00,3.559771886591420298e+02,1.529852563813798406e+04,6.864073514648589480e+01,1.168910131410824761e+03,8.715103550886385619e+01,1.512045954486104620e+02,9.599730491638183594e+00,-9.943943619728088379e-01,-3.824593871831893921e-02,3.900000000000000000e+02
-1.326919477809526597e+02,-9.928751877557715488e-01,3.522130973895073112e+02,1.531101277208670945e+04,6.790968664704587354e+01,1.157082676033935059e+03,8.360402528268559763e+01,1.452198671784933595e+02,9.484992027282714844e+00,-9.561483860015869141e-01,-3.824593871831893921e-02,3.910000000000000000e+02
-1.354853943469495334e+02,-7.439537825898128176e+00,3.475786049596929388e+02,1.532587156701387721e+04,6.643014515135246256e+01,1.145988828118182028e+03,8.016687344072863652e+01,1.388294577593965187e+02,9.484992027282714844e+00,-9.561483860015869141e-01,-3.824593871831893921e-02,3.920000000000000000e+02
-1.407876471867509736e+02,-1.323630868155794360e+01,3.431646578659301667e+02,1.536099499508396184e+04,6.394491606185533783e+01,1.135865349331336802e+03,7.806377682286768049e+01,1.334871934052546294e+02,9.484992027282714844e+00,-9.561483860015869141e-01,-3.824593871831893921e-02,3.930000000000000000e+02
-1.465580485632260661e+02,-1.768933182774219404e+01,3.394416582485450817e+02,1.542310777278434762e+04,6.046159173099567852e+01,1.126132361454706370e+03,7.693488149920403885e+01,1.293719015344051968e+02,9.484992027282714844e+00,-9.561483860015869141e-01,-3.824593871831893921e-02,3.940000000000000000e+02
-1.507891559017025429e+02,-2.152937769915183708e+01,3.357912157888631555e+02,1.549072326006787443e+04,5.609725109550572597e+01,1.115696532800199748e+03,7.524907448611406835e+01,1.254192418145305510e+02,9.484992027282714844e+00,-9.561483860015869141e-01,-3.824593871831893921e-02,3.950000000000000000e+02
-1.531509108713037222e+02,-2.614082161019217665e+01,3.309400178542384765e+02,1.551645203148867586e+04,5.087481474671585602e+01,1.103853819435096739e+03,7.143086419044948343e+01,1.200928616332801084e+02,9.484992027282714844e+00,-9.561483860015869141e-01,-3.824593871831893921e-02,3.960000000000000000e+02
-1.552916257818558279e+02,-3.245014299564053317e+01,3.239252896485070323e+02,1.545343157608863294e+04,4.464184865371680644e+01,1.090919216442068318e+03,6.488360087214152827e+01,1.123465838539079868e+02,9.484992027282714844e+00,-9.561483860015869141e-01,-3.824593871831893921e-02,3.970000000000000000e+02
-1.594146398402688192e+02,-4.020498692523818818e+01,3.148217458380970584e+02,1.528740686136294426e+04,3.717394919132470932e+01,1.077948415971624854e+03,5.637020578847921115e+01,1.022729155903763285e+02,9.484992027282714844e+00,-9.561483860015869141e-01,-3.824593871831893921e-02,3.980000000000000000e+02
-1.662622944852982982e+02,-4.807013843276439502e+01,3.047670794098130500e+02,1.504735454019734425e+04,2.848382695541999965e+01,1.065852415535713590e+03,4.771350535624196709e+01,9.120462673190354508e+01,9.484992027282714844e+00,-9.561483860015869141e-01,-3.824593871831893921e-02,3.990000000000000000e+02
-1.742644101759167370e+02,-5.440816557845579382e+01,2.954223311711784845e+02,1.478466595604551549e+04,1.920124604251782330e+01,1.054758156915895597e+03,4.109064076201968874e+01,8.127708502059385864e+01,9.484992027282714844e+00,-9.561483860015869141e-01,-3.824593871831893921e-02,4.000000000000000000e+02
-1.806645861228773811e+02,-5.819273358439369304e+01,2.882937422472502931e+02,1.453856492420645918e+04,1.067228890081469217e+01,1.044127663018821295e+03,3.820768057619102365e+01,7.459840067497248128e+01,9.484992027282714844e+00,-9.561483860015869141e-01,-3.824593871831893921e-02,4.010000000000000000e+02
-1.836624468715699550e+02,-5.947978110742485569e+01,2.842031021726777453e+02,1.431657651191449440e+04,4.472061175398494015e+00,1.033368426068940607e+03,3.958127665188317224e+01,7.229330576884103721e+01,9.484992027282714844e+00,-9.561483860015869141e-01,-3.824593871831893921e-02,4.020000000000000000e+02
-1.836581395848334068e+02,-5.919936226282516145e+01,2.829832802573400841e+02,1.410295236173715602e+04,1.453135870847063416e+00,1.022263686668477931e+03,4.419023857377874265e+01,7.384305974599624278e+01,9.484992027282714844e+00,-9.561483860015869141e-01,-3.824593871831893921e-02,4.030000000000000000e+02
-1.825057803372126273e+02,-5.847846602950414763e+01,2.834831936240727828e+02,1.388210531766260829e+04,1.007310978529403656e+00,1.010913475367548926e+03,4.981152468247546494e+01,7.719875347947277078e+01,9.484992027282714844e+00,-9.561483860015869141e-01,-3.824593871831893921e-02,4.040000000000000000e+02
-1.816217641684397677e+02,-5.796532521348791533e+01,2.840315502789212587e+02,1.365363599685013105e+04,1.241429168137074157e+00,9.994008899036361981e+02,5.408878044291736842e+01,7.981270510175363597e+01,9.484992027282714844e+00,-9.561483860015869141e-01,-3.824593871831893921e-02,4.050000000000000000e+02
-1.808755152616004125e+02,-5.756344194560330152e+01,2.832931501036653117e+02,1.342827061330994366e+04,1.154750833682101074e-01,9.875640609819220117e+02,5.577563034927538865e+01,8.005178606138611030e+01,9.484992027282714844e+00,-9.561483860015869141e-01,-3.824593871831893921e-02,4.060000000000000000e+02
-1.792899238856484772e+02,-5.671068692221513174e+01,2.810283831788351563e+02,1.321405891623913703e+04,-3.225111222196119343e+00,9.750466814443616386e+02,5.524126383053192058e+01,7.800712753195762161e+01,9.484992027282714844e+00,-9.561483860015869141e-01,-3.824593871831893921e-02,4.070000000000000000e+02
-1.766447123562995785e+02,-5.499863610603631514e+01,2.781415329148226192e+02,1.300884308082917960e+04,-7.919478582545252721e+00,9.615310905282403837e+02,5.379172017341102219e+01,7.509284632709614016e+01,9.484992027282714844e+00,-9.561483860015869141e-01,-3.824593871831893921e-02,4.080000000000000000e+02
-1.741112694301268675e+02,-5.267513501190603620e+01,2.758823294211315442e+02,1.280481813663036883e+04,-1.202696773292905164e+01,9.470043234519625912e+02,5.240080535142055851e+01,7.283251735271812777e+01,9.484992027282714844e+00,-9.561483860015869141e-01,-3.824593871831893921e-02,4.090000000000000000e+02
-1.731432839625017550e+02,-5.057297402302424416e+01,2.748179641766671466e+02,1.259783509441326896e+04,-1.381343983735496295e+01,9.319208090842275851e+02,5.107621872559718668e+01,7.191811608905140929e+01,9.484992027282714844e+00,-9.561483860015869141e-01,-3.824593871831893921e-02,4.100000000000000000e+02
-1.738212055113096994e+02,-4.940348626366102280e+01,2.744553742378045627e+02,1.239101993311444130e+04,-1.276089337128291845e+01,9.171271640142604156e+02,4.948641467811035000e+01,7.228561028234628338e+01,9.484992027282714844e+00,-9.561483860015869141e-01,-3.824593871831893921e-02,4.110000000000000000e+02
-1.745149450692679238e+02,-4.891264320779617947e+01,2.738340848392458611e+02,1.218989076953008043e+04,-9.689763148920746971e+00,9.035016442157248093e+02,4.810204477157458314e+01,7.385165034506940174e+01,9.484992027282714844e+00,-9.561483860015869141e-01,-3.824593871831893921e-02,4.120000000000000000e+02
-1.733388110323542151e+02,-4.766749212439606254e+01,2.724865556937963902e+02,1.199608832878183603e+04,-6.119594511680134019e+00,8.914699250645880966e+02,4.841227114636558326e+01,7.685264735243447376e+01,9.484992027282714844e+00,-9.561483860015869141e-01,-3.824593871831893921e-02,4.130000000000000000e+02
-1.699222758581158814e+02,-4.385991845216267393e+01,2.708233560284970736e+02,1.180647184906249277e+04,-3.475998853512464848e+00,8.807506969548458073e+02,5.167839196078591613e+01,8.126176546335227613e+01,9.484992027282714844e+00,-9.561483860015869141e-01,-3.824593871831893921e-02,4.140000000000000000e+02
-1.656683050273877598e+02,-3.665632353162351365e+01,2.695960859316965070e+02,1.161752269647464709e+04,-2.665209877303823305e+00,8.705552701184506077e+02,5.738246053464990837e+01,8.597527253449834461e+01,9.484992027282714844e+00,-9.561483860015869141e-01,-3.824593871831893921e-02,4.150000000000000000e+02
-1.622539023515391818e+02,-2.704407396130721963e+01,2.690269980203725027e+02,1.142906550898583919e+04,-4.065306037247410131e+00,8.600822142600591178e+02,6.310678842299421376e+01,8.893107893594174129e+01,9.484992027282714844e+00,-8.796565532684326172e-01,-1.912296712398529053e-01,4.160000000000000000e+02
-1.599575334862097407e+02,-1.742374826434758006e+01,2.685198955102350737e+02,1.124357478827674095e+04,-7.593517200064979988e+00,8.489143201497281552e+02,6.626648850503806898e+01,8.842709471569469315e+01,9.484992027282714844e+00,-8.796565532684326172e-01,-1.912296712398529053e-01,4.170000000000000000e+02
-1.575459891648642952e+02,-1.022501214321385987e+01,2.672292320974602262e+02,1.106299110466883940e+04,-1.260860009809971416e+01,8.370588552858926050e+02,6.614812215269967055e+01,8.450418530046033538e+01,9.484992027282714844e+00,-8.796565532684326172e-01,-1.912296712398529053e-01,4.180000000000000000e+02
-1.537711469120627044e+02,-6.640577679623447693e+00,2.648733887763398798e+02,1.088679825543468723e+04,-1.781848105207791377e+01,8.247423449114648975e+02,6.423995338135659949e+01,7.897205664510283896e+01,9.484992027282714844e+00,-8.796565532684326172e-01,-1.912296712398529053e-01,4.190000000000000000e+02
-1.488783655301936051e+02,-6.400353397505853081e+00,2.619598495814318539e+02,1.071310106448163060e+04,-2.159384504638001090e+01,8.122269029564959055e+02,6.253813224187342712e+01,7.394293829414391439e+01,9.484992027282714844e+00,-8.796565532684326172e-01,-1.912296712398529053e-01,4.200000000000000000e+02
-1.445677001929432208e+02,-8.542306432772193148e+00,2.592455375089914469e+02,1.054085916262975843e+04,-2.275598890449236933e+01,7.997542831315840886e+02,6.160179530729658381e+01,7.026107616438446257e+01,9.484992027282714844e+00,-8.796565532684326172e-01,-1.912296712398529053e-01,4.210000000000000000e+02
-1.424367204944178411e+02,-1.233159363373994211e+01,2.570543658608398800e+02,1.037076436067708892e+04,-2.127464834369266100e+01,7.875287692122064982e+02,6.033853238140113717e+01,6.729797815439781061e+01,9.484992027282714844e+00,-8.796565532684326172e-01,-1.912296712398529053e-01,4.220000000000000000e+02
-1.424454376286576007e+02,-1.752661118450095046e+01,2.551395587685910868e+02,1.020412826820273767e+04,-1.816973467738262116e+01,7.756525442792899412e+02,5.760273490482950365e+01,6.414759993536915772e+01,9.484992027282714844e+00,-8.796565532684326172e-01,-1.912296712398529053e-01,4.230000000000000000e+02
-1.429160562022027534e+02,-2.393735593545716256e+01,2.531050193168532587e+02,1.004139662224562198e+04,-1.457295183530982285e+01,7.640909150805873651e+02,5.374114878535738171e+01,6.083851976275286688e+01,9.484992027282714844e+00,-8.796565532684326172e-01,-1.912296712398529053e-01,4.240000000000000000e+02
-1.421262512541322849e+02,-3.089993580440284404e+01,2.507885026887813638e+02,9.881856941728421589e+03,-1.079853592466406553e+01,7.527492353333555002e+02,5.036618213637234476e+01,5.831852966719145570e+01,9.484992027282714844e+00,-8.796565532684326172e-01,-1.912296712398529053e-01,4.250000000000000000e+02
-1.400728658499194808e+02,-3.729182451733578318e+01,2.481552359360957780e+02,9.724581011628699343e+03,-6.358514083158297581e+00,7.415985079938182025e+02,4.862232789237089037e+01,5.739999527567249515e+01,9.484992027282714844e+00,-8.796565532684326172e-01,-1.912296712398529053e-01,4.260000000000000000e+02
-1.388045418151800732e+02,-4.214353711920142587e+01,2.449285814599043078e+02,9.569555071195580240e+03,-8.985707778188043449e-01,7.307035343521602044e+02,4.783498311571520389e+01,5.790843031967665411e+01,9.484992027282714844e+00,-8.796565532684326172e-01,-1.912296712398529053e-01,4.270000000000000000e+02
-1.409486821043144573e+02,-4.531576213167005562e+01,2.405397402260489343e+02,9.417490476582142946e+03,4.983313120943194008e+00,7.201203400364656773e+02,4.597062324538694611e+01,5.885495742839441391e+01,9.484992027282714844e+00,-8.796565532684326172e-01,-1.912296712398529053e-01,4.280000000000000000e+02
-1.475996244497039243e+02,-4.763714550417722648e+01,2.345619341917249585e+02,9.268703396078888545e+03,9.998936233417225594e+00,7.098091383596329251e+02,4.139274664041909091e+01,5.921921716653241674e+01,9.484992027282714844e+00,-8.796565532684326172e-01,-1.912296712398529053e-01,4.290000000000000000e+02
-1.573201088243383765e+02,-5.030939695042047788e+01,2.271432930890669013e+02,9.122721867777205262e+03,1.328897632637472270e+01,6.996662406387840747e+02,3.413853253170827884e+01,5.836455515044417552e+01,9.484992027282714844e+00,-8.796565532684326172e-01,-1.912296712398529053e-01,4.300000000000000000e+02
-1.671044837486999768e+02,-5.398446715984152888e+01,2.188804769411744928e+02,8.979093546952164616e+03,1.518720486983716000e+01,6.895880749740017563e+02,2.560934648133354585e+01,5.578010357783750806e+01,9.484992027282714844e+00,-8.796565532684326172e-01,-1.912296712398529053e-01,4.310000000000000000e+02
-1.744949828542339674e+02,-5.823363830186690393e+01,2.102376050552838933e+02,8.838138009851476454e+03,1.678699481199100774e+01,6.794533060319536162e+02,1.725931886168245910e+01,5.082085081540697047e+01,9.484992027282714844e+00,-8.796565532684326172e-01,-1.912296712398529053e-01,4.320000000000000000e+02
-1.790939603839055962e+02,-6.183558172232409333e+01,2.012182020428326723e+02,8.700529055708249871e+03,1.879451934578969485e+01,6.690792765871156007e+02,9.737434178449234423e+00,4.313833642230724763e+01,9.484992027282714844e+00,-8.796565532684326172e-01,-1.912296712398529053e-01,4.330000000000000000e+02
-1.823057130594186219e+02,-6.366773972756976718e+01,1.917476859440864700e+02,8.566176202870658017e+03,2.092201061358628067e+01,6.583185945915411139e+02,3.159569326036603343e+00,3.348855335411656142e+01,9.484992027282714844e+00,-8.796565532684326172e-01,-1.912296712398529053e-01,4.340000000000000000e+02
-1.857439050574737394e+02,-6.349064472647876300e+01,1.823629241441976774e+02,8.434025910638189089e+03,2.239924975084340986e+01,6.472917090433829799e+02,-2.145430601608609322e+00,2.389718412594368147e+01,9.484992027282714844e+00,-8.796565532684326172e-01,-1.912296712398529053e-01,4.350000000000000000e+02
-1.898618104913662137e+02,-6.203276359348484448e+01,1.743305320982040030e+02,8.303377927390654804e+03,2.290753064157456720e+01,6.364823198975009291e+02,-5.469608561158793236e+00,1.667398522942016825e+01,9.484992027282714844e+00,-8.796565532684326172e-01,-1.912296712398529053e-01,4.360000000000000000e+02
-1.939519754218079015e+02,-6.040628929431733241e+01,1.688748766276421520e+02,8.175107119002615946e+03,2.287678386097331895e+01,6.264807249682362453e+02,-6.346198390212066442e+00,1.301210367401256462e+01,9.484992027282714844e+00,-8.796565532684326172e-01,-1.912296712398529053e-01,4.370000000000000000e+02
-1.971840222595974410e+02,-5.941181624795262906e+01,1.662371237315514918e+02,8.050930459049508499e+03,2.297714227504366136e+01,6.175664040517567628e+02,-5.153522034174102373e+00,1.247387922111613534e+01,9.484992027282714844e+00,-8.796565532684326172e-01,-1.912296712398529053e-01,4.380000000000000000e+02
-1.993868213273924539e+02,-5.921894012751948821e+01,1.655864991566431854e+02,7.931128823811537586e+03,2.363652107542475278e+01,6.095756648585311268e+02,-2.888861483981713718e+00,1.384990375122902151e+01,9.484992027282714844e+00,-8.796565532684326172e-01,-1.912296712398529053e-01,4.390000000000000000e+02
-2.007759132736703123e+02,-5.938912570698437321e+01,1.659673592772237498e+02,7.813509729486519063e+03,2.522724026244213746e+01,6.022009061043536349e+02,-2.388928591175272231e-01,1.650399466457179187e+01,9.484992027282714844e+00,-8.796565532684326172e-01,-1.912296712398529053e-01,4.400000000000000000e+02
-2.011043425560012565e+02,-5.894048552025799381e+01,1.673274253537874756e+02,7.695634987763442041e+03,2.849713806428712815e+01,5.953419645293542999e+02,3.120113490546259527e+00,2.085109526191490659e+01,9.484992027282714844e+00,-8.796565532684326172e-01,-1.912296712398529053e-01,4.410000000000000000e+02
-1.993531502666289725e+02,-5.645862086714828365e+01,1.705030617044931205e+02,7.578288609824403466e+03,3.434255353085814022e+01,5.890447762001122101e+02,8.211878176869049639e+00,2.751742659434148663e+01,9.484992027282714844e+00,-8.796565532684326172e-01,-1.912296712398529053e-01,4.420000000000000000e+02
-1.944131301593913577e+02,-5.059453840138434089e+01,1.761032789740329463e+02,7.465403110548808399e+03,4.284616761640040750e+01,5.830736321867298102e+02,1.566408385610748155e+01,3.610364177803830898e+01,9.484992027282714844e+00,-9.943943619728088379e-01,-1.912296712398529053e-01,4.430000000000000000e+02
-1.860491000929498568e+02,-4.102029538302855372e+01,1.834441099428979669e+02,7.359550986153906706e+03,5.265622613516393358e+01,5.767083139779342673e+02,2.484906652443532948e+01,4.489672370907305776e+01,9.484992027282714844e+00,-9.943943619728088379e-01,-1.912296712398529053e-01,4.440000000000000000e+02
-1.751501858375172560e+02,-2.915463547779432929e+01,1.906933644802622894e+02,7.257907738484742367e+03,6.169652158599024006e+01,5.691806242427637699e+02,3.409131889983700603e+01,5.192409263696049493e+01,9.484992027282714844e+00,-9.943943619728088379e-01,-1.912296712398529053e-01,4.450000000000000000e+02
-1.630982972543993128e+02,-1.771555028369226648e+01,1.961760468766481154e+02,7.154547186273210173e+03,6.878623672255548627e+01,5.604147124663286377e+02,4.176579445765264609e+01,5.639138357073761654e+01,9.484992027282714844e+00,-9.943943619728088379e-01,-1.912296712398529053e-01,4.460000000000000000e+02
-1.510054834243078403e+02,-9.048987910654261668e+00,1.996106068547703671e+02,7.047661766139830434e+03,7.459323537715499697e+01,5.512914824540894188e+02,4.728469715069047652e+01,5.914929499505774402e+01,9.484992027282714844e+00,-9.943943619728088379e-01,-1.912296712398529053e-01,4.470000000000000000e+02
-1.395498823803129653e+02,-3.505997511525379196e+00,2.020952923055174324e+02,6.943145062203770067e+03,8.084360270445995411e+01,5.430576950732956902e+02,5.112462603282494911e+01,6.176291667746909297e+01,9.484992027282714844e+00,-9.943943619728088379e-01,-1.912296712398529053e-01,4.480000000000000000e+02
-1.293119987829088586e+02,5.931473467315981907e-01,2.049028286352720443e+02,6.848670394516953820e+03,8.848817208973946435e+01,5.363947352565619440e+02,5.400593292564758485e+01,6.509232794144134004e+01,9.484992027282714844e+00,-9.943943619728088379e-01,-1.912296712398529053e-01,4.490000000000000000e+02
-1.209623232100343557e+02,5.220748572796424014e+00,2.082590783461293995e+02,6.763742065280144743e+03,9.664273907044616863e+01,5.310073792808498183e+02,5.614171685491430708e+01,6.872322511192010097e+01,9.484992027282714844e+00,-9.943943619728088379e-01,-1.912296712398529053e-01,4.500000000000000000e+02
-1.149400833600236638e+02,1.071936357394895367e+01,2.112153142375836978e+02,6.678278476425781264e+03,1.033535722810599964e+02,5.260545747927335469e+02,5.729851180255059262e+01,7.169619698659255391e+01,9.484992027282714844e+00,-9.943943619728088379e-01,-1.912296712398529053e-01,4.510000000000000000e+02
-1.109923211120017186e+02,1.558289210285960280e+01,2.126081105658586239e+02,6.583607318261528235e+03,1.073860775502355409e+02,5.209329145867832267e+02,5.748036869466659482e+01,7.366283710541085838e+01,9.484992027282714844e+00,-9.943943619728088379e-01,-1.912296712398529053e-01,4.520000000000000000e+02
-1.082091489688648380e+02,1.817801049349458253e+01,2.121003241773364607e+02,6.484307883705239874e+03,1.092318164170794716e+02,5.156683876466568108e+02,5.738153148997048447e+01,7.521448474416843055e+01,9.484992027282714844e+00,-9.943943619728088379e-01,-1.912296712398529053e-01,4.530000000000000000e+02
-1.056752636685689595e+02,1.865151910029953797e+01,2.103821961124481277e+02,6.395330775880072906e+03,1.104200399365813610e+02,5.106828985789024955e+02,5.805729475855378041e+01,7.707806715683898346e+01,9.484992027282714844e+00,-9.943943619728088379e-01,-1.912296712398529053e-01,4.540000000000000000e+02
-1.031704754467680232e+02,1.903271204513333714e+01,2.085349937732605667e+02,6.324791945512693019e+03,1.119645594938501745e+02,5.063043096191013319e+02,6.018660750703179474e+01,7.918276642652665487e+01,9.484992027282714844e+00,-9.943943619728088379e-01,-1.912296712398529053e-01,4.550000000000000000e+02
-1.012298917434991381e+02,2.135341292361499654e+01,2.073431385065662198e+02,6.261777903471889658e+03,1.135908503925913919e+02,5.025233686201609089e+02,6.375007840394050618e+01,8.080124416383080188e+01,9.484992027282714844e+00,-9.943943619728088379e-01,-1.912296712398529053e-01,4.560000000000000000e+02
-1.004545558053808918e+02,2.561377649573023518e+01,2.071826360558561646e+02,6.186060378574895367e+03,1.144838839381368416e+02,4.991399105823729769e+02,6.838358057151231151e+01,8.173329941847009650e+01,9.484992027282714844e+00,-9.943943619728088379e-01,-1.912296712398529053e-01,4.570000000000000000e+02
-1.006758100960076945e+02,2.960160368445139056e+01,2.083355014477556324e+02,6.091958356249446297e+03,1.146667904818832540e+02,4.960452230227165273e+02,7.382013797833155877e+01,8.315306836065622065e+01,9.484992027282714844e+00,-9.943943619728088379e-01,-1.912296712398529053e-01,4.580000000000000000e+02
-1.007281011048984283e+02,3.074179517072917633e+01,2.110964712540035180e+02,5.998865145599525022e+03,1.154601625792870436e+02,4.933384070307229194e+02,7.974732864727843662e+01,8.685361534681385365e+01,9.484992027282714844e+00,-9.943943619728088379e-01,-1.912296712398529053e-01,4.590000000000000000e+02
-9.910154966380730457e+01,2.823760891055457023e+01,2.153637643240701891e+02,5.932499636104431374e+03,1.184027105556119750e+02,4.911736356270175747e+02,8.527002821465498528e+01,9.330312502418178155e+01,9.484992027282714844e+00,-9.943943619728088379e-01,-1.912296712398529053e-01,4.600000000000000000e+02
-9.503114271472793462e+01,2.360402290487473920e+01,2.201669497829809643e+02,5.894447118287452213e+03,1.236113795054543516e+02,4.894938095892512138e+02,8.888458199169679119e+01,1.004672416010329243e+02,9.484992027282714844e+00,-9.943943619728088379e-01,-1.912296712398529053e-01,4.610000000000000000e+02
-8.920064128980550322e+01,1.929413244962609042e+01,2.238472211273037829e+02,5.854718251779480852e+03,1.292394673631144997e+02,4.879214189000745137e+02,8.945244629698458994e+01,1.049639144890793432e+02,9.484992027282714844e+00,-9.943943619728088379e-01,-1.912296712398529053e-01,4.620000000000000000e+02
-8.347415343749082695e+01,1.684256802842492107e+01,2.250272332807612656e+02,5.779619575537286437e+03,1.327442990580507285e+02,4.859802752859036445e+02,8.743076011670291336e+01,1.048978801547618787e+02,9.484992027282714844e+00,-9.943943619728088379e-01,-1.912296712398529053e-01,4.630000000000000000e+02
-7.977233362375500292e+01,1.616656621815133121e+01,2.236215045582164294e+02,5.666948297970223393e+03,1.329608481652162482e+02,4.835378801567253504e+02,8.497621079167913649e+01,1.018069733055453980e+02,9.484992027282714844e+00,-9.943943619728088379e-01,-1.912296712398529053e-01,4.640000000000000000e+02
-7.890758544681352760e+01,1.638446755123084131e+01,2.209132166619310738e+02,5.548882439976276146e+03,1.311002711892060688e+02,4.810616928970312074e+02,8.443830791389166279e+01,9.967035678595971149e+01,9.484992027282714844e+00,-9.943943619728088379e-01,-1.912296712398529053e-01,4.650000000000000000e+02
-8.024244040149812918e+01,1.709088164206923466e+01,2.185084932431479956e+02,5.456503897032703208e+03,1.296672664100933616e+02,4.793316855491179922e+02,8.641534637321569789e+01,1.015777324169854410e+02,9.484992027282714844e+00,-9.943943619728088379e-01,-1.912296712398529053e-01,4.660000000000000000e+02
-8.235730524251073348e+01,1.878325464144239731e+01,2.170405024045132905e+02,5.383170848869115616e+03,1.302044729519168413e+02,4.787491738601338511e+02,8.916467872294600738e+01,1.069519651926166262e+02,9.484992027282714844e+00,-9.943943619728088379e-01,-1.912296712398529053e-01,4.670000000000000000e+02
-8.409623086401427372e+01,2.215442807957836635e+01,2.157754388839815647e+02,5.287745990580006037e+03,1.319031145241015111e+02,4.788578389162789790e+02,9.001624589286427636e+01,1.118662905280314135e+02,9.484992027282714844e+00,-9.943943619728088379e-01,-1.912296712398529053e-01,4.680000000000000000e+02
-8.511022514188528021e+01,2.710469571888972951e+01,2.134558069413143357e+02,5.136148277012112885e+03,1.323639825970394668e+02,4.786241275631159624e+02,8.756933393098017859e+01,1.122336284439749079e+02,9.484992027282714844e+00,-9.943943619728088379e-01,-1.912296712398529053e-01,4.690000000000000000e+02
-8.560973811941141776e+01,3.253183296329305563e+01,2.095724505827878374e+02,4.937528817110556702e+03,1.297995415101925119e+02,4.772797135805299149e+02,8.277113837189847345e+01,1.071055258270212107e+02,9.484992027282714844e+00,-9.943943619728088379e-01,-1.912296712398529053e-01,4.700000000000000000e+02
-8.580298293642772478e+01,3.713648115413332107e+01,2.049116496374325607e+02,4.736694764994294928e+03,1.246648180225173519e+02,4.749024647693786392e+02,7.809828499172397187e+01,9.936481864442606593e+01,9.484992027282714844e+00,-9.943943619728088379e-01,-1.912296712398529053e-01,4.710000000000000000e+02
-8.564830034427018290e+01,4.042827891147084074e+01,2.009718016094977884e+02,4.571397128197329948e+03,1.193293406867443309e+02,4.721455085203392628e+02,7.575479708160071368e+01,9.349175030136456144e+01,9.484992027282714844e+00,-9.943943619728088379e-01,-1.912296712398529053e-01,4.720000000000000000e+02
-8.507233715529719120e+01,4.292604370431772054e+01,1.988807733658119332e+02,4.439798450011586283e+03,1.162479582165656211e+02,4.694340468211412372e+02,7.644138009482543339e+01,9.249729548602215345e+01,9.484992027282714844e+00,-9.943943619728088379e-01,-1.912296712398529053e-01,4.730000000000000000e+02
-8.423384643321196563e+01,4.535961083618343537e+01,1.987724581912331132e+02,4.309924523259558555e+03,1.163471560800029465e+02,4.665515605382834110e+02,7.939690917667724079e+01,9.640152770876511568e+01,9.484992027282714844e+00,-9.179025292396545410e-01,-1.912296712398529053e-01,4.740000000000000000e+02
-8.342735736400373980e+01,4.769201140066527955e+01,1.999784491643365527e+02,4.156770485897453909e+03,1.188516391780465256e+02,4.630739028349439650e+02,8.318480464992921952e+01,1.029095209651089817e+02,9.484992027282714844e+00,-9.179025292396545410e-01,-1.912296712398529053e-01,4.750000000000000000e+02
-8.273792569814872877e+01,4.898998697263300528e+01,2.016028077770506570e+02,3.985882292287367818e+03,1.222825858581554712e+02,4.591041654008356545e+02,8.634412449014143931e+01,1.091140869807201739e+02,9.484992027282714844e+00,-9.179025292396545410e-01,-1.912296712398529053e-01,4.760000000000000000e+02
-8.186839903855036482e+01,4.835162631389607668e+01,2.028890111521976678e+02,3.821634168708309517e+03,1.254535005402376555e+02,4.553953400269947451e+02,8.764478042290045323e+01,1.127680950481312721e+02,9.484992027282714844e+00,-9.179025292396545410e-01,-1.912296712398529053e-01,4.770000000000000000e+02
-8.034203730817546329e+01,4.604444926580343633e+01,2.032734540738985061e+02,3.678525939598139303e+03,1.277111596531043460e+02,4.526717340219993275e+02,8.633731408724221978e+01,1.127333448011645487e+02,9.484992027282714844e+00,-9.179025292396545410e-01,-1.912296712398529053e-01,4.780000000000000000e+02
-7.785897312159625017e+01,4.369881762201283948e+01,2.024231122799287164e+02,3.548644122394816804e+03,1.286834508479071815e+02,4.509400602633675135e+02,8.262173281893802823e+01,1.091020785645955016e+02,9.484992027282714844e+00,-9.179025292396545410e-01,-1.912296712398529053e-01,4.790000000000000000e+02
-7.448930586194893522e+01,4.322584096737053017e+01,2.004323752691616960e+02,3.415493292613004087e+03,1.281678622185323775e+02,4.496046258078672508e+02,7.792267108046246449e+01,1.033101524950468786e+02,9.484992027282714844e+00,-9.179025292396545410e-01,-1.912296712398529053e-01,4.800000000000000000e+02
-7.064277407392793862e+01,4.530100080043898458e+01,1.979347917187282633e+02,3.274101496971263259e+03,1.263066596872006357e+02,4.482504241455046667e+02,7.433981254679392237e+01,9.784376940424169788e+01,9.484992027282714844e+00,-9.179025292396545410e-01,-1.912296712398529053e-01,4.810000000000000000e+02
-6.697823309363195676e+01,4.868292872443495867e+01,1.957782082260998493e+02,3.133950974721063176e+03,1.236558542600458281e+02,4.471718100166568775e+02,7.330724864558928289e+01,9.508182178292278763e+01,9.484992027282714844e+00,-9.179025292396545410e-01,-1.912296712398529053e-01,4.820000000000000000e+02
-6.431844202111869890e+01,5.095979045609414015e+01,1.943608147933841224e+02,3.004716891054098596e+03,1.208578416327641207e+02,4.470135172632419653e+02,7.442708813574476778e+01,9.571923378281779549e+01,9.484992027282714844e+00,-9.179025292396545410e-01,-1.912296712398529053e-01,4.830000000000000000e+02
-6.342582812705319384e+01,5.016659268295384777e+01,1.932071589484487504e+02,2.884200383254163171e+03,1.181684156895071851e+02,4.479472167863465302e+02,7.557248515034862635e+01,9.806664847808369245e+01,9.484992027282714844e+00,-9.179025292396545410e-01,-1.912296712398529053e-01,4.840000000000000000e+02
-6.460238682370288643e+01,4.604486174805768428e+01,1.912412631233700040e+02,2.762103926699883232e+03,1.153200644368691457e+02,4.493387037436784794e+02,7.436256066693903222e+01,9.910838320149281344e+01,9.484992027282714844e+00,-9.179025292396545410e-01,-1.912296712398529053e-01,4.850000000000000000e+02
-6.739930128738703274e+01,4.002406463965371586e+01,1.875559055477418156e+02,2.632863875590109274e+03,1.118384690590212642e+02,4.502747798550624339e+02,6.983938735360882788e+01,9.665033614072412149e+01,9.484992027282714844e+00,-9.179025292396545410e-01,-1.912296712398529053e-01,4.860000000000000000e+02
-7.080089331376100859e+01,3.403436295599502159e+01,1.819798631515412239e+02,2.501303557916098725e+03,1.074659387603323353e+02,4.503673066160231429e+02,6.291172853529347009e+01,9.074520882251927389e+01,9.484992027282714844e+00,-9.179025292396545410e-01,-1.912296712398529053e-01,4.870000000000000000e+02
-7.385973982272975036e+01,2.914771212289772961e+01,1.749843791714026224e+02,2.375786376526181812e+03,1.023381419804065331e+02,4.500160184052263048e+02,5.525762821303618466e+01,8.318172425312612006e+01,9.484992027282714844e+00,-9.179025292396545410e-01,-1.912296712398529053e-01,4.880000000000000000e+02
-7.627710482330769537e+01,2.509112833803206399e+01,1.671788513543510533e+02,2.258666584089954995e+03,9.689780579391037918e+01,4.499723674312963340e+02,4.782983696900447512e+01,7.567356618005561586e+01,9.484992027282714844e+00,-9.179025292396545410e-01,-1.912296712398529053e-01,4.890000000000000000e+02
-7.841061550515462386e+01,2.095108788592972360e+01,1.590349799984800825e+02,2.145222359375099586e+03,9.173426084245551237e+01,4.507729226083681624e+02,4.045930441185907966e+01,6.862492552460432194e+01,9.484992027282714844e+00,-9.179025292396545410e-01,-1.912296712398529053e-01,4.900000000000000000e+02
-8.070271039040727601e+01,1.638127365541288327e+01,1.511297844797515495e+02,2.030576217168503717e+03,8.742665693857412634e+01,4.525988330232735279e+02,3.287355143877891805e+01,6.163897941695842064e+01,9.484992027282714844e+00,-9.179025292396545410e-01,-1.912296712398529053e-01,4.910000000000000000e+02
-8.307379979326742614e+01,1.216748841038518947e+01,1.445049271536750553e+02,1.915084170952191926e+03,8.436339825584434493e+01,4.555256900593487899e+02,2.588191591461054486e+01,5.497509218122897323e+01,9.484992027282714844e+00,-9.179025292396545410e-01,-1.912296712398529053e-01,4.920000000000000000e+02
-8.484561007208179717e+01,9.587164752384026656e+00,1.405016672734014946e+02,1.802502836472686795e+03,8.259530132237011912e+01,4.597063400858560271e+02,2.124350310295750432e+01,5.007805317138252121e+01,9.484992027282714844e+00,-9.179025292396545410e-01,-1.912296712398529053e-01,4.930000000000000000e+02
-8.525371494705120767e+01,9.128627198756106509e+00,1.399610200199215342e+02,1.694730167934892961e+03,8.189819138862105774e+01,4.652412657612594558e+02,2.012282772614156556e+01,4.833702140597864627e+01,9.484992027282714844e+00,-9.179025292396545410e-01,-1.912296712398529053e-01,4.940000000000000000e+02
-8.412203503096407076e+01,9.839944827271096983e+00,1.424286642942615799e+02,1.590040769964140054e+03,8.205362255598288357e+01,4.719326896126317479e+02,2.167497686283348912e+01,4.932584034224316838e+01,9.446745872497558594e+00,-9.561483860015869141e-01,-1.912296712398529053e-01,4.950000000000000000e+02
-8.214352196300171727e+01,1.006959609453582516e+01,1.461750406833823490e+02,1.486047589169953426e+03,8.305643585453435662e+01,4.792572503432952544e+02,2.337602604785746507e+01,5.058969760688609085e+01,9.446745872497558594e+00,-9.561483860015869141e-01,-1.912296712398529053e-01,4.960000000000000000e+02
-8.049925661569466229e+01,8.985463989240855653e+00,1.491780673812130544e+02,1.382655376372583305e+03,8.495975676294756340e+01,4.866448421684617642e+02,2.302440461581034015e+01,4.957634915404111098e+01,9.446745872497558594e+00,-9.561483860015869141e-01,-1.912296712398529053e-01,4.970000000000000000e+02
-8.004119662818675351e+01,7.386122479429502619e+00,1.503358774384923890e+02,1.281474293142697206e+03,8.747845466810144899e+01,4.938372122690611832e+02,2.059725330700683799e+01,4.601041368125504505e+01,9.446745872497558594e+00,-9.561483860015869141e-01,-1.912296712398529053e-01,4.980000000000000000e+02
-8.059463931899483669e+01,6.905195002149611128e+00,1.499420329964215171e+02,1.183306580122440209e+03,8.985747870187674380e+01,5.010855509533321310e+02,1.817508682422914035e+01,4.233934640187510468e+01,9.446745872497558594e+00,-9.561483860015869141e-01,-1.912296712398529053e-01,4.990000000000000000e+02
-8.093017715642156418e+01,8.309555664373988293e+00,1.490934873451151361e+02,1.087375713363591785e+03,9.129341800048109690e+01,5.090931240908676045e+02,1.802935360730123193e+01,4.168808493507049207e+01,9.446745872497558594e+00,-9.561483860015869141e-01,-1.912296712398529053e-01,5.000000000000000000e+02
-7.954261684053267345e+01,1.054964634907503296e+01,1.486290736035091413e+02,9.928979724050877849e+02,9.158073529911325750e+01,5.187325476904879906e+02,2.073858111334220666e+01,4.520616127838206921e+01,9.446745872497558594e+00,-9.561483860015869141e-01,-1.912296712398529053e-01,5.010000000000000000e+02
-7.574168344473469006e+01,1.152301519523399520e+01,1.485404955425033222e+02,9.002395899009516143e+02,9.133576326227967002e+01,5.306418572053153184e+02,2.500436997265535410e+01,5.124697715687796062e+01,9.446745872497558594e+00,-9.561483860015869141e-01,-1.912296712398529053e-01,5.020000000000000000e+02
-7.023024530438124202e+01,9.843970441660303550e+00,1.482751822239895318e+02,8.100152656351019687e+02,9.151809074562743263e+01,5.448683727307607114e+02,2.904170088115836279e+01,5.699439274591736648e+01,9.446745872497558594e+00,-9.561483860015869141e-01,-1.912296712398529053e-01,5.030000000000000000e+02
-6.466095059512417720e+01,5.929707608731803248e+00,1.474969784100660490e+02,7.215351885936343024e+02,9.268336931007547719e+01,5.607890626182625056e+02,3.195381493509444226e+01,6.081960671048034328e+01,9.446745872497558594e+00,-9.561483860015869141e-01,-1.912296712398529053e-01,5.040000000000000000e+02
-6.049052365479474247e+01,1.463203310910557775e+00,1.465121611520055467e+02,6.335336164399213885e+02,9.465055011716594890e+01,5.774017230479230420e+02,3.386387288102707771e+01,6.318787684689812068e+01,9.446745872497558594e+00,-9.561483860015869141e-01,-1.912296712398529053e-01,5.050000000000000000e+02
-5.804315720383533517e+01,-2.093607134614842380e+00,1.459967559597421314e+02,5.456913449670901173e+02,9.682245770905774407e+01,5.938078675810438654e+02,3.512414590398850578e+01,6.558379342478428953e+01,9.446745872497558594e+00,-9.561483860015869141e-01,-1.912296712398529053e-01,5.060000000000000000e+02
-5.647622846232070515e+01,-4.462417289799986975e+00,1.463926055694614661e+02,4.595538789261954662e+02,9.877845536993299902e+01,6.095533329496811348e+02,3.583596370496786676e+01,6.885109108829146862e+01,9.446745872497558594e+00,-9.561483860015869141e-01,-1.912296712398529053e-01,5.070000000000000000e+02
-5.453194587830921591e+01,-6.242682183481690572e+00,1.476217890786927001e+02,3.770085823521476414e+02,1.005986169865263946e+02,6.246245550912290128e+02,3.623714960095560400e+01,7.261615778628492990e+01,9.446745872497558594e+00,-9.561483860015869141e-01,-1.912296712398529053e-01,5.080000000000000000e+02
-5.136567401287129542e+01,-7.963789570499386627e+00,1.493313220945387911e+02,2.981550622916638531e+02,1.027306609436645886e+02,6.391960600112133761e+02,3.719784696350143349e+01,7.604795806314814399e+01,9.446745872497558594e+00,-9.561483860015869141e-01,-1.912296712398529053e-01,5.090000000000000000e+02
-4.689898429100207977e+01,-9.623122858215651831e+00,1.512641881476870367e+02,2.212546481548779411e+02,1.055929338430332791e+02,6.533658748214738807e+02,3.979919915903940364e+01,7.880454345852558617e+01,9.446745872497558594e+00,-9.561483860015869141e-01,-1.912296712398529053e-01,5.100000000000000000e+02
-4.171398476785088860e+01,-1.109897354404256475e+01,1.532403389990140568e+02,1.447367124420798064e+02,1.091906552899954477e+02,6.670195993746692693e+02,4.407205007942138764e+01,8.104068198738741557e+01,9.446745872497558594e+00,-9.561483860015869141e-01,-1.912296712398529053e-01,5.110000000000000000e+02
-3.677861435814179458e+01,-1.279625712548374850e+01,1.547480088719553351e+02,6.850487192849141138e+01,1.129147891188554240e+02,6.798306177946760727e+02,4.818621805051179763e+01,8.259254990215390535e+01,9.446745872497558594e+00,-9.561483860015869141e-01,-1.912296712398529053e-01,5.120000000000000000e+02
-3.312040767845883238e+01,-1.565382706274795055e+01,1.547254919587080622e+02,-6.490691635315670283e+00,1.156187167025523195e+02,6.913713489482397563e+02,4.925079182258514265e+01,8.246328074761800053e+01,9.446745872497558594e+00,-9.561483860015869141e-01,-1.912296712398529053e-01,5.130000000000000000e+02
-3.138905327973452586e+01,-2.036417528429774393e+01,1.520485247880856150e+02,-7.936466263595866621e+01,1.160537708854126322e+02,7.013392281003998505e+02,4.539404149411279832e+01,7.941779799165419718e+01,9.446745872497558594e+00,-9.561483860015869141e-01,-1.912296712398529053e-01,5.140000000000000000e+02
-3.145428289700794267e+01,-2.649098975143613188e+01,1.465181061787734507e+02,-1.497603727872883610e+02,1.135453815005444085e+02,7.098153672892567556e+02,3.745514517233846163e+01,7.329053436618914930e+01,9.446745872497558594e+00,-9.561483860015869141e-01,-1.912296712398529053e-01,5.150000000000000000e+02
-3.241026157332680668e+01,-3.233627873680961784e+01,1.394733776849921014e+02,-2.176261253851989750e+02,1.085238479186486984e+02,7.173525951345854992e+02,2.878194602934195245e+01,6.576969277482135112e+01,9.446745872497558594e+00,-9.561483860015869141e-01,-1.912296712398529053e-01,5.160000000000000000e+02
-3.312997609444437330e+01,-3.579799532683171037e+01,1.332953648241382325e+02,-2.831214814397317241e+02,1.024867160594667439e+02,7.247423509164837014e+02,2.316816278462283663e+01,5.976052255979175243e+01,9.446745872497558594e+00,-9.561483860015869141e-01,-1.912296712398529053e-01,5.170000000000000000e+02
-3.295395534653061986e+01,-3.566933090065572287e+01,1.299774953049668511e+02,-3.468165494455606677e+02,9.731107967633306544e+01,7.325720146085805027e+02,2.248271334899573048e+01,5.761841161803022260e+01,9.446745872497558594e+00,-9.561483860015869141e-01,-1.912296712398529053e-01,5.180000000000000000e+02
-3.185961643161044776e+01,-3.246709510319078618e+01,1.298317377470521023e+02,-4.094647229089823668e+02,9.434951494568622365e+01,7.409255366002562369e+02,2.575141067939784989e+01,5.955905750697866097e+01,9.446745872497558594e+00,-9.561483860015869141e-01,-1.912296712398529053e-01,5.190000000000000000e+02
-3.002164301332277319e+01,-2.815658000869098032e+01,1.313802366307377270e+02,-4.713019823084287054e+02,9.388035271648959679e+01,7.494343758171817171e+02,3.023507096534444827e+01,6.349680663017852567e+01,9.446745872497558594e+00,-9.561483860015869141e-01,-1.529837548732757568e-01,5.200000000000000000e+02
-2.739013790878698273e+01,-2.487749132539693164e+01,1.325468043672599379e+02,-5.318085898342324072e+02,9.517906898214278044e+01,7.575609147677423607e+02,3.351682360486552170e+01,6.651087116818143841e+01,9.446745872497558594e+00,-9.561483860015869141e-01,-1.529837548732757568e-01,5.210000000000000000e+02
-2.390530285032082247e+01,-2.352546247288353243e+01,1.321928029999553473e+02,-5.904386924167156394e+02,9.706522555679111974e+01,7.648549490032892209e+02,3.496425514579823357e+01,6.689989861980711794e+01,9.446745872497558594e+00,-9.561483860015869141e-01,-1.529837548732757568e-01,5.220000000000000000e+02
-2.014285490748170560e+01,-2.322956367797314670e+01,1.307811594946538207e+02,-6.476524913246212236e+02,9.854973529000744747e+01,7.710569742838088132e+02,3.558660258739428173e+01,6.530281304402160458e+01,9.446745872497558594e+00,-9.561483860015869141e-01,-1.529837548732757568e-01,5.230000000000000000e+02
-1.746426406935734121e+01,-2.217359701747591316e+01,1.297161884920260491e+02,-7.041610998423893761e+02,9.924793493200013472e+01,7.761347100430084538e+02,3.663362898321202010e+01,6.402315018961871829e+01,9.446745872497558594e+00,-9.561483860015869141e-01,-1.529837548732757568e-01,5.240000000000000000e+02
-1.716739415915253630e+01,-1.915413745109333377e+01,1.299971605099140106e+02,-7.594062134743726347e+02,9.939056308802173589e+01,7.803057782817450061e+02,3.823419110524741882e+01,6.507011105700485132e+01,9.446745872497558594e+00,-9.561483860015869141e-01,-1.529837548732757568e-01,5.250000000000000000e+02
-1.931150548952109602e+01,-1.462877805061202707e+01,1.313258255615528469e+02,-8.111450359337104601e+02,9.946974939067149535e+01,7.839307330644332978e+02,3.918718058702825147e+01,6.843122104017220408e+01,9.446745872497558594e+00,-9.561483860015869141e-01,-1.529837548732757568e-01,5.260000000000000000e+02
-2.246110960059331774e+01,-1.039372638774830193e+01,1.323572092419440196e+02,-8.573741265936223499e+02,9.978198825314120768e+01,7.872220981562168163e+02,3.796055614455053728e+01,7.193351329224651636e+01,9.446745872497558594e+00,-9.561483860015869141e-01,-1.529837548732757568e-01,5.270000000000000000e+02
-2.478628569471356968e+01,-8.150312470547760313e+00,1.318264955943959649e+02,-8.991031762320963026e+02,1.002309451461815115e+02,7.899982235706556821e+02,3.400383814924589387e+01,7.284928534967866653e+01,9.446745872497558594e+00,-9.561483860015869141e-01,-1.529837548732757568e-01,5.280000000000000000e+02
-2.556032972652792523e+01,-8.147535878579674318e+00,1.296124200241920335e+02,-9.409257758005696815e+02,1.005733399220171123e+02,7.918330831843995838e+02,2.835610934974283737e+01,7.004177002693222676e+01,9.446745872497558594e+00,-9.561483860015869141e-01,-1.529837548732757568e-01,5.290000000000000000e+02
-2.563422266731458876e+01,-8.955504243993118507e+00,1.269153348613845083e+02,-9.857686265470983926e+02,1.008538229878640777e+02,7.925816898741431942e+02,2.320621076194993293e+01,6.501305652251949141e+01,9.446745872497558594e+00,-9.561483860015869141e-01,-1.529837548732757568e-01,5.300000000000000000e+02
-2.646423527721481150e+01,-8.440150360888537762e+00,1.254439458721126357e+02,-1.033773785443805536e+03,1.015198304857440235e+02,7.927479171151571791e+02,2.083168804872275359e+01,6.102290355894774621e+01,9.446745872497558594e+00,-9.561483860015869141e-01,-1.529837548732757568e-01,5.310000000000000000e+02
-2.864389657862102467e+01,-5.085096165203140117e+00,1.262435289604718491e+02,-1.081746846064972488e+03,1.029928672491778343e+02,7.931927858929957438e+02,2.256476349563581607e+01,6.087849105948134820e+01,9.446745872497558594e+00,-9.561483860015869141e-01,-1.529837548732757568e-01,5.320000000000000000e+02
-3.129559056227208202e+01,1.263906740883840030e+00,1.290059012432811869e+02,-1.126434770731655590e+03,1.050701103773726572e+02,7.943457266560290009e+02,2.818070570525878793e+01,6.497616774793004879e+01,9.446745872497558594e+00,-9.561483860015869141e-01,-1.529837548732757568e-01,5.330000000000000000e+02
-3.276579596436567954e+01,9.516703556663060226e+00,1.323008884002874765e+02,-1.167354578184273123e+03,1.068189718037128841e+02,7.957071475046941487e+02,3.585350284367723361e+01,7.099843694956098261e+01,9.446745872497558594e+00,-9.561483860015869141e-01,-1.529837548732757568e-01,5.340000000000000000e+02
-3.189547694795237476e+01,1.799069979432397304e+01,1.345256950472339668e+02,-1.206619578527013800e+03,1.071961016993000158e+02,7.962265550431511656e+02,4.278274540775009882e+01,7.550548615374509609e+01,9.446745872497558594e+00,-9.561483860015869141e-01,-1.529837548732757568e-01,5.350000000000000000e+02
-2.878928064308183821e+01,2.508993248042406776e+01,1.349099020336825561e+02,-1.246240445040035411e+03,1.058922184760176606e+02,7.952493140393235080e+02,4.643496459863763448e+01,7.629865023186721373e+01,9.446745872497558594e+00,-9.561483860015869141e-01,-1.529837548732757568e-01,5.360000000000000000e+02
-2.462912153695833695e+01,2.972163572219596972e+01,1.339203661452283995e+02,-1.286303431360138347e+03,1.036524995351537655e+02,7.931101664887464722e+02,4.586847512654640013e+01,7.385847740221834101e+01,9.446745872497558594e+00,-9.561483860015869141e-01,-1.529837548732757568e-01,5.370000000000000000e+02
-2.090306521617912949e+01,3.143244571889340477e+01,1.328226154579879221e+02,-1.325411843207868515e+03,1.017974212158551381e+02,7.907845018699154025e+02,4.223660896736737413e+01,7.082843679382403934e+01,9.446745872497558594e+00,-9.561483860015869141e-01,-1.529837548732757568e-01,5.380000000000000000e+02
-1.866216540547429759e+01,3.036099400186412822e+01,1.327387371372587950e+02,-1.362462919634708669e+03,1.013977759925619466e+02,7.890006184969097376e+02,3.793514308751946373e+01,6.998662214369687717e+01,9.446745872497558594e+00,-9.561483860015869141e-01,-1.529837548732757568e-01,5.390000000000000000e+02
-1.817783924792183825e+01,2.712235453365974536e+01,1.338822050055468935e+02,-1.397445046597924375e+03,1.027431281643330294e+02,7.877108199065114604e+02,3.493140753852367197e+01,7.227656540255975415e+01,9.446745872497558594e+00,-9.561483860015869141e-01,-1.529837548732757568e-01,5.400000000000000000e+02
-1.903711088404725160e+01,2.270529188918908403e+01,1.355082072933673771e+02,-1.430999963941605529e+03,1.053622242583969637e+02,7.863708206011979200e+02,3.359749835879574675e+01,7.636057597804301622e+01,9.446745872497558594e+00,-9.561483860015869141e-01,-1.529837548732757568e-01,5.410000000000000000e+02
-2.050200240782851324e+01,1.834427014638868059e+01,1.365906956268499925e+02,-1.463755728329597332e+03,1.084049569733451790e+02,7.846372820245669573e+02,3.297720010718239791e+01,7.988007671286004552e+01,9.446745872497558594e+00,-9.561483860015869141e-01,-1.529837548732757568e-01,5.420000000000000000e+02
-2.191487163674355543e+01,1.522777845951350173e+01,1.366396232687375232e+02,-1.496044427162945794e+03,1.110546302566781378e+02,7.827245683217188343e+02,3.208294763999037968e+01,8.122187568920753620e+01,9.446745872497558594e+00,-9.561483860015869141e-01,-1.529837548732757568e-01,5.430000000000000000e+02
-2.294674448383921117e+01,1.395749060499770167e+01,1.359479954817943508e+02,-1.528052565765363397e+03,1.128042747389299620e+02,7.811191784440925403e+02,3.083926508738113625e+01,8.031201660779333906e+01,9.446745872497558594e+00,-9.561483860015869141e-01,-1.529837548732757568e-01,5.440000000000000000e+02
-2.361811126733391575e+01,1.398943101016197943e+01,1.350586931529478534e+02,-1.559672742750648467e+03,1.135375044305383199e+02,7.800219150841985538e+02,2.974625670512386932e+01,7.798159210129233543e+01,9.446745872497558594e+00,-9.561483860015869141e-01,-1.529837548732757568e-01,5.450000000000000000e+02
-2.419122991457788885e+01,1.356532596917418232e+01,1.339666890854778103e+02,-1.590482176671903289e+03,1.133811279276997084e+02,7.790953318682331883e+02,2.875744397940979979e+01,7.476154554395998275e+01,9.446745872497558594e+00,-9.561483860015869141e-01,-1.529837548732757568e-01,5.460000000000000000e+02
-2.507100848092068190e+01,1.049175016644494463e+01,1.318776203895567960e+02,-1.620161863116103632e+03,1.124002449578874803e+02,7.777155457594744803e+02,2.675130424426515674e+01,7.034743035887640872e+01,9.561484336853027344e+00,-8.796565532684326172e-01,-1.147378161549568176e-01,5.470000000000000000e+02
-2.673411714013582241e+01,3.525921463273334666e+00,1.278800882414416265e+02,-1.648703917932507466e+03,1.104216107645097509e+02,7.754401466613489902e+02,2.238782087983508973e+01,6.420199273186335631e+01,9.561484336853027344e+00,-8.796565532684326172e-01,-1.147378161549568176e-01,5.480000000000000000e+02
-2.956954772227982176e+01,-6.514090101285546552e+00,1.220045348054591159e+02,-1.676041568126747734e+03,1.072795367089584033e+02,7.722883394139716984e+02,1.564575467984332136e+01,5.662548665837221051e+01,9.561484336853027344e+00,-8.796565532684326172e-01,-1.147378161549568176e-01,5.490000000000000000e+02
-3.359841207637782645e+01,-1.680664617461297894e+01,1.156977910294745016e+02,-1.703308983171067666e+03,1.033590889214956405e+02,7.686443371020068298e+02,8.534308892233639199e+00,4.923638622420457978e+01,9.561484336853027344e+00,-8.796565532684326172e-01,-1.147378161549568176e-01,5.500000000000000000e+02
-3.825649397154393228e+01,-2.392518243512085974e+01,1.111778887123873574e+02,-1.727412165182220633e+03,9.986774073369633697e+01,7.649135967353868182e+02,4.130622583223157562e+00,4.438249361141970439e+01,9.561484336853027344e+00,-8.796565532684326172e-01,-1.147378161549568176e-01,5.510000000000000000e+02
-4.249807247036551416e+01,-2.578227275573044608e+01,1.100911460198458371e+02,-1.747992937242408516e+03,9.835916413538507186e+01,7.612265303767162550e+02,4.581569727854912344e+00,4.390128023309807759e+01,9.561484336853027344e+00,-8.796565532684326172e-01,-1.147378161549568176e-01,5.520000000000000000e+02
-4.525991386280111328e+01,-2.284506581619461940e+01,1.125048962999917421e+02,-1.766543875134681002e+03,9.972613329032901675e+01,7.574153054911075742e+02,9.629171128214693454e+00,4.808455871867863607e+01,9.561484336853027344e+00,-8.796565532684326172e-01,-1.147378161549568176e-01,5.530000000000000000e+02
-4.600598226935653656e+01,-1.778601585081469239e+01,1.169787041263916763e+02,-1.785519219995025196e+03,1.035092241638576525e+02,7.532609239267185330e+02,1.677114999500099657e+01,5.547835614110681490e+01,9.561484336853027344e+00,-8.796565532684326172e-01,-1.147378161549568176e-01,5.540000000000000000e+02
-4.499838213343446114e+01,-1.378752757032407317e+01,1.215633802030151855e+02,-1.806157962551347737e+03,1.081793766455903096e+02,7.487596311695378972e+02,2.285318134930093947e+01,6.359742979904149252e+01,9.561484336853027344e+00,-8.796565532684326172e-01,-1.147378161549568176e-01,5.550000000000000000e+02
-4.316194995539990487e+01,-1.267393246853180244e+01,1.249000667019608954e+02,-1.827373730381455971e+03,1.121914966742515389e+02,7.441186349564814009e+02,2.586774004649214476e+01,7.012273957024990523e+01,9.561484336853027344e+00,-8.796565532684326172e-01,-1.147378161549568176e-01,5.560000000000000000e+02
-4.167684196102072747e+01,-1.416439639907775927e+01,1.266912604649223795e+02,-1.847117982718569692e+03,1.149220628366747405e+02,7.394585674124682555e+02,2.577123623909301386e+01,7.393307940656177379e+01,9.561484336853027344e+00,-8.796565532684326172e-01,-1.147378161549568176e-01,5.570000000000000000e+02
-4.148905343617298058e+01,-1.666966347614743427e+01,1.274398511541385233e+02,-1.864747528561943909e+03,1.167682998552991194e+02,7.345367969675426139e+02,2.400310974283638643e+01,7.540445473186537129e+01,9.561484336853027344e+00,-8.796565532684326172e-01,-1.147378161549568176e-01,5.580000000000000000e+02
-4.288436056468435709e+01,-1.884745448846388172e+01,1.278668644882382068e+02,-1.881578761427772406e+03,1.184955969543661922e+02,7.288532416631351225e+02,2.232123305362529209e+01,7.583188348409476021e+01,9.561484336853027344e+00,-8.796565532684326172e-01,-1.147378161549568176e-01,5.590000000000000000e+02
-4.528973434515501140e+01,-2.052389493551572741e+01,1.284717876602408069e+02,-1.899032958560106636e+03,1.205216912539472105e+02,7.221105737048346782e+02,2.188481289335686597e+01,7.643058502519306785e+01,9.561484336853027344e+00,-8.796565532684326172e-01,-1.147378161549568176e-01,5.600000000000000000e+02
-4.748061728463471809e+01,-2.223906503077569141e+01,1.294096695922908111e+02,-1.916657194194151089e+03,1.227130361198342143e+02,7.145786307286180090e+02,2.304654545585526648e+01,7.765699768892864086e+01,9.561484336853027344e+00,-8.796565532684326172e-01,-1.147378161549568176e-01,5.610000000000000000e+02
-4.819590838575095404e+01,-2.404798301866003385e+01,1.305889616464719438e+02,-1.932433928297308739e+03,1.246975043182028458e+02,7.069655373533169040e+02,2.561663480086735944e+01,7.926817218477026472e+01,9.561484336853027344e+00,-8.796565532684326172e-01,-1.147378161549568176e-01,5.620000000000000000e+02
-4.683019963948572695e+01,-2.495939048882928546e+01,1.318274861238242011e+02,-1.944994173623483221e+03,1.262478529029795027e+02,6.998903483801477705e+02,2.907340726386792085e+01,8.084416536722710589e+01,9.561484336853027344e+00,-8.796565532684326172e-01,-1.147378161549568176e-01,5.630000000000000000e+02
-4.370778428865924070e+01,-2.373271851058689208e+01,1.329566381985951011e+02,-1.955034073710005032e+03,1.273534352522219706e+02,6.934761283319821814e+02,3.252274183843474020e+01,8.212064539894163318e+01,9.561484336853027344e+00,-8.796565532684326172e-01,-1.147378161549568176e-01,5.640000000000000000e+02
-3.974575920093411696e+01,-2.025441400301406247e+01,1.338389107699513261e+02,-1.964442713618387643e+03,1.279809040380459919e+02,6.874323383126611589e+02,3.475298222607762000e+01,8.285424701472038578e+01,9.561484336853027344e+00,-8.796565532684326172e-01,-1.147378161549568176e-01,5.650000000000000000e+02
-3.581683534252806567e+01,-1.595875136762560942e+01,1.343263475946805556e+02,-1.974435988833101874e+03,1.278417978447087080e+02,6.814561650585819734e+02,3.477641831904657010e+01,8.260349300155940000e+01,9.561484336853027344e+00,-8.796565532684326172e-01,-1.147378161549568176e-01,5.660000000000000000e+02
-3.231962485911208205e+01,-1.264406189846613415e+01,1.342778900461216836e+02,-1.984885854582928005e+03,1.265004141822846577e+02,6.754904967133552418e+02,3.267068583283707994e+01,8.098440111109630379e+01,9.561484336853027344e+00,-8.796565532684326172e-01,-1.147378161549568176e-01,5.670000000000000000e+02
-2.916792861058820563e+01,-1.076296842238161844e+01,1.337171070284857706e+02,-1.995208818177576177e+03,1.238502813483610225e+02,6.696308300062373746e+02,2.993720890514123312e+01,7.832776581012603856e+01,9.561484336853027344e+00,-8.796565532684326172e-01,-1.147378161549568176e-01,5.680000000000000000e+02
-2.599611878310679458e+01,-8.989784931294252601e+00,1.330221156747029454e+02,-2.005186374401513604e+03,1.205878394601641048e+02,6.639118834673936362e+02,2.873721249099526176e+01,7.595877645106702403e+01,9.561484336853027344e+00,-8.796565532684326172e-01,-1.147378161549568176e-01,5.690000000000000000e+02
-2.235030776811800024e+01,-5.651389963559722673e+00,1.328831582216116658e+02,-2.014696215061281691e+03,1.181454129762914818e+02,6.582679682574598701e+02,3.036262225961309014e+01,7.549495333595314150e+01,9.561484336853027344e+00,-8.796565532684326172e-01,-1.147378161549568176e-01,5.700000000000000000e+02
-1.787343210333710886e+01,-6.533665130591543857e-01,1.338787823911407031e+02,-2.023143561764984042e+03,1.178880401694368629e+02,6.526579530287926900e+02,3.414325431376619235e+01,7.754163535696989129e+01,9.561484336853027344e+00,-8.796565532684326172e-01,-1.147378161549568176e-01,5.710000000000000000e+02
-1.258648846796495491e+01,4.075590489584556053e+00,1.359262686467864114e+02,-2.029817912656537374e+03,1.200726076415703574e+02,6.471194902757415548e+02,3.779793880510806048e+01,8.095979437490495911e+01,9.561484336853027344e+00,-8.796565532684326172e-01,-1.147378161549568176e-01,5.720000000000000000e+02
-7.122312660689203767e+00,6.190202218221656949e+00,1.381432474801895296e+02,-2.034845515707333107e+03,1.234790597869250632e+02,6.416619998046517139e+02,3.906648165137357864e+01,8.354774518833892216e+01,9.561484336853027344e+00,-8.796565532684326172e-01,-1.147378161549568176e-01,5.730000000000000000e+02
-2.535624264843136189e+00,5.097422807798011490e+00,1.393998518902244541e+02,-2.039226787672741921e+03,1.261900062589229492e+02,6.362055774614855181e+02,3.732806230465666886e+01,8.367261882027105457e+01,9.561484336853027344e+00,-8.796565532684326172e-01,-1.147378161549568176e-01,5.740000000000000000e+02
4.169918945754034212e-01,2.601914433821093553e+00,1.391918204611865804e+02,-2.043660196497236029e+03,1.269600791957927868e+02,6.307365721683527227e+02,3.394711194717547187e+01,8.145155932140369259e+01,9.561484336853027344e+00,-8.796565532684326172e-01,-1.147378161549568176e-01,5.750000000000000000e+02
2.014441789362535928e+00,1.402174009042028047e+00,1.380801435921130178e+02,-2.047620433076401241e+03,1.260046499726740876e+02,6.255192415105193504e+02,3.119720213910932216e+01,7.846798003210278694e+01,9.561484336853027344e+00,-8.796565532684326172e-01,-1.147378161549568176e-01,5.760000000000000000e+02
3.588208911152833025e+00,2.845095219385257224e+00,1.372697142388733482e+02,-2.050064831810130272e+03,1.245423188231361564e+02,6.210425185569838504e+02,3.071796950604675658e+01,7.635301517932384741e+01,9.561484336853027344e+00,-8.796565532684326172e-01,-1.147378161549568176e-01,5.770000000000000000e+02
6.613549488982243929e+00,5.942327891487821034e+00,1.376769948552464484e+02,-2.050989956469289609e+03,1.236044649126451986e+02,6.176619855471071787e+02,3.263063075353238673e+01,7.553894758217757044e+01,9.446745872497558594e+00,-9.561483860015869141e-01,-2.294756323099136353e-01,5.780000000000000000e+02
1.154315747856526286e+01,8.336771164982565097e+00,1.392918946197769401e+02,-2.051710856242949376e+03,1.232826946820132434e+02,6.153068082361787674e+02,3.570823008405932342e+01,7.518106992182947579e+01,9.446745872497558594e+00,-9.561483860015869141e-01,-2.294756323099136353e-01,5.790000000000000000e+02
1.739125067054192186e+01,8.152587208843215194e+00,1.413094403075829177e+02,-2.053375158681519679e+03,1.230050376881299599e+02,6.135933135094091995e+02,3.820036751516636286e+01,7.406624250817185384e+01,9.446745872497558594e+00,-9.561483860015869141e-01,-2.294756323099136353e-01,5.800000000000000000e+02
2.244925326179873082e+01,5.112529989842641953e+00,1.427648415256462613e+02,-2.057192857662899769e+03,1.223121654040987778e+02,6.122300207166044856e+02,3.870199149399832095e+01,7.151646422218982480e+01,9.446745872497558594e+00,-9.561483860015869141e-01,-2.294756323099136353e-01,5.810000000000000000e+02
2.552208385318590445e+01,2.602756171627333970e-01,1.430465244399310905e+02,-2.060079349301333423e+03,1.211949084224361286e+02,6.112646016265716753e+02,3.672041703422928549e+01,6.755918349025523639e+01,9.446745872497558594e+00,-9.561483860015869141e-01,-2.294756323099136353e-01,5.820000000000000000e+02
2.665960474029270699e+01,-5.061239996683980280e+00,1.419641396977476688e+02,-2.061456470316974446e+03,1.197227688076854974e+02,6.109100115584296873e+02,3.285541937041489291e+01,6.250925904421637824e+01,9.446745872497558594e+00,-9.561483860015869141e-01,-2.294756323099136353e-01,5.830000000000000000e+02
2.686399041831464274e+01,-9.966799902882485185e+00,1.395660681786539499e+02,-2.062321225775463972e+03,1.175951444014790468e+02,6.111766362129419576e+02,2.854600311761987541e+01,5.659973626089049503e+01,9.446745872497558594e+00,-9.561483860015869141e-01,-2.294756323099136353e-01,5.840000000000000000e+02
2.713436890558659798e+01,-1.416130660114595230e+01,1.360508019730350497e+02,-2.063839598719030619e+03,1.142832665624882793e+02,6.117255071814579424e+02,2.536507860043639084e+01,5.001327292515998124e+01,9.446745872497558594e+00,-9.561483860015869141e-01,-2.294756323099136353e-01,5.850000000000000000e+02
2.768598013511837053e+01,-1.783430512801987788e+01,1.317877135747985449e+02,-2.065635212962748483e+03,1.096087795719467977e+02,6.120629172524349997e+02,2.407757816944285878e+01,4.304076780800824054e+01,9.446745872497558594e+00,-9.561483860015869141e-01,-2.294756323099136353e-01,5.860000000000000000e+02
2.791897604377845710e+01,-2.170505957943169051e+01,1.271968260727571760e+02,-2.066078892743389588e+03,1.040044456778887252e+02,6.118245443464475102e+02,2.398026768740783154e+01,3.595478942481531703e+01,9.446745872497558594e+00,-9.561483860015869141e-01,-2.294756323099136353e-01,5.870000000000000000e+02
2.703162940390029689e+01,-2.701280529794712493e+01,1.224256289414443017e+02,-2.064376691685320111e+03,9.807282103403849760e+01,6.108758442075268249e+02,2.307933004607184557e+01,2.867220034125057282e+01,9.446745872497558594e+00,-9.561483860015869141e-01,-2.294756323099136353e-01,5.880000000000000000e+02
2.469491281353111845e+01,-3.497299701613519574e+01,1.171470570053570555e+02,-2.061828139784047380e+03,9.193560239495855058e+01,6.092418796322672279e+02,1.918897940444912820e+01,2.070974283382201975e+01,9.446745872497558594e+00,-9.561483860015869141e-01,-2.294756323099136353e-01,5.890000000000000000e+02
2.123174169673256984e+01,-4.574666850886933389e+01,1.108240563528597704e+02,-2.060640176510351012e+03,8.515018878244154621e+01,6.070362038901002961e+02,1.134878246330481488e+01,1.172444666950832470e+01,9.446745872497558594e+00,-9.561483860015869141e-01,-2.294756323099136353e-01,5.900000000000000000e+02
1.723732323970762081e+01,-5.779118714005835500e+01,1.033267912812661962e+02,-2.061637781444835127e+03,7.733872088907082798e+01,6.044494413859792985e+02,6.070148072303709341e-01,2.217499669719472877e+00,9.446745872497558594e+00,-9.561483860015869141e-01,-2.294756323099136353e-01,5.910000000000000000e+02
1.309630825701788126e+01,-6.851103668235009536e+01,9.532215505564818159e+01,-2.063475567295274232e+03,6.885734965639130678e+01,6.017118138429214014e+02,-1.045894914444215829e+01,-6.411030991990628536e+00,9.446745872497558594e+00,-9.561483860015869141e-01,-2.294756323099136353e-01,5.920000000000000000e+02
8.901879596100116032e+00,-7.605353545924663194e+01,8.796876339529990219e+01,-2.064078945040819235e+03,6.076318490258199745e+01,5.989811818309972296e+02,-1.923052959986489441e+01,-1.275759808914153837e+01,9.446745872497558594e+00,-9.561483860015869141e-01,-2.294756323099136353e-01,5.930000000000000000e+02
4.840619236605562037e+00,-8.084163455125235487e+01,8.212463871813815786e+01,-2.062417245128250215e+03,5.408928101214405615e+01,5.962862389437796082e+02,-2.453966686574858613e+01,-1.660284912931092549e+01,9.446745872497558594e+00,-9.561483860015869141e-01,-2.294756323099136353e-01,5.940000000000000000e+02
