F3,F4,C3,C4,P3,P4,Cz,Pz,Accel_x,Accel_y,Accel_z,Sample
-3.456079866737127304e-11,-1.432454155292361975e-11,-2.910383045673370361e-11,-1.055013854056596756e-10,-4.456524038687348366e-11,-9.822542779147624969e-11,-2.000888343900442123e-11,-2.455635694786906242e-11,9.523238182067871094e+00,-9.561483860015869141e-01,-1.529837548732757568e-01,2.010000000000000000e+02
3.502153885651387100e+01,-3.198938596902189602e+01,1.925579233091502829e+01,5.380107685433868028e+02,3.710412820424062375e+01,8.866047324066312285e+01,-2.752756059018020096e+01,-1.546714722272872677e+01,9.523238182067871094e+00,-9.561483860015869141e-01,-1.529837548732757568e-01,2.020000000000000000e+02
5.107809406966771348e+01,-5.117856373303743567e+01,3.430705782087261468e+01,-9.586932071477640420e+02,5.507849881657330116e+01,1.574091479861854168e+02,-3.833713782107224688e+01,-2.055658842935781649e+01,9.523238182067871094e+00,-9.561483860015869141e-01,-1.529837548732757568e-01,2.030000000000000000e+02
4.567021996976018272e+01,-5.499448182855849154e+01,4.480029000955437368e+01,-4.190105367531472439e+03,5.141902148451845278e+01,2.029235950702313858e+02,-2.902482098118161957e+01,-1.348676483214603650e+01,9.523238182067871094e+00,-9.561483860015869141e-01,-1.529837548732757568e-01,2.040000000000000000e+02
3.320996029105481284e+01,-5.157847037116562205e+01,5.419008465223123494e+01,-6.421365718379896862e+03,4.063019558184259949e+01,2.392066650580582063e+02,-1.060916986446591181e+01,-1.585385551357830991e+00,9.523238182067871094e+00,-9.561483860015869141e-01,-1.529837548732757568e-01,2.050000000000000000e+02
2.995655160027672537e+01,-5.082050814300873753e+01,6.605516018811977119e+01,-4.765272790937669924e+03,3.896522952946452278e+01,2.827958274549437192e+02,2.597475735721673118e+00,6.267986664803629537e+00,9.523238182067871094e+00,-9.561483860015869141e-01,-1.529837548732757568e-01,2.060000000000000000e+02
3.930886806850139692e+01,-5.552264074729328058e+01,8.075179277135521261e+01,1.210479770779016690e+03,4.965512149484766269e+01,3.379274916500198742e+02,4.831521583000721876e+00,7.493673542163833190e+00,9.523238182067871094e+00,-9.561483860015869141e-01,-1.529837548732757568e-01,2.070000000000000000e+02
5.153475813281875162e+01,-6.107818159101066158e+01,9.568148396114520438e+01,8.891945424733483378e+03,6.278136137715773657e+01,3.956581195999951888e+02,7.066560131570440717e-01,6.614933865216698905e+00,9.446745872497558594e+00,-9.561483860015869141e-01,-1.912296712398529053e-01,2.080000000000000000e+02
5.607600043377169641e+01,-6.244651131345199246e+01,1.083908725860919731e+02,1.454223335627780762e+04,6.775469438153413648e+01,4.455719832453578420e+02,-2.507995413905518944e+00,9.280750859451927681e+00,9.446745872497558594e+00,-9.561483860015869141e-01,-1.912296712398529053e-01,2.090000000000000000e+02
5.218740504489596788e+01,-5.997579167526055244e+01,1.189167421970823852e+02,1.603092262037165710e+04,6.404042504483277298e+01,4.864948159162177035e+02,-2.593518168641367083e+00,1.631793335776364984e+01,9.446745872497558594e+00,-9.561483860015869141e-01,-1.912296712398529053e-01,2.100000000000000000e+02
4.737233710464715841e+01,-5.812801185935950343e+01,1.291199014718449689e+02,1.408834954747861048e+04,5.972225436242752039e+01,5.257614944414326601e+02,-2.496649282734779263e+00,2.363834853095568178e+01,9.446745872497558594e+00,-9.561483860015869141e-01,-1.912296712398529053e-01,2.110000000000000000e+02
4.729546344269829206e+01,-5.963662044326702016e+01,1.403136244732322666e+02,1.124255206396566064e+04,6.161410372155387449e+01,5.699123451411378483e+02,-4.679652915546284930e+00,2.719323688975464393e+01,9.446745872497558594e+00,-9.561483860015869141e-01,-1.912296712398529053e-01,2.120000000000000000e+02
4.936212348162871422e+01,-6.226406335127853708e+01,1.520889155193290208e+02,9.592274078019130684e+03,6.871585162044448225e+01,6.179827537856690469e+02,-7.265278503418812761e+00,2.728094719280625213e+01,9.446745872497558594e+00,-9.561483860015869141e-01,-1.912296712398529053e-01,2.130000000000000000e+02
4.656838649137262109e+01,-6.156422206873912728e+01,1.634176035643531577e+02,9.371869082116510981e+03,7.521521761779604276e+01,6.638984262812919042e+02,-6.135804612904394162e+00,2.801450028282897620e+01,9.446745872497558594e+00,-9.561483860015869141e-01,-1.912296712398529053e-01,2.140000000000000000e+02
3.623902857744951689e+01,-5.601174812299655059e+01,1.743441509843796666e+02,9.357791763979934331e+03,7.799482273117428122e+01,7.037984114002883871e+02,2.719303721041796962e-01,3.318203526686966143e+01,9.446745872497558594e+00,-9.561483860015869141e-01,-1.912296712398529053e-01,2.150000000000000000e+02
2.348822740226341921e+01,-4.860267061205126993e+01,1.861224212313190947e+02,8.393971640322910389e+03,7.967807336411533470e+01,7.396681466309855750e+02,9.380858097481450386e+00,4.304695312271860530e+01,9.446745872497558594e+00,-9.561483860015869141e-01,-1.912296712398529053e-01,2.160000000000000000e+02
1.596989122945069539e+01,-4.348409994771941456e+01,1.997645503829635345e+02,6.514173775622435642e+03,8.470477424953969603e+01,7.761633769888685492e+02,1.759866031412684606e+01,5.489385512442186155e+01,9.446745872497558594e+00,-9.561483860015869141e-01,-1.912296712398529053e-01,2.170000000000000000e+02
1.611949385018306202e+01,-4.170604289841753598e+01,2.148365804751474570e+02,4.731838620380756765e+03,9.398033037689310731e+01,8.153219301949666260e+02,2.410872763066618063e+01,6.598567152172381611e+01,9.446745872497558594e+00,-9.561483860015869141e-01,-1.912296712398529053e-01,2.180000000000000000e+02
1.909155649682134026e+01,-4.067601207824668563e+01,2.298847097487059727e+02,3.901238067311940540e+03,1.042462592601978031e+02,8.551814189577780780e+02,3.099053292462031095e+01,7.563929845157417731e+01,9.446745872497558594e+00,-9.561483860015869141e-01,-1.912296712398529053e-01,2.190000000000000000e+02
1.782240482391489422e+01,-3.742985349127002337e+01,2.438706310009083609e+02,3.853811860406527558e+03,1.120547053483151103e+02,8.929006249712401768e+02,3.998467419718645033e+01,8.479608679200919141e+01,9.446745872497558594e+00,-9.561483860015869141e-01,-1.912296712398529053e-01,2.200000000000000000e+02
9.380766482164290210e+00,-3.181471492021319136e+01,2.569315717571089408e+02,3.635443083879188634e+03,1.172301756070519332e+02,9.280138456661843520e+02,4.997696610635466641e+01,9.427651880787379923e+01,9.446745872497558594e+00,-9.561483860015869141e-01,-1.912296712398529053e-01,2.210000000000000000e+02
-3.462530536985013896e+00,-2.630208194484248452e+01,2.697856734679935471e+02,2.545875349088619259e+03,1.222443826429216642e+02,9.622626861251592345e+02,5.803669864313769722e+01,1.038281885328083263e+02,9.446745872497558594e+00,-9.561483860015869141e-01,-1.912296712398529053e-01,2.220000000000000000e+02
-1.576777176655969015e+01,-2.307985474479824006e+01,2.827010717782441134e+02,9.032136654998867016e+02,1.290773484651954277e+02,9.969996879679747508e+02,6.261066405310202754e+01,1.126860308697955588e+02,9.446745872497558594e+00,-9.561483860015869141e-01,-1.912296712398529053e-01,2.230000000000000000e+02
-2.461288374986361305e+01,-2.175428883413042058e+01,2.952650805739776843e+02,-2.596294636427737714e+02,1.374856804419150649e+02,1.031646540162146266e+03,6.521130215029415922e+01,1.206238917900423075e+02,9.446745872497558594e+00,-9.561483860015869141e-01,-1.912296712398529053e-01,2.240000000000000000e+02
-3.013375302221083984e+01,-1.991806302328950551e+01,3.070412953812660817e+02,-2.975723710291385942e+02,1.461118239606621501e+02,1.064737200084460710e+03,6.885610519076226410e+01,1.282308342421688394e+02,9.446745872497558594e+00,-9.561483860015869141e-01,-1.912296712398529053e-01,2.250000000000000000e+02
-3.368987436271527258e+01,-1.567967483310462740e+01,3.181715056869138607e+02,2.458071020994866558e+02,1.543791382391245861e+02,1.095798537641177973e+03,7.507845914781773899e+01,1.362497040727434978e+02,9.446745872497558594e+00,-9.561483860015869141e-01,-1.912296712398529053e-01,2.260000000000000000e+02
-3.599714844940763214e+01,-9.472016730240738980e+00,3.292400248092976653e+02,2.923122420002255240e+01,1.628024239340657005e+02,1.125727016725762951e+03,8.259773534295072750e+01,1.448199499170582385e+02,9.446745872497558594e+00,-9.561483860015869141e-01,-1.912296712398529053e-01,2.270000000000000000e+02
-3.704583880697100540e+01,-3.523853283676771753e+00,3.406907382161002715e+02,-1.734618157798282482e+03,1.718232469573376875e+02,1.155532530907861656e+03,8.876082959772020331e+01,1.534019697259459463e+02,9.446745872497558594e+00,-9.561483860015869141e-01,-1.912296712398529053e-01,2.280000000000000000e+02
-3.709141478459468999e+01,2.597614397275265219e-01,3.525308258905674847e+02,-4.193142783542651159e+03,1.810223375615323675e+02,1.185240126507134846e+03,9.209113055550960780e+01,1.613396870962928915e+02,9.446745872497558594e+00,-9.561483860015869141e-01,-1.912296712398529053e-01,2.290000000000000000e+02
-3.707099574301582834e+01,1.964880987040032778e+00,3.645295598466504998e+02,-5.159708894641935331e+03,1.896385401391471532e+02,1.214185476975111669e+03,9.349441401687363395e+01,1.684112287202638072e+02,9.446745872497558594e+00,-9.561483860015869141e-01,-1.912296712398529053e-01,2.300000000000000000e+02
-3.797764037997603737e+01,3.519498089338867430e+00,3.764676058977752291e+02,-2.739941641255310969e+03,1.974327053656506905e+02,1.242054956384661637e+03,9.526885355711647207e+01,1.748548763470043923e+02,9.446745872497558594e+00,-9.561483860015869141e-01,-1.912296712398529053e-01,2.310000000000000000e+02
-4.009328973793117257e+01,7.016797999672235164e+00,3.880773936489204061e+02,3.032686090089951904e+03,2.046332294325384282e+02,1.269269286253866085e+03,9.908536933799723556e+01,1.809433342704683128e+02,9.446745872497558594e+00,-9.561483860015869141e-01,-1.912296712398529053e-01,2.320000000000000000e+02
-4.296453422846752801e+01,1.301303465739169951e+01,3.988993392604675137e+02,9.979113380685303127e+03,2.111465269984919360e+02,1.296361165309976059e+03,1.047899083399092888e+02,1.866544569055081411e+02,9.484992027282714844e+00,-9.179025292396545410e-01,-1.529837548732757568e-01,2.330000000000000000e+02
-4.602020660744346969e+01,2.016314269890517608e+01,4.084877063857811663e+02,1.522806964899734521e+04,2.162777386616880904e+02,1.323255206432102568e+03,1.108941593428364740e+02,1.918222311066738257e+02,9.484992027282714844e+00,-9.179025292396545410e-01,-1.529837548732757568e-01,2.340000000000000000e+02
-4.906123188838546412e+01,2.637001998626783461e+01,4.168765536050536866e+02,1.716659386062666090e+04,2.194889567909613106e+02,1.349318948268795793e+03,1.160823513337174973e+02,1.965723198051296094e+02,9.484992027282714844e+00,-9.179025292396545410e-01,-1.529837548732757568e-01,2.350000000000000000e+02
-5.214548096028693180e+01,3.038965786617450249e+01,4.247099236574035785e+02,1.632292742642676603e+04,2.212761341600671585e+02,1.374006189309582624e+03,1.202908864702912979e+02,2.014542436407882633e+02,9.484992027282714844e+00,-9.179025292396545410e-01,-1.529837548732757568e-01,2.360000000000000000e+02
-5.512296599601813796e+01,3.252018002921340667e+01,4.327177924500829249e+02,1.459730801079253069e+04,2.230081812407283905e+02,1.397289469546547480e+03,1.244405954127380483e+02,2.069282245598215013e+02,9.484992027282714844e+00,-9.179025292396545410e-01,-1.529837548732757568e-01,2.370000000000000000e+02
-5.736268845993981813e+01,3.387927778403286538e+01,4.409792855763425905e+02,1.364633452681720519e+04,2.257811200221690342e+02,1.419489959518059550e+03,1.291860863208612500e+02,2.125933180195115710e+02,9.484992027282714844e+00,-9.179025292396545410e-01,-1.529837548732757568e-01,2.380000000000000000e+02
-5.790794258406413064e+01,3.505957772899228075e+01,4.487754118850284613e+02,1.381325200889977714e+04,2.294986081941619886e+02,1.440861737148285101e+03,1.339312119337032527e+02,2.170212811325177427e+02,9.484992027282714844e+00,-9.179025292396545410e-01,-1.529837548732757568e-01,2.390000000000000000e+02
-5.593265739401067549e+01,3.551853643815252326e+01,4.552671905606739529e+02,1.436840206928305997e+04,2.331099376869510706e+02,1.461423730585294834e+03,1.371366299510148110e+02,2.186644988211282907e+02,9.484992027282714844e+00,-9.179025292396545410e-01,-1.529837548732757568e-01,2.400000000000000000e+02
-5.122719584964397654e+01,3.431661326560470116e+01,4.603299932430372792e+02,1.451955165777115326e+04,2.356456500766580575e+02,1.481083813420244041e+03,1.377355446142537403e+02,2.172656642372280658e+02,9.484992027282714844e+00,-9.179025292396545410e-01,-1.529837548732757568e-01,2.410000000000000000e+02
-4.447022501497804114e+01,3.144808503701733571e+01,4.647111034382810431e+02,1.415031403407064499e+04,2.369755597665539426e+02,1.499784522620815551e+03,1.363830621255920050e+02,2.145253257145132011e+02,9.484992027282714844e+00,-9.179025292396545410e-01,-1.529837548732757568e-01,2.420000000000000000e+02
-3.713661935677055226e+01,2.839264026386172191e+01,4.693947116844346965e+02,1.371735153577940582e+04,2.377180424710822990e+02,1.517538682638009050e+03,1.353456084768399705e+02,2.132657509388045582e+02,9.484992027282714844e+00,-9.179025292396545410e-01,-1.529837548732757568e-01,2.430000000000000000e+02
-3.097478656052044244e+01,2.723701362998383502e+01,4.748856460555507510e+02,1.363326738344584373e+04,2.386943596011974478e+02,1.534481301451331092e+03,1.370260765613297735e+02,2.156205733573883663e+02,9.484992027282714844e+00,-9.179025292396545410e-01,-1.529837548732757568e-01,2.440000000000000000e+02
-2.724567465004838596e+01,2.910112954093028748e+01,4.810974791939411261e+02,1.385923439528219023e+04,2.405624962620022416e+02,1.550965058848543777e+03,1.423464045725233973e+02,2.216969822241185284e+02,9.484992027282714844e+00,-9.179025292396545410e-01,-1.529837548732757568e-01,2.450000000000000000e+02
-2.620527069838317402e+01,3.332842190721316911e+01,4.877715588902615309e+02,1.405177967774225908e+04,2.436991438193172144e+02,1.567449632237523474e+03,1.503356211135442209e+02,2.297959814578246096e+02,9.484992027282714844e+00,-9.179025292396545410e-01,-1.529837548732757568e-01,2.460000000000000000e+02
-2.718412797038445206e+01,3.814299520827000833e+01,4.948280326139229146e+02,1.398027463455039106e+04,2.480996356042137450e+02,1.584153571304608704e+03,1.590969272005602306e+02,2.378809004193813053e+02,9.484992027282714844e+00,-9.179025292396545410e-01,-1.529837548732757568e-01,2.470000000000000000e+02
-2.918778297364269747e+01,4.209733687716141048e+01,5.022750874700577697e+02,1.372898115661718839e+04,2.533076855394369886e+02,1.600849152730666901e+03,1.671212333517087245e+02,2.449373542427192660e+02,9.484992027282714844e+00,-9.179025292396545410e-01,-1.529837548732757568e-01,2.480000000000000000e+02
-3.163144979193475592e+01,4.506714054879137166e+01,5.099243662284784477e+02,1.353281095163592909e+04,2.585848919592935999e+02,1.617081685621105862e+03,1.739052352665707986e+02,2.512056631928653587e+02,9.484992027282714844e+00,-9.179025292396545410e-01,-1.529837548732757568e-01,2.490000000000000000e+02
-3.468883973321771919e+01,4.803308955276952474e+01,5.173895948171052623e+02,1.351285590867026258e+04,2.633841617418206624e+02,1.632614594628787017e+03,1.796827717039695926e+02,2.573976749900136838e+02,9.484992027282714844e+00,-9.179025292396545410e-01,-1.529837548732757568e-01,2.500000000000000000e+02
-3.892574291432720202e+01,5.193506667474014193e+01,5.244320153009989554e+02,1.359679977193816012e+04,2.677762757416357999e+02,1.647590744443867152e+03,1.848093384171640992e+02,2.637984790634113779e+02,9.484992027282714844e+00,-9.179025292396545410e-01,-1.529837548732757568e-01,2.510000000000000000e+02
-4.440161671705936897e+01,5.660807801144335372e+01,5.312252711137953156e+02,1.363665128427395030e+04,2.723588474894959290e+02,1.662198615618262920e+03,1.893757555621139090e+02,2.700109286181589141e+02,9.484992027282714844e+00,-9.179025292396545410e-01,-1.529837548732757568e-01,2.520000000000000000e+02
-4.996443553359222278e+01,6.066200942164050502e+01,5.381559453260606460e+02,1.357066267739345858e+04,2.776269807749481515e+02,1.676232056917511727e+03,1.931929799587594516e+02,2.753579680075417855e+02,9.484992027282714844e+00,-9.179025292396545410e-01,-1.529837548732757568e-01,2.530000000000000000e+02
-5.352911178254294100e+01,6.242126814609957819e+01,5.453050085051049791e+02,1.343011922752963983e+04,2.832994266307541693e+02,1.689081367667655286e+03,1.959698922630905145e+02,2.794220562080979562e+02,9.484992027282714844e+00,-9.179025292396545410e-01,-1.529837548732757568e-01,2.540000000000000000e+02
-5.340560389745360226e+01,6.124930746019583694e+01,5.521890365494919024e+02,1.326270606653440882e+04,2.882202588752143129e+02,1.700221229645989297e+03,1.975797135994798737e+02,2.822989600659152529e+02,9.484992027282714844e+00,-9.179025292396545410e-01,-1.529837548732757568e-01,2.550000000000000000e+02
-4.970046107304347061e+01,5.823332934853453935e+01,5.580994421138407233e+02,1.311207320035409066e+04,2.910258151756215739e+02,1.709694420744084709e+03,1.983213349797661067e+02,2.844907679335760804e+02,9.484992027282714844e+00,-9.179025292396545410e-01,-1.529837548732757568e-01,2.560000000000000000e+02
-4.448692279359670465e+01,5.559344423660854773e+01,5.626952618552841159e+02,1.306585887009199905e+04,2.911117997945430034e+02,1.718088510581459559e+03,1.989710851555732916e+02,2.865637289373407839e+02,9.484992027282714844e+00,-9.179025292396545410e-01,-1.529837548732757568e-01,2.570000000000000000e+02
-4.040524271669369227e+01,5.514704193493241746e+01,5.662194349698474980e+02,1.325559345078580191e+04,2.891687244743493466e+02,1.726064131321719287e+03,2.004467426714718385e+02,2.887774083784643153e+02,9.484992027282714844e+00,-9.179025292396545410e-01,-1.529837548732757568e-01,2.580000000000000000e+02
-3.883875811925599919e+01,5.700515237043271100e+01,5.691179320784008269e+02,1.374584749808513880e+04,2.868467067489846158e+02,1.733917292516828638e+03,2.032089576655750989e+02,2.909187290336440128e+02,9.484992027282714844e+00,-9.179025292396545410e-01,-1.529837548732757568e-01,2.590000000000000000e+02
-3.931409073772510965e+01,5.958104804651281938e+01,5.715015052539815770e+02,1.441574842671250917e+04,2.857591605149573297e+02,1.741529978185937580e+03,2.068659466433750822e+02,2.924962629005437975e+02,9.484992027282714844e+00,-9.179025292396545410e-01,-1.147378161549568176e-01,2.600000000000000000e+02
-4.063572850359855693e+01,6.093190277042424441e+01,5.730808031066103467e+02,1.498974497450968738e+04,2.865486651759219967e+02,1.748620230190827897e+03,2.104032963633219424e+02,2.932030973044211350e+02,9.484992027282714844e+00,-9.179025292396545410e-01,-1.147378161549568176e-01,2.610000000000000000e+02
-4.250348988648829618e+01,6.031619616968532682e+01,5.736772945863403947e+02,1.522968521769781910e+04,2.886972051818856926e+02,1.754982741803809404e+03,2.129346592897466053e+02,2.932861678477761416e+02,9.484992027282714844e+00,-9.179025292396545410e-01,-1.147378161549568176e-01,2.620000000000000000e+02
-4.584524762137743892e+01,5.863562487008960034e+01,5.737314565746360131e+02,1.511774502320391548e+04,2.911783831468869721e+02,1.760578779211492474e+03,2.143220164867516360e+02,2.934393639270974745e+02,9.484992027282714844e+00,-9.179025292396545410e-01,-1.147378161549568176e-01,2.630000000000000000e+02
-5.149610999537355838e+01,5.746776721144900080e+01,5.741835029156031851e+02,1.485220296187665735e+04,2.933399259993337864e+02,1.765530451628274704e+03,2.151381305346277486e+02,2.942610976801134939e+02,9.484992027282714844e+00,-9.179025292396545410e-01,-1.147378161549568176e-01,2.640000000000000000e+02
-5.868544710474134263e+01,5.767017102672502915e+01,5.757685139391925304e+02,1.466250152155063915e+04,2.952346695897139170e+02,1.770065582102158714e+03,2.160907890024377593e+02,2.957975059090811101e+02,9.484992027282714844e+00,-9.179025292396545410e-01,-1.147378161549568176e-01,2.650000000000000000e+02
-6.511156228215708097e+01,5.881186167148788968e+01,5.784249473639214330e+02,1.462727632258989615e+04,2.972005355025468134e+02,1.774376985953639860e+03,2.174925171429400734e+02,2.976448693899110367e+02,9.484992027282714844e+00,-9.179025292396545410e-01,-1.147378161549568176e-01,2.660000000000000000e+02
-6.878713547946199469e+01,5.975726604676835052e+01,5.814081578174645983e+02,1.465629866943213710e+04,2.992304623030743187e+02,1.778416150842315801e+03,2.191842065186501713e+02,2.994753231672192442e+02,9.484992027282714844e+00,-9.179025292396545410e-01,-1.147378161549568176e-01,2.670000000000000000e+02
-6.991462711859975343e+01,5.965141562481927906e+01,5.839815178461301457e+02,1.462316102386781495e+04,3.008569484474637648e+02,1.781836458247042174e+03,2.208116117720787202e+02,3.013658757138750843e+02,9.484992027282714844e+00,-9.179025292396545410e-01,-1.147378161549568176e-01,2.680000000000000000e+02
-7.088770004899345167e+01,5.838538905117810884e+01,5.859855821585941840e+02,1.449489645172489872e+04,3.016616446371285747e+02,1.784239463054581847e+03,2.220877121561686636e+02,3.035396847129861726e+02,9.484992027282714844e+00,-9.179025292396545410e-01,-1.147378161549568176e-01,2.690000000000000000e+02
-7.428110618154801159e+01,5.633577302631233863e+01,5.877511392514768431e+02,1.433981875647360721e+04,3.017982196029430497e+02,1.785565361720415240e+03,2.228232889587468435e+02,3.058277875477559746e+02,9.484992027282714844e+00,-9.179025292396545410e-01,-1.147378161549568176e-01,2.700000000000000000e+02
-8.063480678466970630e+01,5.391410543579587511e+01,5.895260495759852120e+02,1.423554797583049185e+04,3.018943709044727939e+02,1.786257610825358597e+03,2.228410597253690071e+02,3.075213181153676487e+02,9.484992027282714844e+00,-9.179025292396545410e-01,-1.147378161549568176e-01,2.710000000000000000e+02
-8.802271058739967202e+01,5.143542557594815889e+01,5.910674258799765539e+02,1.418969085943679784e+04,3.023982365383119486e+02,1.786996767769183407e+03,2.219803162628814448e+02,3.078773832803069581e+02,9.484992027282714844e+00,-9.179025292396545410e-01,-1.147378161549568176e-01,2.720000000000000000e+02
-9.373745194120198221e+01,4.925177677440277080e+01,5.918309858851702074e+02,1.414835080278652458e+04,3.030842424091467819e+02,1.788243147792395348e+03,2.202142625768385074e+02,3.067870094286943186e+02,9.484992027282714844e+00,-9.179025292396545410e-01,-1.147378161549568176e-01,2.730000000000000000e+02
-9.658716264109926897e+01,4.775646646284641861e+01,5.915096822289218608e+02,1.406322255401668735e+04,3.032501674544358821e+02,1.789993487560560880e+03,2.177499000772146474e+02,3.048783553728439983e+02,9.484992027282714844e+00,-9.179025292396545410e-01,-1.147378161549568176e-01,2.740000000000000000e+02
-9.788115416284080084e+01,4.711160271972462965e+01,5.903537752662656430e+02,1.394340447178163413e+04,3.023808000001401979e+02,1.791897495124481793e+03,2.150094818414653446e+02,3.029351133619721281e+02,9.484992027282714844e+00,-9.179025292396545410e-01,-1.147378161549568176e-01,2.750000000000000000e+02
-1.003617788473861481e+02,4.699416564563125576e+01,5.890050060541188941e+02,1.383495995525108083e+04,3.006018128711749569e+02,1.793526406522966454e+03,2.125142718913620001e+02,3.012556807379514794e+02,9.484992027282714844e+00,-9.179025292396545410e-01,-1.147378161549568176e-01,2.760000000000000000e+02
-1.059890040564278593e+02,4.672098303834320632e+01,5.880880379684726904e+02,1.375539280740951835e+04,2.985373502764441582e+02,1.794524626350884773e+03,2.107303016191533516e+02,2.996284536470205921e+02,9.484992027282714844e+00,-9.179025292396545410e-01,-1.147378161549568176e-01,2.770000000000000000e+02
-1.143041390614093871e+02,4.571271356176109180e+01,5.879723702292595817e+02,1.368806703096676574e+04,2.968429626745291898e+02,1.794642106169161707e+03,2.099091433534778730e+02,2.978980831988005775e+02,9.484992027282714844e+00,-9.179025292396545410e-01,-1.147378161549568176e-01,2.780000000000000000e+02
-1.226151804572444064e+02,4.388043435025002736e+01,5.887732650213708894e+02,1.360580790996833821e+04,2.958979917434243134e+02,1.793780304141566830e+03,2.099706916648588049e+02,2.964203045524964182e+02,9.484992027282714844e+00,-9.179025292396545410e-01,-1.147378161549568176e-01,2.790000000000000000e+02
-1.278624748580502057e+02,4.159894556602199600e+01,5.903794134267524214e+02,1.350125973771123245e+04,2.958066159385132323e+02,1.792069804784769303e+03,2.105297322167701850e+02,2.958295094929588345e+02,9.484992027282714844e+00,-9.179025292396545410e-01,-1.147378161549568176e-01,2.800000000000000000e+02
-1.287608088809804485e+02,3.929547413423489388e+01,5.923588012396053273e+02,1.339078200291657777e+04,2.964635208550473635e+02,1.789829352169978620e+03,2.110703886428595411e+02,2.963044071562958948e+02,9.484992027282714844e+00,-9.179025292396545410e-01,-1.147378161549568176e-01,2.810000000000000000e+02
-1.265471062509005833e+02,3.703877074289626137e+01,5.939122729639461795e+02,1.329328435345188336e+04,2.974908425774036687e+02,1.787327351385488100e+03,2.111623181141399073e+02,2.971235954057211188e+02,9.484992027282714844e+00,-9.179025292396545410e-01,-1.147378161549568176e-01,2.820000000000000000e+02
-1.236964356453532901e+02,3.455645505338350176e+01,5.941683566843712470e+02,1.320958432537086264e+04,2.982286080813304352e+02,1.784550740068120376e+03,2.106226624528829348e+02,2.971113683546911943e+02,9.484992027282714844e+00,-9.179025292396545410e-01,-1.147378161549568176e-01,2.830000000000000000e+02
-1.216321816540059899e+02,3.173696554239472789e+01,5.927716379047709552e+02,1.312522140883528846e+04,2.980350388617856652e+02,1.781247629026001050e+03,2.096004375219553708e+02,2.957048260549391330e+02,9.484992027282714844e+00,-9.179025292396545410e-01,-1.147378161549568176e-01,2.840000000000000000e+02
-1.193945850107593856e+02,2.919405585944927850e+01,5.902957181925329451e+02,1.302873406229437751e+04,2.967951120814110482e+02,1.777247561400979521e+03,2.085992198188279758e+02,2.936913667352959010e+02,9.484992027282714844e+00,-9.179025292396545410e-01,-1.147378161549568176e-01,2.850000000000000000e+02
-1.144944509976535301e+02,2.827659925626922188e+01,5.880297326253374877e+02,1.292306620188898523e+04,2.951756994528259384e+02,1.772753603511226174e+03,2.083606579324351742e+02,2.928505311241038953e+02,9.484992027282714844e+00,-9.179025292396545410e-01,-1.147378161549568176e-01,2.860000000000000000e+02
-1.052773553994462645e+02,3.025557213425497594e+01,5.872051312303536861e+02,1.281955968829435915e+04,2.942888992559778671e+02,1.768307164667445477e+03,2.094997141324311087e+02,2.946645550590956759e+02,9.484992027282714844e+00,-9.179025292396545410e-01,-1.147378161549568176e-01,2.870000000000000000e+02
-9.273740023087094642e+01,3.517546394612736549e+01,5.882565865016212001e+02,1.272452146468701358e+04,2.949607265577508315e+02,1.764464126053406517e+03,2.120056014978428607e+02,2.991206949259150747e+02,9.484992027282714844e+00,-9.179025292396545410e-01,-1.147378161549568176e-01,2.880000000000000000e+02
-8.018979483028934396e+01,4.139169989584647169e+01,5.906939783114952434e+02,1.263396340778890590e+04,2.971675357305575744e+02,1.761457010461683694e+03,2.150526638345605761e+02,3.046396833942694684e+02,9.484992027282714844e+00,-9.179025292396545410e-01,-1.147378161549568176e-01,2.890000000000000000e+02
-7.110914334624183653e+01,4.642016418694201718e+01,5.936048687593736304e+02,1.254004994859628823e+04,3.000692550070818925e+02,1.759077263636278531e+03,2.174811217120882247e+02,3.092146290500184023e+02,9.484992027282714844e+00,-9.179025292396545410e-01,-1.147378161549568176e-01,2.900000000000000000e+02
-6.697818738369275593e+01,4.859878092083779677e+01,5.962771031647336031e+02,1.243977925467238128e+04,3.025870398669120505e+02,1.756803997520991743e+03,2.186903199873099766e+02,3.117798111776637029e+02,9.484992027282714844e+00,-9.561483860015869141e-01,-7.649187743663787842e-02,2.910000000000000000e+02
-6.676570302106588883e+01,4.820271975293641731e+01,5.984296930749055718e+02,1.233647122089907862e+04,3.040846068840927501e+02,1.754050266444957742e+03,2.191329491712920117e+02,3.126534590145230936e+02,9.484992027282714844e+00,-9.561483860015869141e-01,-7.649187743663787842e-02,2.920000000000000000e+02
-6.802583597938917137e+01,4.701376635782058599e+01,6.000212102018765563e+02,1.223457156012348059e+04,3.047100916866208991e+02,1.750403808508830934e+03,2.198268546076872099e+02,3.127945659924813526e+02,9.484992027282714844e+00,-9.561483860015869141e-01,-7.649187743663787842e-02,2.930000000000000000e+02
-6.835116013960856662e+01,4.677032236462609660e+01,6.010229894851897825e+02,1.213504586461198778e+04,3.052190053754331984e+02,1.745765506290472104e+03,2.212985293027083458e+02,3.127571177912338385e+02,9.484992027282714844e+00,-9.561483860015869141e-01,-7.649187743663787842e-02,2.940000000000000000e+02
-6.611055189306389934e+01,4.799989931209546512e+01,6.014970657503195071e+02,1.203590973700547693e+04,3.064326735696270134e+02,1.740316448843899025e+03,2.230613045953699043e+02,3.124588729502366959e+02,9.484992027282714844e+00,-9.561483860015869141e-01,-7.649187743663787842e-02,2.950000000000000000e+02
-6.050422466875238570e+01,5.026096762061985146e+01,6.018690172489143606e+02,1.193569809460475699e+04,3.087115939844112518e+02,1.734340964067576351e+03,2.242399052770455796e+02,3.119201454427939666e+02,9.484992027282714844e+00,-9.561483860015869141e-01,-7.649187743663787842e-02,2.960000000000000000e+02
-5.164449516745591495e+01,5.321767383436935006e+01,6.029258390760115844e+02,1.183522751848154803e+04,3.117769105772981675e+02,1.728050535530951038e+03,2.246657707041993035e+02,3.119513932857782379e+02,9.484992027282714844e+00,-9.561483860015869141e-01,-7.649187743663787842e-02,2.970000000000000000e+02
-4.089352231862221743e+01,5.700110421904513203e+01,6.052373695241783480e+02,1.173620859666007163e+04,3.149324052764532098e+02,1.721571613602962771e+03,2.250793951691352959e+02,3.136693178301677563e+02,9.484992027282714844e+00,-9.561483860015869141e-01,-7.649187743663787842e-02,2.980000000000000000e+02
-3.084633580346704207e+01,6.119752220393355913e+01,6.082979194320422494e+02,1.163899290866204319e+04,3.173976814168024703e+02,1.715046000999364423e+03,2.259817242435104276e+02,3.170099254592997795e+02,9.484992027282714844e+00,-9.561483860015869141e-01,-7.649187743663787842e-02,2.990000000000000000e+02
-2.430842362024930026e+01,6.366642216490734540e+01,6.101891158656173957e+02,1.154200213920871829e+04,3.184494225677740360e+02,1.708618714598686893e+03,2.263011714603183577e+02,3.197647663300714953e+02,9.484992027282714844e+00,-9.561483860015869141e-01,-7.649187743663787842e-02,3.000000000000000000e+02
-2.259869697477384420e+01,6.103004133274961873e+01,6.083649963629495687e+02,1.144309643922586292e+04,3.173970302644531785e+02,1.702224186111643121e+03,2.235380611073093746e+02,3.185096016540355777e+02,9.484992027282714844e+00,-9.561483860015869141e-01,-7.649187743663787842e-02,3.010000000000000000e+02
-2.448544510052292367e+01,5.112708727819980936e+01,6.012585064727257986e+02,1.134185451461482080e+04,3.136859759538202752e+02,1.695410392214101648e+03,2.156748473292687436e+02,3.110503232753575844e+02,9.484992027282714844e+00,-9.561483860015869141e-01,-7.649187743663787842e-02,3.020000000000000000e+02
-2.686734948015629243e+01,3.541772762286507259e+01,5.895601082377238527e+02,1.123971053177951762e+04,3.072667443509743634e+02,1.687540332946456147e+03,2.032063841061645348e+02,2.983466552406251822e+02,9.484992027282714844e+00,-9.561483860015869141e-01,-7.649187743663787842e-02,3.030000000000000000e+02
-2.696655400152170046e+01,1.881845943874819227e+01,5.760408078997478469e+02,1.113731028039077319e+04,2.988838516577616247e+02,1.678315283659720535e+03,1.892611511215599762e+02,2.840733029260040325e+02,9.484992027282714844e+00,-9.561483860015869141e-01,-7.649187743663787842e-02,3.040000000000000000e+02
-2.442471052846570956e+01,6.598607622807037387e+00,5.638722986341202841e+02,1.103527383301967893e+04,2.898119760221142087e+02,1.668126469842361075e+03,1.775067776118346501e+02,2.720534344012388601e+02,9.484992027282714844e+00,-9.561483860015869141e-01,-7.649187743663787842e-02,3.050000000000000000e+02
-2.158841701529081547e+01,7.855643243536150067e-01,5.546826566678994368e+02,1.093399834079920947e+04,2.810827814152612518e+02,1.657804302603049564e+03,1.696641891157653390e+02,2.637507739513110891e+02,9.484992027282714844e+00,-9.561483860015869141e-01,-7.649187743663787842e-02,3.060000000000000000e+02
-2.166950919810710730e+01,-8.331621963285158472e-01,5.478922332870948821e+02,1.083344184238952766e+04,2.729213755558696448e+02,1.647945930564868377e+03,1.648223513974980392e+02,2.579307711126895128e+02,9.484992027282714844e+00,-9.561483860015869141e-01,-7.649187743663787842e-02,3.070000000000000000e+02
-2.622382698996250383e+01,-2.362350769165146858e+00,5.417998987119869980e+02,1.073314716096908705e+04,2.650439469302688167e+02,1.638495984190275067e+03,1.609290114879578937e+02,2.525157916900745363e+02,9.484992027282714844e+00,-9.561483860015869141e-01,-7.649187743663787842e-02,3.080000000000000000e+02
-3.402059535341572882e+01,-6.381109996705447429e+00,5.353335903000510143e+02,1.063263856412430323e+04,2.575263374181311065e+02,1.628982873185494554e+03,1.567682225356233516e+02,2.466597735069326518e+02,9.484992027282714844e+00,-9.561483860015869141e-01,-7.649187743663787842e-02,3.090000000000000000e+02
-4.220941378091822571e+01,-1.250390069263573878e+01,5.288347336242891288e+02,1.053187992413676511e+04,2.511943514271961249e+02,1.619080438423001397e+03,1.524945137682100267e+02,2.410808137673733427e+02,9.484992027282714844e+00,-9.561483860015869141e-01,-7.649187743663787842e-02,3.100000000000000000e+02
-4.873161233505788914e+01,-1.881631055263937924e+01,5.232564532720044781e+02,1.043130198337019465e+04,2.469058945379869101e+02,1.608837012368998785e+03,1.485094786163068079e+02,2.366128714677246876e+02,9.484992027282714844e+00,-9.561483860015869141e-01,-7.649187743663787842e-02,3.110000000000000000e+02
-5.384107638362490889e+01,-2.424186823315483252e+01,5.187587172304112073e+02,1.033132523323051828e+04,2.443824626518613741e+02,1.598371720486494951e+03,1.442749404023718967e+02,2.327683584801797565e+02,9.523238182067871094e+00,-9.561483860015869141e-01,-3.824593871831893921e-02,3.120000000000000000e+02
-5.939581526204949569e+01,-2.925686400962510447e+01,5.142858615090979129e+02,1.023189787453163262e+04,2.419815105481403634e+02,1.587533652370441359e+03,1.386304003319379490e+02,2.279905869477840952e+02,9.523238182067871094e+00,-9.561483860015869141e-01,-3.824593871831893921e-02,3.130000000000000000e+02
-6.660694205978631999e+01,-3.439734107147825171e+01,5.086627527155300186e+02,1.013256783034429827e+04,2.379565981933786816e+02,1.576046200055935060e+03,1.314137992775676480e+02,2.214300352473223938e+02,9.523238182067871094e+00,-9.561483860015869141e-01,-3.824593871831893921e-02,3.140000000000000000e+02
-7.432335266583550037e+01,-3.851100124376807798e+01,5.021110263951086381e+02,1.003299739323961330e+04,2.321328719662182039e+02,1.564000559725002859e+03,1.245655050213647428e+02,2.143860704554953145e+02,9.523238182067871094e+00,-9.561483860015869141e-01,-3.824593871831893921e-02,3.150000000000000000e+02
-7.940674605672342068e+01,-3.901663206719990740e+01,4.965415807931075278e+02,9.933327480633532105e+03,2.262949313868356285e+02,1.552056166539150126e+03,1.212111978775272974e+02,2.097567188842104429e+02,9.523238182067871094e+00,-9.561483860015869141e-01,-3.824593871831893921e-02,3.160000000000000000e+02
-7.886086967531724667e+01,-3.421284989640443541e+01,4.941381910701894640e+02,9.833936387144836772e+03,2.227717143199646443e+02,1.540991612685913879e+03,1.232489263018039765e+02,2.097732715990254064e+02,9.523238182067871094e+00,-9.561483860015869141e-01,-3.824593871831893921e-02,3.170000000000000000e+02
-7.187861193827995976e+01,-2.533705290192028770e+01,4.954810588521878572e+02,9.734879013451523861e+03,2.225278262824142530e+02,1.531034959312574301e+03,1.296258807129835873e+02,2.140325929268149707e+02,9.523238182067871094e+00,-9.561483860015869141e-01,-3.824593871831893921e-02,3.180000000000000000e+02
-6.021508034158148348e+01,-1.607222017250145996e+01,4.989957712791976974e+02,9.635656698763934401e+03,2.245638112733560092e+02,1.521701696910222154e+03,1.370693024390436676e+02,2.197088306668574091e+02,9.523238182067871094e+00,-9.561483860015869141e-01,-3.824593871831893921e-02,3.190000000000000000e+02
-4.689402553322349831e+01,-9.697563088503159179e+00,5.022861943211948983e+02,9.535646068774720334e+03,2.270983338787393677e+02,1.512328258242019729e+03,1.427754711931737006e+02,2.238669485743602650e+02,9.523238182067871094e+00,-9.561483860015869141e-01,-3.824593871831893921e-02,3.200000000000000000e+02
-3.457824533325106131e+01,-6.540989479303988219e+00,5.041124255503256109e+02,9.434802842240356767e+03,2.292748815608026689e+02,1.502730586160952498e+03,1.466117594727335813e+02,2.258355251190089916e+02,9.523238182067871094e+00,-9.561483860015869141e-01,-3.824593871831893921e-02,3.210000000000000000e+02
-2.480632579156662132e+01,-4.187247394232542774e+00,5.051718469961174378e+02,9.333890154351591264e+03,2.317399761771625890e+02,1.493301053762914307e+03,1.507843042165320071e+02,2.275250710173964990e+02,9.523238182067871094e+00,-9.561483860015869141e-01,-3.824593871831893921e-02,3.220000000000000000e+02
-1.812775472137548149e+01,-1.823789845331589277e-01,5.070376720712005181e+02,9.233962596938608840e+03,2.356918844469121268e+02,1.484505109344263474e+03,1.573183388909112637e+02,2.314447499919670008e+02,9.523238182067871094e+00,-9.561483860015869141e-01,-3.824593871831893921e-02,3.230000000000000000e+02
-1.435589569314362279e+01,5.524871902435762649e+00,5.103802824329943633e+02,9.135510803592438606e+03,2.414738390762829567e+02,1.476340195098733602e+03,1.658318008552170113e+02,2.382558070316565022e+02,9.523238182067871094e+00,-9.561483860015869141e-01,-3.824593871831893921e-02,3.240000000000000000e+02
-1.240147556233864634e+01,1.083644733925703463e+01,5.142497265507357724e+02,9.038035617764580820e+03,2.480737246643200251e+02,1.468295976569100731e+03,1.738102060435973613e+02,2.460845155033323977e+02,9.523238182067871094e+00,-9.561483860015869141e-01,-3.824593871831893921e-02,3.250000000000000000e+02
-1.007966104301897303e+01,1.403808443758504154e+01,5.170717260958709858e+02,8.940485477626589272e+03,2.538803376886751266e+02,1.459782809889764394e+03,1.790769636192764551e+02,2.521246899940205708e+02,9.523238182067871094e+00,-9.561483860015869141e-01,-3.824593871831893921e-02,3.260000000000000000e+02
-4.717118671347179770e+00,1.578315197367942346e+01,5.182510340958913275e+02,8.842191607752027267e+03,2.578663672970116068e+02,1.450549837620169001e+03,1.819090880553964666e+02,2.549258664757861652e+02,9.523238182067871094e+00,-9.561483860015869141e-01,-3.824593871831893921e-02,3.270000000000000000e+02
5.260794592424190341e+00,1.825924036045157095e+01,5.186508711360517054e+02,8.743478197907377762e+03,2.601128399370737725e+02,1.440734131230032744e+03,1.845231534395574045e+02,2.551951123186058794e+02,9.523238182067871094e+00,-9.561483860015869141e-01,-3.824593871831893921e-02,3.280000000000000000e+02
1.868481227260940614e+01,2.229518734727525953e+01,5.193472827142120423e+02,8.645300419090792275e+03,2.613035849327094411e+02,1.430579752284661936e+03,1.882915330899322726e+02,2.544629442879337375e+02,9.523238182067871094e+00,-9.561483860015869141e-01,-3.824593871831893921e-02,3.290000000000000000e+02
3.138045637817862143e+01,2.546885990826612556e+01,5.198636343982335575e+02,8.548133781501295744e+03,2.617225513106291146e+02,1.420123735967906214e+03,1.914346630672267793e+02,2.530267195398478179e+02,9.523238182067871094e+00,-9.561483860015869141e-01,-3.824593871831893921e-02,3.300000000000000000e+02
3.798571564267626854e+01,2.339638254315292443e+01,5.177408840062323634e+02,8.451217375307882321e+03,2.606308044919343274e+02,1.409109382557099707e+03,1.896460538352006324e+02,2.492137500469436304e+02,9.523238182067871094e+00,-9.561483860015869141e-01,-3.824593871831893921e-02,3.310000000000000000e+02
3.498759850009804495e+01,1.322877291867763461e+01,5.101231475921663332e+02,8.353152825390687212e+03,2.565322347785689772e+02,1.397176884428440189e+03,1.793878637867318844e+02,2.406846535590308349e+02,9.523238182067871094e+00,-9.561483860015869141e-01,-3.824593871831893921e-02,3.320000000000000000e+02
2.298905650864844574e+01,-3.841238757990936392e+00,4.961230983766130294e+02,8.253702609821744772e+03,2.481545359382631659e+02,1.384197802465270343e+03,1.610434584615458675e+02,2.265582721886534614e+02,9.523238182067871094e+00,-9.561483860015869141e-01,-3.824593871831893921e-02,3.330000000000000000e+02
6.482531812897150303e+00,-2.332970126199845140e+01,4.778829302087937094e+02,8.155168027321624322e+03,2.354314938411149569e+02,1.370488891756882822e+03,1.391703572453642437e+02,2.084291993331335675e+02,9.523238182067871094e+00,-9.561483860015869141e-01,-3.824593871831893921e-02,3.340000000000000000e+02
-8.891799131227116959e+00,-4.066124563003276648e+01,4.593416880541122964e+02,8.061625083450813690e+03,2.197617826959906324e+02,1.356688732807498582e+03,1.196346757378375969e+02,1.894513583612914545e+02,9.523238182067871094e+00,-9.561483860015869141e-01,-3.824593871831893921e-02,3.350000000000000000e+02
-1.969732730336443183e+01,-5.392003656408530787e+01,4.437267941647629641e+02,7.976034708483868599e+03,2.033550635431536193e+02,1.343338099526581573e+03,1.060191803972902562e+02,1.723858951413424165e+02,9.523238182067871094e+00,-9.561483860015869141e-01,-3.824593871831893921e-02,3.360000000000000000e+02
-2.624184340687418171e+01,-6.406659737351753847e+01,4.318120191735150684e+02,7.897375822628233436e+03,1.881162200550103307e+02,1.330488380847330291e+03,9.805110542068837276e+01,1.582149669459581105e+02,9.446745872497558594e+00,-9.561483860015869141e-01,-1.912296712398529053e-01,3.370000000000000000e+02
-3.127817136168073375e+01,-7.308959846117033976e+01,4.221737245913401466e+02,7.820480460764323652e+03,1.748262313812740558e+02,1.317725614408287584e+03,9.284541051048870486e+01,1.461864740560945961e+02,9.446745872497558594e+00,-9.561483860015869141e-01,-1.912296712398529053e-01,3.380000000000000000e+02
-3.714942600822791974e+01,-8.217050901860014278e+01,4.128773022706758411e+02,7.739145902570513499e+03,1.630825772236519242e+02,1.304636613234370998e+03,8.751918337596413267e+01,1.348954771870234595e+02,9.446745872497558594e+00,-9.561483860015869141e-01,-1.912296712398529053e-01,3.390000000000000000e+02
-4.385694656658938584e+01,-9.129469537096281329e+01,4.029640758610526063e+02,7.650244568902073297e+03,1.518908290906520051e+02,1.291292076133979208e+03,8.100756439951516086e+01,1.233694950641377091e+02,9.446745872497558594e+00,-9.561483860015869141e-01,-1.912296712398529053e-01,3.400000000000000000e+02
-4.950500279861637409e+01,-9.999322835199171777e+01,3.926458061860513453e+02,7.555589422302631647e+03,1.404063861551167065e+02,1.278275560097723428e+03,7.400055787784674521e+01,1.114580461841110832e+02,9.446745872497558594e+00,-9.561483860015869141e-01,-1.912296712398529053e-01,3.410000000000000000e+02
-5.238296498599265760e+01,-1.079864459209157985e+02,3.824998132626791403e+02,7.460207013841766639e+03,1.283700725353592134e+02,1.266232348972235741e+03,6.758455240317681501e+01,9.958220743993092583e+01,9.446745872497558594e+00,-9.561483860015869141e-01,-1.912296712398529053e-01,3.420000000000000000e+02
-5.258224222602052578e+01,-1.151632557943106576e+02,3.727422728580639841e+02,7.368746507835367083e+03,1.161148204092881997e+02,1.255401945022141263e+03,6.196435059775518539e+01,8.829494933485432284e+01,9.446745872497558594e+00,-9.561483860015869141e-01,-1.912296712398529053e-01,3.430000000000000000e+02
-5.178721080154991796e+01,-1.213653431894778691e+02,3.632348291570339143e+02,7.282983743555368164e+03,1.042682124196396671e+02,1.245550133063949943e+03,5.624171474790813363e+01,7.800851062865774566e+01,9.446745872497558594e+00,-9.561483860015869141e-01,-1.912296712398529053e-01,3.440000000000000000e+02
-5.173388811069310123e+01,-1.265559510601135571e+02,3.539441520516334094e+02,7.201962635023942312e+03,9.336689669799932290e+01,1.236256965522652990e+03,4.924953042178299256e+01,6.894761818876492043e+01,9.446745872497558594e+00,-9.561483860015869141e-01,-1.912296712398529053e-01,3.450000000000000000e+02
-5.292240424127953702e+01,-1.312002795844189222e+02,3.451815878771657253e+02,7.123853138980560288e+03,8.362270864392621661e+01,1.227184020665287790e+03,4.066894084575898205e+01,6.121467503775420482e+01,9.446745872497558594e+00,-9.561483860015869141e-01,-1.912296712398529053e-01,3.460000000000000000e+02
-5.459808148419563167e+01,-1.361939902347496059e+02,3.373606797305995997e+02,7.047460078757829251e+03,7.499746530669949607e+01,1.218087955805798174e+03,3.153819419346143604e+01,5.484558351569830847e+01,9.446745872497558594e+00,-9.561483860015869141e-01,-1.912296712398529053e-01,3.470000000000000000e+02
-5.566139832671831300e+01,-1.421270058001983330e+02,3.306177476675927664e+02,6.972349097860838810e+03,6.750486934181515153e+01,1.208730958155336793e+03,2.376084030925272828e+01,4.978540539329424064e+01,9.446745872497558594e+00,-9.561483860015869141e-01,-1.912296712398529053e-01,3.480000000000000000e+02
-5.550972544429077971e+01,-1.485498226773867145e+02,3.247116349744117088e+02,6.898144617783080321e+03,6.138883136177707911e+01,1.198918280806627536e+03,1.894246044552659214e+01,4.578702303639590809e+01,9.446745872497558594e+00,-9.561483860015869141e-01,-1.912296712398529053e-01,3.490000000000000000e+02
-5.428595884520098025e+01,-1.541413200073350254e+02,3.192136692860759695e+02,6.824135952324397294e+03,5.688002920256678863e+01,1.188635024967118170e+03,1.732650777910112083e+01,4.230515515190086262e+01,9.446745872497558594e+00,-9.561483860015869141e-01,-1.912296712398529053e-01,3.500000000000000000e+02
-5.271222213115572686e+01,-1.578342022018454145e+02,3.136833554819864958e+02,6.749632681820978178e+03,5.367673040247063909e+01,1.178061936613918078e+03,1.753482803344627428e+01,3.852156031368804179e+01,9.446745872497558594e+00,-9.561483860015869141e-01,-1.912296712398529053e-01,3.510000000000000000e+02
-5.182724863502073731e+01,-1.598935955599007457e+02,3.076874087918453142e+02,6.674548050896275527e+03,5.072150171604835123e+01,1.167402762613633513e+03,1.730999068950046649e+01,3.361642020028023126e+01,9.446745872497558594e+00,-9.561483860015869141e-01,-1.912296712398529053e-01,3.520000000000000000e+02
-5.262375127181439893e+01,-1.618641063750654325e+02,3.008544759090332263e+02,6.599566875989160508e+03,4.670752612675869386e+01,1.156728715062403808e+03,1.478409494683893399e+01,2.720360900560172013e+01,9.446745872497558594e+00,-9.561483860015869141e-01,-1.912296712398529053e-01,3.530000000000000000e+02
-5.551927635336062394e+01,-1.653168774593691523e+02,2.931155111888284637e+02,6.525739651303954815e+03,4.098796785081367489e+01,1.146013877354630495e+03,9.462740857879680334e+00,1.963271377131684403e+01,9.446745872497558594e+00,-9.561483860015869141e-01,-1.912296712398529053e-01,3.540000000000000000e+02
-5.995904598885761061e+01,-1.704913369580135623e+02,2.849160407023763355e+02,6.453833059378582220e+03,3.401489207848226215e+01,1.135240979108664305e+03,2.315125422032906499e+00,1.185516713828303637e+01,9.446745872497558594e+00,-9.561483860015869141e-01,-1.912296712398529053e-01,3.550000000000000000e+02
-6.463210255890999179e+01,-1.760704561344178387e+02,2.770365646726305613e+02,6.383868378559107441e+03,2.682076304013253321e+01,1.124357760487125233e+03,-5.046758192396509912e+00,4.843849583824976435e+00,9.446745872497558594e+00,-9.561483860015869141e-01,-1.912296712398529053e-01,3.560000000000000000e+02
-6.831624256183522448e+01,-1.803078053314637827e+02,2.699883812471871352e+02,6.315057154590691425e+03,2.002679438537757051e+01,1.113118616309192930e+03,-1.150937564364483023e+01,-1.069252550568990046e+00,9.446745872497558594e+00,-9.561483860015869141e-01,-1.912296712398529053e-01,3.570000000000000000e+02
-7.065951511144089636e+01,-1.824968749361682967e+02,2.634834620159521137e+02,6.246216876094184045e+03,1.339834770826155363e+01,1.101135132897538824e+03,-1.711888225354493898e+01,-6.431557236129378907e+00,9.446745872497558594e+00,-9.561483860015869141e-01,-1.912296712398529053e-01,3.580000000000000000e+02
-7.218363789409909259e+01,-1.834581688039820619e+02,2.565715272993472809e+02,6.176516604517246378e+03,6.380948760860974289e+00,1.088277592607547376e+03,-2.278891806268347864e+01,-1.223060929047892387e+01,9.446745872497558594e+00,-9.561483860015869141e-01,-1.912296712398529053e-01,3.590000000000000000e+02
-7.360329421732967603e+01,-1.846582998405603462e+02,2.484495471098928192e+02,6.106124180828618591e+03,-1.047467531458778467e+00,1.075063307104801879e+03,-2.931015650963320240e+01,-1.907003236481989461e+01,9.446745872497558594e+00,-9.561483860015869141e-01,-1.912296712398529053e-01,3.600000000000000000e+02
-7.527835046082088866e+01,-1.868673995907427638e+02,2.392533143345600593e+02,6.036249296061018867e+03,-8.225666580779034120e+00,1.062508507574695614e+03,-3.652266096983066745e+01,-2.663374847273382784e+01,9.446745872497558594e+00,-9.561483860015869141e-01,-1.912296712398529053e-01,3.610000000000000000e+02
-7.738222307200055639e+01,-1.896611469989903753e+02,2.300548224550368559e+02,5.968383473731542836e+03,-1.456551811193230606e+01,1.051404430917623813e+03,-4.342453272420425492e+01,-3.393181416115635329e+01,9.446745872497558594e+00,-9.561483860015869141e-01,-1.912296712398529053e-01,3.620000000000000000e+02
-8.039459130944374010e+01,-1.922005890178392065e+02,2.219976944567779356e+02,5.903252504924881578e+03,-2.035233874348500649e+01,1.041658138297719688e+03,-4.916331293797861690e+01,-4.017055240648051040e+01,9.446745872497558594e+00,-9.561483860015869141e-01,-1.912296712398529053e-01,3.630000000000000000e+02
-8.506707092370390910e+01,-1.944166801339134736e+02,2.153331070031233594e+02,5.840291211231272428e+03,-2.663672857398182714e+01,1.032365628478476083e+03,-5.396019885718055775e+01,-4.546425182253528874e+01,9.523238182067871094e+00,-8.796565532684326172e-01,-2.677215635776519775e-01,3.640000000000000000e+02
-9.163502880186388211e+01,-1.973505009124872913e+02,2.092221374274267873e+02,5.778090852503361020e+03,-3.425659653516913750e+01,1.022573808287343127e+03,-5.900611795870133847e+01,-5.071135988351647939e+01,9.523238182067871094e+00,-8.796565532684326172e-01,-2.677215635776519775e-01,3.650000000000000000e+02
-9.909586983032613716e+01,-2.022168779101918972e+02,2.025009530033198644e+02,5.715477608318484272e+03,-4.296228838026399899e+01,1.012013457819706673e+03,-6.528938931871277873e+01,-5.667844852634402741e+01,9.523238182067871094e+00,-8.796565532684326172e-01,-2.677215635776519775e-01,3.660000000000000000e+02
-1.055795092897332097e+02,-2.090318185099339416e+02,1.947393679779740978e+02,5.652325961521304635e+03,-5.151328296087672243e+01,1.001162421282188461e+03,-7.239927212487305042e+01,-6.309719876925214521e+01,9.523238182067871094e+00,-8.796565532684326172e-01,-2.677215635776519775e-01,3.670000000000000000e+02
-1.097739235844601353e+02,-2.161484557043448831e+02,1.866533133252360130e+02,5.589508894948557099e+03,-5.862831043967685218e+01,9.907100613949742183e+02,-7.853854144676256510e+01,-6.866352824793932541e+01,9.523238182067871094e+00,-8.796565532684326172e-01,-2.677215635776519775e-01,3.680000000000000000e+02
-1.121421879707870630e+02,-2.212220814106742637e+02,1.794997552954796447e+02,5.528068489058037812e+03,-6.390784413559890709e+01,9.810036286169315645e+02,-8.191142581197152595e+01,-7.203620009442602168e+01,9.523238182067871094e+00,-8.796565532684326172e-01,-2.677215635776519775e-01,3.690000000000000000e+02
-1.146116686683511716e+02,-2.228347499684609829e+02,1.739864067642959071e+02,5.468302659239612694e+03,-6.800229184376439662e+01,9.719104579897993972e+02,-8.231285303235517858e+01,-7.300644942174471907e+01,9.523238182067871094e+00,-8.796565532684326172e-01,-2.677215635776519775e-01,3.700000000000000000e+02
-1.187813820212111295e+02,-2.214459675366223337e+02,1.696626367287653920e+02,5.409491413453944915e+03,-7.202601441731121668e+01,9.630332898921196829e+02,-8.146743248654934177e+01,-7.281643933288455628e+01,9.523238182067871094e+00,-8.796565532684326172e-01,-2.677215635776519775e-01,3.710000000000000000e+02
-1.241816949370609109e+02,-2.189531096405585231e+02,1.653383472686680307e+02,5.350433684795547379e+03,-7.676994042004594121e+01,9.539632281061644790e+02,-8.174913249880728472e+01,-7.332193831120866889e+01,9.523238182067871094e+00,-8.796565532684326172e-01,-2.677215635776519775e-01,3.720000000000000000e+02
-1.282227966825917065e+02,-2.173524816575254590e+02,1.601618365729066227e+02,5.290399526664436053e+03,-8.223332361712550664e+01,9.444357851410618423e+02,-8.438834340407140644e+01,-7.569785239623934103e+01,9.523238182067871094e+00,-8.796565532684326172e-01,-2.677215635776519775e-01,3.730000000000000000e+02
-1.280632953743918279e+02,-2.176160105988759028e+02,1.543642982691094403e+02,5.229749572318858554e+03,-8.769800688963778157e+01,9.344328906195642048e+02,-8.872902515297437276e+01,-7.976716863923729761e+01,9.523238182067871094e+00,-8.796565532684326172e-01,-2.677215635776519775e-01,3.740000000000000000e+02
-1.228952750656749231e+02,-2.195410294059973353e+02,1.489467986528718484e+02,5.169710350115935398e+03,-9.227132647014218492e+01,9.242158553420995304e+02,-9.314093255186617171e+01,-8.445946054596799968e+01,9.523238182067871094e+00,-8.796565532684326172e-01,-2.677215635776519775e-01,3.750000000000000000e+02
-1.147171240817335729e+02,-2.224228024881783199e+02,1.445625150793234752e+02,5.111462251352113526e+03,-9.558697577137490953e+01,9.141716405950983244e+02,-9.669155339950759753e+01,-8.891374408500246318e+01,9.523238182067871094e+00,-8.796565532684326172e-01,-2.677215635776519775e-01,3.760000000000000000e+02
-1.069606915024896807e+02,-2.257645283871044626e+02,1.406754106414296075e+02,5.055260871307127672e+03,-9.818760799700930875e+01,9.044982194508406792e+02,-9.999652617009246569e+01,-9.319273097350355783e+01,9.523238182067871094e+00,-8.796565532684326172e-01,-2.677215635776519775e-01,3.770000000000000000e+02
-1.021462391922545976e+02,-2.293881355935214401e+02,1.359226632440313551e+02,5.000372959566561804e+03,-1.011925350960830201e+02,8.950273190189509478e+02,-1.044284195111051758e+02,-9.793795917364468551e+01,9.523238182067871094e+00,-8.796565532684326172e-01,-2.677215635776519775e-01,3.780000000000000000e+02
-1.004845420261096933e+02,-2.329555874096863022e+02,1.295052444939997258e+02,4.945851045142117073e+03,-1.053575661513084469e+02,8.854279058128895485e+02,-1.103577521674247919e+02,-1.032512139070292960e+02,9.523238182067871094e+00,-8.796565532684326172e-01,-2.677215635776519775e-01,3.790000000000000000e+02
-1.003767828956988524e+02,-2.355222534506287957e+02,1.223595222348872085e+02,4.891385825708675839e+03,-1.102256246477563764e+02,8.756316694206661850e+02,-1.160624796233441884e+02,-1.078552155113836761e+02,9.523238182067871094e+00,-8.796565532684326172e-01,-2.677215635776519775e-01,3.800000000000000000e+02
-1.000599373340999136e+02,-2.357659681617353726e+02,1.168749763639182220e+02,4.837416864921017805e+03,-1.141550951022620666e+02,8.660116269667855704e+02,-1.184857847812498903e+02,-1.094670063749924793e+02,9.523238182067871094e+00,-8.796565532684326172e-01,-2.677215635776519775e-01,3.810000000000000000e+02
-9.880760893849128479e+01,-2.328885330445252748e+02,1.151645816618831759e+02,4.784401487575521969e+03,-1.153292021624388326e+02,8.570657133453992174e+02,-1.154528685048420584e+02,-1.063302816148327565e+02,9.523238182067871094e+00,-8.796565532684326172e-01,-2.677215635776519775e-01,3.820000000000000000e+02
-9.683401389816094706e+01,-2.274419664156486647e+02,1.172823242425590706e+02,4.732066866886767457e+03,-1.129616524882444537e+02,8.489184452512754433e+02,-1.076029413502103580e+02,-9.877265474561045266e+01,9.523238182067871094e+00,-8.796565532684326172e-01,-2.677215635776519775e-01,3.830000000000000000e+02
-9.447392293072925895e+01,-2.212014460834350871e+02,1.209947880053609879e+02,4.679478586216438089e+03,-1.077249551590416559e+02,8.411860663791176194e+02,-9.830971893482546875e+01,-8.939782082880901726e+01,9.523238182067871094e+00,-8.796565532684326172e-01,-2.677215635776519775e-01,3.840000000000000000e+02
-9.180082714988361658e+01,-2.159866098880032155e+02,1.234216805429850865e+02,4.625888870298112124e+03,-1.011303621601250597e+02,8.333611879376185243e+02,-9.146612054823037852e+01,-8.152458511104896388e+01,9.523238182067871094e+00,-8.796565532684326172e-01,-2.677215635776519775e-01,3.850000000000000000e+02
-8.903869417541773146e+01,-2.123880775723731631e+02,1.231697933960972478e+02,4.571504691934253970e+03,-9.451760283495400472e+01,8.252995254435145398e+02,-8.888074425741001505e+01,-7.701550452139008485e+01,9.523238182067871094e+00,-8.796565532684326172e-01,-2.677215635776519775e-01,3.860000000000000000e+02
-8.698383613791338576e+01,-2.096052963655738495e+02,1.211175563557678743e+02,4.517359047244561225e+03,-8.855924918258915568e+01,8.172835191066533298e+02,-8.942768113404474661e+01,-7.527882819480259968e+01,9.523238182067871094e+00,-8.796565532684326172e-01,-2.677215635776519775e-01,3.870000000000000000e+02
-8.653369478136164616e+01,-2.066089789090965496e+02,1.192330996006983241e+02,4.464419418588735425e+03,-8.353281693700955657e+01,8.096395506062872300e+02,-9.055674740361382646e+01,-7.427397294959018836e+01,9.523238182067871094e+00,-8.796565532684326172e-01,-2.677215635776519775e-01,3.880000000000000000e+02
-8.754433343668392808e+01,-2.034542788237401965e+02,1.186065442245867416e+02,4.412784444801500285e+03,-7.982572916405092656e+01,8.023580716109991045e+02,-9.062813553668274835e+01,-7.254472235320668005e+01,9.523238182067871094e+00,-8.796565532684326172e-01,-2.677215635776519775e-01,3.890000000000000000e+02
-8.828891957497853582e+01,-2.013045199020388054e+02,1.185625862656875142e+02,4.361700489057580853e+03,-7.798214960697873721e+01,7.951135264689364703e+02,-8.987796309767782077e+01,-7.037231725015726624e+01,9.523238182067871094e+00,-8.796565532684326172e-01,-2.677215635776519775e-01,3.900000000000000000e+02
-8.643044100315091782e+01,-2.010247836969285800e+02,1.176022479812136226e+02,4.310321174536478793e+03,-7.817304268835505354e+01,7.876128154593552608e+02,-8.931935439041023983e+01,-6.904071843003998765e+01,9.523238182067871094e+00,-8.796565532684326172e-01,-2.677215635776519775e-01,3.910000000000000000e+02
-8.092909115923998797e+01,-2.018259678953359071e+02,1.151116304666684300e+02,4.258434428661247694e+03,-7.966643247052661536e+01,7.798592384880485042e+02,-8.904789691716052857e+01,-6.912234826328904091e+01,9.523238182067871094e+00,-8.796565532684326172e-01,-2.677215635776519775e-01,3.920000000000000000e+02
-7.318610848730577345e+01,-2.015746829694789994e+02,1.120933494104160673e+02,4.206556826198873750e+03,-8.094766290165512146e+01,7.720675610498692549e+02,-8.793754293611459616e+01,-6.965242539198504801e+01,9.523238182067871094e+00,-8.796565532684326172e-01,-2.677215635776519775e-01,3.930000000000000000e+02
-6.622969699190593929e+01,-1.986809469990503203e+02,1.102390776200049913e+02,4.155402605238916294e+03,-8.056225552053456340e+01,7.643569822132585614e+02,-8.504648518099099874e+01,-6.905073184845662126e+01,9.523238182067871094e+00,-8.796565532684326172e-01,-2.677215635776519775e-01,3.940000000000000000e+02
-6.246817871417556489e+01,-1.936578766333997237e+02,1.103960291534465341e+02,4.105270508744600193e+03,-7.803810319232388792e+01,7.565623495177333098e+02,-8.102397857708160700e+01,-6.673832258467007250e+01,9.446745872497558594e+00,-9.561483860015869141e-01,-2.294756323099136353e-01,3.950000000000000000e+02
-6.181013127797996276e+01,-1.885840932205728677e+02,1.120497037270965848e+02,4.055873321569812106e+03,-7.406242642696997791e+01,7.483637030814079480e+02,-7.769360484246681153e+01,-6.363698560971874940e+01,9.446745872497558594e+00,-9.561483860015869141e-01,-2.294756323099136353e-01,3.960000000000000000e+02
-6.166160374292007873e+01,-1.848316656152935593e+02,1.142880644887090966e+02,4.006649798947468298e+03,-6.969932672082336467e+01,7.396213146735644841e+02,-7.601945028154932515e+01,-6.097104106642836996e+01,9.446745872497558594e+00,-9.561483860015869141e-01,-2.294756323099136353e-01,3.970000000000000000e+02
-5.877841540391568742e+01,-1.813751465758555241e+02,1.170736115028812492e+02,3.957245009704589393e+03,-6.531896238435865598e+01,7.306303923643445160e+02,-7.463072331466810283e+01,-5.869756905456688401e+01,9.446745872497558594e+00,-9.561483860015869141e-01,-2.294756323099136353e-01,3.980000000000000000e+02
-5.161413024794410376e+01,-1.756102961990669655e+02,1.212855578303913262e+02,3.907718607178117963e+03,-6.027463584101064953e+01,7.220463007345570077e+02,-7.075464843030681550e+01,-5.537376678979262579e+01,9.446745872497558594e+00,-9.561483860015869141e-01,-2.294756323099136353e-01,3.990000000000000000e+02
-4.155472888226131545e+01,-1.661335496117379762e+02,1.273394495060329064e+02,3.858334253881137556e+03,-5.373876582035222782e+01,7.144831965202329229e+02,-6.298187108099875786e+01,-4.976867073313474066e+01,9.446745872497558594e+00,-9.561483860015869141e-01,-2.294756323099136353e-01,4.000000000000000000e+02
-3.226526747205844003e+01,-1.548332010955218720e+02,1.338434749287723662e+02,3.809180683428443444e+03,-4.596284300221009289e+01,7.080616587933809569e+02,-5.325174644775324850e+01,-4.261281179031925603e+01,9.446745872497558594e+00,-9.561483860015869141e-01,-2.294756323099136353e-01,4.010000000000000000e+02
-2.756282080735581985e+01,-1.461284290338327310e+02,1.379110637015282919e+02,3.760002428327303278e+03,-3.868455933264044688e+01,7.022843451459448261e+02,-4.596013902644017435e+01,-3.658919781687609429e+01,9.446745872497558594e+00,-9.561483860015869141e-01,-2.294756323099136353e-01,4.020000000000000000e+02
-2.912363959576305206e+01,-1.438509164417710053e+02,1.371422037498339250e+02,3.710469627764257893e+03,-3.410530814754679341e+01,6.964100455298466841e+02,-4.478001874367669188e+01,-3.439048190273865657e+01,9.446745872497558594e+00,-9.561483860015869141e-01,-2.294756323099136353e-01,4.030000000000000000e+02
-3.547738207496263385e+01,-1.484757220860334428e+02,1.315271380078293078e+02,3.660645418843490916e+03,-3.327855124357552086e+01,6.900370251930053200e+02,-4.994537556261843747e+01,-3.661844065282093652e+01,9.446745872497558594e+00,-9.561483860015869141e-01,-2.294756323099136353e-01,4.040000000000000000e+02
-4.295732966355490134e+01,-1.570305428605644238e+02,1.234701218126670028e+02,3.611172634642829507e+03,-3.540832648800665083e+01,6.833632519962156948e+02,-5.830711967159595588e+01,-4.147998298559764407e+01,9.446745872497558594e+00,-9.561483860015869141e-01,-2.294756323099136353e-01,4.050000000000000000e+02
-4.796386022372394109e+01,-1.655103252645294560e+02,1.158847667280786027e+02,3.562936449165246813e+03,-3.871914737369297654e+01,6.768588472488781917e+02,-6.592620293528193542e+01,-4.648819650342647947e+01,9.446745872497558594e+00,-9.561483860015869141e-01,-2.294756323099136353e-01,4.060000000000000000e+02
-4.894054286036612211e+01,-1.715257432364089709e+02,1.101137441657142517e+02,3.516428828937721846e+03,-4.201518309510720428e+01,6.706650725069866894e+02,-7.083334866213544956e+01,-5.050019054493986914e+01,9.446745872497558594e+00,-9.561483860015869141e-01,-2.294756323099136353e-01,4.070000000000000000e+02
-4.670821534205720127e+01,-1.750739177036350611e+02,1.054920905184480944e+02,3.471384732157785038e+03,-4.537860337494453233e+01,6.643611148407835572e+02,-7.373523503156820880e+01,-5.424021497527405700e+01,9.446745872497558594e+00,-9.561483860015869141e-01,-2.294756323099136353e-01,4.080000000000000000e+02
-4.321346283749744543e+01,-1.772931538090870163e+02,1.007108782325205993e+02,3.426983361012424211e+03,-4.940660246355923846e+01,6.573781912813583403e+02,-7.648827596494538739e+01,-5.899991228232238427e+01,9.446745872497558594e+00,-9.561483860015869141e-01,-2.294756323099136353e-01,4.090000000000000000e+02
-4.006473079937927650e+01,-1.788130446678467251e+02,9.544244659084915838e+01,3.382408185960932315e+03,-5.395005854487499164e+01,6.496323600850182629e+02,-8.005047612442717764e+01,-6.491699693231271340e+01,9.446745872497558594e+00,-9.561483860015869141e-01,-2.294756323099136353e-01,4.100000000000000000e+02
-3.811830565613809085e+01,-1.793038284007261609e+02,9.063749104000453372e+01,3.337311468149524444e+03,-5.780001276727398363e+01,6.416916243706491514e+02,-8.373754490265423556e+01,-7.050268611458636769e+01,9.446745872497558594e+00,-9.561483860015869141e-01,-2.294756323099136353e-01,4.110000000000000000e+02
-3.803382897870096713e+01,-1.783661599367633244e+02,8.737516109783678075e+01,3.291879262376827683e+03,-5.970728552469540773e+01,6.342748170035611111e+02,-8.616926557367935402e+01,-7.381168036294207013e+01,9.446745872497558594e+00,-9.561483860015869141e-01,-2.294756323099136353e-01,4.120000000000000000e+02
-4.060475572317682236e+01,-1.765544451070629748e+02,8.560109923728259673e+01,3.246611481803960487e+03,-5.965804542472301364e+01,6.275978728709733332e+02,-8.674550472229589104e+01,-7.410069971885695850e+01,9.446745872497558594e+00,-9.561483860015869141e-01,-2.294756323099136353e-01,4.130000000000000000e+02
-4.607728162464945854e+01,-1.753305196253614895e+02,8.406571654606841548e+01,3.202019176417541530e+03,-5.907123775901300178e+01,6.212236974095885671e+02,-8.620655956327004787e+01,-7.245610815333566279e+01,9.446745872497558594e+00,-9.561483860015869141e-01,-2.294756323099136353e-01,4.140000000000000000e+02
-5.313258160322448020e+01,-1.759688751679228744e+02,8.145512803101723875e+01,3.158354758262636096e+03,-5.970759737160460645e+01,6.145233511864371394e+02,-8.589489423887641806e+01,-7.089557889648176570e+01,9.446745872497558594e+00,-9.561483860015869141e-01,-2.294756323099136353e-01,4.150000000000000000e+02
-5.897961101725991284e+01,-1.784695214456852455e+02,7.755382031154863398e+01,3.115443548423001630e+03,-6.232304531377712919e+01,6.072423020301794168e+02,-8.653863726980137017e+01,-7.075909359053480330e+01,9.484992027282714844e+00,-9.943943619728088379e-01,-2.294756323099136353e-01,4.160000000000000000e+02
-6.102630365273284951e+01,-1.815020303756152771e+02,7.335366742839187282e+01,3.072715378745315320e+03,-6.623121019214113403e+01,5.996336510572928091e+02,-8.773181514222051192e+01,-7.174778622754502067e+01,9.484992027282714844e+00,-9.943943619728088379e-01,-2.294756323099136353e-01,4.170000000000000000e+02
-5.883154536056508732e+01,-1.834327346107652374e+02,7.010552551835144186e+01,3.029572379481996904e+03,-6.996962994045816231e+01,5.921530717605355676e+02,-8.854554163195848560e+01,-7.234092136504818882e+01,9.484992027282714844e+00,-9.943943619728088379e-01,-2.294756323099136353e-01,4.180000000000000000e+02
-5.448307008898405002e+01,-1.835123396951487393e+02,6.825750059964502725e+01,2.985890236415159961e+03,-7.234071557500601557e+01,5.851141313989537593e+02,-8.861150026546329173e+01,-7.116611644891645483e+01,9.484992027282714844e+00,-9.943943619728088379e-01,-2.294756323099136353e-01,4.190000000000000000e+02
-5.092061827715428990e+01,-1.822267010835219025e+02,6.719086778746782329e+01,2.942199264692666475e+03,-7.302785231674715760e+01,5.785971756399358128e+02,-8.858251814054199258e+01,-6.820277726922677175e+01,9.484992027282714844e+00,-9.943943619728088379e-01,-2.294756323099136353e-01,4.200000000000000000e+02
-4.964292500595388447e+01,-1.806299320216551223e+02,6.585134989393895921e+01,2.899297658899342423e+03,-7.256703487312506695e+01,5.725306154997060730e+02,-8.948437870665236460e+01,-6.492112358957160723e+01,9.484992027282714844e+00,-9.943943619728088379e-01,-2.294756323099136353e-01,4.210000000000000000e+02
-4.979971395824532010e+01,-1.793673240534602655e+02,6.361796245184223153e+01,2.857578164953401938e+03,-7.195190101936168503e+01,5.667164084727774025e+02,-9.155696442875989760e+01,-6.331141704664514691e+01,9.484992027282714844e+00,-9.943943619728088379e-01,-2.294756323099136353e-01,4.220000000000000000e+02
-4.932305599408960006e+01,-1.782893537586662660e+02,6.069372023870278099e+01,2.816762212795147207e+03,-7.217191554637383888e+01,5.607881752927096386e+02,-9.372403289871806464e+01,-6.454701902687020265e+01,9.484992027282714844e+00,-9.943943619728088379e-01,-2.294756323099136353e-01,4.230000000000000000e+02
-4.690946615956909227e+01,-1.768969266464356451e+02,5.782838181009879008e+01,2.776326263463868600e+03,-7.381055558173648024e+01,5.542783655294424534e+02,-9.429469668652632208e+01,-6.818891920931105233e+01,9.484992027282714844e+00,-9.943943619728088379e-01,-2.294756323099136353e-01,4.240000000000000000e+02
-4.308868512797039330e+01,-1.750791459432003876e+02,5.573270081223699890e+01,2.736157905465643125e+03,-7.678941833927001426e+01,5.468654454061088472e+02,-9.237516598307252025e+01,-7.242520406689027368e+01,9.484992027282714844e+00,-9.943943619728088379e-01,-2.294756323099136353e-01,4.250000000000000000e+02
-3.965114943560001848e+01,-1.733889821613021240e+02,5.467253441423872573e+01,2.696721070544866961e+03,-8.039625772164072259e+01,5.386234029506740626e+02,-8.876596969293700568e+01,-7.515643292155323252e+01,9.484992027282714844e+00,-9.943943619728088379e-01,-2.294756323099136353e-01,4.260000000000000000e+02
-3.818980724903371993e+01,-1.726025876010363618e+02,5.445649383397812926e+01,2.658527533240277990e+03,-8.362891918720742979e+01,5.300148459585152523e+02,-8.549630885448675599e+01,-7.521442266427993673e+01,9.484992027282714844e+00,-9.943943619728088379e-01,-2.294756323099136353e-01,4.270000000000000000e+02
-3.908144943597017118e+01,-1.729943516469094220e+02,5.468850831252279932e+01,2.621560496972848341e+03,-8.565627394360080871e+01,5.216052136374555630e+02,-8.433425285610655919e+01,-7.295367832062606794e+01,9.484992027282714844e+00,-9.943943619728088379e-01,-2.294756323099136353e-01,4.280000000000000000e+02
-4.157763930207784142e+01,-1.740025020166001468e+02,5.501992296850426101e+01,2.585332907586263900e+03,-8.611807214734562876e+01,5.137274369839851715e+02,-8.549693945742433243e+01,-6.985538638727189209e+01,9.484992027282714844e+00,-9.943943619728088379e-01,-2.294756323099136353e-01,4.290000000000000000e+02
-4.466879226691980875e+01,-1.746004194549232125e+02,5.523863229283597320e+01,2.549524330724485480e+03,-8.514894273002028058e+01,5.063428083396756847e+02,-8.762620306857718333e+01,-6.743745631995830081e+01,9.484992027282714844e+00,-9.943943619728088379e-01,-2.294756323099136353e-01,4.300000000000000000e+02
-4.788925996137663788e+01,-1.740616275874994017e+02,5.522037701008298427e+01,2.514451245051584920e+03,-8.324334497314202963e+01,4.991626063150388291e+02,-8.901392735321473992e+01,-6.625253212333086594e+01,9.484992027282714844e+00,-9.943943619728088379e-01,-2.294756323099136353e-01,4.310000000000000000e+02
-5.146005082097963168e+01,-1.724893649689463473e+02,5.485317018685100265e+01,2.480762862162027886e+03,-8.111201188007089513e+01,4.919019609037195551e+02,-8.901323550289714603e+01,-6.570460002184313453e+01,9.484992027282714844e+00,-9.943943619728088379e-01,-2.294756323099136353e-01,4.320000000000000000e+02
-5.573088184691914648e+01,-1.707131485471379619e+02,5.401078814590596266e+01,2.448681796548273269e+03,-7.953054276900184050e+01,4.844947354171190455e+02,-8.846389337527455154e+01,-6.480120119782532129e+01,9.484992027282714844e+00,-9.943943619728088379e-01,-2.294756323099136353e-01,4.330000000000000000e+02
-6.043910383624165661e+01,-1.696705801038940535e+02,5.257849197372934213e+01,2.417617785430717049e+03,-7.912472583456383290e+01,4.771287784740088682e+02,-8.883928717669323305e+01,-6.320067234198972983e+01,9.484992027282714844e+00,-9.943943619728088379e-01,-2.294756323099136353e-01,4.340000000000000000e+02
-6.444166684520610033e+01,-1.697643389414613466e+02,5.050720280503810500e+01,2.386615857501263235e+03,-8.015343689187056953e+01,4.700708332252261243e+02,-9.091005897157026538e+01,-6.164323476400431900e+01,9.484992027282714844e+00,-9.943943619728088379e-01,-2.294756323099136353e-01,4.350000000000000000e+02
-6.625629442213858056e+01,-1.706543411314473815e+02,4.790595747050815589e+01,2.355221780211933947e+03,-8.243215638679339463e+01,4.634096878589862172e+02,-9.406721069577361050e+01,-6.136483910170591116e+01,9.484992027282714844e+00,-9.943943619728088379e-01,-2.294756323099136353e-01,4.360000000000000000e+02
-6.510607031606355122e+01,-1.715835615826197227e+02,4.516211400910583507e+01,2.323874655160852853e+03,-8.545498217262729668e+01,4.569407188251934713e+02,-9.680977716546158263e+01,-6.297880613336587885e+01,9.484992027282714844e+00,-9.943943619728088379e-01,-2.294756323099136353e-01,4.370000000000000000e+02
-6.164781535620159048e+01,-1.719250442606173692e+02,4.296504774891491252e+01,2.293477837824320886e+03,-8.859536054565091945e+01,4.503472493055332961e+02,-9.789024365698116981e+01,-6.579455584852848915e+01,9.484992027282714844e+00,-9.943943619728088379e-01,-2.294756323099136353e-01,4.380000000000000000e+02
-5.769995706253985190e+01,-1.715207182306245386e+02,4.205765250084277795e+01,2.264575707434934884e+03,-9.125045594201810673e+01,4.435363939239477986e+02,-9.712025256423282826e+01,-6.819096247664515431e+01,9.484992027282714844e+00,-9.943943619728088379e-01,-2.294756323099136353e-01,4.390000000000000000e+02
-5.505847340234754483e+01,-1.706390245176122562e+02,4.272875094330242973e+01,2.236917762952598423e+03,-9.292737186487124745e+01,4.367750623675647148e+02,-9.527280411941490001e+01,-6.876110904430879600e+01,9.484992027282714844e+00,-9.943943619728088379e-01,-2.294756323099136353e-01,4.400000000000000000e+02
-5.427438110169077845e+01,-1.697166973496921401e+02,4.437280501066243232e+01,2.209765365341185316e+03,-9.337487494005881672e+01,4.304276021701052741e+02,-9.337048520457665290e+01,-6.729962936815104513e+01,9.446745872497558594e+00,-9.561483860015869141e-01,-1.912296712398529053e-01,4.410000000000000000e+02
-5.435629834892688450e+01,-1.691161718324041203e+02,4.558352310696000131e+01,2.182574492873640338e+03,-9.274988562297357930e+01,4.245252213286221377e+02,-9.206228814376459013e+01,-6.484539710667195322e+01,9.446745872497558594e+00,-9.561483860015869141e-01,-1.912296712398529053e-01,4.420000000000000000e+02
-5.363056584794662740e+01,-1.689716504517067506e+02,4.492842415787345089e+01,2.155449066671742912e+03,-9.164024150817067493e+01,4.186463615704933545e+02,-9.149019387377268231e+01,-6.279462007635606824e+01,9.446745872497558594e+00,-9.561483860015869141e-01,-1.912296712398529053e-01,4.430000000000000000e+02
-5.106954449892873527e+01,-1.690612122454373321e+02,4.194347000542575188e+01,2.128994060329339845e+03,-9.081041112670800430e+01,4.122925736736306135e+02,-9.147342715376601063e+01,-6.184417474331849007e+01,9.446745872497558594e+00,-9.561483860015869141e-01,-1.912296712398529053e-01,4.440000000000000000e+02
-4.705518182379387326e+01,-1.687526713259799180e+02,3.755616659566567250e+01,2.103761666399837850e+03,-9.076858101372181409e+01,4.054047146914726909e+02,-9.167159500290176766e+01,-6.162507229688230836e+01,9.446745872497558594e+00,-9.561483860015869141e-01,-1.912296712398529053e-01,4.450000000000000000e+02
-4.307118885104546280e+01,-1.672603764204563959e+02,3.349728724336068808e+01,2.079817299803464266e+03,-9.145831814749294608e+01,3.984768262225143189e+02,-9.169467493380216183e+01,-6.128728470538726469e+01,9.446745872497558594e+00,-9.561483860015869141e-01,-1.912296712398529053e-01,4.460000000000000000e+02
-4.070000282013143078e+01,-1.642747788028552804e+02,3.108285484457519487e+01,2.056773529123944172e+03,-9.233875351941878762e+01,3.921215833200503766e+02,-9.133724401314191255e+01,-6.049084060367817983e+01,9.446745872497558594e+00,-9.561483860015869141e-01,-1.912296712398529053e-01,4.470000000000000000e+02
-4.074763056831716312e+01,-1.605363291164776456e+02,3.032228633981480925e+01,2.034252626421359309e+03,-9.283126517890286777e+01,3.865141006176263545e+02,-9.089251507258188667e+01,-5.990930201710716574e+01,9.446745872497558594e+00,-9.561483860015869141e-01,-1.912296712398529053e-01,4.480000000000000000e+02
-4.304541794107240094e+01,-1.576502689642849191e+02,3.007475226183441919e+01,2.012305180673430186e+03,-9.282794450144683651e+01,3.812485908669586934e+02,-9.111619926126695646e+01,-6.073912597803746394e+01,9.446745872497558594e+00,-9.561483860015869141e-01,-1.912296712398529053e-01,4.490000000000000000e+02
-4.683722576134186966e+01,-1.569328133749515928e+02,2.913004863702235525e+01,1.991358769861732071e+03,-9.284277825092408420e+01,3.757140490344872887e+02,-9.254917587385898514e+01,-6.353602710841812495e+01,9.446745872497558594e+00,-9.561483860015869141e-01,-1.912296712398529053e-01,4.500000000000000000e+02
-5.125770639007350837e+01,-1.581056347574950678e+02,2.733312368702218009e+01,1.971736849955308571e+03,-9.357512046657370774e+01,3.696060596746510782e+02,-9.462950943037640172e+01,-6.734379731565422844e+01,9.446745872497558594e+00,-9.561483860015869141e-01,-1.912296712398529053e-01,4.510000000000000000e+02
-5.551870664160196611e+01,-1.591115007575839400e+02,2.584706319194197022e+01,1.953205239609633281e+03,-9.508941557076832396e+01,3.631387385605921736e+02,-9.554770663875888204e+01,-6.993439699808470777e+01,9.446745872497558594e+00,-9.561483860015869141e-01,-1.912296712398529053e-01,4.520000000000000000e+02
-5.881345479037827317e+01,-1.575101019792425632e+02,2.636366179132392062e+01,1.935058923936791871e+03,-9.625255715736943785e+01,3.568817845994954041e+02,-9.333232954103232260e+01,-6.911788830107980175e+01,9.446745872497558594e+00,-9.561483860015869141e-01,-1.912296712398529053e-01,4.530000000000000000e+02
-6.025798457833229804e+01,-1.523938130526033774e+02,2.989032831151462233e+01,1.916697075174462952e+03,-9.510536480610608123e+01,3.514338553208899611e+02,-8.742303041497018512e+01,-6.416884115277935052e+01,9.446745872497558594e+00,-9.561483860015869141e-01,-1.912296712398529053e-01,4.540000000000000000e+02
-5.908007941618552650e+01,-1.451210626331513822e+02,3.601805024272493938e+01,1.898131955202303288e+03,-9.017884065255429960e+01,3.471505863140691872e+02,-7.931537694099688451e+01,-5.627653881909191114e+01,9.446745872497558594e+00,-9.561483860015869141e-01,-1.912296712398529053e-01,4.550000000000000000e+02
-5.494418426847983028e+01,-1.381746108599377294e+02,4.316162022949902166e+01,1.879941040397801771e+03,-8.182937751366762313e+01,3.440022839897219455e+02,-7.156557612866333784e+01,-4.770964878423001210e+01,9.446745872497558594e+00,-9.561483860015869141e-01,-1.912296712398529053e-01,4.560000000000000000e+02
-4.815458863855155869e+01,-1.332153187162491008e+02,4.952115052634371750e+01,1.862706838535636962e+03,-7.237893453191713888e+01,3.415651483455212656e+02,-6.597767358233295454e+01,-4.044134338812818896e+01,9.446745872497558594e+00,-9.561483860015869141e-01,-1.912296712398529053e-01,4.570000000000000000e+02
-3.961399025408036323e+01,-1.301232029736133882e+02,5.401636665690421069e+01,1.846537675938815482e+03,-6.470516194104334318e+01,3.391798019228599514e+02,-6.261222480118397016e+01,-3.533645197219914280e+01,9.446745872497558594e+00,-9.561483860015869141e-01,-1.912296712398529053e-01,4.580000000000000000e+02
-3.065021986200622450e+01,-1.277534180876298819e+02,5.654607796273239728e+01,1.831077109190638112e+03,-6.034577279087443458e+01,3.362364124047480800e+02,-6.044923182396973971e+01,-3.236436576297262491e+01,9.446745872497558594e+00,-9.561483860015869141e-01,-1.912296712398529053e-01,4.590000000000000000e+02
-2.283221668854071140e+01,-1.253863403302868278e+02,5.753457472711397713e+01,1.815894568383321712e+03,-5.873855240973034597e+01,3.324373625644184358e+02,-5.888876556224772685e+01,-3.132756425373941056e+01,9.446745872497558594e+00,-9.561483860015869141e-01,-1.912296712398529053e-01,4.600000000000000000e+02
-1.769564763462085466e+01,-1.233110253305767401e+02,5.730442997532804839e+01,1.800820922377505667e+03,-5.821426073526208711e+01,3.278688286382325714e+02,-5.850202554909651553e+01,-3.222557143224980791e+01,9.446745872497558594e+00,-9.561483860015869141e-01,-1.912296712398529053e-01,4.610000000000000000e+02
-1.623943649557543267e+01,-1.221199227656264270e+02,5.588350763091011686e+01,1.785940599673006545e+03,-5.769203605113852973e+01,3.228635696627220568e+02,-6.030282573435169979e+01,-3.491831716952685838e+01,9.446745872497558594e+00,-9.561483860015869141e-01,-1.912296712398529053e-01,4.620000000000000000e+02
-1.834472855445665118e+01,-1.217400062467220323e+02,5.337913586541549193e+01,1.771430858871326564e+03,-5.737693954673659391e+01,3.178216550154702418e+02,-6.435001345179205146e+01,-3.858665738677086665e+01,9.446745872497558594e+00,-9.561483860015869141e-01,-1.912296712398529053e-01,4.630000000000000000e+02
-2.262789382854134601e+01,-1.213750386844792502e+02,5.045178675806096180e+01,1.757493383740907120e+03,-5.790391417097589510e+01,3.131119508106362446e+02,-6.912928883269978542e+01,-4.172461198853500264e+01,9.446745872497558594e+00,-9.561483860015869141e-01,-1.912296712398529053e-01,4.640000000000000000e+02
-2.709032389201934166e+01,-1.203530510712097907e+02,4.827496290554358893e+01,1.744362110031497650e+03,-5.904751281511926209e+01,3.090138150094917364e+02,-7.236569514513871582e+01,-4.284853557465862650e+01,9.446745872497558594e+00,-9.561483860015869141e-01,-1.912296712398529053e-01,4.650000000000000000e+02
-3.025292637277016183e+01,-1.188142161376870831e+02,4.784517638556849306e+01,1.732205671111392803e+03,-5.952573845689539667e+01,3.056182967761315012e+02,-7.256141002188928724e+01,-4.138625877629146999e+01,9.446745872497558594e+00,-9.561483860015869141e-01,-1.912296712398529053e-01,4.660000000000000000e+02
-3.192373007206799684e+01,-1.174511362027421910e+02,4.916463513646181127e+01,1.720883651201738758e+03,-5.815820373378005570e+01,3.027542814985072255e+02,-6.997467425014178843e+01,-3.803193762589728522e+01,9.446745872497558594e+00,-9.561483860015869141e-01,-1.912296712398529053e-01,4.670000000000000000e+02
-3.294392639833222347e+01,-1.166746027754342663e+02,5.105422265041966057e+01,1.709874627865621733e+03,-5.508575270301093951e+01,3.000969998639807272e+02,-6.633078538443533034e+01,-3.429949456873589497e+01,9.484992027282714844e+00,-9.943943619728088379e-01,-1.912296712398529053e-01,4.680000000000000000e+02
-3.417328317146279915e+01,-1.162159921694114928e+02,5.188430496117553048e+01,1.698591140635156989e+03,-5.169203023504701378e+01,2.974289918797080645e+02,-6.361305349986355395e+01,-3.162255348759049411e+01,9.484992027282714844e+00,-9.943943619728088379e-01,-1.912296712398529053e-01,4.690000000000000000e+02
-3.567442745999869658e+01,-1.155539293444919053e+02,5.073612867990732411e+01,1.686893413186015096e+03,-4.928479766060308975e+01,2.947937626240091049e+02,-6.286703002882632063e+01,-3.061065395607295159e+01,9.484992027282714844e+00,-9.943943619728088379e-01,-1.912296712398529053e-01,4.700000000000000000e+02
-3.681106288795888304e+01,-1.145102458184093166e+02,4.811869662793105817e+01,1.675319170136114735e+03,-4.791877103035039909e+01,2.923553332949632022e+02,-6.373965223758420962e+01,-3.085004202732909562e+01,9.484992027282714844e+00,-9.943943619728088379e-01,-1.912296712398529053e-01,4.710000000000000000e+02
-3.703379481336048684e+01,-1.132142686969522742e+02,4.567628555465034879e+01,1.664734256072595599e+03,-4.654963361962359158e+01,2.901187176700977943e+02,-6.489390255104791549e+01,-3.126887824960022044e+01,9.484992027282714844e+00,-9.943943619728088379e-01,-1.912296712398529053e-01,4.720000000000000000e+02
-3.648695018855687522e+01,-1.115436907093817354e+02,4.508265216252482332e+01,1.655698038013651058e+03,-4.426662566201514437e+01,2.878777776864344560e+02,-6.494308620933583143e+01,-3.082575975883401043e+01,9.484992027282714844e+00,-9.943943619728088379e-01,-1.912296712398529053e-01,4.730000000000000000e+02
-3.587756788777267047e+01,-1.089223633715634207e+02,4.690822157353636612e+01,1.648067872186877139e+03,-4.129867221277436329e+01,2.854898910439196698e+02,-6.330089014551168702e+01,-2.914730637190996276e+01,9.484992027282714844e+00,-9.943943619728088379e-01,-1.912296712398529053e-01,4.740000000000000000e+02
-3.584774340205763110e+01,-1.049913225105253218e+02,5.023953996434738656e+01,1.641135172115935347e+03,-3.883638604608131573e+01,2.831391100428420486e+02,-6.044122084213847756e+01,-2.675729949042789713e+01,9.484992027282714844e+00,-9.943943619728088379e-01,-1.912296712398529053e-01,4.750000000000000000e+02
-3.650286419267064275e+01,-1.005215593829277054e+02,5.329494788628278457e+01,1.634124227605730994e+03,-3.795002172782824346e+01,2.812046088828910797e+02,-5.744366992791077564e+01,-2.472888577065145910e+01,9.484992027282714844e+00,-9.943943619728088379e-01,-1.912296712398529053e-01,4.760000000000000000e+02
-3.745370925884952840e+01,-9.739546941825324211e+01,5.460045643344869859e+01,1.626627846446734111e+03,-3.868251780794389560e+01,2.798028720188985972e+02,-5.516651049917908267e+01,-2.393138936148591256e+01,9.484992027282714844e+00,-9.943943619728088379e-01,-1.912296712398529053e-01,4.770000000000000000e+02
-3.816182446770363867e+01,-9.733706238065599337e+01,5.390443217805591303e+01,1.618760321641593691e+03,-4.007300991238935239e+01,2.785216188068643532e+02,-5.370857000731547259e+01,-2.438005990724161620e+01,9.484992027282714844e+00,-9.943943619728088379e-01,-1.912296712398529053e-01,4.780000000000000000e+02
-3.823818321520303698e+01,-1.004413907412393314e+02,5.220967212093472654e+01,1.611012401156998749e+03,-4.094874975963193720e+01,2.766954842805921544e+02,-5.258732589232928945e+01,-2.519569200469754833e+01,9.484992027282714844e+00,-9.943943619728088379e-01,-1.912296712398529053e-01,4.790000000000000000e+02
-3.759662272114286452e+01,-1.049501791266977335e+02,5.095247064334466813e+01,1.603936333387036939e+03,-4.072866894901477508e+01,2.739768782171126986e+02,-5.143093245478388553e+01,-2.524173446930367959e+01,9.484992027282714844e+00,-9.943943619728088379e-01,-1.912296712398529053e-01,4.800000000000000000e+02
-3.650881453004564037e+01,-1.086187317251201847e+02,5.098197751775433062e+01,1.597825046055665553e+03,-3.963674159712911660e+01,2.706247144277826919e+02,-5.051756896747065184e+01,-2.396900225927007000e+01,9.484992027282714844e+00,-9.943943619728088379e-01,-1.912296712398529053e-01,4.810000000000000000e+02
-3.552547218084473002e+01,-1.104691869681888363e+02,5.210307005707352346e+01,1.592534687886883148e+03,-3.830367676152934564e+01,2.672326003142618447e+02,-5.060806204697047406e+01,-2.181824274730229263e+01,9.484992027282714844e+00,-9.943943619728088379e-01,-1.912296712398529053e-01,4.820000000000000000e+02
-3.518823708919744320e+01,-1.113557872488934208e+02,5.344915228848452671e+01,1.587606190006473298e+03,-3.716999052367054901e+01,2.642141422863467710e+02,-5.220024373805901519e+01,-1.988521596436139305e+01,9.484992027282714844e+00,-9.943943619728088379e-01,-1.912296712398529053e-01,4.830000000000000000e+02
-3.564878585479126372e+01,-1.129070029979475152e+02,5.424344794094585609e+01,1.582600628189097733e+03,-3.617118597280261838e+01,2.615503927105463049e+02,-5.490813957361398678e+01,-1.915185967447899884e+01,9.484992027282714844e+00,-9.943943619728088379e-01,-1.912296712398529053e-01,4.840000000000000000e+02
-3.653370700294529172e+01,-1.159111795776492357e+02,5.425122644927142801e+01,1.577392084248215269e+03,-3.491927972897779853e+01,2.589392929975289235e+02,-5.757380263626079397e+01,-1.988542422826498424e+01,9.484992027282714844e+00,-9.943943619728088379e-01,-1.912296712398529053e-01,4.850000000000000000e+02
-3.725615482535493328e+01,-1.196188701109296915e+02,5.363807219939147330e+01,1.572203151222052838e+03,-3.317731134868528642e+01,2.560904555191723944e+02,-5.903149006527973341e+01,-2.158443628863242481e+01,9.484992027282714844e+00,-9.943943619728088379e-01,-1.912296712398529053e-01,4.860000000000000000e+02
-3.753088249474980387e+01,-1.224364244307765404e+02,5.256324882354182648e+01,1.567384294888076283e+03,-3.117891048636406026e+01,2.528788920647799614e+02,-5.886060771951400739e+01,-2.339089530982161591e+01,9.484992027282714844e+00,-9.943943619728088379e-01,-1.912296712398529053e-01,4.870000000000000000e+02
-3.757623675830700449e+01,-1.231984214658490373e+02,5.103442571275940054e+01,1.563215002532431299e+03,-2.944862483237153583e+01,2.493671915783153281e+02,-5.752731996671138859e+01,-2.458126927499621672e+01,9.484992027282714844e+00,-9.943943619728088379e-01,-1.912296712398529053e-01,4.880000000000000000e+02
-3.783023839925002108e+01,-1.218512869325039958e+02,4.913813159914394646e+01,1.559873432897564726e+03,-2.825806391556614017e+01,2.458110416011425059e+02,-5.590555584497337804e+01,-2.482921216939902820e+01,9.484992027282714844e+00,-9.943943619728088379e-01,-1.912296712398529053e-01,4.890000000000000000e+02
-3.852747805009238391e+01,-1.191856740120692564e+02,4.726504577305792054e+01,1.557481540946911537e+03,-2.725415183792028984e+01,2.426099938072488840e+02,-5.470337110508805267e+01,-2.422137921554895001e+01,9.484992027282714844e+00,-9.943943619728088379e-01,-1.912296712398529053e-01,4.900000000000000000e+02
-3.956506047511999213e+01,-1.162011777310328853e+02,4.594430049988841347e+01,1.556065406316364260e+03,-2.569899819778987649e+01,2.400676598733709852e+02,-5.426826298248448666e+01,-2.316851739112166797e+01,9.484992027282714844e+00,-9.943943619728088379e-01,-1.912296712398529053e-01,4.910000000000000000e+02
-4.066995191027660894e+01,-1.137802770967131778e+02,4.539437546162230319e+01,1.555442146543404306e+03,-2.317026530262717188e+01,2.380549966622374995e+02,-5.471512609754131518e+01,-2.227286895911777265e+01,9.484992027282714844e+00,-9.943943619728088379e-01,-1.912296712398529053e-01,4.920000000000000000e+02
-4.152371858479784805e+01,-1.127269467566762842e+02,4.527999617747218508e+01,1.555274417409738817e+03,-2.005824936109627288e+01,2.359492460751430372e+02,-5.601048736372570147e+01,-2.210440077952637239e+01,9.484992027282714844e+00,-9.943943619728088379e-01,-1.912296712398529053e-01,4.930000000000000000e+02
-4.174376763556233527e+01,-1.136758951904571404e+02,4.498784468255257707e+01,1.555347177382141126e+03,-1.735057710747582860e+01,2.330646266805083542e+02,-5.780761233948226163e+01,-2.286590099663351339e+01,9.484992027282714844e+00,-9.943943619728088379e-01,-1.912296712398529053e-01,4.940000000000000000e+02
-4.100862238851550501e+01,-1.166256258785970203e+02,4.418281437323696537e+01,1.555811362076980913e+03,-1.584803858799568843e+01,2.292837938631992074e+02,-5.928716943029371578e+01,-2.412363100659570136e+01,9.484992027282714844e+00,-9.943943619728088379e-01,-1.912296712398529053e-01,4.950000000000000000e+02
-3.951542306155852202e+01,-1.205550915776119041e+02,4.308295225598726574e+01,1.557104274924455240e+03,-1.550737714218666952e+01,2.252882050251573673e+02,-5.945612824247285744e+01,-2.491649531032760478e+01,9.484992027282714844e+00,-9.943943619728088379e-01,-1.912296712398529053e-01,4.960000000000000000e+02
-3.835903608789601549e+01,-1.237505352993151746e+02,4.220283115370671112e+01,1.559567332251397602e+03,-1.548372998156582980e+01,2.220958320387758249e+02,-5.786217619099033982e+01,-2.431755963806301679e+01,9.484992027282714844e+00,-9.943943619728088379e-01,-1.912296712398529053e-01,4.970000000000000000e+02
-3.911258526412564152e+01,-1.248322028077625419e+02,4.186931189170582002e+01,1.563180798308045269e+03,-1.479101652297663350e+01,2.202911802439371058e+02,-5.510383543367174752e+01,-2.212289775031354111e+01,9.484992027282714844e+00,-9.943943619728088379e-01,-1.912296712398529053e-01,4.980000000000000000e+02
-4.256426359428405704e+01,-1.236783891223866476e+02,4.198995611153259233e+01,1.567665624403339280e+03,-1.302118492999284172e+01,2.196187749249188528e+02,-5.252566288137018091e+01,-1.913999541222619882e+01,9.446745872497558594e+00,-1.032640218734741211e+00,-3.059675097465515137e-01,4.990000000000000000e+02
-4.763159475997576919e+01,-1.213784547561868408e+02,4.224377973900300276e+01,1.572776642685761544e+03,-1.058998337955745228e+01,2.192433298788137108e+02,-5.119678523154482264e+01,-1.677128746465098175e+01,9.446745872497558594e+00,-1.032640218734741211e+00,-3.059675097465515137e-01,5.000000000000000000e+02
-5.165379352517607003e+01,-1.192592285099401579e+02,4.240189796707250025e+01,1.578417687870039117e+03,-8.414135292591709003e+00,2.183658408792107366e+02,-5.108689264069607816e+01,-1.616394376515961540e+01,9.446745872497558594e+00,-1.032640218734741211e+00,-3.059675097465515137e-01,5.010000000000000000e+02
-5.213475394394049545e+01,-1.179234760598582170e+02,4.240459915814017222e+01,1.584438265492412029e+03,-7.326036051709706953e+00,2.166567045982374111e+02,-5.128366442191145325e+01,-1.756621668847401452e+01,9.446745872497558594e+00,-1.032640218734741211e+00,-3.059675097465515137e-01,5.020000000000000000e+02
-4.857541528046658641e+01,-1.171810250506733837e+02,4.217139309826757199e+01,1.590455476951850869e+03,-7.608036621032397306e+00,2.142698942963816080e+02,-5.110799965723720106e+01,-2.033151189528268787e+01,9.446745872497558594e+00,-1.032640218734741211e+00,-3.059675097465515137e-01,5.030000000000000000e+02
-4.283341992359464712e+01,-1.167935654542343400e+02,4.143897736593680747e+01,1.596008462409290587e+03,-8.895064354135229223e+00,2.115888231927556262e+02,-5.100010559645897956e+01,-2.344373836371460129e+01,9.446745872497558594e+00,-1.032640218734741211e+00,-3.059675097465515137e-01,5.040000000000000000e+02
-3.775376254922730368e+01,-1.171323750304050009e+02,3.987408830363915513e+01,1.600941362031577228e+03,-1.045639598105208279e+01,2.089656800063885385e+02,-5.219778938448962435e+01,-2.606400999282664088e+01,9.446745872497558594e+00,-1.032640218734741211e+00,-3.059675097465515137e-01,5.050000000000000000e+02
-3.533475020633159147e+01,-1.189850841606653375e+02,3.738853761454083724e+01,1.605603157753623236e+03,-1.164593870941507703e+01,2.065920367884627922e+02,-5.541458256802616233e+01,-2.771343464257029154e+01,9.446745872497558594e+00,-1.032640218734741211e+00,-3.059675097465515137e-01,5.060000000000000000e+02
-3.591718313858336842e+01,-1.226729167551773116e+02,3.436748599640282009e+01,1.610602141471368668e+03,-1.219833973759341461e+01,2.044969315169601032e+02,-5.978001054997685060e+01,-2.812676759652367764e+01,9.446745872497558594e+00,-1.032640218734741211e+00,-3.059675097465515137e-01,5.070000000000000000e+02
-3.871645591834862898e+01,-1.273641327286848082e+02,3.159900508581995382e+01,1.616331479456679517e+03,-1.215859632671390500e+01,2.026411909373427989e+02,-6.315541766246315092e+01,-2.711133616908227850e+01,9.446745872497558594e+00,-1.032640218734741211e+00,-3.059675097465515137e-01,5.080000000000000000e+02
-4.280782252802373478e+01,-1.312726922987437774e+02,2.994471197504708471e+01,1.622663296686345348e+03,-1.157594700429945078e+01,2.010404070228814817e+02,-6.364902198731920180e+01,-2.463593544301420479e+01,9.446745872497558594e+00,-1.032640218734741211e+00,-3.059675097465515137e-01,5.090000000000000000e+02
-4.756771036957115939e+01,-1.326303668863796474e+02,2.994098543795598744e+01,1.629462829070625958e+03,-1.032759911164748701e+01,1.998037860347831156e+02,-6.105291098801239968e+01,-2.106883831747563818e+01,9.446745872497558594e+00,-1.032640218734741211e+00,-3.059675097465515137e-01,5.100000000000000000e+02
-5.247256425810701330e+01,-1.306876910537822596e+02,3.151617851056653308e+01,1.636755550237690841e+03,-8.289666044041496207e+00,1.990186098581134502e+02,-5.700661204081757205e+01,-1.729081342210952243e+01,9.446745872497558594e+00,-1.032640218734741211e+00,-3.059675097465515137e-01,5.110000000000000000e+02
-5.687631306537605269e+01,-1.260393344493289760e+02,3.396231165663812135e+01,1.644299933317350224e+03,-5.674358266932813422e+00,1.985893026543835731e+02,-5.381275511252897559e+01,-1.448749086392490426e+01,9.446745872497558594e+00,-1.032640218734741211e+00,-3.059675097465515137e-01,5.120000000000000000e+02
-6.016860716460860203e+01,-1.201412305502810796e+02,3.624332822272754129e+01,1.651390895543903753e+03,-3.094772727311465133e+00,1.982640685475707869e+02,-5.288983693793579732e+01,-1.364208501883376812e+01,9.446745872497558594e+00,-1.032640218734741211e+00,-3.059675097465515137e-01,5.130000000000000000e+02
-6.208392306351970547e+01,-1.144163421356770414e+02,3.756186164644668679e+01,1.657337610837492321e+03,-1.180246456397981092e+00,1.978810901118995389e+02,-5.396381653406547230e+01,-1.497119261545503832e+01,9.446745872497558594e+00,-1.032640218734741211e+00,-3.059675097465515137e-01,5.140000000000000000e+02
-6.267355086786255924e+01,-1.095325215534408017e+02,3.789952823644216551e+01,1.662320173140455154e+03,-5.123938163615093799e-02,1.975845919535404391e+02,-5.538670110332463992e+01,-1.763356315094597448e+01,9.446745872497558594e+00,-1.032640218734741211e+00,-3.059675097465515137e-01,5.150000000000000000e+02
-6.189471560786478221e+01,-1.052551153817200884e+02,3.814073386695326917e+01,1.667666864841179631e+03,8.622781101344116905e-01,1.977327676136628725e+02,-5.517544996269339208e+01,-1.995034762164618769e+01,9.446745872497558594e+00,-1.032640218734741211e+00,-3.059675097465515137e-01,5.160000000000000000e+02
-5.932175957918116183e+01,-1.009040078373823235e+02,3.959617331561867104e+01,1.674914483730724896e+03,2.482311925706198963e+00,1.985399445291586744e+02,-5.206282167786889659e+01,-2.011093326842865281e+01,9.446745872497558594e+00,-1.032640218734741211e+00,-3.059675097465515137e-01,5.170000000000000000e+02
-5.443350254964843771e+01,-9.606711452916806593e+01,4.317978810815111501e+01,1.684408520367265737e+03,5.522075702557685872e+00,1.998353712668122171e+02,-4.604027768592482062e+01,-1.701540336295965972e+01,9.446745872497558594e+00,-1.032640218734741211e+00,-3.059675097465515137e-01,5.180000000000000000e+02
-4.733572709734517048e+01,-9.103234306661261144e+01,4.879025814406213613e+01,1.694874895142278547e+03,1.012422513680940028e+01,2.012142618130110350e+02,-3.822243390888934300e+01,-1.075657027515762820e+01,9.446745872497558594e+00,-1.032640218734741211e+00,-3.059675097465515137e-01,5.190000000000000000e+02
-3.926201706457095497e+01,-8.661409134444488700e+01,5.532696911658968020e+01,1.704946974478145421e+03,1.587466685926210630e+01,2.024116332995708945e+02,-3.020624767104027342e+01,-2.459275125585008936e+00,9.523238182067871094e+00,-1.032640218734741211e+00,-1.147378161549568176e-01,5.200000000000000000e+02
-3.229395552695677907e+01,-8.353839827155934472e+01,6.130434072536809254e+01,1.715089620340637339e+03,2.206220248808403994e+01,2.034728710318267986e+02,-2.332652094320474134e+01,6.346654042225509329e+00,9.523238182067871094e+00,-1.032640218734741211e+00,-1.147378161549568176e-01,5.210000000000000000e+02
-2.835527229860599618e+01,-8.188501323651848907e+01,6.562668590015709924e+01,1.727057390501573536e+03,2.797991812484633556e+01,2.045474983386920940e+02,-1.820330015878516861e+01,1.436215347592587932e+01,9.523238182067871094e+00,-1.032640218734741211e+00,-1.147378161549568176e-01,5.220000000000000000e+02
-2.812246869829641582e+01,-8.100718034831947989e+01,6.805495946460177947e+01,1.741313672317413875e+03,3.317911835388804320e+01,2.056052985066198744e+02,-1.473569046901502588e+01,2.082881403651845176e+01,9.523238182067871094e+00,-1.032640218734741211e+00,-1.147378161549568176e-01,5.230000000000000000e+02
-3.060564047921252495e+01,-7.992133395714813560e+01,6.917494887355178435e+01,1.755466113877686439e+03,3.761293008089342038e+01,2.064496646374991542e+02,-1.236454837527344353e+01,2.554958643364625459e+01,9.523238182067871094e+00,-1.032640218734741211e+00,-1.147378161549568176e-01,5.240000000000000000e+02
-3.366741925426777016e+01,-7.785579360955102857e+01,6.997362270725443523e+01,1.766142580585063115e+03,4.156080464286969800e+01,2.070116568172579719e+02,-1.037348863281613376e+01,2.879522671559152514e+01,9.523238182067871094e+00,-1.032640218734741211e+00,-1.147378161549568176e-01,5.250000000000000000e+02
-3.511883608799053036e+01,-7.467262118187545639e+01,7.126646351933504775e+01,1.772880762392265751e+03,4.530022496077708638e+01,2.075225567751149356e+02,-8.189350950133302831e+00,3.111090067783243285e+01,9.523238182067871094e+00,-1.032640218734741211e+00,-1.147378161549568176e-01,5.260000000000000000e+02
-3.371508086659241599e+01,-7.104647183809129274e+01,7.322035391059853282e+01,1.779401088074067957e+03,4.872329885255021509e+01,2.082871922532394819e+02,-5.723846588448850525e+00,3.293237288164937127e+01,9.523238182067871094e+00,-1.032640218734741211e+00,-1.147378161549568176e-01,5.270000000000000000e+02
-2.949069046655222337e+01,-6.830953030262548964e+01,7.522401099088710907e+01,1.789826727541145374e+03,5.125550327931887296e+01,2.092850238596311101e+02,-3.599945977424340526e+00,3.415102197222449831e+01,9.523238182067871094e+00,-1.032640218734741211e+00,-1.147378161549568176e-01,5.280000000000000000e+02
-2.337361399998371780e+01,-6.780640681905538258e+01,7.628430057310652046e+01,1.803432480254301481e+03,5.222832082864260883e+01,2.100745965127753152e+02,-2.864612649536411482e+00,3.409023833301034756e+01,9.523238182067871094e+00,-1.032640218734741211e+00,-1.147378161549568176e-01,5.290000000000000000e+02
-1.647136271049203060e+01,-6.987767600175129701e+01,7.583671625888473500e+01,1.814463749684022332e+03,5.146220087292476819e+01,2.101819519998352916e+02,-4.070234716394679708e+00,3.217867309375014884e+01,9.523238182067871094e+00,-1.032640218734741211e+00,-1.147378161549568176e-01,5.300000000000000000e+02
-9.551342226008273428e+00,-7.312130130202854161e+01,7.443835595119799109e+01,1.818591405303548527e+03,4.959193689206222189e+01,2.096171219983825722e+02,-6.339871499347736972e+00,2.887679719283869417e+01,9.523238182067871094e+00,-1.032640218734741211e+00,-1.147378161549568176e-01,5.310000000000000000e+02
-2.984183187056260067e+00,-7.477790127068806214e+01,7.367991634045756655e+01,1.819173779015090986e+03,4.783811440855970432e+01,2.089875232226841035e+02,-7.445394008086623217e+00,2.586405832233594992e+01,9.523238182067871094e+00,-1.032640218734741211e+00,-1.147378161549568176e-01,5.320000000000000000e+02
2.977709093539488094e+00,-7.239394455462843325e+01,7.515366183452624682e+01,1.825062931468510214e+03,4.736164490790361015e+01,2.090785852720218827e+02,-5.249981343399667821e+00,2.496533780751406084e+01,9.523238182067871094e+00,-1.032640218734741211e+00,-1.147378161549568176e-01,5.330000000000000000e+02
7.883616618708401802e+00,-6.572182277191723188e+01,7.912960866491357592e+01,1.840676049067922577e+03,4.859607232427515555e+01,2.102584574196807807e+02,4.800856823644608085e-01,2.653300561980222483e+01,9.523238182067871094e+00,-1.032640218734741211e+00,-1.147378161549568176e-01,5.340000000000000000e+02
1.098294923239882337e+01,-5.728177002007851115e+01,8.402139164227719448e+01,1.859355517942742154e+03,5.095283378395743057e+01,2.122141468673471536e+02,7.519677360903187946e+00,2.879660190989034163e+01,9.523238182067871094e+00,-1.032640218734741211e+00,-1.147378161549568176e-01,5.350000000000000000e+02
1.141106412348017329e+01,-5.090176108028572344e+01,8.723708313773840928e+01,1.869446443262029788e+03,5.309433936705590895e+01,2.142236375057000259e+02,1.257327242900919373e+01,2.900731930288884541e+01,9.523238182067871094e+00,-1.032640218734741211e+00,-1.147378161549568176e-01,5.360000000000000000e+02
8.545117753140402783e+00,-4.924010244152486848e+01,8.687943615570202383e+01,1.868261387541395379e+03,5.367172883468265354e+01,2.157136477730491606e+02,1.354154726500382822e+01,2.554733415248756501e+01,9.523238182067871094e+00,-1.032640218734741211e+00,-1.147378161549568176e-01,5.370000000000000000e+02
2.345265146775091125e+00,-5.221080249478791302e+01,8.299784677346269746e+01,1.867807456194714177e+03,5.214262399852941599e+01,2.166610348619033175e+02,1.076474260506847713e+01,1.916241435736719723e+01,9.523238182067871094e+00,-1.032640218734741211e+00,-1.147378161549568176e-01,5.380000000000000000e+02
-6.471713644295959966e+00,-5.744012433744319424e+01,7.741898939963448356e+01,1.882883565991207433e+03,4.912942705623299844e+01,2.175463735255543725e+02,6.334679379900535423e+00,1.223728747000313888e+01,9.523238182067871094e+00,-1.032640218734741211e+00,-1.147378161549568176e-01,5.390000000000000000e+02
-1.647164127742234996e+01,-6.217791921708339942e+01,7.237172912504138367e+01,1.912579946154197387e+03,4.600536085797648411e+01,2.189255795198332635e+02,2.322636723539744708e+00,6.816767065331077902e+00,9.523238182067871094e+00,-1.032640218734741211e+00,-1.147378161549568176e-01,5.400000000000000000e+02
-2.572649003217247810e+01,-6.504746963025445439e+01,6.903605363712358667e+01,1.937243279470574635e+03,4.392816509836666228e+01,2.209597991861883202e+02,-4.485799966028025665e-01,3.148817784359380312e+00,9.523238182067871094e+00,-1.032640218734741211e+00,-1.147378161549568176e-01,5.410000000000000000e+02
-3.222164129065913585e+01,-6.647515453807773156e+01,6.705456335946564650e+01,1.938725118661597662e+03,4.301591141984135902e+01,2.232559523799318413e+02,-2.327668643692049955e+00,-1.214198182888139854e-01,9.523238182067871094e+00,-1.032640218734741211e+00,-1.147378161549568176e-01,5.420000000000000000e+02
-3.448533012628467986e+01,-6.789753120218347249e+01,6.513911204843770975e+01,1.924439538207290752e+03,4.228875317671008816e+01,2.251238151354918955e+02,-4.076483238704895484e+00,-4.585180156585010991e+00,9.523238182067871094e+00,-1.032640218734741211e+00,-1.147378161549568176e-01,5.430000000000000000e+02
-3.234775711031761602e+01,-7.062376945743062606e+01,6.207997772239286860e+01,1.925970968471970991e+03,4.035774677653535036e+01,2.260033592011641304e+02,-6.391345529485079169e+00,-1.088800982878092327e+01,9.523238182067871094e+00,-1.032640218734741211e+00,-1.147378161549568176e-01,5.440000000000000000e+02
-2.742828133321472706e+01,-7.510132498679240598e+01,5.739526232355729007e+01,1.966493483906786423e+03,3.626200040707590233e+01,2.257016952261583356e+02,-9.908750222740309255e+00,-1.858307488989703415e+01,9.484992027282714844e+00,-9.561483860015869141e-01,-1.912296712398529053e-01,5.450000000000000000e+02
-2.279674979823357717e+01,-8.076372217020707467e+01,5.139199065391767363e+01,2.026669301035486569e+03,2.987437051115921349e+01,2.243186265996846487e+02,-1.513344173811492510e+01,-2.671924381109329261e+01,9.484992027282714844e+00,-9.561483860015869141e-01,-1.912296712398529053e-01,5.460000000000000000e+02
-2.158086445465596626e+01,-8.632499598590766254e+01,4.488123145084409771e+01,2.047150282455266279e+03,2.181989724511186068e+01,2.220604956292299903e+02,-2.193693430322127824e+01,-3.435465803906390647e+01,9.484992027282714844e+00,-9.561483860015869141e-01,-1.912296712398529053e-01,5.470000000000000000e+02
-2.512682479135855829e+01,-9.040950030593739939e+01,3.882828463996338542e+01,1.973194945285184076e+03,1.323416704714327352e+01,2.192059429869077576e+02,-2.912679416148966993e+01,-4.067332167989115987e+01,9.484992027282714844e+00,-9.561483860015869141e-01,-1.912296712398529053e-01,5.480000000000000000e+02
-3.199890193645478575e+01,-9.232605589016111480e+01,3.400868322347923822e+01,1.803509388880513143e+03,5.523054606099321973e+00,2.162028838795158663e+02,-3.483205976609770005e+01,-4.502162173428314418e+01,9.484992027282714844e+00,-9.561483860015869141e-01,-1.912296712398529053e-01,5.490000000000000000e+02
-3.877853275998950267e+01,-9.254789135561441071e+01,3.071451843591421493e+01,1.597140609621026670e+03,-2.536954161223547999e-02,2.136472921011954895e+02,-3.766446014201846992e+01,-4.718774357876554859e+01,9.484992027282714844e+00,-9.561483860015869141e-01,-1.912296712398529053e-01,5.500000000000000000e+02
-4.233247056217896898e+01,-9.243565066692326582e+01,2.868149750570955803e+01,1.430550069718927261e+03,-2.840563546693374519e+00,2.120145296552909713e+02,-3.771055511683789518e+01,-4.773479420550665964e+01,9.484992027282714844e+00,-9.561483860015869141e-01,-1.912296712398529053e-01,5.510000000000000000e+02
-4.193219691944796068e+01,-9.326637599816740476e+01,2.735575048432474432e+01,1.344348435759493441e+03,-3.514557375365257030e+00,2.113717612732361886e+02,-3.643407030165599281e+01,-4.791777842749888805e+01,9.484992027282714844e+00,-9.561483860015869141e-01,-1.912296712398529053e-01,5.520000000000000000e+02
-3.959516026637720643e+01,-9.530906598684077835e+01,2.631471255655560526e+01,1.326836095036611368e+03,-3.565765152996391407e+00,2.114166144151713524e+02,-3.560557069854166912e+01,-4.908984285139558779e+01,9.484992027282714844e+00,-9.561483860015869141e-01,-1.912296712398529053e-01,5.530000000000000000e+02
-3.841183287498279242e+01,-9.773047073914949578e+01,2.543493131883224123e+01,1.341980703817273024e+03,-4.508226187939726515e+00,2.118401449986886291e+02,-3.626915691291105759e+01,-5.204767421278302209e+01,9.484992027282714844e+00,-9.561483860015869141e-01,-1.912296712398529053e-01,5.540000000000000000e+02
-4.022436924879730213e+01,-9.942060409915939090e+01,2.463498601764695195e+01,1.365469352780397458e+03,-6.936543924113721005e+00,2.126153467518670368e+02,-3.857508350372427230e+01,-5.682792281446381821e+01,9.484992027282714844e+00,-9.561483860015869141e-01,-1.912296712398529053e-01,5.550000000000000000e+02
-4.447973149895915412e+01,-9.998901955014753185e+01,2.352989411845919676e+01,1.390271116791896929e+03,-1.042091365288979432e+01,2.138605868078630010e+02,-4.231188330537133879e+01,-6.297572249899803865e+01,9.484992027282714844e+00,-9.561483860015869141e-01,-1.912296712398529053e-01,5.560000000000000000e+02
-4.901256821288006904e+01,-1.000610667786618251e+02,2.151105827830724593e+01,1.403716815847648832e+03,-1.423163052359086578e+01,2.154392605087559787e+02,-4.730247453129140922e+01,-6.984965490447575576e+01,9.484992027282714844e+00,-9.561483860015869141e-01,-1.912296712398529053e-01,5.570000000000000000e+02
-5.194306409466844343e+01,-1.006820519637208236e+02,1.831964965069710161e+01,1.371822752274660161e+03,-1.809945477704786754e+01,2.168046396332865697e+02,-5.318175143142343586e+01,-7.663253406456897210e+01,9.484992027282714844e+00,-9.561483860015869141e-01,-1.912296712398529053e-01,5.580000000000000000e+02
-5.312959307271921716e+01,-1.024379396925050969e+02,1.453783687427130644e+01,1.259668320605953340e+03,-2.227809583073940303e+01,2.173371289748029085e+02,-5.897496352537200437e+01,-8.223048057077085105e+01,9.484992027282714844e+00,-9.561483860015869141e-01,-1.912296712398529053e-01,5.590000000000000000e+02
-5.412174795371538494e+01,-1.050607854525333096e+02,1.135977909825305687e+01,1.071199848596239462e+03,-2.698185154952625453e+01,2.168485245628762641e+02,-6.328152937266986555e+01,-8.551186304222574108e+01,9.484992027282714844e+00,-9.561483860015869141e-01,-1.912296712398529053e-01,5.600000000000000000e+02
-5.679475665036989085e+01,-1.077456942766175416e+02,9.686742232008327846e+00,8.642312759474880295e+02,-3.193373159441944154e+01,2.157127271531353472e+02,-6.522343348287722620e+01,-8.597389313881740236e+01,9.484992027282714844e+00,-9.561483860015869141e-01,-1.912296712398529053e-01,5.610000000000000000e+02
-6.179357508129214693e+01,-1.097905321191019539e+02,9.341956235935867880e+00,7.169245099938416388e+02,-3.655683438346568437e+01,2.145097896760562435e+02,-6.535684816275625053e+01,-8.433003226581422496e+01,9.484992027282714844e+00,-9.561483860015869141e-01,-1.912296712398529053e-01,5.620000000000000000e+02
-6.800550816432769352e+01,-1.110046119315084070e+02,9.179234854529568111e+00,6.712547423169671674e+02,-4.055458062729849189e+01,2.135972438901881105e+02,-6.551164225583306688e+01,-8.236302752348092326e+01,9.484992027282714844e+00,-9.561483860015869141e-01,-1.912296712398529053e-01,5.630000000000000000e+02
-7.346993493394620600e+01,-1.116196454288128734e+02,8.039453890864024288e+00,7.044662660391913960e+02,-4.417363449431650224e+01,2.130447242246591486e+02,-6.736084976507390820e+01,-8.190376398417356540e+01,9.484992027282714844e+00,-9.561483860015869141e-01,-1.912296712398529053e-01,5.640000000000000000e+02
-7.698880969625861326e+01,-1.119017899507316542e+02,5.697384152006634395e+00,7.539602366820763564e+02,-4.781735187346566818e+01,2.128982051940402016e+02,-7.080937835632812494e+01,-8.361983501838039956e+01,9.484992027282714844e+00,-9.561483860015869141e-01,-1.912296712398529053e-01,5.650000000000000000e+02
-7.910425869646860519e+01,-1.118386470381437903e+02,2.983890388362851809e+00,7.705865748541837092e+02,-5.142427194640549715e+01,2.133431748300572508e+02,-7.369112292370937212e+01,-8.656660162796470104e+01,9.484992027282714844e+00,-9.561483860015869141e-01,-1.912296712398529053e-01,5.660000000000000000e+02
-8.152896902409702307e+01,-1.111310047305551052e+02,1.093833212307799840e+00,7.513591101281635929e+02,-5.428129898257793684e+01,2.145406277432412026e+02,-7.325107393647522258e+01,-8.885738769806994242e+01,9.484992027282714844e+00,-9.561483860015869141e-01,-1.912296712398529053e-01,5.670000000000000000e+02
-8.540961291746498318e+01,-1.094513650273074745e+02,8.020207580666465219e-01,7.269397503600630444e+02,-5.548759832396717684e+01,2.163763632322588819e+02,-6.831658535948554345e+01,-8.890568195856576494e+01,9.484992027282714844e+00,-9.561483860015869141e-01,-1.912296712398529053e-01,5.680000000000000000e+02
-8.998042050591539009e+01,-1.067593893209223097e+02,2.223636643826466752e+00,7.237708105818164768e+02,-5.465462378829943191e+01,2.184819614645020920e+02,-6.033362640062387072e+01,-8.627518195246739197e+01,9.484992027282714844e+00,-9.561483860015869141e-01,-1.912296712398529053e-01,5.690000000000000000e+02
-9.295086574151355308e+01,-1.034558001983632494e+02,5.106747855888897902e+00,7.402625244461232796e+02,-5.220777332872785337e+01,2.205518564542944659e+02,-5.234835337672211608e+01,-8.161070085045867017e+01,9.484992027282714844e+00,-9.561483860015869141e-01,-1.912296712398529053e-01,5.700000000000000000e+02
-9.240668618104973575e+01,-1.002753547921111021e+02,9.160136204000082216e+00,7.555264657834195532e+02,-4.904695487273784238e+01,2.225986593627822003e+02,-4.682128316983835248e+01,-7.596307311707278132e+01,9.484992027282714844e+00,-9.561483860015869141e-01,-1.912296712398529053e-01,5.710000000000000000e+02
-8.849847341233362386e+01,-9.797881523346131871e+01,1.406484974855993642e+01,7.545399995907209814e+02,-4.587940226628779783e+01,2.248566021629958414e+02,-4.416937252768821054e+01,-7.023080757938987517e+01,9.484992027282714844e+00,-9.943943619728088379e-01,-2.677215635776519775e-01,5.720000000000000000e+02
-8.328717872112429177e+01,-9.700004665068809118e+01,1.931004965524698491e+01,7.414275853269646177e+02,-4.279526738067579572e+01,2.274536877744467347e+02,-4.317025565367657691e+01,-6.509326511810468219e+01,9.484992027282714844e+00,-9.943943619728088379e-01,-2.677215635776519775e-01,5.730000000000000000e+02
-7.889687874226729036e+01,-9.720789714453530905e+01,2.420025321000503027e+01,7.305206096823239932e+02,-3.944152123509047669e+01,2.302063860408306937e+02,-4.254656357442581793e+01,-6.115041033752095245e+01,9.484992027282714844e+00,-9.943943619728088379e-01,-2.677215635776519775e-01,5.740000000000000000e+02
-7.582367746936506592e+01,-9.790304766023564298e+01,2.812812845180633303e+01,7.293934392376977485e+02,-3.562167028226394905e+01,2.327344360224597040e+02,-4.202813703625542985e+01,-5.878615431092475774e+01,9.484992027282714844e+00,-9.943943619728088379e-01,-2.677215635776519775e-01,5.750000000000000000e+02
-7.308132260028651217e+01,-9.811472595298891974e+01,3.084579068698440096e+01,7.329885225016623735e+02,-3.175629257809487171e+01,2.347568525235037669e+02,-4.196138883696585253e+01,-5.775874426405061968e+01,9.484992027282714844e+00,-9.943943619728088379e-01,-2.677215635776519775e-01,5.760000000000000000e+02
-6.994583311891801714e+01,-9.714951990260033199e+01,3.243197983112622751e+01,7.322921722848259378e+02,-2.874363994206214556e+01,2.362825120667839656e+02,-4.225941903523198562e+01,-5.710290461755175784e+01,9.484992027282714844e+00,-9.943943619728088379e-01,-2.677215635776519775e-01,5.770000000000000000e+02
-6.737897197472011612e+01,-9.511057469593833957e+01,3.301403155332081951e+01,7.251927237789495848e+02,-2.728625563365494600e+01,2.375621937988034915e+02,-4.215775372655116371e+01,-5.575066722759947879e+01,9.484992027282714844e+00,-9.943943619728088379e-01,-2.677215635776519775e-01,5.780000000000000000e+02
-6.750781371433731692e+01,-9.298724911486988276e+01,3.258528773425132385e+01,7.172060025566170225e+02,-2.728246630408830242e+01,2.388672122210409725e+02,-4.117408729673115886e+01,-5.348211256300055538e+01,9.484992027282714844e+00,-9.943943619728088379e-01,-2.677215635776519775e-01,5.790000000000000000e+02
-7.152786706660299387e+01,-9.213424294271499093e+01,3.114197629586124094e+01,7.137864376229990739e+02,-2.787697477660549339e+01,2.402622647077878355e+02,-4.012464236977575638e+01,-5.128749220219469862e+01,9.484992027282714844e+00,-9.943943619728088379e-01,-2.677215635776519775e-01,5.800000000000000000e+02
-7.808199860022432404e+01,-9.340947887252968940e+01,2.898994110245621414e+01,7.139387045643961756e+02,-2.815630082011557533e+01,2.415178654595074477e+02,-4.076147831450361991e+01,-5.060169117200348410e+01,9.484992027282714844e+00,-9.943943619728088379e-01,-2.677215635776519775e-01,5.810000000000000000e+02
-8.380350613161499496e+01,-9.659239739927124901e+01,2.682420027483021840e+01,7.121557576915074605e+02,-2.782728322222101269e+01,2.422527209862164455e+02,-4.410202769001807610e+01,-5.197962342180653650e+01,9.484992027282714844e+00,-9.943943619728088379e-01,-2.677215635776519775e-01,5.820000000000000000e+02
-8.571683088660029171e+01,-1.005499494888836125e+02,2.536507042378798360e+01,7.037746381516772090e+02,-2.723386329029744957e+01,2.422631455566806835e+02,-4.914537649240628525e+01,-5.444771520597169001e+01,9.484992027282714844e+00,-9.943943619728088379e-01,-2.677215635776519775e-01,5.830000000000000000e+02
-8.349351593346364098e+01,-1.039885158864080950e+02,2.479222445428604260e+01,6.918522177507111337e+02,-2.675999632083403412e+01,2.417990183107904159e+02,-5.348460261291802453e+01,-5.617950371086226369e+01,9.484992027282714844e+00,-9.943943619728088379e-01,-2.677215635776519775e-01,5.840000000000000000e+02
-7.966460352822105051e+01,-1.061450776437832246e+02,2.451955877027648967e+01,6.810283914303145139e+02,-2.630352102692995686e+01,2.415108145479025552e+02,-5.541977373854024336e+01,-5.590358357769036957e+01,9.484992027282714844e+00,-9.943943619728088379e-01,-2.677215635776519775e-01,5.850000000000000000e+02
-7.763460874395059363e+01,-1.069065416168177762e+02,2.361667087333626114e+01,6.736983690732740797e+02,-2.540757779996056342e+01,2.420255668184618116e+02,-5.551417067746115208e+01,-5.378525025855378772e+01,9.484992027282714844e+00,-9.943943619728088379e-01,-2.677215635776519775e-01,5.860000000000000000e+02
-7.911259595412593626e+01,-1.064757429649689584e+02,2.159526051891953102e+01,6.684562575552990893e+02,-2.389155875338110491e+01,2.434770014088935568e+02,-5.599869612812108244e+01,-5.109599195564078400e+01,9.484992027282714844e+00,-9.943943619728088379e-01,-2.677215635776519775e-01,5.870000000000000000e+02
-8.294381806396995671e+01,-1.051265212317775877e+02,1.888381084932916565e+01,6.625148522916861111e+02,-2.225143088098411681e+01,2.454133525173674570e+02,-5.857191488257376477e+01,-4.917420254529315571e+01,9.484992027282714844e+00,-9.943943619728088379e-01,-2.677215635776519775e-01,5.880000000000000000e+02
-8.616190656959952321e+01,-1.033425103800891520e+02,1.650729648342530709e+01,6.548612064828485018e+02,-2.135513922332756920e+01,2.471532846278132638e+02,-6.277557898615668819e+01,-4.871520495671938988e+01,9.484992027282714844e+00,-9.943943619728088379e-01,-2.677215635776519775e-01,5.890000000000000000e+02
-8.631713548425977933e+01,-1.020364531535960850e+02,1.520774840694502927e+01,6.466504917462443700e+02,-2.169976086047245190e+01,2.482472474230962689e+02,-6.651859259777666011e+01,-4.984132628729275893e+01,9.484992027282714844e+00,-9.943943619728088379e-01,-2.677215635776519775e-01,5.900000000000000000e+02
-8.323996182966584456e+01,-1.023029158638364606e+02,1.480961720318009611e+01,6.394243868925696006e+02,-2.295302299080503872e+01,2.486331012159134843e+02,-6.811517344320236589e+01,-5.247589037562829617e+01,9.484992027282714844e+00,-9.943943619728088379e-01,-2.677215635776519775e-01,5.910000000000000000e+02
-7.894285585781472037e+01,-1.046342291496193866e+02,1.445072291283941013e+01,6.334046360919455765e+02,-2.420161713205015985e+01,2.484602960215852363e+02,-6.773727498473454034e+01,-5.634145750363131810e+01,9.484992027282714844e+00,-9.943943619728088379e-01,-2.677215635776519775e-01,5.920000000000000000e+02
