F3,F4,C3,C4,P3,P4,Cz,Pz,Accel_x,Accel_y,Accel_z,Sample
-3.547029336914420128e-11,-9.208633855450898409e-12,-2.000888343900442123e-11,-1.709850039333105087e-10,-6.002665031701326370e-11,-1.309672370553016663e-10,-1.159605744760483503e-11,-1.500666257925331593e-11,9.408499717712402344e+00,-8.796565532684326172e-01,-3.824593871831893921e-02,2.260000000000000000e+02
-5.678265965671653248e+01,2.519187001639579648e+01,-4.882289590582331584e+00,1.677879142549660173e+03,-7.174881120995087258e+01,2.610611036821319431e+02,4.289799139103706693e+01,2.679171339552749487e+01,9.408499717712402344e+00,-8.796565532684326172e-01,-3.824593871831893921e-02,2.270000000000000000e+02
-8.806456076551239676e+01,1.923636922367245461e+01,-1.671080624400019587e+00,6.063532803808975586e+03,-1.143338200279622470e+02,7.993409850070274842e+02,5.277973458342989943e+01,3.396168258957777653e+01,9.408499717712402344e+00,-8.796565532684326172e-01,-3.824593871831893921e-02,2.280000000000000000e+02
-9.011905963335721026e+01,-2.102536454167147895e+01,1.064785704414407519e+01,1.314275144786176315e+04,-1.237860415218101480e+02,1.612250409372871218e+03,2.544716658506263229e+01,1.919707260814993788e+01,9.484992027282714844e+00,-8.414105772972106934e-01,0.000000000000000000e+00,2.290000000000000000e+02
-8.153954172375051712e+01,-6.967878078958574406e+01,2.621974641834731301e+01,2.002417182064945882e+04,-1.217651708718185546e+02,2.407432010701562831e+03,-1.300897231026101508e+01,-1.557060067040310969e+00,9.484992027282714844e+00,-8.414105772972106934e-01,0.000000000000000000e+00,2.300000000000000000e+02
-8.335291855134164507e+01,-9.734409235112104852e+01,3.911859043669846869e+01,2.346205888937959389e+04,-1.322902012798676878e+02,2.865577002885522234e+03,-3.207091034886866510e+01,-9.640470733874280995e+00,9.484992027282714844e+00,-8.414105772972106934e-01,0.000000000000000000e+00,2.310000000000000000e+02
-9.980084638316384371e+01,-9.747155892436933300e+01,4.909150646724174294e+01,2.265306373780232025e+04,-1.595216448453247722e+02,2.916869943959762168e+03,-2.379657963249474051e+01,-1.523540710290944844e-01,9.484992027282714844e+00,-8.414105772972106934e-01,0.000000000000000000e+00,2.320000000000000000e+02
-1.183655142690322464e+02,-8.873032264592734464e+01,6.028990978840920434e+01,1.974270991174718438e+04,-1.882085799997994400e+02,2.774285416556733253e+03,-5.919314624014987203e+00,1.580283022576486474e+01,9.484992027282714844e+00,-8.414105772972106934e-01,0.000000000000000000e+00,2.330000000000000000e+02
-1.262710929218719684e+02,-9.434574969795903598e+01,7.514126289859268581e+01,1.773537735259619512e+04,-2.032924467800175989e+02,2.716981645285879495e+03,-1.470624921558055576e+00,2.330090445636415097e+01,9.484992027282714844e+00,-8.414105772972106934e-01,0.000000000000000000e+00,2.340000000000000000e+02
-1.243688380783451066e+02,-1.208973595857862620e+02,9.073993060957309353e+01,1.791485995525535691e+04,-2.060846613497642466e+02,2.851625256212268141e+03,-1.740563355303675053e+01,1.701579277093242126e+01,9.484992027282714844e+00,-8.414105772972106934e-01,0.000000000000000000e+00,2.350000000000000000e+02
-1.245474314488219534e+02,-1.560157229499491223e+02,1.017974604499322595e+02,1.915065505636615853e+04,-2.108459205044409828e+02,3.070991792843415169e+03,-4.199622087536408799e+01,3.689471126248008659e+00,9.484992027282714844e+00,-8.414105772972106934e-01,0.000000000000000000e+00,2.360000000000000000e+02
-1.357431426837856634e+02,-1.832257693609121816e+02,1.065886275750690402e+02,1.948275665587114781e+04,-2.280255410593717897e+02,3.212065746200143622e+03,-5.951914452107621401e+01,-6.248883987665522000e+00,9.484992027282714844e+00,-8.414105772972106934e-01,0.000000000000000000e+00,2.370000000000000000e+02
-1.548465862473649395e+02,-1.965023938593021740e+02,1.091221541081959003e+02,1.820576228758227444e+04,-2.535588280291376577e+02,3.227580861358514085e+03,-6.472122344486888323e+01,-7.945359995894705207e+00,9.484992027282714844e+00,-8.414105772972106934e-01,0.000000000000000000e+00,2.380000000000000000e+02
-1.713570758814616966e+02,-2.015023637756602852e+02,1.152545964035516590e+02,1.640184353066279800e+04,-2.746821486743829155e+02,3.205873011100949952e+03,-6.373410679868698026e+01,-3.924154693256696191e+00,9.484992027282714844e+00,-8.414105772972106934e-01,0.000000000000000000e+00,2.390000000000000000e+02
-1.789279364918106694e+02,-2.063623417296082039e+02,1.271233354202840928e+02,1.560333549366692750e+04,-2.839911399620859811e+02,3.252128603735294746e+03,-6.435442289179968611e+01,8.321736203070031479e-01,9.484992027282714844e+00,-8.414105772972106934e-01,0.000000000000000000e+00,2.400000000000000000e+02
-1.807854232100030458e+02,-2.139287162054490068e+02,1.417273763119055729e+02,1.611961944993658835e+04,-2.860799863222246131e+02,3.377836807434272487e+03,-6.807076522976944943e+01,3.889983049953571026e+00,9.484992027282714844e+00,-8.414105772972106934e-01,0.000000000000000000e+00,2.410000000000000000e+02
-1.844598083048031185e+02,-2.221181175020203113e+02,1.546383236618903538e+02,1.678188316992227556e+04,-2.911395951634767698e+02,3.508289094374686101e+03,-7.107592516648060155e+01,5.954505733444420912e+00,9.484992027282714844e+00,-8.414105772972106934e-01,0.000000000000000000e+00,2.420000000000000000e+02
-1.932153444041950934e+02,-2.287480245235187226e+02,1.644358919582000453e+02,1.626965291979345420e+04,-3.041974519663699539e+02,3.577012220229506056e+03,-7.038900313133285636e+01,8.367649268703644339e+00,9.484992027282714844e+00,-8.414105772972106934e-01,0.000000000000000000e+00,2.430000000000000000e+02
-2.036616621835605656e+02,-2.339714553168766997e+02,1.733654118732829374e+02,1.459590788491759668e+04,-3.214988222160327496e+02,3.593033772089449485e+03,-6.717953754326026683e+01,1.132706931874145084e+01,9.484992027282714844e+00,-8.414105772972106934e-01,0.000000000000000000e+00,2.440000000000000000e+02
-2.107660241380153821e+02,-2.387484710902049301e+02,1.842272215318107556e+02,1.312520168437831671e+04,-3.360487957891473343e+02,3.616668864491832210e+03,-6.473915976451485221e+01,1.427383297627693537e+01,9.484992027282714844e+00,-8.414105772972106934e-01,0.000000000000000000e+00,2.450000000000000000e+02
-2.135182075904053818e+02,-2.431054669807174946e+02,1.972390711788066255e+02,1.309025298556492999e+04,-3.447866802291428030e+02,3.686637556697092805e+03,-6.500972729102500125e+01,1.686039951740735887e+01,9.484992027282714844e+00,-8.414105772972106934e-01,0.000000000000000000e+00,2.460000000000000000e+02
-2.151958633439121513e+02,-2.469784345740917502e+02,2.099469997871492524e+02,1.414502638625120744e+04,-3.500915931932768217e+02,3.783891882919262571e+03,-6.786035993651239551e+01,1.887135025845145719e+01,9.484992027282714844e+00,-8.414105772972106934e-01,0.000000000000000000e+00,2.470000000000000000e+02
-2.191625986844769614e+02,-2.518830107588186706e+02,2.196587311362809487e+02,1.453704248950354304e+04,-3.559279432711182380e+02,3.862795957197762618e+03,-7.274131664899459793e+01,1.958807933449315897e+01,9.484992027282714844e+00,-8.414105772972106934e-01,0.000000000000000000e+00,2.480000000000000000e+02
-2.256010697489682570e+02,-2.603235930238001288e+02,2.256265702576502008e+02,1.290593918619002579e+04,-3.641246475406378522e+02,3.903855495357038308e+03,-7.964784874369888712e+01,1.800542607921397575e+01,9.484992027282714844e+00,-8.414105772972106934e-01,0.000000000000000000e+00,2.490000000000000000e+02
-2.323358963383066111e+02,-2.731365950444887289e+02,2.291822665428348955e+02,1.003247636528664589e+04,-3.742928003929737315e+02,3.928583232140015753e+03,-8.817421727329610803e+01,1.396612976448841437e+01,9.484992027282714844e+00,-8.414105772972106934e-01,0.000000000000000000e+00,2.500000000000000000e+02
-2.378258824160488984e+02,-2.880873159801216730e+02,2.323537034597065940e+02,8.734923541652035055e+03,-3.858509920220767526e+02,3.968661980605644203e+03,-9.651628790581389694e+01,8.774147421282577852e+00,9.484992027282714844e+00,-8.414105772972106934e-01,0.000000000000000000e+00,2.510000000000000000e+02
-2.425764693792712023e+02,-3.017610953628305879e+02,2.365247178571498807e+02,1.174643278169461701e+04,-3.988786589624878616e+02,4.031138932785506768e+03,-1.024139760173090963e+02,4.304996061078554703e+00,9.484992027282714844e+00,-8.414105772972106934e-01,0.000000000000000000e+00,2.520000000000000000e+02
-2.479035956905613602e+02,-3.127121981346807047e+02,2.419251065369171556e+02,1.931952537674602718e+04,-4.131370512634048282e+02,4.096816261915246287e+03,-1.052594834280330360e+02,1.461999547358573182e+00,9.484992027282714844e+00,-8.414105772972106934e-01,0.000000000000000000e+00,2.530000000000000000e+02
-2.540809351320663154e+02,-3.223220738357268829e+02,2.477664259800299078e+02,2.868227770035037247e+04,-4.272395074216428839e+02,4.146230309292575839e+03,-1.069101155309783735e+02,-3.744828029400650848e-01,9.484992027282714844e+00,-8.414105772972106934e-01,0.000000000000000000e+00,2.540000000000000000e+02
-2.600245898258408488e+02,-3.325640635115875625e+02,2.527176671730135240e+02,3.590521423682583554e+04,-4.394300403972165441e+02,4.179919175356579217e+03,-1.101033136823070890e+02,-2.379198746561314692e+00,9.484992027282714844e+00,-8.414105772972106934e-01,0.000000000000000000e+00,2.550000000000000000e+02
-2.644978010858681046e+02,-3.434439539086558284e+02,2.556702515847960058e+02,3.864073807638279686e+04,-4.490847008694936449e+02,4.213169197182705830e+03,-1.160360244017354034e+02,-4.954451481828300530e+00,9.484992027282714844e+00,-8.414105772972106934e-01,0.000000000000000000e+00,2.560000000000000000e+02
-2.672578420618028758e+02,-3.530819752558536493e+02,2.565772183606459294e+02,3.748658917829158599e+04,-4.571338091590268959e+02,4.256736569951037382e+03,-1.235265389420053452e+02,-7.470840353393441546e+00,9.484992027282714844e+00,-8.414105772972106934e-01,0.000000000000000000e+00,2.570000000000000000e+02
-2.691557211443769120e+02,-3.601151001762646615e+02,2.566624022055389105e+02,3.501294941734916210e+04,-4.650710150577187960e+02,4.306913080070538854e+03,-1.303586643742714841e+02,-9.191674215224793443e+00,9.484992027282714844e+00,-8.414105772972106934e-01,0.000000000000000000e+00,2.580000000000000000e+02
-2.715200764249684653e+02,-3.655004780925310115e+02,2.575316889867053760e+02,3.352677966613921308e+04,-4.738066969037727176e+02,4.352849631715031137e+03,-1.353068717764276698e+02,-1.027156703288346762e+01,9.484992027282714844e+00,-8.414105772972106934e-01,0.000000000000000000e+00,2.590000000000000000e+02
-2.755570723670489315e+02,-3.717530780758311266e+02,2.597624434331087286e+02,3.355232208342785452e+04,-4.834628688201964906e+02,4.389214904065880546e+03,-1.390283940942842946e+02,-1.183655500397935612e+01,9.484992027282714844e+00,-8.414105772972106934e-01,0.000000000000000000e+00,2.600000000000000000e+02
-2.819866189085805672e+02,-3.806624950367332758e+02,2.623015055725290949e+02,3.408535918382254749e+04,-4.938798768743981782e+02,4.419959793965146673e+03,-1.433156132632227582e+02,-1.517528137946646893e+01,9.484992027282714844e+00,-8.414105772972106934e-01,0.000000000000000000e+00,2.610000000000000000e+02
-2.907545994175684427e+02,-3.920836921375480415e+02,2.634066010576148074e+02,3.398295820864751295e+04,-5.049415388437141701e+02,4.451911200620910677e+03,-1.496695109743035346e+02,-2.085910637923939248e+01,9.484992027282714844e+00,-8.414105772972106934e-01,0.000000000000000000e+00,2.620000000000000000e+02
-3.009659915637598715e+02,-4.048228062840471466e+02,2.623056643951567821e+02,3.302490872333438892e+04,-5.164464581118568276e+02,4.487397143190162751e+03,-1.584019417236507934e+02,-2.847873538996987008e+01,9.484992027282714844e+00,-8.414105772972106934e-01,0.000000000000000000e+00,2.630000000000000000e+02
-3.113142361315776725e+02,-4.181175605490885800e+02,2.599542002753892120e+02,3.182945666132303450e+04,-5.279623412306127648e+02,4.523256524967866426e+03,-1.687701935033777545e+02,-3.702727105811095498e+01,9.484992027282714844e+00,-8.414105772972106934e-01,0.000000000000000000e+00,2.640000000000000000e+02
-3.208143336590565013e+02,-4.316562252729061129e+02,2.581938350147429446e+02,3.104192147066178222e+04,-5.389532984311103974e+02,4.555220682658644364e+03,-1.797322162911646046e+02,-4.546915835615027390e+01,9.484992027282714844e+00,-8.414105772972106934e-01,0.000000000000000000e+00,2.650000000000000000e+02
-3.291706520281127268e+02,-4.440520566682605477e+02,2.582491107675755302e+02,3.076099027525468045e+04,-5.488985331442472670e+02,4.582642136705340818e+03,-1.904614856794394200e+02,-5.300393513418134717e+01,9.484992027282714844e+00,-8.414105772972106934e-01,0.000000000000000000e+00,2.660000000000000000e+02
-3.363791041186032089e+02,-4.519184086170378123e+02,2.601270505484553723e+02,3.063948021560548295e+04,-5.571054219180546170e+02,4.608482841741235461e+03,-2.000836540421151994e+02,-5.886237521244720483e+01,9.484992027282714844e+00,-8.414105772972106934e-01,0.000000000000000000e+00,2.670000000000000000e+02
-3.420797232606719263e+02,-4.514646911849866910e+02,2.633871532374823801e+02,3.032062896728909254e+04,-5.625679699956017430e+02,4.634878980405297625e+03,-2.068951832349005144e+02,-6.188857325842218415e+01,9.484992027282714844e+00,-8.414105772972106934e-01,0.000000000000000000e+00,2.680000000000000000e+02
-3.455252686226172045e+02,-4.420412212044027456e+02,2.682320020813599513e+02,2.972368578131757022e+04,-5.644118312443060859e+02,4.662442502330082789e+03,-2.081101746507443977e+02,-6.046289202299499266e+01,9.484992027282714844e+00,-8.414105772972106934e-01,0.000000000000000000e+00,2.690000000000000000e+02
-3.462928425216214237e+02,-4.287116612726091489e+02,2.755803693220459536e+02,2.898460126320568816e+04,-5.627437006504155761e+02,4.690093013131136104e+03,-2.010713077136557558e+02,-5.321141632504077279e+01,9.484992027282714844e+00,-8.414105772972106934e-01,0.000000000000000000e+00,2.700000000000000000e+02
-3.448564820241722373e+02,-4.210852058684203598e+02,2.860240620159565879e+02,2.830307503753362471e+04,-5.589337163757863891e+02,4.716781483709588429e+03,-1.855690290901752633e+02,-4.027642523534018437e+01,9.484992027282714844e+00,-8.414105772972106934e-01,0.000000000000000000e+00,2.710000000000000000e+02
-3.423176820623853018e+02,-4.282692153360669636e+02,2.987974123842022891e+02,2.785700248019781066e+04,-5.548494682626592294e+02,4.742453886786985095e+03,-1.653106983126963314e+02,-2.409204766933839892e+01,9.484992027282714844e+00,-8.414105772972106934e-01,0.000000000000000000e+00,2.720000000000000000e+02
-3.396157901966880672e+02,-4.529947327337689558e+02,3.118812388077308242e+02,2.770531353299781040e+04,-5.517370480676067928e+02,4.766622724690187169e+03,-1.466147931633124699e+02,-8.599152208251553020e+00,9.484992027282714844e+00,-8.414105772972106934e-01,0.000000000000000000e+00,2.730000000000000000e+02
-3.370436229033875861e+02,-4.892100874055113309e+02,3.232392507795116217e+02,2.767009288130742061e+04,-5.497741515069660636e+02,4.789608378209593866e+03,-1.347123504643097931e+02,2.930991887471009250e+00,9.484992027282714844e+00,-8.414105772972106934e-01,0.000000000000000000e+00,2.740000000000000000e+02
-3.344424184124877684e+02,-5.252958114379105155e+02,3.320870911036940925e+02,2.732998378515714649e+04,-5.485404942575273708e+02,4.811985453281131413e+03,-1.304711114074601710e+02,9.900733119682627148e+00,9.484992027282714844e+00,-8.414105772972106934e-01,0.000000000000000000e+00,2.750000000000000000e+02
-3.316632031716312667e+02,-5.508996494489880433e+02,3.391531125353376410e+02,2.635652176576231068e+04,-5.476880813175152980e+02,4.833941804170726755e+03,-1.303205872069979705e+02,1.456845893666422853e+01,9.484992027282714844e+00,-8.414105772972106934e-01,0.000000000000000000e+00,2.760000000000000000e+02
-3.287569766269043612e+02,-5.624943049704274927e+02,3.458748029761281941e+02,2.503006791578712000e+04,-5.471179535798260076e+02,4.855279475667170118e+03,-1.293968390526982830e+02,2.023417710993135188e+01,9.484992027282714844e+00,-8.414105772972106934e-01,0.000000000000000000e+00,2.770000000000000000e+02
-3.258329556209637303e+02,-5.638114956951052363e+02,3.533669890930777910e+02,2.437435441223066664e+04,-5.467094317782207327e+02,4.875922531246218568e+03,-1.251116338136347395e+02,2.892707700473988552e+01,9.484992027282714844e+00,-8.414105772972106934e-01,0.000000000000000000e+00,2.780000000000000000e+02
-3.229312225633327671e+02,-5.614415013309496771e+02,3.619517661618274360e+02,2.553530267830643425e+04,-5.461585025836725436e+02,4.896160303184551594e+03,-1.182060338265729342e+02,4.036973559409943846e+01,9.484992027282714844e+00,-8.414105772972106934e-01,0.000000000000000000e+00,2.790000000000000000e+02
-3.200557155286057878e+02,-5.596274052903371512e+02,3.713489195294318961e+02,2.877527903820950451e+04,-5.451792324712710069e+02,4.916256863098467875e+03,-1.109352520538913041e+02,5.269735073702872796e+01,9.484992027282714844e+00,-8.414105772972106934e-01,0.000000000000000000e+00,2.800000000000000000e+02
-3.171736004627537113e+02,-5.584057762727866248e+02,3.810444079911740118e+02,3.299696963014947687e+04,-5.437593624243563681e+02,4.935910254831182101e+03,-1.046427529277394797e+02,6.392625043724819989e+01,9.523238182067871094e+00,-8.031646609306335449e-01,0.000000000000000000e+00,2.810000000000000000e+02
-3.140665589107334199e+02,-5.558326140415258578e+02,3.904505527664096007e+02,3.636747249121460482e+04,-5.421545202793354292e+02,4.954242724214498594e+03,-9.906074587392527064e+01,7.288830156470362454e+01,9.523238182067871094e+00,-8.031646609306335449e-01,0.000000000000000000e+00,2.820000000000000000e+02
-3.102608043915613507e+02,-5.514432619657005716e+02,3.989488351175937169e+02,3.761154484992503421e+04,-5.407214353807148655e+02,4.970400863683953503e+03,-9.352678765426435348e+01,7.923867018775081306e+01,9.523238182067871094e+00,-8.031646609306335449e-01,0.000000000000000000e+00,2.830000000000000000e+02
-3.053394525394783159e+02,-5.474869900515720929e+02,4.060643357159929110e+02,3.687130399253498035e+04,-5.398951662773611133e+02,4.984160352119688469e+03,-8.835096593143782684e+01,8.307026729338144833e+01,9.523238182067871094e+00,-8.031646609306335449e-01,0.000000000000000000e+00,2.840000000000000000e+02
-2.994460045241844455e+02,-5.470988968173455760e+02,4.117169861429465527e+02,3.540210726218667696e+04,-5.402444028794097903e+02,4.995982181528495857e+03,-8.478230682472280932e+01,8.469489666595768540e+01,9.523238182067871094e+00,-8.031646609306335449e-01,0.000000000000000000e+00,2.850000000000000000e+02
-2.933987589915429908e+02,-5.515452296910082168e+02,4.161986344372012354e+02,3.444446691086693318e+04,-5.422305667201594588e+02,5.006582130200935353e+03,-8.376275035808805569e+01,8.461719483662136554e+01,9.523238182067871094e+00,-8.031646609306335449e-01,0.000000000000000000e+00,2.860000000000000000e+02
-2.881489754253445881e+02,-5.592037226173795261e+02,4.197271986597052091e+02,3.431953172298235586e+04,-5.456482706359765871e+02,5.016466486909417654e+03,-8.488545483612972475e+01,8.345707012336492880e+01,9.523238182067871094e+00,-8.031646609306335449e-01,0.000000000000000000e+00,2.870000000000000000e+02
-2.840265886856811903e+02,-5.669887351534322306e+02,4.219988253837464072e+02,3.447552399968551617e+04,-5.493169501424245027e+02,5.025757156347381169e+03,-8.662714089450628308e+01,8.177627617189227749e+01,9.523238182067871094e+00,-8.031646609306335449e-01,0.000000000000000000e+00,2.880000000000000000e+02
-2.805495027235153884e+02,-5.726580661134805723e+02,4.223548586621880077e+02,3.425581628569585155e+04,-5.515934644901651609e+02,5.034270787688155906e+03,-8.754839134711011184e+01,8.001892217542649632e+01,9.523238182067871094e+00,-8.031646609306335449e-01,0.000000000000000000e+00,2.890000000000000000e+02
-2.769919390660345471e+02,-5.759630618664477879e+02,4.206305258047134430e+02,3.354976365681087918e+04,-5.514570507245509816e+02,5.041717182459578908e+03,-8.730512857754416700e+01,7.864517370998225942e+01,9.523238182067871094e+00,-8.031646609306335449e-01,0.000000000000000000e+00,2.900000000000000000e+02
-2.731169512216863495e+02,-5.780037276624909737e+02,4.179479921060992638e+02,3.276070874355418346e+04,-5.491820710596606432e+02,5.047947534636808996e+03,-8.663163429381398828e+01,7.824928375057629637e+01,9.523238182067871094e+00,-8.031646609306335449e-01,0.000000000000000000e+00,2.910000000000000000e+02
-2.693663534672969035e+02,-5.797453777425780572e+02,4.165332046311355043e+02,3.228325258843419215e+04,-5.459407213442996181e+02,5.053128923246627892e+03,-8.640958775558993921e+01,7.945737490825877103e+01,9.523238182067871094e+00,-8.031646609306335449e-01,0.000000000000000000e+00,2.920000000000000000e+02
-2.663991619975511185e+02,-5.811833712814482169e+02,4.184413590794931679e+02,3.210973617849103539e+04,-5.427357728741927758e+02,5.057674402044089220e+03,-8.676122169313157428e+01,8.261875690150452556e+01,9.523238182067871094e+00,-8.031646609306335449e-01,0.000000000000000000e+00,2.930000000000000000e+02
-2.645124545617260878e+02,-5.817690552940491671e+02,4.241193623497315457e+02,3.192604797257685641e+04,-5.397447090169745252e+02,5.061889805270626312e+03,-8.699586921407529871e+01,8.750790282430182287e+01,9.523238182067871094e+00,-8.031646609306335449e-01,0.000000000000000000e+00,2.940000000000000000e+02
-2.634485425343989959e+02,-5.814797509258557966e+02,4.319898453670059553e+02,3.149568238902393205e+04,-5.366524278858456682e+02,5.065647455065949543e+03,-8.645834913522753595e+01,9.318476426061295115e+01,9.523238182067871094e+00,-8.031646609306335449e-01,0.000000000000000000e+00,2.950000000000000000e+02
-2.626253603662523801e+02,-5.814350814992233154e+02,4.393804726924236093e+02,3.089112558928968792e+04,-5.334862690918732824e+02,5.068484856671161651e+03,-8.554793629012681322e+01,9.799866719821966399e+01,9.523238182067871094e+00,-8.031646609306335449e-01,0.000000000000000000e+00,2.960000000000000000e+02
-2.615353572919243561e+02,-5.834147075677434486e+02,4.439939756074222714e+02,3.035786488987740086e+04,-5.310395876516560065e+02,5.070076368674913283e+03,-8.589438112348295817e+01,9.982473642630395716e+01,9.523238182067871094e+00,-8.031646609306335449e-01,0.000000000000000000e+00,2.970000000000000000e+02
-2.600720151377574894e+02,-5.886284278056987205e+02,4.448465622596836511e+02,3.001167885915036459e+04,-5.304415725872299845e+02,5.070579497268049636e+03,-8.930180630328112557e+01,9.675101696696913223e+01,9.523238182067871094e+00,-8.031646609306335449e-01,0.000000000000000000e+00,2.980000000000000000e+02
-2.586828120209912640e+02,-5.967372326203978901e+02,4.422848753969616382e+02,2.975336557196200010e+04,-5.322863596770948789e+02,5.070444979711273845e+03,-9.618959952157774751e+01,8.815398128111917231e+01,9.523238182067871094e+00,-8.031646609306335449e-01,0.000000000000000000e+00,2.990000000000000000e+02
-2.582265918634250284e+02,-6.059556676511108435e+02,4.375126915161965826e+02,2.941432102252673212e+04,-5.360657406871833928e+02,5.069915222558433015e+03,-1.048737906419291903e+02,7.552218095113380514e+01,9.523238182067871094e+00,-8.031646609306335449e-01,0.000000000000000000e+00,3.000000000000000000e+02
-2.594452175950080459e+02,-6.141409419371917693e+02,4.322005588673420107e+02,2.894591013876791476e+04,-5.402777204896777903e+02,5.068850085766664961e+03,-1.124153384971486389e+02,6.221917549917213819e+01,9.523238182067871094e+00,-8.031646609306335449e-01,0.000000000000000000e+00,3.010000000000000000e+02
-2.623141619833631353e+02,-6.199676643925160988e+02,4.282023928788265721e+02,2.844626425086249583e+04,-5.430997248199978458e+02,5.067093264652428843e+03,-1.164036942830426256e+02,5.201918703274259315e+01,9.523238182067871094e+00,-8.031646609306335449e-01,0.000000000000000000e+00,3.020000000000000000e+02
-2.657969125444911356e+02,-6.233688673203146209e+02,4.270733368904143390e+02,2.802843972461482917e+04,-5.432502849535635505e+02,5.064877731308735747e+03,-1.162474080807896826e+02,4.727035480525250932e+01,9.523238182067871094e+00,-8.031646609306335449e-01,0.000000000000000000e+00,3.030000000000000000e+02
-2.683465611173989487e+02,-6.251558807150724988e+02,4.293899450491655898e+02,2.769959190924725044e+04,-5.406173587773038207e+02,5.062636881344519679e+03,-1.130331886035990010e+02,4.796169858783218842e+01,9.523238182067871094e+00,-8.031646609306335449e-01,0.000000000000000000e+00,3.040000000000000000e+02
-2.688311803587009194e+02,-6.263835844009390712e+02,4.343712131203069475e+02,2.737554786010897806e+04,-5.362904590768249591e+02,5.060322170126875790e+03,-1.084012464912954101e+02,5.223190272643194021e+01,9.523238182067871094e+00,-8.031646609306335449e-01,0.000000000000000000e+00,3.050000000000000000e+02
-2.671269528454093347e+02,-6.279139253412253083e+02,4.402804055132546637e+02,2.698774079770915341e+04,-5.319046822538110746e+02,5.057045642660150406e+03,-1.036466194535770455e+02,5.769605575163654976e+01,9.523238182067871094e+00,-8.031646609306335449e-01,0.000000000000000000e+00,3.060000000000000000e+02
-2.639733080549882516e+02,-6.301028692956823534e+02,4.454439212806042860e+02,2.655110334891038656e+04,-5.286789218711194280e+02,5.051620283450451097e+03,-9.966552680356551264e+01,6.250073346757233139e+01,9.523238182067871094e+00,-8.031646609306335449e-01,0.000000000000000000e+00,3.070000000000000000e+02
-2.603756335506612913e+02,-6.325172243947185962e+02,4.491592885750719688e+02,2.613005588227757107e+04,-5.268107826531954743e+02,5.043609281206342530e+03,-9.728550519754082870e+01,6.558476150680928640e+01,9.523238182067871094e+00,-8.031646609306335449e-01,0.000000000000000000e+00,3.080000000000000000e+02
-2.571718740769467786e+02,-6.340355562244228622e+02,4.518513653485068744e+02,2.576060634460671645e+04,-5.256705340356605802e+02,5.033863588728146169e+03,-9.716200186846174347e+01,6.649419465610372981e+01,9.523238182067871094e+00,-8.031646609306335449e-01,0.000000000000000000e+00,3.090000000000000000e+02
-2.549708557055262190e+02,-6.337957142096761345e+02,4.545035728700900108e+02,2.541992624804699517e+04,-5.245246550914391719e+02,5.024009148258141067e+03,-9.914759608480596853e+01,6.532647828144718005e+01,9.523238182067871094e+00,-8.031646609306335449e-01,0.000000000000000000e+00,3.100000000000000000e+02
-2.541324217492598336e+02,-6.326046776050441167e+02,4.579058382212945162e+02,2.506387730526490850e+04,-5.230887882593482345e+02,5.015379733283751193e+03,-1.019123415719088257e+02,6.288454714286649505e+01,9.523238182067871094e+00,-8.031646609306335449e-01,0.000000000000000000e+00,3.110000000000000000e+02
-2.545350896724700647e+02,-6.333818914892590328e+02,4.621850747118390927e+02,2.467755466095598240e+04,-5.215080391413131338e+02,5.008317944020031973e+03,-1.034904660162483765e+02,6.060933156455587323e+01,9.446745872497558594e+00,-8.796565532684326172e-01,0.000000000000000000e+00,3.120000000000000000e+02
-2.553583232287985538e+02,-6.395780172602993616e+02,4.667422317245827799e+02,2.428317609654203261e+04,-5.199666285145355005e+02,5.002291494253710880e+03,-1.025368868293242031e+02,5.994473399013810422e+01,9.446745872497558594e+00,-8.796565532684326172e-01,0.000000000000000000e+00,3.130000000000000000e+02
-2.553439696763058464e+02,-6.523867512310886241e+02,4.704952103745847580e+02,2.390791750843329282e+04,-5.184616809908579853e+02,4.996475881968995054e+03,-9.929685068941122950e+01,6.141483962998677271e+01,9.446745872497558594e+00,-8.796565532684326172e-01,0.000000000000000000e+00,3.140000000000000000e+02
-2.535469717230750462e+02,-6.691252639674884222e+02,4.723804922327341274e+02,2.355509072191852101e+04,-5.169406713395517272e+02,4.990220684338444698e+03,-9.545935426387120515e+01,6.415146968157853280e+01,9.446745872497558594e+00,-8.796565532684326172e-01,0.000000000000000000e+00,3.150000000000000000e+02
-2.499788999736964854e+02,-6.845158878377851579e+02,4.720357876209468486e+02,2.320719143613880442e+04,-5.155214184325916449e+02,4.983187356240548979e+03,-9.297973280462645107e+01,6.636620224789015765e+01,9.446745872497558594e+00,-8.796565532684326172e-01,0.000000000000000000e+00,3.160000000000000000e+02
-2.455426500752127481e+02,-6.940493094276145030e+02,4.702912099780623976e+02,2.284900198689433455e+04,-5.144853670194906954e+02,4.975292475978925722e+03,-9.274924204786563564e+01,6.652109083590835326e+01,9.446745872497558594e+00,-8.796565532684326172e-01,0.000000000000000000e+00,3.170000000000000000e+02
-2.412722868214977439e+02,-6.966501496223437471e+02,4.689755954412747769e+02,2.248209244792513346e+04,-5.140596981267306091e+02,4.966617565406364520e+03,-9.410400639726947247e+01,6.431214656244253547e+01,9.446745872497558594e+00,-8.796565532684326172e-01,0.000000000000000000e+00,3.180000000000000000e+02
-2.375293749324271744e+02,-6.944473493211535242e+02,4.699624289445416707e+02,2.211895870748898233e+04,-5.142444041861097048e+02,4.957289226888482517e+03,-9.544351535722836388e+01,6.074383893597803308e+01,9.446745872497558594e+00,-8.796565532684326172e-01,0.000000000000000000e+00,3.190000000000000000e+02
-2.337881419374350287e+02,-6.902442293924229944e+02,4.740574738843808973e+02,2.176819761727286095e+04,-5.147942133751180336e+02,4.947341630643137250e+03,-9.543884399426292475e+01,5.729361848794854950e+01,9.446745872497558594e+00,-8.796565532684326172e-01,0.000000000000000000e+00,3.200000000000000000e+02
-2.291011928526324937e+02,-6.853224370537703862e+02,4.805987384691877651e+02,2.142704489634539641e+04,-5.152559419024346425e+02,4.936694487472474975e+03,-9.393562018966861160e+01,5.486899838432788101e+01,9.446745872497558594e+00,-8.796565532684326172e-01,0.000000000000000000e+00,3.210000000000000000e+02
-2.228639608115070132e+02,-6.794491058012870326e+02,4.880955002330624666e+02,2.108606292672875134e+04,-5.150278889676219478e+02,4.925308573146803610e+03,-9.187549099592050084e+01,5.342797714556917299e+01,9.446745872497558594e+00,-8.796565532684326172e-01,0.000000000000000000e+00,3.220000000000000000e+02
-2.153520044481640809e+02,-6.725495345692603451e+02,4.953465403643812124e+02,2.074218800292162996e+04,-5.135271301236759882e+02,4.913379451090240764e+03,-9.038586767375056752e+01,5.248317558474286670e+01,9.446745872497558594e+00,-8.796565532684326172e-01,0.000000000000000000e+00,3.230000000000000000e+02
-2.077160938653319135e+02,-6.659167716304534679e+02,5.020845520432019384e+02,2.040102994322246013e+04,-5.105099032106840582e+02,4.901336507840358536e+03,-8.987390391227347664e+01,5.189477431375269134e+01,9.446745872497558594e+00,-8.796565532684326172e-01,0.000000000000000000e+00,3.240000000000000000e+02
-2.014127494836086214e+02,-6.616356750699658278e+02,5.087067749516916138e+02,2.006257915357622551e+04,-5.063367529090410812e+02,4.889626004071020361e+03,-8.994482070911476512e+01,5.210557944616516579e+01,9.446745872497558594e+00,-8.796565532684326172e-01,0.000000000000000000e+00,3.250000000000000000e+02
-1.973630751832360488e+02,-6.609056303545975197e+02,5.154958169642478651e+02,1.972684094194285717e+04,-5.018860233399784079e+02,4.878504204409195154e+03,-9.013362253991044781e+01,5.356362114644804251e+01,9.446745872497558594e+00,-8.796565532684326172e-01,0.000000000000000000e+00,3.260000000000000000e+02
-1.954072210908435636e+02,-6.629336463151632870e+02,5.220962809289989082e+02,1.939384250481153867e+04,-4.981566356766347781e+02,4.867983007240078223e+03,-9.057268680413361039e+01,5.595320260052142203e+01,9.446745872497558594e+00,-8.796565532684326172e-01,0.000000000000000000e+00,3.270000000000000000e+02
-1.944928706543760768e+02,-6.653671457937776950e+02,5.276850483277318062e+02,1.906360833770638783e+04,-4.959000837983942915e+02,4.857869700962596653e+03,-9.182565165177175004e+01,5.808640183729391993e+01,9.446745872497558594e+00,-8.796565532684326172e-01,0.000000000000000000e+00,3.280000000000000000e+02
-1.935031345192047638e+02,-6.658060106533507678e+02,5.315877860526586574e+02,1.873614729760179034e+04,-4.955577514007443369e+02,4.847751197409411361e+03,-9.407937402135121374e+01,5.864701785602358086e+01,9.446745872497558594e+00,-8.796565532684326172e-01,0.000000000000000000e+00,3.290000000000000000e+02
-1.920637536890914134e+02,-6.632309977641548357e+02,5.337447736753993013e+02,1.841144742168503944e+04,-4.973592880865036818e+02,4.836985674492974795e+03,-9.671476291947132609e+01,5.708407769190023373e+01,9.446745872497558594e+00,-8.796565532684326172e-01,0.000000000000000000e+00,3.300000000000000000e+02
-1.906668343867982003e+02,-6.584977659650559190e+02,5.346785597667202410e+02,1.808951139316901026e+04,-5.012417181078455997e+02,4.824906606026432200e+03,-9.890432898645084947e+01,5.381017915817187713e+01,9.446745872497558594e+00,-8.796565532684326172e-01,0.000000000000000000e+00,3.310000000000000000e+02
-1.901045927063356089e+02,-6.537405852491001497e+02,5.350577839091870374e+02,1.777036507483121386e+04,-5.065944465790936988e+02,4.811215939980779694e+03,-1.006524979580481158e+02,4.961110793441730493e+01,9.446745872497558594e+00,-8.796565532684326172e-01,0.000000000000000000e+00,3.320000000000000000e+02
-1.908183161876671647e+02,-6.511020135470482728e+02,5.352367129486228805e+02,1.745403089097749398e+04,-5.122096284390596566e+02,4.796247959029360572e+03,-1.030931889696762482e+02,4.494557014064054101e+01,9.484992027282714844e+00,-8.796565532684326172e-01,0.000000000000000000e+00,3.330000000000000000e+02
-1.927327398814989010e+02,-6.514800447118678903e+02,5.350987730048835829e+02,1.714051491368181814e+04,-5.167492420329459719e+02,4.780793541488608753e+03,-1.075501671468058476e+02,3.982341730640473543e+01,9.484992027282714844e+00,-8.796565532684326172e-01,0.000000000000000000e+00,3.340000000000000000e+02
-1.955230859887967085e+02,-6.540454808330810010e+02,5.342511141562222292e+02,1.682980337348147077e+04,-5.194916935703326999e+02,4.765591966370005139e+03,-1.142168379589417668e+02,3.423243612377336831e+01,9.484992027282714844e+00,-8.796565532684326172e-01,0.000000000000000000e+00,3.350000000000000000e+02
-1.988667135634642591e+02,-6.569303975777713731e+02,5.323648818673777896e+02,1.652189732995535087e+04,-5.207287475939410797e+02,4.750940624044046672e+03,-1.217808263120719232e+02,2.850030584127182465e+01,9.484992027282714844e+00,-8.796565532684326172e-01,0.000000000000000000e+00,3.360000000000000000e+02
-2.024848098688768232e+02,-6.586500677459465578e+02,5.294212376484496190e+02,1.621682036589973723e+04,-5.214774739494887399e+02,4.736703430847679556e+03,-1.283396175020686485e+02,2.316627991994994318e+01,9.484992027282714844e+00,-8.796565532684326172e-01,0.000000000000000000e+00,3.370000000000000000e+02
-2.061723637839239700e+02,-6.591742990991592706e+02,5.257458393567719668e+02,1.591459255225217203e+04,-5.227566642796780343e+02,4.722595654500744786e+03,-1.327033502058087606e+02,1.857846864413244248e+01,9.484992027282714844e+00,-8.796565532684326172e-01,0.000000000000000000e+00,3.380000000000000000e+02
-2.099932294175532661e+02,-6.597240149333266572e+02,5.218766284094721186e+02,1.561521876273988892e+04,-5.249643473462922429e+02,4.708415507832948606e+03,-1.349214505989951931e+02,1.475809885791613851e+01,9.484992027282714844e+00,-8.796565532684326172e-01,0.000000000000000000e+00,3.390000000000000000e+02
-2.143719556575756542e+02,-6.614497406189606181e+02,5.184081404396914650e+02,1.531868390691820787e+04,-5.276585295102680675e+02,4.694095856841191562e+03,-1.357901020911576495e+02,1.170857070697121571e+01,9.484992027282714844e+00,-8.796565532684326172e-01,0.000000000000000000e+00,3.400000000000000000e+02
-2.196999600760108251e+02,-6.641507685121890745e+02,5.158890075525747534e+02,1.502498651301282734e+04,-5.297146017271746814e+02,4.679709611952333944e+03,-1.360329769830146347e+02,9.798220834489825393e+00,9.484992027282714844e+00,-8.796565532684326172e-01,0.000000000000000000e+00,3.410000000000000000e+02
-2.256657390481719290e+02,-6.661448776185527549e+02,5.147015859516834553e+02,1.473414816182539471e+04,-5.297904967914191730e+02,4.665490128254189585e+03,-1.358816283664652076e+02,9.723961829572829174e+00,9.484992027282714844e+00,-8.796565532684326172e-01,0.000000000000000000e+00,3.420000000000000000e+02
-2.310719240852335474e+02,-6.654299461721396938e+02,5.148601261011323231e+02,1.444618688328600911e+04,-5.270326276252437765e+02,4.651755580867469689e+03,-1.352134658901594833e+02,1.195341073214507333e+01,9.484992027282714844e+00,-8.796565532684326172e-01,0.000000000000000000e+00,3.430000000000000000e+02
-2.346226907017173744e+02,-6.611968964106903286e+02,5.158292616087052238e+02,1.416110498713089873e+04,-5.217631857164992653e+02,4.638665443573372613e+03,-1.339454442730807955e+02,1.604611362088186866e+01,9.484992027282714844e+00,-8.796565532684326172e-01,0.000000000000000000e+00,3.440000000000000000e+02
-2.360999672161880767e+02,-6.545339414301245142e+02,5.165888145111350696e+02,1.387888496932703856e+04,-5.156336789754871006e+02,4.625998188101977576e+03,-1.324172006434138211e+02,2.041533169944307247e+01,9.484992027282714844e+00,-8.796565532684326172e-01,0.000000000000000000e+00,3.450000000000000000e+02
-2.367153091176709836e+02,-6.478375535319825076e+02,5.160555626151743809e+02,1.359952331993394728e+04,-5.109066526180774872e+02,4.613227504147696891e+03,-1.315984386538647186e+02,2.284124134024642672e+01,9.484992027282714844e+00,-8.796565532684326172e-01,0.000000000000000000e+00,3.460000000000000000e+02
-2.381291869123137985e+02,-6.433361355815686693e+02,5.136441571384187910e+02,1.332303949895542610e+04,-5.092223296461412474e+02,4.599817844677486391e+03,-1.328196641591053435e+02,2.158405633090114861e+01,9.484992027282714844e+00,-8.796565532684326172e-01,0.000000000000000000e+00,3.470000000000000000e+02
-2.409660604512886835e+02,-6.417138423629580757e+02,5.095787554220520406e+02,1.304944967505236673e+04,-5.107383037842691920e+02,4.585369402375680693e+03,-1.368803001993941848e+02,1.649727668280155513e+01,9.484992027282714844e+00,-8.796565532684326172e-01,0.000000000000000000e+00,3.480000000000000000e+02
-2.442562674926438149e+02,-6.417560666658457649e+02,5.047065718373129357e+02,1.277875452906208193e+04,-5.142788261388161573e+02,4.569436368438597128e+03,-1.430313843571446739e+02,9.349855867748203764e+00,9.484992027282714844e+00,-8.796565532684326172e-01,0.000000000000000000e+00,3.490000000000000000e+02
-2.463549382617220544e+02,-6.413408972395574210e+02,4.999201433217506860e+02,1.251093487987381377e+04,-5.182626736875442930e+02,4.551355305110599147e+03,-1.489101263091211820e+02,2.881784078871987731e+00,9.484992027282714844e+00,-8.796565532684326172e-01,0.000000000000000000e+00,3.500000000000000000e+02
-2.464407998940641846e+02,-6.391268576521779323e+02,4.955949175755699230e+02,1.224598511992919157e+04,-5.215839143621599305e+02,4.530551078343371955e+03,-1.519843196483619749e+02,-9.849429671671146025e-01,9.484992027282714844e+00,-8.796565532684326172e-01,0.000000000000000000e+00,3.510000000000000000e+02
-2.451989655578998963e+02,-6.355837773322964495e+02,4.914236446554305076e+02,1.198392299194832231e+04,-5.238837484893826968e+02,4.507197216581016619e+03,-1.515539165823558392e+02,-2.458850964541909434e+00,9.484992027282714844e+00,-8.796565532684326172e-01,0.000000000000000000e+00,3.520000000000000000e+02
-2.441297346579075338e+02,-6.324093233058133592e+02,4.867556451730906701e+02,1.172476258666195281e+04,-5.252836655861842701e+02,4.482513451981356411e+03,-1.494591609595849775e+02,-3.517872623657865461e+00,9.484992027282714844e+00,-8.796565532684326172e-01,0.000000000000000000e+00,3.530000000000000000e+02
-2.442199431519945847e+02,-6.307209078380328720e+02,4.812203275924227910e+02,1.146850262006642697e+04,-5.260082025667468315e+02,4.458157919647966992e+03,-1.485501467781694771e+02,-5.989857779082342404e+00,9.484992027282714844e+00,-8.796565532684326172e-01,0.000000000000000000e+00,3.540000000000000000e+02
-2.451714664942765012e+02,-6.297011153781293160e+02,4.752110359420280474e+02,1.121512158401306442e+04,-5.261666742438643496e+02,4.435101066763847484e+03,-1.501746827771563630e+02,-9.708197403162444061e+00,9.484992027282714844e+00,-8.796565532684326172e-01,0.000000000000000000e+00,3.550000000000000000e+02
-2.457788795038962917e+02,-6.271802702153978544e+02,4.698214710906092932e+02,1.096461240002309751e+04,-5.257043667884163369e+02,4.413011576771345062e+03,-1.530918553127327471e+02,-1.252661570687439507e+01,9.484992027282714844e+00,-8.796565532684326172e-01,0.000000000000000000e+00,3.560000000000000000e+02
-2.450756913050241792e+02,-6.217969941279470731e+02,4.661703518159347368e+02,1.071699047623338811e+04,-5.245346205800792632e+02,4.390718984859240663e+03,-1.548839509697774304e+02,-1.231313477348766128e+01,9.484992027282714844e+00,-8.796565532684326172e-01,0.000000000000000000e+00,3.570000000000000000e+02
-2.433032788056415257e+02,-6.146854747318727732e+02,4.645515158813255994e+02,1.047226836584958801e+04,-5.228441815203082115e+02,4.367251498081310274e+03,-1.544392068916081371e+02,-9.108807214505532102e+00,9.446745872497558594e+00,-8.031646609306335449e-01,0.000000000000000000e+00,3.580000000000000000e+02
-2.419377424710929745e+02,-6.088556743105015130e+02,4.640988083067176149e+02,1.023044302404679911e+04,-5.213311163291795083e+02,4.342448338972606507e+03,-1.529578535554886116e+02,-5.345167396284352890e+00,9.446745872497558594e+00,-8.031646609306335449e-01,0.000000000000000000e+00,3.590000000000000000e+02
-2.426894685503359597e+02,-6.066061157209438761e+02,4.633552632949651979e+02,9.991491224975636214e+03,-5.209416512378779771e+02,4.316715956858404752e+03,-1.525004329312211553e+02,-3.823611264093017326e+00,9.446745872497558594e+00,-8.031646609306335449e-01,0.000000000000000000e+00,3.600000000000000000e+02
-2.461526122074728846e+02,-6.073279277786737111e+02,4.613741453755508246e+02,9.755403829018110628e+03,-5.220363256221513666e+02,4.290417861085795266e+03,-1.537023746415021037e+02,-5.341659142602338761e+00,9.446745872497558594e+00,-8.031646609306335449e-01,0.000000000000000000e+00,3.610000000000000000e+02
-2.511720331148269452e+02,-6.078472731181821018e+02,4.584031651222552455e+02,9.522194388008851092e+03,-5.236854888750908685e+02,4.263579136110820400e+03,-1.550874078466438846e+02,-8.189394788894105659e+00,9.446745872497558594e+00,-8.031646609306335449e-01,0.000000000000000000e+00,3.620000000000000000e+02
-2.555357039453831476e+02,-6.050828463227248903e+02,4.555254877805589331e+02,9.291873761032766197e+03,-5.239795324103043868e+02,4.236061883102164757e+03,-1.546246774928162608e+02,-9.876745806318695031e+00,9.446745872497558594e+00,-8.031646609306335449e-01,0.000000000000000000e+00,3.630000000000000000e+02
-2.575399435360925509e+02,-5.985408924040888223e+02,4.536012470021099716e+02,9.064437075132749669e+03,-5.213900156563717019e+02,4.207818768784960412e+03,-1.517883804337697597e+02,-9.318654003551102960e+00,9.446745872497558594e+00,-8.031646609306335449e-01,0.000000000000000000e+00,3.640000000000000000e+02
-2.571320921978674505e+02,-5.903460867556455014e+02,4.525265256028316116e+02,8.839859543485250470e+03,-5.160279075889839078e+02,4.178920027245739220e+03,-1.479606850779212550e+02,-7.411283113300498826e+00,9.446745872497558594e+00,-8.031646609306335449e-01,0.000000000000000000e+00,3.650000000000000000e+02
-2.555908389564884828e+02,-5.829058873622582269e+02,4.515174336636983980e+02,8.618130243766538115e+03,-5.095101651773808271e+02,4.149484974687851718e+03,-1.448736336612730611e+02,-5.656892906227483309e+00,9.446745872497558594e+00,-8.031646609306335449e-01,0.000000000000000000e+00,3.660000000000000000e+02
-2.540646663851409812e+02,-5.765750787517077924e+02,4.500533180787323317e+02,8.399260945051426461e+03,-5.034616054739227593e+02,4.119721782878809790e+03,-1.428281954466031607e+02,-4.408032440551721720e+00,9.446745872497558594e+00,-8.031646609306335449e-01,0.000000000000000000e+00,3.670000000000000000e+02
-2.524078840619912398e+02,-5.696678060294955230e+02,4.484287187369402545e+02,8.183260798277017784e+03,-4.980863131558219266e+02,4.089998063034978259e+03,-1.405909868810716716e+02,-2.556104235695556781e+00,9.446745872497558594e+00,-8.031646609306335449e-01,0.000000000000000000e+00,3.680000000000000000e+02
-2.494834543281017432e+02,-5.608039061255939259e+02,4.472966129233093397e+02,7.970123104191945458e+03,-4.922212212648356626e+02,4.060680687020591904e+03,-1.370098610929161396e+02,1.082126062633392394e+00,9.446745872497558594e+00,-8.031646609306335449e-01,0.000000000000000000e+00,3.690000000000000000e+02
-2.446004604682232184e+02,-5.512448049666804764e+02,4.467096346236120326e+02,7.759820996641764395e+03,-4.847686645278723745e+02,4.031790121843469933e+03,-1.325933310151937690e+02,6.129558873309065348e+00,9.446745872497558594e+00,-8.031646609306335449e-01,0.000000000000000000e+00,3.700000000000000000e+02
-2.385613544144061962e+02,-5.447496916555953703e+02,4.457307922598910181e+02,7.552341963507209584e+03,-4.760495676105695111e+02,4.002879356072076462e+03,-1.293953740257790628e+02,1.041034537623755796e+01,9.446745872497558594e+00,-8.031646609306335449e-01,0.000000000000000000e+00,3.710000000000000000e+02
-2.332074956652897981e+02,-5.447130323603580564e+02,4.430951002814618960e+02,7.347696171684912770e+03,-4.678214576968453002e+02,3.973376072547294825e+03,-1.292813606173685343e+02,1.142944212908844293e+01,9.446745872497558594e+00,-8.031646609306335449e-01,0.000000000000000000e+00,3.720000000000000000e+02
-2.298702474532335600e+02,-5.510046282730659186e+02,4.383045503288183227e+02,7.145891068257205006e+03,-4.620704821968788565e+02,3.943119910227631863e+03,-1.322798403973329187e+02,8.300156818582308915e+00,9.446745872497558594e+00,-8.031646609306335449e-01,0.000000000000000000e+00,3.730000000000000000e+02
-2.282453520217125060e+02,-5.594292082006502369e+02,4.320622032063296274e+02,6.946918520027408704e+03,-4.597500546213013877e+02,3.912544408245923933e+03,-1.365877182423868703e+02,2.469540326816627385e+00,9.446745872497558594e+00,-8.031646609306335449e-01,0.000000000000000000e+00,3.740000000000000000e+02
-2.267479000609802142e+02,-5.645844447809490703e+02,4.256342550626036427e+02,6.750749948287368170e+03,-4.603672647285081894e+02,3.882319514273011009e+03,-1.401494111593299294e+02,-3.336582530737643992e+00,9.446745872497558594e+00,-8.031646609306335449e-01,0.000000000000000000e+00,3.750000000000000000e+02
-2.239391430722878340e+02,-5.639028696697627083e+02,4.197885007859354118e+02,6.557371472959976018e+03,-4.623671140633282448e+02,3.852850257734472507e+03,-1.422549748304472246e+02,-7.044032127501111518e+00,9.446745872497558594e+00,-8.031646609306335449e-01,0.000000000000000000e+00,3.760000000000000000e+02
-2.197145773633210410e+02,-5.595388588505373946e+02,4.142988924131201429e+02,6.366791689699546623e+03,-4.638016564871695664e+02,3.824107993962019464e+03,-1.437226684296102803e+02,-8.520230658208731711e+00,9.446745872497558594e+00,-8.031646609306335449e-01,0.000000000000000000e+00,3.770000000000000000e+02
-2.152955821093834174e+02,-5.565487130372907814e+02,4.083746196079440551e+02,6.179016001342271920e+03,-4.630030504714943618e+02,3.795837522260748301e+03,-1.457440567499690474e+02,-9.360606201173425234e+00,9.446745872497558594e+00,-8.031646609306335449e-01,0.000000000000000000e+00,3.780000000000000000e+02
-2.122054795403469143e+02,-5.588937683240933438e+02,4.014840487158810447e+02,5.994034632053731912e+03,-4.592484678203454678e+02,3.767793445837653053e+03,-1.487045808985001827e+02,-1.151021760150109685e+01,9.446745872497558594e+00,-8.031646609306335449e-01,0.000000000000000000e+00,3.790000000000000000e+02
-2.111532264634431613e+02,-5.665604717840261628e+02,3.938019498742215774e+02,5.811818123107651445e+03,-4.531844224027131531e+02,3.739789288020683671e+03,-1.521096033201637852e+02,-1.583908640411340230e+01,9.446745872497558594e+00,-8.031646609306335449e-01,0.000000000000000000e+00,3.800000000000000000e+02
-2.116126905715941575e+02,-5.759505744809678163e+02,3.860124935515530069e+02,5.632350726478571232e+03,-4.465360448762453416e+02,3.711699002495799505e+03,-1.553827070178720078e+02,-2.160095209107566916e+01,9.446745872497558594e+00,-8.031646609306335449e-01,0.000000000000000000e+00,3.810000000000000000e+02
-2.122651095002618149e+02,-5.828157068259420157e+02,3.788190203458630094e+02,5.455639483963303064e+03,-4.410267118458791629e+02,3.683573591667998699e+03,-1.583614359344404647e+02,-2.692952911022035778e+01,9.446745872497558594e+00,-8.031646609306335449e-01,0.000000000000000000e+00,3.820000000000000000e+02
-2.118872889268798190e+02,-5.851176549671198472e+02,3.726714262370347797e+02,5.281688829502185399e+03,-4.372264142865540180e+02,3.655751117249729759e+03,-1.608778597262515859e+02,-2.988625210581545844e+01,9.446745872497558594e+00,-8.031646609306335449e-01,0.000000000000000000e+00,3.830000000000000000e+02
-2.100775126605929017e+02,-5.836863252205869230e+02,3.678156574827257828e+02,5.110487283081695750e+03,-4.343147545738281678e+02,3.628680808490488744e+03,-1.620634368340248557e+02,-2.939053808309728311e+01,9.446745872497558594e+00,-8.031646609306335449e-01,0.000000000000000000e+00,3.840000000000000000e+02
-2.073594580990188661e+02,-5.807191802678350996e+02,3.643957965927032774e+02,4.942003937967823731e+03,-4.309537760501348203e+02,3.602493376646203615e+03,-1.605603121626980396e+02,-2.565133840170415169e+01,9.523238182067871094e+00,-8.031646609306335449e-01,0.000000000000000000e+00,3.850000000000000000e+02
-2.046238472717502646e+02,-5.778272504680434167e+02,3.623501698827972177e+02,4.776221454466138312e+03,-4.264287818053135197e+02,3.576739660045737764e+03,-1.558168966382152689e+02,-2.002022191801347617e+01,9.523238182067871094e+00,-8.031646609306335449e-01,0.000000000000000000e+00,3.860000000000000000e+02
-2.023606518896253874e+02,-5.751814995670922599e+02,3.611695041603895788e+02,4.613145688846933808e+03,-4.210520804383422728e+02,3.550629962371700458e+03,-1.491553123392392877e+02,-1.435100869326822703e+01,9.523238182067871094e+00,-8.031646609306335449e-01,0.000000000000000000e+00,3.870000000000000000e+02
-2.002912785648622958e+02,-5.720306043916579029e+02,3.598708607376170221e+02,4.452779346112942221e+03,-4.156177618433537191e+02,3.523620147485927191e+03,-1.432254420531890560e+02,-1.015370269031029693e+01,9.523238182067871094e+00,-8.031646609306335449e-01,0.000000000000000000e+00,3.880000000000000000e+02
-1.976872796922809812e+02,-5.677575888577126761e+02,3.574144803518544222e+02,4.295109819627028628e+03,-4.106176286447421262e+02,3.495798604053958115e+03,-1.400035901865804817e+02,-7.987360923840753912e+00,9.523238182067871094e+00,-8.031646609306335449e-01,0.000000000000000000e+00,3.890000000000000000e+02
-1.940599556960122527e+02,-5.625363798536698141e+02,3.533759561236608988e+02,4.140104674634389994e+03,-4.059703452172407196e+02,3.467747211088351833e+03,-1.391111492838348340e+02,-7.432147598213646233e+00,9.523238182067871094e+00,-8.031646609306335449e-01,0.000000000000000000e+00,3.900000000000000000e+02
-1.895919270868369040e+02,-5.572594885475314186e+02,3.483333034320135084e+02,3.987745468789795268e+03,-4.013143801531371082e+02,3.440098312453937979e+03,-1.381600073287648343e+02,-7.618046030729146878e+00,9.523238182067871094e+00,-8.031646609306335449e-01,0.000000000000000000e+00,3.910000000000000000e+02
-1.849982135545128585e+02,-5.529107402432173330e+02,3.435206288790350300e+02,3.838036368366478200e+03,-3.963696187012196788e+02,3.413217170173515115e+03,-1.349010733461213363e+02,-7.831370917319475211e+00,9.523238182067871094e+00,-8.031646609306335449e-01,0.000000000000000000e+00,3.920000000000000000e+02
-1.810245406562351036e+02,-5.498252583340738511e+02,3.399029274682216055e+02,3.690979076639082450e+03,-3.909622839527507949e+02,3.387207004977415636e+03,-1.292074489680672968e+02,-7.708397128155525024e+00,9.523238182067871094e+00,-8.031646609306335449e-01,0.000000000000000000e+00,3.930000000000000000e+02
-1.780342644899399147e+02,-5.472923208629265446e+02,3.374004846782243021e+02,3.546559767322407424e+03,-3.848414903418274662e+02,3.362058121772568484e+03,-1.230866215106275376e+02,-6.991288550719218620e+00,9.523238182067871094e+00,-8.031646609306335449e-01,0.000000000000000000e+00,3.940000000000000000e+02
-1.758952685714384643e+02,-5.438244542554803047e+02,3.349819688250399849e+02,3.404744651807656737e+03,-3.776664996278946091e+02,3.337712996829208350e+03,-1.188483076474553854e+02,-5.292181425468015732e+00,9.523238182067871094e+00,-8.031646609306335449e-01,0.000000000000000000e+00,3.950000000000000000e+02
-1.740718394054579221e+02,-5.380128199107351747e+02,3.316341281975282982e+02,3.265514383015533895e+03,-3.692857017771541450e+02,3.314035369159842048e+03,-1.172348625780518319e+02,-2.271737318565556052e+00,9.523238182067871094e+00,-8.031646609306335449e-01,0.000000000000000000e+00,3.960000000000000000e+02
-1.718379290458096875e+02,-5.293982060630600017e+02,3.273709681652781001e+02,3.128872366479375160e+03,-3.600857815938954900e+02,3.290781278353810194e+03,-1.171540981711668223e+02,1.891482772059362105e+00,9.523238182067871094e+00,-8.031646609306335449e-01,0.000000000000000000e+00,3.970000000000000000e+02
-1.686050673234335591e+02,-5.187172295377977207e+02,3.233305494294702385e+02,2.994818855983753565e+03,-3.510417054970243953e+02,3.267642877528527606e+03,-1.169912682188331701e+02,6.292240785328772290e+00,9.523238182067871094e+00,-8.031646609306335449e-01,0.000000000000000000e+00,3.980000000000000000e+02
-1.642788355010359282e+02,-5.073341100698985429e+02,3.207873884057198666e+02,2.863338938309613695e+03,-3.433039569589957409e+02,3.244316349115191770e+03,-1.160381399203159845e+02,9.717107947205477103e+00,9.523238182067871094e+00,-8.031646609306335449e-01,0.000000000000000000e+00,3.990000000000000000e+02
-1.593644270990503173e+02,-4.964067435747978720e+02,3.199407383367647526e+02,2.734397344022235302e+03,-3.375052452807331065e+02,3.220568700459309184e+03,-1.147670629271352709e+02,1.141467449508695609e+01,9.523238182067871094e+00,-8.031646609306335449e-01,0.000000000000000000e+00,4.000000000000000000e+02
-1.546259003122017930e+02,-4.865131978100216088e+02,3.196053292806291211e+02,2.607973726450760296e+03,-3.332441211117948114e+02,3.196332551432248692e+03,-1.139939687034308236e+02,1.155638149397896086e+01,9.523238182067871094e+00,-8.031646609306335449e-01,0.000000000000000000e+00,4.010000000000000000e+02
-1.505482838538380292e+02,-4.778511201162278326e+02,3.181489893555399249e+02,2.484069904592124658e+03,-3.292297497071062935e+02,3.171774944620037786e+03,-1.139508390802182021e+02,1.102661336019468763e+01,9.523238182067871094e+00,-8.031646609306335449e-01,0.000000000000000000e+00,4.020000000000000000e+02
-1.471092244358019343e+02,-4.705568265951689568e+02,3.148924094042270099e+02,2.362685070445211750e+03,-3.241341995711438813e+02,3.147234612242105868e+03,-1.141423117039728368e+02,1.080326740288842302e+01,9.523238182067871094e+00,-8.031646609306335449e-01,0.000000000000000000e+00,4.030000000000000000e+02
-1.440806938079720112e+02,-4.646996590275047083e+02,3.107229909794909872e+02,2.243803525033941696e+03,-3.176139660285430182e+02,3.122992045649491047e+03,-1.139185134366871353e+02,1.145494884502113564e+01,9.523238182067871094e+00,-8.031646609306335449e-01,0.000000000000000000e+00,4.040000000000000000e+02
-1.414382808989396381e+02,-4.600074222832840860e+02,3.073689680284396673e+02,2.127389580874014428e+03,-3.106683097203347188e+02,3.099070872868049264e+03,-1.130173994349823943e+02,1.304134148945365723e+01,9.523238182067871094e+00,-8.031646609306335449e-01,0.000000000000000000e+00,4.050000000000000000e+02
-1.393026740043969767e+02,-4.557142391196188100e+02,3.059802429057701829e+02,2.013421354821619389e+03,-3.049276811797728897e+02,3.075300256259765774e+03,-1.114889754462155906e+02,1.533418585596393768e+01,9.523238182067871094e+00,-8.031646609306335449e-01,0.000000000000000000e+00,4.060000000000000000e+02
-1.374554074184529782e+02,-4.507191523323139108e+02,3.062662099846452293e+02,1.901899773303178335e+03,-3.014065095883611320e+02,3.051568071897751906e+03,-1.091320392072339018e+02,1.811884104596083489e+01,9.523238182067871094e+00,-8.031646609306335449e-01,0.000000000000000000e+00,4.070000000000000000e+02
-1.351045854448934733e+02,-4.439117265363170191e+02,3.069237956425176890e+02,1.792823323443079062e+03,-2.997766900950550735e+02,3.027951781499129538e+03,-1.051807958940810295e+02,2.138455088194734799e+01,9.523238182067871094e+00,-8.031646609306335449e-01,0.000000000000000000e+00,4.080000000000000000e+02
-1.314063619104294958e+02,-4.344834237847946952e+02,3.069294585075228952e+02,1.686175418284778061e+03,-2.987646779983351735e+02,3.004532319729241863e+03,-9.876977971040832927e+01,2.531705750634091601e+01,9.523238182067871094e+00,-8.031646609306335449e-01,0.000000000000000000e+00,4.090000000000000000e+02
-1.263095899968066078e+02,-4.222277389851332146e+02,3.065115801291603930e+02,1.581919446448390772e+03,-2.971780947574559377e+02,2.981122757611550696e+03,-8.987119499612026630e+01,3.010295147937904403e+01,9.523238182067871094e+00,-8.031646609306335449e-01,0.000000000000000000e+00,4.100000000000000000e+02
-1.207148790231535713e+02,-4.077944744219601034e+02,3.069646041616608727e+02,1.480032594289637018e+03,-2.945007230151268232e+02,2.957316352454951812e+03,-7.973722159964614775e+01,3.570796810197737159e+01,9.523238182067871094e+00,-8.031646609306335449e-01,0.000000000000000000e+00,4.110000000000000000e+02
-1.155800472052194436e+02,-3.926370933355815396e+02,3.095173666744772163e+02,1.380515029613397928e+03,-2.905999138237418720e+02,2.932877936943539680e+03,-7.016656110208072050e+01,4.186964793173808630e+01,9.523238182067871094e+00,-8.031646609306335449e-01,0.000000000000000000e+00,4.120000000000000000e+02
-1.107967742913117490e+02,-3.784298016791875057e+02,3.142959913759136725e+02,1.283364609456049948e+03,-2.850811580512340697e+02,2.908060419883664508e+03,-6.208899135616348985e+01,4.837074154477431875e+01,9.523238182067871094e+00,-8.031646609306335449e-01,0.000000000000000000e+00,4.130000000000000000e+02
-1.050818940483277402e+02,-3.661760318430041252e+02,3.202717753353538228e+02,1.188563769697423595e+03,-2.771905675249959131e+02,2.883436263824985872e+03,-5.482153501355691105e+01,5.530713101978949453e+01,9.523238182067871094e+00,-8.031646609306335449e-01,0.000000000000000000e+00,4.140000000000000000e+02
-9.714752776964155601e+01,-3.557390920075334861e+02,3.261488250476666053e+02,1.096075033168071968e+03,-2.664938257156591135e+02,2.859374376887988547e+03,-4.689456916320364144e+01,6.293017782938545679e+01,9.523238182067871094e+00,-8.031646609306335449e-01,0.000000000000000000e+00,4.150000000000000000e+02
-8.704503057465853999e+01,-3.463071918745354196e+02,3.312704446640980223e+02,1.005874847461559511e+03,-2.536363344639139541e+02,2.835713894005367365e+03,-3.782106714610756626e+01,7.103097158136836242e+01,9.484992027282714844e+00,-8.414105772972106934e-01,3.824593871831893921e-02,4.160000000000000000e+02
-7.636253575883301892e+01,-3.374076909960427315e+02,3.356368517347098077e+02,9.179627546589226768e+02,-2.403595161301998360e+02,2.811964280240533299e+03,-2.904536243530895945e+01,7.848797340765599984e+01,9.484992027282714844e+00,-8.414105772972106934e-01,3.824593871831893921e-02,4.170000000000000000e+02
-6.705716228074334140e+01,-3.294817111698523604e+02,3.390640865466907599e+02,8.323358913980582656e+02,-2.286459619111478787e+02,2.787801389404658948e+03,-2.295265567787095051e+01,8.368828224391540971e+01,9.484992027282714844e+00,-8.414105772972106934e-01,3.824593871831893921e-02,4.180000000000000000e+02
-6.001438187972598826e+01,-3.234140452077845680e+02,3.404483438513925648e+02,7.489763689109731786e+02,-2.196438707508004882e+02,2.763341595431431415e+03,-2.074676272267515742e+01,8.573295021211072253e+01,9.484992027282714844e+00,-8.414105772972106934e-01,3.824593871831893921e-02,4.190000000000000000e+02
-5.461039150359761152e+01,-3.195126227042408118e+02,3.380911821589966166e+02,6.678460211379815519e+02,-2.131197357243167971e+02,2.738991308456863408e+03,-2.126268712225981972e+01,8.538497517075234100e+01,9.484992027282714844e+00,-8.414105772972106934e-01,3.824593871831893921e-02,4.200000000000000000e+02
-4.950672028574922479e+01,-3.169768863423449261e+02,3.310444167545401797e+02,5.889206970963832646e+02,-2.077029786836008043e+02,2.715134150071206022e+03,-2.188611573970445079e+01,8.474996575554746414e+01,9.484992027282714844e+00,-8.414105772972106934e-01,3.824593871831893921e-02,4.210000000000000000e+02
-4.382232117651210501e+01,-3.143232661540896515e+02,3.203530713787686182e+02,5.121992561683618987e+02,-2.016897089496183071e+02,2.691953743212228801e+03,-2.060143893854217367e+01,8.584678081966410446e+01,9.484992027282714844e+00,-8.414105772972106934e-01,3.824593871831893921e-02,4.220000000000000000e+02
-3.764197697073700510e+01,-3.102754171349286025e+02,3.090419126328922630e+02,4.376782496242758498e+02,-1.939109693499426612e+02,2.669439944545783874e+03,-1.712338001020333422e+01,8.934609235445850572e+01,9.484992027282714844e+00,-8.414105772972106934e-01,3.824593871831893921e-02,4.230000000000000000e+02
-3.160196819907218924e+01,-3.042856186409755992e+02,3.007015014396361039e+02,3.653390331851223891e+02,-1.842210561815109031e+02,2.647423055723895231e+03,-1.218374612805712331e+01,9.461845868906641499e+01,9.484992027282714844e+00,-8.414105772972106934e-01,3.824593871831893921e-02,4.240000000000000000e+02
-2.612110095152320355e+01,-2.964311372442859351e+02,2.976640475781473469e+02,2.951428000623873231e+02,-1.733812251077106339e+02,2.625603297672431836e+03,-6.141526076045920490e+00,1.008639214540340845e+02,9.484992027282714844e+00,-8.414105772972106934e-01,3.824593871831893921e-02,4.250000000000000000e+02
-2.101394269471029475e+01,-2.871065034710959480e+02,3.000172515735343950e+02,2.270650564873230906e+02,-1.624392151017100332e+02,2.603689336940093199e+03,1.298156028967014208e+00,1.079753422036585562e+02,9.484992027282714844e+00,-8.414105772972106934e-01,3.824593871831893921e-02,4.260000000000000000e+02
-1.578842843272377650e+01,-2.769289612423433482e+02,3.059213200442434299e+02,1.611042581915353367e+02,-1.520841261585751454e+02,2.581611821342213261e+03,9.989833855341430535e+00,1.161777148886187661e+02,9.484992027282714844e+00,-8.414105772972106934e-01,3.824593871831893921e-02,4.270000000000000000e+02
-1.028812173560322663e+01,-2.668186728094181603e+02,3.127354736298516400e+02,9.725627891599651775e+01,-1.424967596606038569e+02,2.559587732617415895e+03,1.833812717073169551e+01,1.248780683875938848e+02,9.484992027282714844e+00,-8.414105772972106934e-01,3.824593871831893921e-02,4.280000000000000000e+02
-5.096478709476741642e+00,-2.579598239684971190e+02,3.180923439752825743e+02,3.550199685444931674e+01,-1.337832274165007220e+02,2.537884071744600078e+03,2.380715915175676400e+01,1.320913737420677307e+02,9.484992027282714844e+00,-8.414105772972106934e-01,3.824593871831893921e-02,4.290000000000000000e+02
-1.333320202054437686e+00,-2.515617900717218163e+02,3.204644167509006820e+02,-2.419688153153765597e+01,-1.264614774463907452e+02,2.516507652140717255e+03,2.463835512135494810e+01,1.352642195365077669e+02,9.484992027282714844e+00,-8.414105772972106934e-01,3.824593871831893921e-02,4.300000000000000000e+02
3.598537140987900784e-02,-2.485679037279302293e+02,3.192760074961690862e+02,-8.186531828556690016e+01,-1.213610658778998186e+02,2.495196563512856301e+03,2.109104379116786276e+01,1.329061333325009855e+02,9.484992027282714844e+00,-8.414105772972106934e-01,3.824593871831893921e-02,4.310000000000000000e+02
-1.144452491711035691e+00,-2.493321173233814534e+02,3.148283968317246035e+02,-1.375055567769177287e+02,-1.189059111449023476e+02,2.473754879012521997e+03,1.511203584021632196e+01,1.257058881166589117e+02,9.484992027282714844e+00,-8.414105772972106934e-01,3.824593871831893921e-02,4.320000000000000000e+02
-4.061798528183771850e+00,-2.531995201347521061e+02,3.081953495683280835e+02,-1.911223725808213203e+02,-1.184119222261465438e+02,2.452346449309307900e+03,9.002453997381167028e+00,1.163091493130932577e+02,9.484992027282714844e+00,-8.414105772972106934e-01,3.824593871831893921e-02,4.330000000000000000e+02
-7.347362372179759404e+00,-2.581718156969553775e+02,3.010288605935709256e+02,-2.427351444135510974e+02,-1.181103350495814084e+02,2.431367990020947218e+03,4.469637921897970045e+00,1.080500794627008645e+02,9.484992027282714844e+00,-8.414105772972106934e-01,3.824593871831893921e-02,4.340000000000000000e+02
-9.717681199979551820e+00,-2.612283083453442600e+02,2.951831858942591680e+02,-2.923830101426410693e+02,-1.159634302358772402e+02,2.411027323460330081e+03,2.592747211091364079e+00,1.035309707732174047e+02,9.484992027282714844e+00,-8.414105772972106934e-01,3.824593871831893921e-02,4.350000000000000000e+02
-1.044079438666994974e+01,-2.597124707187003878e+02,2.921342150288089670e+02,-3.400912669868339435e+02,-1.106805431873945054e+02,2.391117578560256334e+03,3.932813092858850723e+00,1.037020569556152623e+02,9.484992027282714844e+00,-8.414105772972106934e-01,3.824593871831893921e-02,4.360000000000000000e+02
-9.511492491119042825e+00,-2.531705339888061417e+02,2.922964203973483563e+02,-3.858621291705676413e+02,-1.023039834945329858e+02,2.371220475088985950e+03,8.058066058100280316e+00,1.076120976860675000e+02,9.484992027282714844e+00,-9.179025292396545410e-01,0.000000000000000000e+00,4.370000000000000000e+02
-7.588170295014151634e+00,-2.441469082021456529e+02,2.945921148871234436e+02,-4.297004524986896286e+02,-9.214738124832092581e+01,2.351062147777716746e+03,1.297174062449767007e+01,1.128311898683842855e+02,9.484992027282714844e+00,-9.179025292396545410e-01,0.000000000000000000e+00,4.380000000000000000e+02
-5.719299665660400933e+00,-2.368781945282271977e+02,2.967321742774538507e+02,-4.716254342304764577e+02,-8.226840786186903642e+01,2.330586198897574832e+03,1.563114592456963692e+01,1.165221378759972595e+02,9.484992027282714844e+00,-9.179025292396545410e-01,0.000000000000000000e+00,4.390000000000000000e+02
-4.848653329761418718e+00,-2.345185843496295206e+02,2.963649900465554765e+02,-5.116765713136064733e+02,-7.471878555689045243e+01,2.309729030341306498e+03,1.378590552696732630e+01,1.168457615115056569e+02,9.484992027282714844e+00,-9.179025292396545410e-01,0.000000000000000000e+00,4.400000000000000000e+02
-5.286667228967644405e+00,-2.369813488521612612e+02,2.925406546377989798e+02,-5.498794475931754278e+02,-7.077831228330160229e+01,2.288284007316406132e+03,7.707097212847088485e+00,1.139206114671524119e+02,9.484992027282714844e+00,-9.179025292396545410e-01,0.000000000000000000e+00,4.410000000000000000e+02
-6.598954310119097499e+00,-2.411702906306284149e+02,2.863891126359462760e+02,-5.862367369325584150e+02,-7.047286346395503642e+01,2.266080560815133140e+03,8.280890064588675159e-02,1.095704007839219685e+02,9.484992027282714844e+00,-9.179025292396545410e-01,0.000000000000000000e+00,4.420000000000000000e+02
-8.115789351170860755e+00,-2.434429497622980421e+02,2.802944863767929746e+02,-6.207529244145844132e+02,-7.265100791587337881e+01,2.243261509806756294e+03,-6.028738225849110677e+00,1.059040999589001331e+02,9.484992027282714844e+00,-9.179025292396545410e-01,0.000000000000000000e+00,4.430000000000000000e+02
-9.631949967906166421e+00,-2.422548091793438516e+02,2.760601486562791251e+02,-6.534476896266860422e+02,-7.560838851728476584e+01,2.220266049077374191e+03,-9.339088598981447831e+00,1.038212233604549510e+02,9.484992027282714844e+00,-9.179025292396545410e-01,0.000000000000000000e+00,4.440000000000000000e+02
-1.149230205754543022e+01,-2.388653868462114360e+02,2.735817574675638753e+02,-6.843604281114166952e+02,-7.782501468159307478e+01,2.197509858495777735e+03,-1.060479273974215175e+01,1.026973913178127304e+02,9.484992027282714844e+00,-9.179025292396545410e-01,0.000000000000000000e+00,4.450000000000000000e+02
-1.381413261717511887e+01,-2.357011397729195323e+02,2.712492373406375918e+02,-7.135165178556399042e+02,-7.831783708022840074e+01,2.175155310696165543e+03,-1.092574381849567544e+01,1.015317417309070152e+02,9.484992027282714844e+00,-9.179025292396545410e-01,0.000000000000000000e+00,4.460000000000000000e+02
-1.566399345783906938e+01,-2.338851488073672158e+02,2.677849590881937729e+02,-7.409185675647913740e+02,-7.656045413704850944e+01,2.153232249157566912e+03,-9.886433575126034157e+00,1.005234091309187079e+02,9.484992027282714844e+00,-9.179025292396545410e-01,0.000000000000000000e+00,4.470000000000000000e+02
-1.529376079165831470e+01,-2.320223674111483092e+02,2.638575823686055628e+02,-7.665712064589588408e+02,-7.233129892486749668e+01,2.131913707364925358e+03,-5.519338940422244377e+00,1.015397105212566657e+02,9.484992027282714844e+00,-9.179025292396545410e-01,0.000000000000000000e+00,4.480000000000000000e+02
-1.154455570306276968e+01,-2.271759433048830488e+02,2.619246389737779737e+02,-7.904939261769322911e+02,-6.579117171067173331e+01,2.111541461429427727e+03,3.786352309795347537e+00,1.068751326678827809e+02,9.484992027282714844e+00,-9.179025292396545410e-01,0.000000000000000000e+00,4.490000000000000000e+02
-5.129328133903300113e+00,-2.172063657598967552e+02,2.643567379332121163e+02,-8.127262102976274036e+02,-5.762370060784724046e+01,2.092347372014377470e+03,1.723097441243487538e+01,1.172391798295075205e+02,9.484992027282714844e+00,-9.179025292396545410e-01,0.000000000000000000e+00,4.500000000000000000e+02
1.616556552502970590e+00,-2.026508892318931316e+02,2.714069506674823060e+02,-8.332935057655249693e+02,-4.889061679674159677e+01,2.074224754286897223e+03,3.136917157507525644e+01,1.306622858401428857e+02,9.484992027282714844e+00,-9.179025292396545410e-01,0.000000000000000000e+00,4.510000000000000000e+02
6.431907652471409165e+00,-1.867399759582739307e+02,2.806442673633696359e+02,-8.521980841801523638e+02,-4.063015313328833145e+01,2.056818073504331551e+03,4.199377635346149873e+01,1.432937767130799784e+02,9.484992027282714844e+00,-9.179025292396545410e-01,0.000000000000000000e+00,4.520000000000000000e+02
8.688189205475282506e+00,-1.736083744026382192e+02,2.881951071127289197e+02,-8.694446921979924809e+02,-3.355626017752683765e+01,2.039798027017121058e+03,4.656996151451903643e+01,1.515081002890375430e+02,9.484992027282714844e+00,-9.179025292396545410e-01,0.000000000000000000e+00,4.530000000000000000e+02
9.330451049766907090e+00,-1.660012526523900647e+02,2.907897378017578376e+02,-8.850526978374819009e+02,-2.810698491975335855e+01,2.022973240525372603e+03,4.534927909686155090e+01,1.537517206839986557e+02,9.484992027282714844e+00,-9.179025292396545410e-01,0.000000000000000000e+00,4.540000000000000000e+02
9.445291041070277060e+00,-1.640073842812190605e+02,2.873245051444357614e+02,-8.990615906153943797e+02,-2.458507116627015421e+01,2.006167852049798967e+03,4.058230213987872048e+01,1.509192881211598660e+02,9.484992027282714844e+00,-9.179025292396545410e-01,0.000000000000000000e+00,4.550000000000000000e+02
9.117820858494724234e+00,-1.654682901702690856e+02,2.792655638458263638e+02,-9.114968204750784935e+02,-2.296829322708026666e+01,1.989154110887500792e+03,3.485324822906716236e+01,1.453477065381869124e+02,9.484992027282714844e+00,-9.179025292396545410e-01,0.000000000000000000e+00,4.560000000000000000e+02
7.757669516368878249e+00,-1.674884128592981369e+02,2.698925217977744069e+02,-9.223607041460036271e+02,-2.252180262487945583e+01,1.971830755806055095e+03,2.998162412519786812e+01,1.394873803373989176e+02,9.484992027282714844e+00,-9.179025292396545410e-01,0.000000000000000000e+00,4.570000000000000000e+02
5.329247279844594232e+00,-1.679471497116573460e+02,2.627480440580075083e+02,-9.316577784824476112e+02,-2.184835716633824632e+01,1.954462824645364890e+03,2.692833772021174354e+01,1.351306152150093567e+02,9.484992027282714844e+00,-9.179025292396545410e-01,0.000000000000000000e+00,4.580000000000000000e+02
2.904955513861978034e+00,-1.661967672890183394e+02,2.598846654010778821e+02,-9.394070343067014619e+02,-1.975030176751670297e+01,1.937624265541026034e+03,2.607495294483442194e+01,1.332337544416104720e+02,9.484992027282714844e+00,-9.179025292396545410e-01,0.000000000000000000e+00,4.590000000000000000e+02
1.827354476855816756e+00,-1.628729792196403423e+02,2.608084004450638531e+02,-9.456476090758369537e+02,-1.629353755031161199e+01,1.921800811973947930e+03,2.718392738155409916e+01,1.338823212042932482e+02,9.484992027282714844e+00,-9.179025292396545410e-01,0.000000000000000000e+00,4.600000000000000000e+02
2.428192477889297152e+00,-1.592481670999110861e+02,2.629285013800952129e+02,-9.504046562001276470e+02,-1.295155614898249041e+01,1.907011359046199686e+03,2.913887912270104152e+01,1.362008656821285513e+02,9.484992027282714844e+00,-9.179025292396545410e-01,0.000000000000000000e+00,4.610000000000000000e+02
3.747842243148852504e+00,-1.565485636716277895e+02,2.634271308660199793e+02,-9.536802522831821989e+02,-1.147047384777079060e+01,1.892762717958881694e+03,3.016767388424432284e+01,1.385281389168833357e+02,9.484992027282714844e+00,-8.796565532684326172e-01,0.000000000000000000e+00,4.620000000000000000e+02
4.557180169213324916e+00,-1.554997626262652375e+02,2.612640244669159983e+02,-9.554786471095467277e+02,-1.235253469379495073e+01,1.878326018033541914e+03,2.880516411267046806e+01,1.391504408527312080e+02,9.484992027282714844e+00,-8.796565532684326172e-01,0.000000000000000000e+00,4.630000000000000000e+02
4.540803989312507838e+00,-1.561889255040056241e+02,2.576301783203844025e+02,-9.558185868446962559e+02,-1.437252462242531692e+01,1.863065305437174175e+03,2.489719491046082567e+01,1.372593098278006210e+02,9.484992027282714844e+00,-8.796565532684326172e-01,0.000000000000000000e+00,4.640000000000000000e+02
4.409924511733606778e+00,-1.582034839764039589e+02,2.543797651505267368e+02,-9.547389032363098522e+02,-1.561341463109692995e+01,1.846661272565752370e+03,1.966742050638492856e+01,1.333575025780031638e+02,9.484992027282714844e+00,-8.796565532684326172e-01,0.000000000000000000e+00,4.650000000000000000e+02
4.942443281134274002e+00,-1.608701366485605035e+02,2.518819228931411089e+02,-9.522643977068164531e+02,-1.506988233164565827e+01,1.829252196348153120e+03,1.471531409626356890e+01,1.287270357999632324e+02,9.484992027282714844e+00,-8.796565532684326172e-01,0.000000000000000000e+00,4.660000000000000000e+02
6.059624602518624670e+00,-1.633763389623254625e+02,2.484150899245537403e+02,-9.483968230638110981e+02,-1.340458042575210129e+01,1.811440850842927830e+03,1.093246974801331817e+01,1.244841273813508451e+02,9.484992027282714844e+00,-8.796565532684326172e-01,0.000000000000000000e+00,4.670000000000000000e+02
6.924426982824797960e+00,-1.648127855304493892e+02,2.418393934797359179e+02,-9.431399554337167501e+02,-1.225702693490802631e+01,1.794013060413997664e+03,8.333205900405459943e+00,1.210938080305315907e+02,9.484992027282714844e+00,-8.796565532684326172e-01,0.000000000000000000e+00,4.680000000000000000e+02
6.879337768573577705e+00,-1.644254076400287659e+02,2.320543517315643385e+02,-9.365124229154062050e+02,-1.283388105747872032e+01,1.777368199866341456e+03,6.724166832875653199e+00,1.186182935229752502e+02,9.484992027282714844e+00,-8.796565532684326172e-01,0.000000000000000000e+00,4.690000000000000000e+02
6.219147466264530522e+00,-1.621888795641420984e+02,2.218472253419502067e+02,-9.285523451775952708e+02,-1.503065622677968349e+01,1.761069344730234661e+03,6.240286343522257084e+00,1.171545181441108525e+02,9.484992027282714844e+00,-8.796565532684326172e-01,0.000000000000000000e+00,4.700000000000000000e+02
6.034517881402280182e+00,-1.592252707562742557e+02,2.151550123066167544e+02,-9.192841659020414227e+02,-1.770533758159808713e+01,1.744039947378081706e+03,7.078492545052313289e+00,1.168208009372791594e+02,9.484992027282714844e+00,-8.796565532684326172e-01,0.000000000000000000e+00,4.710000000000000000e+02
7.288101511940112687e+00,-1.573126059506097647e+02,2.141779961685056151e+02,-9.087094592829498652e+02,-1.967877178402659410e+01,1.725389497711470540e+03,8.883191842134067429e+00,1.173708585409534635e+02,9.484992027282714844e+00,-8.796565532684326172e-01,0.000000000000000000e+00,4.720000000000000000e+02
9.983326391368109398e+00,-1.574372563508322287e+02,2.178659317797928452e+02,-8.968315125016306411e+02,-2.047929185688099096e+01,1.705187702623490622e+03,1.073967409836109255e+01,1.181085538897052629e+02,9.484992027282714844e+00,-8.796565532684326172e-01,0.000000000000000000e+00,4.730000000000000000e+02
1.311908322069189126e+01,-1.585372671833451363e+02,2.229928897238996797e+02,-8.836685095199463831e+02,-2.023125493977158840e+01,1.684453593217766866e+03,1.196496430039303505e+01,1.184439171994514481e+02,9.484992027282714844e+00,-8.796565532684326172e-01,0.000000000000000000e+00,4.740000000000000000e+02
1.544028363946222271e+01,-1.579232233273871771e+02,2.267076838283137477e+02,-8.692580076626545633e+02,-1.893524449772530716e+01,1.664364484683233059e+03,1.276957574650930383e+01,1.185234092842283644e+02,9.484992027282714844e+00,-8.796565532684326172e-01,0.000000000000000000e+00,4.750000000000000000e+02
1.636154531939337176e+01,-1.534822925469805455e+02,2.283234929714365080e+02,-8.536238290058254279e+02,-1.597551389339946581e+01,1.645441095563853196e+03,1.392006147877748390e+01,1.191165111502531317e+02,9.484992027282714844e+00,-8.796565532684326172e-01,0.000000000000000000e+00,4.760000000000000000e+02
1.632838937359724696e+01,-1.457993481270204370e+02,2.290970041561029120e+02,-8.367667922910004563e+02,-1.050850737859923356e+01,1.627412289675839020e+03,1.574189110284964954e+01,1.207435436307747523e+02,9.484992027282714844e+00,-8.796565532684326172e-01,0.000000000000000000e+00,4.770000000000000000e+02
1.638192855642842005e+01,-1.379689201948588391e+02,2.306879010519464828e+02,-8.186895477922735154e+02,-2.480313671420844912e+00,1.609742391980661523e+03,1.767744316377184077e+01,1.229843006795706515e+02,9.484992027282714844e+00,-8.796565532684326172e-01,0.000000000000000000e+00,4.780000000000000000e+02
1.732592749781861130e+01,-1.328579446519777605e+02,2.339165983245452480e+02,-7.994101199659216945e+02,6.723156326601838373e+00,1.592180495610849903e+03,1.904132667647434118e+01,1.248403608848338990e+02,9.484992027282714844e+00,-8.796565532684326172e-01,0.000000000000000000e+00,4.790000000000000000e+02
1.920305977226303185e+01,-1.301844548888122119e+02,2.387058765375415987e+02,-7.789661205753018294e+02,1.484493422682658093e+01,1.574831073023591671e+03,2.015073602137402986e+01,1.258793743868674255e+02,9.484992027282714844e+00,-8.796565532684326172e-01,0.000000000000000000e+00,4.800000000000000000e+02
2.149103783314990324e+01,-1.262882935372664690e+02,2.447434447685509440e+02,-7.573809871478260902e+02,2.031076221700914175e+01,1.557863627500148141e+03,2.240674432843036357e+01,1.269417637716119316e+02,9.484992027282714844e+00,-8.796565532684326172e-01,0.000000000000000000e+00,4.810000000000000000e+02
2.375063698706844662e+01,-1.171006045317233486e+02,2.518715359369971338e+02,-7.346550838315297369e+02,2.344486185657683563e+01,1.541288394023450564e+03,2.704984450566246323e+01,1.295800929397096297e+02,9.484992027282714844e+00,-8.796565532684326172e-01,0.000000000000000000e+00,4.820000000000000000e+02
2.608466356222652394e+01,-1.017771871858211341e+02,2.598469398783904580e+02,-7.107906701173096735e+02,2.618192558086661847e+01,1.525012118494754759e+03,3.383774294806221405e+01,1.347008767355989676e+02,9.484992027282714844e+00,-8.796565532684326172e-01,0.000000000000000000e+00,4.830000000000000000e+02
2.901171971609869615e+01,-8.372017177549011535e+01,2.679731326744988564e+02,-6.858045955837587826e+02,3.047794362285685565e+01,1.509018870373278332e+03,4.109956658184131584e+01,1.417297477949891800e+02,9.484992027282714844e+00,-8.796565532684326172e-01,0.000000000000000000e+00,4.840000000000000000e+02
3.296799284605526736e+01,-6.805459961992082185e+01,2.752193696288941283e+02,-6.597337873211754413e+02,3.687803789148165379e+01,1.493446461530951638e+03,4.718456455789396387e+01,1.490781392214202015e+02,9.484992027282714844e+00,-8.796565532684326172e-01,0.000000000000000000e+00,4.850000000000000000e+02
3.796521896467038459e+01,-5.778270410913486899e+01,2.808241654081652996e+02,-6.326011505090891660e+02,4.451741199346042777e+01,1.478524785385441646e+03,5.181641884449936697e+01,1.553703927106068932e+02,9.484992027282714844e+00,-8.796565532684326172e-01,0.000000000000000000e+00,4.860000000000000000e+02
4.364786602355934519e+01,-5.188377626212312066e+01,2.848040928316254394e+02,-6.044063582607468561e+02,5.232460033166080393e+01,1.464451437247607828e+03,5.599622980526851279e+01,1.602365840153549925e+02,9.484992027282714844e+00,-8.796565532684326172e-01,0.000000000000000000e+00,4.870000000000000000e+02
4.955503452551033661e+01,-4.677343561008495954e+01,2.879265694959590292e+02,-5.751514150765369777e+02,6.003383664173816214e+01,1.451266773312557234e+03,6.061455234486453492e+01,1.640354315110337211e+02,9.484992027282714844e+00,-8.796565532684326172e-01,0.000000000000000000e+00,4.880000000000000000e+02
5.525100890714747948e+01,-3.957872444685577307e+01,2.911999298812493180e+02,-5.448523133296384913e+02,6.798388336198854631e+01,1.438748961525114282e+03,6.527460020780262084e+01,1.670258550728860882e+02,9.446745872497558594e+00,-8.414105772972106934e-01,0.000000000000000000e+00,4.890000000000000000e+02
6.030885591076651053e+01,-3.034473111095172726e+01,2.952478276091464977e+02,-5.135450370748312707e+02,7.616676666377361471e+01,1.426428712207838544e+03,6.855167950317388659e+01,1.689774853644457266e+02,9.446745872497558594e+00,-8.414105772972106934e-01,0.000000000000000000e+00,4.900000000000000000e+02
6.438996521070430390e+01,-2.146186273727107618e+01,2.998571050039873853e+02,-4.812520132729268880e+02,8.382837064476439082e+01,1.413822019027618808e+03,6.940569663903085029e+01,1.695798427102290589e+02,9.446745872497558594e+00,-8.414105772972106934e-01,0.000000000000000000e+00,4.910000000000000000e+02
6.747482723391442505e+01,-1.507461188843370792e+01,3.038449505508776838e+02,-4.479721614514492103e+02,9.015654258298991408e+01,1.400759255130305974e+03,6.835489461629254038e+01,1.691000518354078395e+02,9.446745872497558594e+00,-8.414105772972106934e-01,0.000000000000000000e+00,4.920000000000000000e+02
7.000705707854945103e+01,-1.088860794242995667e+01,3.054167562109540768e+02,-4.137064998213445506e+02,9.523360354648389148e+01,1.387515582817844006e+03,6.726506432956568915e+01,1.684690405477704758e+02,9.446745872497558594e+00,-8.414105772972106934e-01,0.000000000000000000e+00,4.930000000000000000e+02
7.270302449576547588e+01,-6.293364391618268883e+00,3.031217125118181457e+02,-3.784707234469397008e+02,1.000572020233280455e+02,1.374552374113790393e+03,6.794387235300632710e+01,1.686155886293360027e+02,9.446745872497558594e+00,-8.414105772972106934e-01,0.000000000000000000e+00,4.940000000000000000e+02
7.614784893850753633e+01,1.332368559567413513e+00,2.970840803162579959e+02,-3.423001719820103972e+02,1.054987872456720197e+02,1.362073373959196942e+03,7.075880335948880884e+01,1.696688726386772714e+02,9.446745872497558594e+00,-8.414105772972106934e-01,0.000000000000000000e+00,4.950000000000000000e+02
8.052446844654571123e+01,1.213705175783483980e+01,2.896072162291375207e+02,-3.052167101633185666e+02,1.113016422876657998e+02,1.349835003500425046e+03,7.437521113382194926e+01,1.707899018273271849e+02,9.446745872497558594e+00,-8.414105772972106934e-01,0.000000000000000000e+00,4.960000000000000000e+02
8.561678395367448502e+01,2.334416236618889684e+01,2.843057176957069032e+02,-2.672188679453838631e+02,1.161931442703269113e+02,1.337390999274035494e+03,7.676008984781856270e+01,1.708351733448502614e+02,9.446745872497558594e+00,-8.414105772972106934e-01,0.000000000000000000e+00,4.970000000000000000e+02
9.093106017692025489e+01,3.126658397190782068e+01,2.839925563188091928e+02,-2.283069570778675370e+02,1.190078284931456665e+02,1.324517243164787033e+03,7.658889344594095405e+01,1.692609536225853617e+02,9.446745872497558594e+00,-8.414105772972106934e-01,0.000000000000000000e+00,4.980000000000000000e+02
9.575486977306582048e+01,3.410956105673486149e+01,2.888034546825535926e+02,-1.884957511480956782e+02,1.196940370941525771e+02,1.311398310219069572e+03,7.402013924896863273e+01,1.664918648630596181e+02,9.446745872497558594e+00,-8.414105772972106934e-01,0.000000000000000000e+00,4.990000000000000000e+02
9.927978803441146738e+01,3.323269915657130014e+01,2.961539978109655067e+02,-1.478200028331120848e+02,1.193110548834437168e+02,1.298467644174574616e+03,7.041856678365058997e+01,1.635034689822724090e+02,9.446745872497558594e+00,-8.414105772972106934e-01,0.000000000000000000e+00,5.000000000000000000e+02
1.009803166705548847e+02,3.194617757929214008e+01,3.026803238368842131e+02,-1.063011042984971937e+02,1.191675764589224400e+02,1.286139664414865365e+03,6.743446610253576523e+01,1.610991361826569346e+02,9.446745872497558594e+00,-8.414105772972106934e-01,0.000000000000000000e+00,5.010000000000000000e+02
1.010765220311581061e+02,3.308893525097661836e+01,3.065744685554606122e+02,-6.393651387285308374e+01,1.199467454438760114e+02,1.274652724679890071e+03,6.622308949200669304e+01,1.595821188070599419e+02,9.446745872497558594e+00,-8.414105772972106934e-01,0.000000000000000000e+00,5.020000000000000000e+02
1.005776595072187547e+02,3.742247520187837040e+01,3.083784160722268552e+02,-2.072555280696815316e+01,1.214460872986367121e+02,1.264011364095045792e+03,6.715894509977451321e+01,1.589578528063657075e+02,9.446745872497558594e+00,-8.414105772972106934e-01,0.000000000000000000e+00,5.030000000000000000e+02
1.006364174575682569e+02,4.379627807291876707e+01,3.097334370807914183e+02,2.331760090062766722e+01,1.228724227529824020e+02,1.253929432056123915e+03,6.986853784387957944e+01,1.592018477366250124e+02,9.446745872497558594e+00,-8.414105772972106934e-01,0.000000000000000000e+00,5.040000000000000000e+02
1.016649116243371509e+02,5.033632688929904475e+01,3.114702305917210197e+02,6.815888290649331793e+01,1.233087894849502959e+02,1.243855284841751882e+03,7.329189793491576665e+01,1.601179209455299599e+02,9.446745872497558594e+00,-8.414105772972106934e-01,0.000000000000000000e+00,5.050000000000000000e+02
1.030296138085017219e+02,5.537440099886649136e+01,3.129116558727184838e+02,1.137782782856065751e+02,1.221219989605220917e+02,1.233258142182713755e+03,7.587551047475676569e+01,1.609722435995253704e+02,9.446745872497558594e+00,-8.414105772972106934e-01,0.000000000000000000e+00,5.060000000000000000e+02
1.036560333360935715e+02,5.774615462842638181e+01,3.129144298187957247e+02,1.601785389711490097e+02,1.192756231183557247e+02,1.222100410768496658e+03,7.626788686456977473e+01,1.606066831268347528e+02,9.446745872497558594e+00,-8.414105772972106934e-01,0.000000000000000000e+00,5.070000000000000000e+02
1.029942084352940697e+02,5.696661572746674551e+01,3.114102959559344299e+02,2.073607018947212737e+02,1.154789791445329854e+02,1.211099479614089660e+03,7.433762258151165270e+01,1.582974679965560370e+02,9.446745872497558594e+00,-8.414105772972106934e-01,0.000000000000000000e+00,5.080000000000000000e+02
1.014401063477117049e+02,5.359829100342747665e+01,3.097979957333700440e+02,2.553114832646411969e+02,1.119856778295865070e+02,1.201448071961850246e+03,7.162699545329327577e+01,1.546462111351009412e+02,9.446745872497558594e+00,-8.414105772972106934e-01,0.000000000000000000e+00,5.090000000000000000e+02
9.988505436825073502e+01,4.925528720557855422e+01,3.097882823283534321e+02,3.039978809866827305e+02,1.100219648200788924e+02,1.194151185490475882e+03,7.041738956830604934e+01,1.513796749302210856e+02,9.446745872497558594e+00,-8.414105772972106934e-01,0.000000000000000000e+00,5.100000000000000000e+02
9.890014653261887645e+01,4.560171229032570750e+01,3.118386348329503903e+02,3.534002329134679030e+02,1.101251458373380672e+02,1.189518126094360696e+03,7.176163257871205303e+01,1.498235626804352023e+02,9.446745872497558594e+00,-8.414105772972106934e-01,0.000000000000000000e+00,5.110000000000000000e+02
9.827851853492931866e+01,4.286650283950854146e+01,3.146569814074231317e+02,4.035220446955991065e+02,1.117869843373571541e+02,1.187170028969760324e+03,7.413541282483777195e+01,1.492920006828316275e+02,9.446745872497558594e+00,-8.414105772972106934e-01,0.000000000000000000e+00,5.120000000000000000e+02
9.719686219606805366e+01,3.933476183845027663e+01,3.162063578067101730e+02,4.543652430071933850e+02,1.136536087072648797e+02,1.186453393989602318e+03,7.414767894797675751e+01,1.470534935222075603e+02,9.446745872497558594e+00,-8.414105772972106934e-01,0.000000000000000000e+00,5.130000000000000000e+02
9.468716280200550273e+01,3.266432083403452680e+01,3.152541222389453424e+02,5.059171090208001260e+02,1.141775223336857152e+02,1.186861231381644529e+03,6.897054546243967366e+01,1.402333112983041588e+02,9.446745872497558594e+00,-8.414105772972106934e-01,0.000000000000000000e+00,5.140000000000000000e+02
9.004937411932763780e+01,2.203458771551046880e+01,3.121032532955446186e+02,5.581452648733697970e+02,1.123750172768403672e+02,1.188235347395966983e+03,5.844150218027877486e+01,1.281232279931774940e+02,9.446745872497558594e+00,-8.414105772972106934e-01,0.000000000000000000e+00,5.150000000000000000e+02
8.310482198720370661e+01,9.086327473973454971e+00,3.080040078255054823e+02,6.110308661330323048e+02,1.082928453987635748e+02,1.190786050392824109e+03,4.502273960418361298e+01,1.128481253666244584e+02,9.446745872497558594e+00,-8.414105772972106934e-01,0.000000000000000000e+00,5.160000000000000000e+02
7.431430810246718011e+01,-3.294805800099993576e+00,3.039195616519973555e+02,6.645785948519624071e+02,1.029055549699229459e+02,1.194970767607946982e+03,3.182990459844131692e+01,9.782725593043676326e+01,9.446745872497558594e+00,-8.414105772972106934e-01,0.000000000000000000e+00,5.170000000000000000e+02
6.469546475931031182e+01,-1.315640004669955943e+01,2.997803254679787415e+02,7.187910369825849557e+02,9.748597421222484627e+01,1.201207133914337646e+03,2.067179009398449807e+01,8.547415568176057832e+01,9.446745872497558594e+00,-8.414105772972106934e-01,0.000000000000000000e+00,5.180000000000000000e+02
5.541516766568452113e+01,-2.049334302640681926e+01,2.948114117594930121e+02,7.736566088673062040e+02,9.283105700596320276e+01,1.209481639340317088e+03,1.175206233658656174e+01,7.612516816394344232e+01,9.446745872497558594e+00,-8.414105772972106934e-01,0.000000000000000000e+00,5.190000000000000000e+02
4.718148596838000230e+01,-2.630242707291867532e+01,2.885288944012445427e+02,8.291437880624171157e+02,8.885740707561285490e+01,1.219164354111007015e+03,4.749946082153087445e+00,6.878897186308165601e+01,9.446745872497558594e+00,-8.414105772972106934e-01,0.000000000000000000e+00,5.200000000000000000e+02
3.985672120748176894e+01,-3.097816124661198955e+01,2.814486388211499843e+02,8.852344073470521835e+02,8.479715797838161961e+01,1.229327348382793389e+03,-3.425966851411317293e-01,6.254750041866111587e+01,9.446745872497558594e+00,-8.414105772972106934e-01,0.000000000000000000e+00,5.210000000000000000e+02
3.264322224753755108e+01,-3.388978119117786036e+01,2.748572347811763166e+02,9.418494030659094278e+02,7.973757001378180576e+01,1.239387249993089426e+03,-3.573991985369559643e+00,5.714459911225560518e+01,9.446745872497558594e+00,-8.414105772972106934e-01,0.000000000000000000e+00,5.220000000000000000e+02
2.478265843297913307e+01,-3.452310842405458402e+01,2.698630482657681569e+02,9.989793424691770269e+02,7.307932830204663333e+01,1.249495157104325699e+03,-5.865668393512635248e+00,5.249656018998166473e+01,9.446745872497558594e+00,-8.414105772972106934e-01,0.000000000000000000e+00,5.230000000000000000e+02
1.625511912425577066e+01,-3.374715808173613141e+01,2.665651115060106804e+02,1.056832309278401226e+03,6.471211288010840690e+01,1.260255353320142603e+03,-8.931585867622970909e+00,4.810086600799343159e+01,9.446745872497558594e+00,-8.414105772972106934e-01,0.000000000000000000e+00,5.240000000000000000e+02
7.947474553648362416e+00,-3.363999520932406995e+01,2.640451452884640275e+02,1.115516315854781169e+03,5.504044160786384055e+01,1.272030652297232336e+03,-1.399857226966298640e+01,4.323506824793332726e+01,9.446745872497558594e+00,-8.414105772972106934e-01,0.000000000000000000e+00,5.250000000000000000e+02
1.153946072687176638e+00,-3.589412256758248532e+01,2.611674639402542653e+02,1.174678247014284352e+03,4.497459285250261019e+01,1.284535802107468044e+03,-2.057512446401779016e+01,3.770971443450730476e+01,9.446745872497558594e+00,-8.414105772972106934e-01,0.000000000000000000e+00,5.260000000000000000e+02
-3.254668688358378859e+00,-4.033450230715038742e+01,2.574846116580974922e+02,1.233877805531942613e+03,3.573060161470925777e+01,1.297088541033354886e+03,-2.662188497606587134e+01,3.222428747261028548e+01,9.446745872497558594e+00,-8.414105772972106934e-01,0.000000000000000000e+00,5.270000000000000000e+02
-5.396817829308020009e+00,-4.503696960791489801e+01,2.534943789407730037e+02,1.293322535838222393e+03,2.830503310746371426e+01,1.309183106909619710e+03,-3.011812166357793785e+01,2.780212807218504167e+01,9.446745872497558594e+00,-8.414105772972106934e-01,0.000000000000000000e+00,5.280000000000000000e+02
-6.241722233809241516e+00,-4.793879042414454261e+01,2.501165000548571697e+02,1.353822087288041075e+03,2.289332810326141043e+01,1.320754158026038567e+03,-3.060845909611464322e+01,2.483384796668860872e+01,9.446745872497558594e+00,-8.414105772972106934e-01,0.000000000000000000e+00,5.290000000000000000e+02
-6.824463806824041967e+00,-4.844930693122262255e+01,2.479083623892249761e+02,1.415793036986277002e+03,1.883437937343205704e+01,1.331937418716232060e+03,-2.938613529901135735e+01,2.271958154425237808e+01,9.446745872497558594e+00,-8.414105772972106934e-01,0.000000000000000000e+00,5.300000000000000000e+02
-7.421622683674513610e+00,-4.767057762438923874e+01,2.466399834327617100e+02,1.478405287815157862e+03,1.528675854471794082e+01,1.342698314111976288e+03,-2.833108879399128455e+01,2.046429457817816910e+01,9.446745872497558594e+00,-8.414105772972106934e-01,0.000000000000000000e+00,5.310000000000000000e+02
-7.454945736200215833e+00,-4.717659382573253879e+01,2.454300653693853747e+02,1.540297239111772797e+03,1.201381542360013555e+01,1.352744623727216094e+03,-2.855840101798844444e+01,1.761964735553544870e+01,9.446745872497558594e+00,-8.414105772972106934e-01,0.000000000000000000e+00,5.320000000000000000e+02
-6.291890727107102066e+00,-4.759963376216433062e+01,2.432333179291774741e+02,1.601391531050114281e+03,9.438626196535096824e+00,1.361748942029806130e+03,-2.997882381989904843e+01,1.465448925107205014e+01,9.446745872497558594e+00,-8.414105772972106934e-01,0.000000000000000000e+00,5.330000000000000000e+02
-4.235439618747932400e+00,-4.826176171152661709e+01,2.393699102433524786e+02,1.663472742446047050e+03,7.885343362082494423e+00,1.369601364024572831e+03,-3.181646805787045196e+01,1.247033235443564081e+01,9.446745872497558594e+00,-8.414105772972106934e-01,0.000000000000000000e+00,5.340000000000000000e+02
-2.670905548161044862e+00,-4.802517096796390206e+01,2.338848170793112331e+02,1.728304239593358943e+03,6.884612019625819812e+00,1.376515489636505663e+03,-3.334801514106732157e+01,1.158392662328287770e+01,9.446745872497558594e+00,-8.414105772972106934e-01,0.000000000000000000e+00,5.350000000000000000e+02
-3.044484551458936039e+00,-4.643418740381713405e+01,2.276056696669825214e+02,1.795044837915196695e+03,5.433383281145779620e+00,1.383037304369454432e+03,-3.420912003690352776e+01,1.174372172879111531e+01,9.446745872497558594e+00,-8.414105772972106934e-01,0.000000000000000000e+00,5.360000000000000000e+02
-5.556233471118503076e+00,-4.405894479375740502e+01,2.217672538704550789e+02,1.860517124866646554e+03,2.977089665580024302e+00,1.389966858705463892e+03,-3.425224421000393704e+01,1.226311889377257103e+01,9.446745872497558594e+00,-8.414105772972106934e-01,0.000000000000000000e+00,5.370000000000000000e+02
-8.837074696491072245e+00,-4.184333722353164831e+01,2.172916725599716301e+02,1.922926295834218763e+03,-3.551354905130210682e-02,1.398076134739805639e+03,-3.342241335245648770e+01,1.263276948080101647e+01,9.446745872497558594e+00,-8.414105772972106934e-01,0.000000000000000000e+00,5.380000000000000000e+02
-1.100069644825498472e+01,-4.022817460639919318e+01,2.141640662325512494e+02,1.984821785845997510e+03,-2.760646445031397889e+00,1.407613891491340837e+03,-3.193343710494821153e+01,1.277289481060120124e+01,9.446745872497558594e+00,-8.414105772972106934e-01,0.000000000000000000e+00,5.390000000000000000e+02
-1.109132942597534566e+01,-3.893241010287175641e+01,2.114381662071400569e+02,2.050942309840560483e+03,-5.088499639872679836e+00,1.417975187808404371e+03,-3.052266027466737341e+01,1.274127731585826950e+01,9.446745872497558594e+00,-8.414105772972106934e-01,0.000000000000000000e+00,5.400000000000000000e+02
-9.580752433262659906e+00,-3.750765847792808927e+01,2.079642533490368805e+02,2.122265325253330957e+03,-7.950033493600130896e+00,1.428003024946185178e+03,-3.030262094459646960e+01,1.232253155581634019e+01,9.484992027282714844e+00,-8.796565532684326172e-01,0.000000000000000000e+00,5.410000000000000000e+02
-7.603524249368092569e+00,-3.593583896435222869e+01,2.032439454406444383e+02,2.193493528685379715e+03,-1.236180118909123848e+01,1.436850178219385270e+03,-3.203217310484888003e+01,1.107197774631526954e+01,9.484992027282714844e+00,-8.796565532684326172e-01,0.000000000000000000e+00,5.420000000000000000e+02
-5.866563718663201143e+00,-3.460254358191411939e+01,1.976519621371489848e+02,2.258505891002954741e+03,-1.821550303273670579e+01,1.444694738712440085e+03,-3.530856784108982538e+01,8.882526516805683059e+00,9.484992027282714844e+00,-8.796565532684326172e-01,0.000000000000000000e+00,5.430000000000000000e+02
-4.357088261827811948e+00,-3.373579679174054036e+01,1.918629269040848158e+02,2.318480784834449878e+03,-2.417963139734365541e+01,1.452584761131671257e+03,-3.848277035205433094e+01,6.492857084373099497e+00,9.484992027282714844e+00,-8.796565532684326172e-01,0.000000000000000000e+00,5.440000000000000000e+02
-2.926958035621737508e+00,-3.301748431443434129e+01,1.861701121433825392e+02,2.382340539413271472e+03,-2.887319515459057584e+01,1.461491374855562754e+03,-3.966663762249959291e+01,5.230556934008518510e+00,9.484992027282714844e+00,-8.796565532684326172e-01,0.000000000000000000e+00,5.450000000000000000e+02
-1.881224126640972827e+00,-3.188968422370010103e+01,1.804776037787532914e+02,2.456729422556534701e+03,-3.208416650590606878e+01,1.471456419297650427e+03,-3.824727894933153038e+01,5.956725965142823043e+00,9.484992027282714844e+00,-8.796565532684326172e-01,0.000000000000000000e+00,5.460000000000000000e+02
-1.880412557240106253e+00,-3.021961830034206287e+01,1.748924997230751615e+02,2.536438464031405601e+03,-3.480656058951444720e+01,1.481626773220108589e+03,-3.563778937080496689e+01,8.089288269093458439e+00,9.484992027282714844e+00,-8.796565532684326172e-01,0.000000000000000000e+00,5.470000000000000000e+02
-3.345767886897192511e+00,-2.854962846492662720e+01,1.700461617599630699e+02,2.608346111226645007e+03,-3.814729483303017332e+01,1.491102836687616218e+03,-3.444853929176565543e+01,9.735842734269908760e+00,9.484992027282714844e+00,-8.796565532684326172e-01,0.000000000000000000e+00,5.480000000000000000e+02
-6.117875605956214713e+00,-2.759812737561719587e+01,1.664888102271347634e+02,2.666908354237079038e+03,-4.228487674257121398e+01,1.499760351877412177e+03,-3.657324423312093131e+01,9.066389119572477284e+00,9.484992027282714844e+00,-8.796565532684326172e-01,0.000000000000000000e+00,5.490000000000000000e+02
-9.699245658366180578e+00,-2.751711768404800296e+01,1.636500544352497855e+02,2.723393644167590537e+03,-4.643957525396945130e+01,1.508329619397780334e+03,-4.171245306659147900e+01,5.862947333471083766e+00,9.484992027282714844e+00,-8.796565532684326172e-01,0.000000000000000000e+00,5.500000000000000000e+02
-1.367581061031796708e+01,-2.770134592228646397e+01,1.596250247519737968e+02,2.795043189709795115e+03,-4.965848720959002094e+01,1.517779935416376247e+03,-4.758696774909412852e+01,1.857318851157742756e+00,9.484992027282714844e+00,-8.796565532684326172e-01,0.000000000000000000e+00,5.510000000000000000e+02
-1.783018312919830350e+01,-2.734636557171802451e+01,1.524047942476499884e+02,2.883861222053084930e+03,-5.150485819653204089e+01,1.528612259681460273e+03,-5.166012820154469409e+01,-5.457184291481098626e-01,9.484992027282714844e+00,-8.796565532684326172e-01,0.000000000000000000e+00,5.520000000000000000e+02
-2.195277628258736513e+01,-2.622469056903810269e+01,1.416485664345400437e+02,2.970453117541765096e+03,-5.207735815464457119e+01,1.540597086456138641e+03,-5.295794475349862296e+01,-1.639243828117287194e-01,9.484992027282714844e+00,-8.796565532684326172e-01,0.000000000000000000e+00,5.530000000000000000e+02
-2.572770205599135807e+01,-2.494510357467333961e+01,1.292797579998159563e+02,3.034161408522071724e+03,-5.161435148468444822e+01,1.553004971788446710e+03,-5.254892005165856972e+01,2.039486508289428457e+00,9.484992027282714844e+00,-8.796565532684326172e-01,0.000000000000000000e+00,5.540000000000000000e+02
-2.886883943421253207e+01,-2.450965167381059473e+01,1.181321741883002687e+02,3.079308881695505988e+03,-5.027931551340134320e+01,1.565026660647956305e+03,-5.246761297974308036e+01,3.759407335926880478e+00,9.484992027282714844e+00,-8.796565532684326172e-01,0.000000000000000000e+00,5.550000000000000000e+02
-3.127426462618495862e+01,-2.557012804188093469e+01,1.097725190520131946e+02,3.135353378102077841e+03,-4.831659239767395775e+01,1.576069497924778261e+03,-5.409728165151159374e+01,3.186572748691105517e+00,9.484992027282714844e+00,-8.796565532684326172e-01,0.000000000000000000e+00,5.560000000000000000e+02
-3.297667646190711821e+01,-2.791548391777030247e+01,1.035272675719761537e+02,3.225592079918867967e+03,-4.625035414390367805e+01,1.585805226683853107e+03,-5.725233637381415974e+01,3.922067118651284545e-01,9.484992027282714844e+00,-8.796565532684326172e-01,0.000000000000000000e+00,5.570000000000000000e+02
-3.398917333693316323e+01,-3.050041889810177054e+01,9.762513875407148589e+01,3.337040258083088702e+03,-4.473132291076126421e+01,1.594059930699968390e+03,-6.049484707945043738e+01,-2.798449292734403571e+00,9.484992027282714844e+00,-8.796565532684326172e-01,0.000000000000000000e+00,5.580000000000000000e+02
-3.430878765286979615e+01,-3.194157312229447143e+01,9.128055931664130185e+01,3.427954661232768558e+03,-4.405594561004181742e+01,1.600720987018517917e+03,-6.223806144784975913e+01,-4.227771073069106933e+00,9.484992027282714844e+00,-8.796565532684326172e-01,0.000000000000000000e+00,5.590000000000000000e+02
-3.406267163057418657e+01,-3.121332419483246667e+01,8.559010365381709562e+01,3.469632550600414106e+03,-4.378138371977001952e+01,1.605811598023665283e+03,-6.179824298037829067e+01,-2.965801190644015151e+00,9.484992027282714844e+00,-8.796565532684326172e-01,0.000000000000000000e+00,5.600000000000000000e+02
-3.348835348079774121e+01,-2.815845285548380161e+01,8.229041867847445246e+01,3.477751427817958756e+03,-4.286787350815211539e+01,1.609680776146527933e+03,-5.975896750738979790e+01,1.403276404130338051e-01,9.484992027282714844e+00,-8.796565532684326172e-01,0.000000000000000000e+00,5.610000000000000000e+02
-3.266098380613493646e+01,-2.346122057531420069e+01,8.159753110558722256e+01,3.495786936577722372e+03,-4.041264141092506179e+01,1.613021241647908028e+03,-5.748034927386083837e+01,3.248966338739137427e+00,9.484992027282714844e+00,-8.796565532684326172e-01,0.000000000000000000e+00,5.620000000000000000e+02
-3.130688601426300011e+01,-1.809563763331561859e+01,8.136779426657085423e+01,3.544899650681043568e+03,-3.651705902977118967e+01,1.616508632990353362e+03,-5.613781816342384445e+01,4.937078656459561898e+00,9.484992027282714844e+00,-8.796565532684326172e-01,0.000000000000000000e+00,5.630000000000000000e+02
-2.907242881980528182e+01,-1.268523034887402900e+01,7.858243670761294197e+01,3.594440543471595447e+03,-3.257931276511226315e+01,1.620259694980646600e+03,-5.593077840914679655e+01,5.158456457096690428e+00,9.484992027282714844e+00,-8.796565532684326172e-01,0.000000000000000000e+00,5.640000000000000000e+02
-2.604578913254499639e+01,-7.364223781843747929e+00,7.191546984971137135e+01,3.588086367708230682e+03,-3.057885219685886113e+01,1.623670350058157055e+03,-5.600525660727498689e+01,5.091844385523017991e+00,9.484992027282714844e+00,-8.796565532684326172e-01,0.000000000000000000e+00,5.650000000000000000e+02
-2.289978693903958629e+01,-2.238901327465782742e+00,6.305084691294359800e+01,3.500458239635787322e+03,-3.170506308710901067e+01,1.625934855372172024e+03,-5.510370024563644620e+01,6.123124738796377642e+00,9.484992027282714844e+00,-7.649186849594116211e-01,0.000000000000000000e+00,5.660000000000000000e+02
-2.035086350817800849e+01,2.145219422183345159e+00,5.552987033422505192e+01,3.364923003167779825e+03,-3.534845415207382757e+01,1.626843166770871903e+03,-5.239427502724220176e+01,8.863399374899017857e+00,9.484992027282714844e+00,-7.649186849594116211e-01,0.000000000000000000e+00,5.670000000000000000e+02
-1.840982457187146792e+01,4.985287300705977032e+00,5.214873858635201032e+01,3.243256565607392986e+03,-3.934979641695827013e+01,1.627061259671019798e+03,-4.786716167376243902e+01,1.295759003799776110e+01,9.484992027282714844e+00,-7.649186849594116211e-01,0.000000000000000000e+00,5.680000000000000000e+02
-1.626143947602668050e+01,6.020466965922423697e+00,5.314023678315425059e+01,3.169481907727815269e+03,-4.143217060631832283e+01,1.627522968167992076e+03,-4.211247336069436642e+01,1.768543549629339395e+01,9.484992027282714844e+00,-7.649186849594116211e-01,0.000000000000000000e+00,5.690000000000000000e+02
-1.298872401008156885e+01,6.099237368155627337e+00,5.651018591745378217e+01,3.125843079777281673e+03,-4.068259444199247810e+01,1.628506238283545827e+03,-3.587773991965377718e+01,2.264029260688357681e+01,9.484992027282714844e+00,-7.649186849594116211e-01,0.000000000000000000e+00,5.700000000000000000e+02
-8.441259954449378711e+00,6.770343335178267807e+00,5.990186936207101098e+01,3.071374265205675329e+03,-3.790775365925401275e+01,1.629339963312377222e+03,-2.984522033681241737e+01,2.781768618017395056e+01,9.484992027282714844e+00,-7.649186849594116211e-01,0.000000000000000000e+00,5.710000000000000000e+02
-3.364196939333851333e+00,9.141708974915673025e+00,6.219099823873784771e+01,2.987682784865261056e+03,-3.469838624684962269e+01,1.629037122215100680e+03,-2.462842677191338225e+01,3.312894257259040387e+01,9.484992027282714844e+00,-7.649186849594116211e-01,0.000000000000000000e+00,5.720000000000000000e+02
1.336056233944873384e+00,1.303684619693581226e+01,6.360616164434941311e+01,2.892965512302071147e+03,-3.214693883060863300e+01,1.627181094602630765e+03,-2.069926665721141035e+01,3.796388360698574616e+01,9.484992027282714844e+00,-7.649186849594116211e-01,0.000000000000000000e+00,5.730000000000000000e+02
5.424632802539235854e+00,1.726358673936601917e+01,6.471643015253448539e+01,2.814987050667732547e+03,-3.032121007930436463e+01,1.624152927598828683e+03,-1.812337764836001952e+01,4.134821998584175162e+01,9.484992027282714844e+00,-7.649186849594116211e-01,0.000000000000000000e+00,5.740000000000000000e+02
9.458677006816287758e+00,2.072455933189735333e+01,6.556841662723127229e+01,2.758596763040324731e+03,-2.869414554648392368e+01,1.620571025181867299e+03,-1.637845057156209805e+01,4.261021320803411072e+01,9.484992027282714844e+00,-7.649186849594116211e-01,0.000000000000000000e+00,5.750000000000000000e+02
1.413591259199256456e+01,2.333473417688401241e+01,6.574346837071607297e+01,2.703621750801379676e+03,-2.685445535366488912e+01,1.616656944166694302e+03,-1.458371690024432610e+01,4.194990818160249546e+01,9.484992027282714844e+00,-7.649186849594116211e-01,0.000000000000000000e+00,5.760000000000000000e+02
1.953920298085176910e+01,2.598837971885450315e+01,6.495233629858194035e+01,2.630800348514574580e+03,-2.480094655650464119e+01,1.612210377215109474e+03,-1.204983393780094048e+01,4.038941842442363850e+01,9.484992027282714844e+00,-7.649186849594116211e-01,0.000000000000000000e+00,5.770000000000000000e+02
2.496672508508527244e+01,2.968399356648205867e+01,6.330148956179073139e+01,2.542989414119605499e+03,-2.276246331673610257e+01,1.607099636154045584e+03,-8.716529108024133166e+00,3.913378894563265931e+01,9.484992027282714844e+00,-7.649186849594116211e-01,0.000000000000000000e+00,5.780000000000000000e+02
2.942618491092616750e+01,3.457415386593174844e+01,6.092802740683146112e+01,2.458965392509984667e+03,-2.098006552603146702e+01,1.601580727607113658e+03,-5.168524965309188701e+00,3.882896628225444147e+01,9.484992027282714844e+00,-7.649186849594116211e-01,0.000000000000000000e+00,5.790000000000000000e+02
3.230730053049774142e+01,3.961086516849036343e+01,5.759358004001296649e+01,2.390961670046948711e+03,-1.970927394941827515e+01,1.596054160940519068e+03,-2.340782671479246346e+00,3.922090184816715919e+01,9.484992027282714844e+00,-7.649186849594116211e-01,0.000000000000000000e+00,5.800000000000000000e+02
3.366592315600246366e+01,4.295697154393110395e+01,5.290707429297253839e+01,2.332988002895704994e+03,-1.929859205810134881e+01,1.590575503472631681e+03,-1.181631582365753275e+00,3.940461062105077872e+01,9.484992027282714844e+00,-7.649186849594116211e-01,0.000000000000000000e+00,5.810000000000000000e+02
3.393015197719614662e+01,4.289131657643611106e+01,4.706153989647100389e+01,2.270832869389087136e+03,-2.009040974504205224e+01,1.584711570049192233e+03,-2.345756942841489945e+00,3.846533608823847317e+01,9.484992027282714844e+00,-7.649186849594116211e-01,0.000000000000000000e+00,5.820000000000000000e+02
3.334427332547238620e+01,3.876036085194300540e+01,4.126149234261538368e+01,2.198850823784829117e+03,-2.215013190457102610e+01,1.577917748517429573e+03,-5.826871607287557708e+00,3.611764825786485744e+01,9.484992027282714844e+00,-7.649186849594116211e-01,0.000000000000000000e+00,5.830000000000000000e+02
3.166053965586434060e+01,3.149002316178120964e+01,3.716753087551296630e+01,2.123881492784734291e+03,-2.508729738124748110e+01,1.570020303676297772e+03,-1.066044429917928937e+01,3.294842066412638815e+01,9.484992027282714844e+00,-7.649186849594116211e-01,0.000000000000000000e+00,5.840000000000000000e+02
2.838577209409049829e+01,2.329942878560996178e+01,3.566863429079785419e+01,2.054093104816420237e+03,-2.812441926154679095e+01,1.561345418151737249e+03,-1.512556293380384886e+01,3.008837281100477412e+01,9.484992027282714844e+00,-7.649186849594116211e-01,0.000000000000000000e+00,5.850000000000000000e+02
2.339025676938763354e+01,1.672049510555598317e+01,3.604980428798808134e+01,1.990896313744960935e+03,-3.035791461251028522e+01,1.552439251121752022e+03,-1.759598389486109227e+01,2.852794059868665499e+01,9.484992027282714844e+00,-7.649186849594116211e-01,0.000000000000000000e+00,5.860000000000000000e+02
1.732174242848304857e+01,1.352389766857686482e+01,3.635869860569800949e+01,1.928101752615169971e+03,-3.110858269584059599e+01,1.543670232729986310e+03,-1.751590423870811719e+01,2.857297162979284622e+01,9.484992027282714844e+00,-7.649186849594116211e-01,0.000000000000000000e+00,5.870000000000000000e+02
1.142819377491105115e+01,1.422225282337421959e+01,3.475109604767749261e+01,1.861497869002618245e+03,-3.025228130498180690e+01,1.535035034757253015e+03,-1.566318546998172678e+01,2.983211511679564865e+01,9.484992027282714844e+00,-7.649186849594116211e-01,0.000000000000000000e+00,5.880000000000000000e+02
6.901737709871667903e+00,1.831080745337339977e+01,3.071791088604732067e+01,1.793425848350125307e+03,-2.840251044274373271e+01,1.526236957002874988e+03,-1.341326149908218213e+01,3.164322338435340498e+01,9.484992027282714844e+00,-7.649186849594116211e-01,0.000000000000000000e+00,5.890000000000000000e+02
4.320086055364299682e+00,2.474481736648885999e+01,2.522689768568852742e+01,1.728907748310797615e+03,-2.674686952776391990e+01,1.516950570621709630e+03,-1.171479883308848002e+01,3.343551641739759361e+01,9.484992027282714844e+00,-7.649186849594116211e-01,0.000000000000000000e+00,5.900000000000000000e+02
3.614764573632783140e+00,3.211366116006365701e+01,1.975585550231880916e+01,1.669464948317850940e+03,-2.651595339804771356e+01,1.507117334313756146e+03,-1.076759842217552432e+01,3.465876136030783528e+01,9.484992027282714844e+00,-7.649186849594116211e-01,0.000000000000000000e+00,5.910000000000000000e+02
4.405283734051408828e+00,3.857861455212014334e+01,1.509251628280071600e+01,1.612168950752544333e+03,-2.842055571851233253e+01,1.497069713494551252e+03,-1.058929933777199039e+01,3.448586402433102194e+01,9.484992027282714844e+00,-7.649186849594116211e-01,0.000000000000000000e+00,5.920000000000000000e+02
6.217107581460368237e+00,4.210485838039176087e+01,1.090081064654077636e+01,1.553694966722207027e+03,-3.248304095254934509e+01,1.487332933120589587e+03,-1.166568037592060136e+01,3.185686471817098209e+01,9.446745872497558594e+00,-8.414105772972106934e-01,-3.824593871831893921e-02,5.930000000000000000e+02
8.388336017476831330e+00,4.126536052732353710e+01,6.297600642350516864e+00,1.493541887586106895e+03,-3.832612787950711208e+01,1.478167168299376499e+03,-1.478664875646609289e+01,2.611660407484214375e+01,9.446745872497558594e+00,-8.414105772972106934e-01,-3.824593871831893921e-02,5.940000000000000000e+02
1.000677686726885440e+01,3.612833875376236392e+01,8.014932374971976969e-01,1.433325987981079379e+03,-4.547474044364207657e+01,1.469224484846534324e+03,-2.015698952145794465e+01,1.777301590884235338e+01,9.446745872497558594e+00,-8.414105772972106934e-01,-3.824593871831893921e-02,5.950000000000000000e+02
1.025836048382006993e+01,2.840581694335287466e+01,-5.218729886073560920e+00,1.374173800948759890e+03,-5.327023378268131637e+01,1.459690409165152232e+03,-2.676580225279849401e+01,8.605282907091350353e+00,9.446745872497558594e+00,-8.414105772972106934e-01,-3.824593871831893921e-02,5.960000000000000000e+02
8.997851551319399732e+00,2.062468852504753158e+01,-1.090426154264787328e+01,1.315851756999516510e+03,-6.060037870260930504e+01,1.448849773162291967e+03,-3.280251189934824652e+01,8.661946360489309882e-01,9.446745872497558594e+00,-8.414105772972106934e-01,-3.824593871831893921e-02,5.970000000000000000e+02
6.922100931080422015e+00,1.489785640587251692e+01,-1.558746107136357750e+01,1.257899126724325470e+03,-6.605945177125613554e+01,1.436607393030601088e+03,-3.687348957943959249e+01,-3.867227231726246828e+00,9.446745872497558594e+00,-8.414105772972106934e-01,-3.824593871831893921e-02,5.980000000000000000e+02
5.040573774245785899e+00,1.216561288610409974e+01,-1.907116608584146888e+01,1.200493658653052989e+03,-6.875605018814894720e+01,1.423491431650982122e+03,-3.891840347496327013e+01,-5.326441741696726240e+00,9.446745872497558594e+00,-8.414105772972106934e-01,-3.824593871831893921e-02,5.990000000000000000e+02
3.930523524410091341e+00,1.224200462245835297e+01,-2.129382925563913886e+01,1.144186436059637344e+03,-6.909417480961928959e+01,1.410169122557810624e+03,-4.000222597023275739e+01,-4.302257215362260467e+00,9.446745872497558594e+00,-8.414105772972106934e-01,-3.824593871831893921e-02,6.000000000000000000e+02
3.531766893638632610e+00,1.431904278159936439e+01,-2.188643934726860607e+01,1.089311232801992446e+03,-6.861981111022396362e+01,1.396944726437766803e+03,-4.122087158002159413e+01,-1.909645553602786094e+00,9.446745872497558594e+00,-8.414105772972106934e-01,-3.824593871831893921e-02,6.010000000000000000e+02
3.604740615497576073e+00,1.739626128200006860e+01,-2.030708825092733605e+01,1.036214912579962402e+03,-6.887579753413956496e+01,1.383642822488836828e+03,-4.274263331479596673e+01,9.528379774792483659e-01,9.446745872497558594e+00,-8.414105772972106934e-01,-3.824593871831893921e-02,6.020000000000000000e+02
4.202829304260376375e+00,2.042548532901082581e+01,-1.658723074601766712e+01,9.854594193737430032e+02,-7.027038570959848585e+01,1.369866332022080314e+03,-4.384085950932876585e+01,3.639565521119038749e+00,9.446745872497558594e+00,-8.414105772972106934e-01,-3.824593871831893921e-02,6.030000000000000000e+02
5.515802157262442051e+00,2.236347145916079171e+01,-1.192639333643455757e+01,9.370992400080576772e+02,-7.204947226203876198e+01,1.355311599795168149e+03,-4.384149467614042806e+01,5.528339896647594287e+00,9.446745872497558594e+00,-8.414105772972106934e-01,-3.824593871831893921e-02,6.040000000000000000e+02
7.301414569370535901e+00,2.235016424603009000e+01,-8.313972124613428605e+00,8.899136113047425169e+02,-7.335531456401440664e+01,1.339934158478048630e+03,-4.309292072885546077e+01,5.957916196634869266e+00,9.446745872497558594e+00,-8.414105772972106934e-01,-3.824593871831893921e-02,6.050000000000000000e+02
8.740619688212973415e+00,2.006683108298921070e+01,-7.233445701416712836e+00,8.419922955574584194e+02,-7.424514959584848839e+01,1.323978370297380025e+03,-4.298738516798312048e+01,4.525825317628004996e+00,9.446745872497558594e+00,-8.414105772972106934e-01,-3.824593871831893921e-02,6.060000000000000000e+02
9.092629386665066704e+00,1.609245536857451953e+01,-8.500925005888348096e+00,7.927029905440140283e+02,-7.563840192456336808e+01,1.307916609857929870e+03,-4.487017624133477511e+01,1.530925971128453966e+00,9.446745872497558594e+00,-8.414105772972106934e-01,-3.824593871831893921e-02,6.070000000000000000e+02
8.522533786215717555e+00,1.192448834509013977e+01,-1.033339455934219586e+01,7.434240488194336649e+02,-7.829657475065323524e+01,1.292270391110025230e+03,-4.871155939701111492e+01,-1.851170682696647418e+00,9.446745872497558594e+00,-8.414105772972106934e-01,-3.824593871831893921e-02,6.080000000000000000e+02
8.117880601739670965e+00,9.444802582110241929e+00,-1.068441444663767470e+01,6.957564205911185127e+02,-8.192799260668834904e+01,1.277327583451769897e+03,-5.273417089958911674e+01,-3.916173405626068416e+00,9.446745872497558594e+00,-8.414105772972106934e-01,-3.824593871831893921e-02,6.090000000000000000e+02
8.934690071517252363e+00,9.961277030776273023e+00,-8.691093838959204732e+00,6.496387768193235388e+02,-8.528895923218442476e+01,1.262978327382064890e+03,-5.447244887020315218e+01,-3.197441094967871322e+00,9.446745872497558594e+00,-8.414105772972106934e-01,-3.824593871831893921e-02,6.100000000000000000e+02
1.098922832533753535e+01,1.343012383315908664e+01,-5.004937479523505317e+00,6.038227642710990040e+02,-8.711268539274169598e+01,1.248890146560923313e+03,-5.247886848872985865e+01,8.134877259426502860e-01,9.446745872497558594e+00,-8.414105772972106934e-01,-3.824593871831893921e-02,6.110000000000000000e+02
1.321272609557854594e+01,1.853224757003545164e+01,-8.726694234755996149e-01,5.565119172578124562e+02,-8.697695082637437736e+01,1.234891688292162144e+03,-4.726726656187202025e+01,7.476632742316724034e+00,9.446745872497558594e+00,-8.414105772972106934e-01,-3.824593871831893921e-02,6.120000000000000000e+02
1.441518596014066134e+01,2.364581115007149492e+01,3.044931488075235393e+00,5.107025912469398463e+02,-8.542048030215300969e+01,1.221172055629504030e+03,-4.075889564696080924e+01,1.544699480552571913e+01,9.446745872497558594e+00,-8.414105772972106934e-01,-3.824593871831893921e-02,6.130000000000000000e+02
1.428100090136285871e+01,2.788718214531672857e+01,6.968199022994667757e+00,4.676814774620142998e+02,-8.338681223687308375e+01,1.208040956771728816e+03,-3.484445782282091386e+01,2.337232560930169711e+01,9.446745872497558594e+00,-8.414105772972106934e-01,-3.824593871831893921e-02,6.140000000000000000e+02
1.348151864603278227e+01,3.125674744536581784e+01,1.124421536912996089e+01,4.263578778707887977e+02,-8.155031645394774387e+01,1.195500129266714794e+03,-3.038004495187578868e+01,3.033042285546252970e+01,9.446745872497558594e+00,-8.414105772972106934e-01,-3.824593871831893921e-02,6.150000000000000000e+02
1.294222368593909778e+01,3.389273104503854483e+01,1.545800385961410939e+01,3.838940594665327808e+02,-8.000982883513643174e+01,1.183109059118316509e+03,-2.726178406160397572e+01,3.586813079618150368e+01,9.446745872497558594e+00,-8.414105772972106934e-01,-3.824593871831893921e-02,6.160000000000000000e+02
1.308963596363173565e+01,3.554326939809652686e+01,1.845785443128988845e+01,3.387351128203008557e+02,-7.843116232466127258e+01,1.170298520420168643e+03,-2.498594368848262093e+01,3.996323025103265536e+01,9.446745872497558594e+00,-8.414105772972106934e-01,-3.824593871831893921e-02,6.170000000000000000e+02
1.377243193554022582e+01,3.617677764668042073e+01,1.942158736203418812e+01,2.924857989966840250e+02,-7.639738484980989597e+01,1.156806384619820165e+03,-2.277245204456175998e+01,4.318978375944425352e+01,9.446745872497558594e+00,-8.414105772972106934e-01,-3.824593871831893921e-02,6.180000000000000000e+02
