F3,F4,C3,C4,P3,P4,Cz,Pz,Accel_x,Accel_y,Accel_z,Sample
-2.319211489520967007e-11,-6.252776074688881636e-12,-1.909938873723149300e-11,-1.855369191616773605e-10,-2.000888343900442123e-11,-7.275957614183425903e-11,-6.366462912410497665e-12,-9.094947017729282379e-12,9.446745872497558594e+00,-8.414105772972106934e-01,-7.649187743663787842e-02,2.010000000000000000e+02
-1.188256161239132780e+01,-3.025248145197281247e+00,9.865518053132291243e+00,8.635667865481555054e+02,9.165939151906968618e+00,1.403321629796082561e+02,6.509296107015870803e+00,3.216135374724672147e+00,9.446745872497558594e+00,-8.414105772972106934e-01,-7.649187743663787842e-02,2.020000000000000000e+02
-2.547212846714819534e+01,-8.062169153776892472e+00,2.341355712169934122e+01,-2.466607719360108604e+02,1.737357490256999881e+01,2.704524694648971490e+02,1.039028375986617903e+01,8.804633356620797713e+00,9.446745872497558594e+00,-8.414105772972106934e-01,-7.649187743663787842e-02,2.030000000000000000e+02
-3.986136318000126266e+01,-1.503100033176173156e+01,4.140170240085808473e+01,-3.032581693436612113e+03,2.478949427444240428e+01,3.880441896541451570e+02,1.172788961600667790e+01,1.720847220424366242e+01,9.446745872497558594e+00,-8.414105772972106934e-01,-7.649187743663787842e-02,2.040000000000000000e+02
-5.193604811964678447e+01,-2.164136455672854709e+01,6.140167704838950158e+01,-4.824461838307201106e+03,3.254295685299166507e+01,4.991737496184432530e+02,1.332870130632932160e+01,2.684208875133890615e+01,9.446745872497558594e+00,-8.414105772972106934e-01,-7.649187743663787842e-02,2.050000000000000000e+02
-5.954438935346342987e+01,-2.532068638721841580e+01,8.026459091559172521e+01,-2.797100926540835644e+03,4.149460155099131953e+01,6.114950896961890976e+02,1.808026355688571130e+01,3.579808582828945873e+01,9.446745872497558594e+00,-8.414105772972106934e-01,-7.649187743663787842e-02,2.060000000000000000e+02
-6.424166843266584692e+01,-2.531940561725150474e+01,9.680740955366309208e+01,3.492645766548484971e+03,5.133179932403345447e+01,7.272620365688526363e+02,2.636377030414200817e+01,4.357018875572202887e+01,9.446745872497558594e+00,-8.414105772972106934e-01,-7.649187743663787842e-02,2.070000000000000000e+02
-7.082471163623722532e+01,-2.312253580882651249e+01,1.122842148087456735e+02,1.151073148749192114e+04,6.099031369917338452e+01,8.426381149244480184e+02,3.593595696965826392e+01,5.113502471044103004e+01,9.484992027282714844e+00,-8.414105772972106934e-01,-7.649187743663787842e-02,2.080000000000000000e+02
-8.408893356379576289e+01,-2.097360430119397279e+01,1.285960107812034039e+02,1.758418844967621408e+04,6.983948188072008634e+01,9.527929148559887835e+02,4.412327594559678801e+01,5.956728185307338208e+01,9.484992027282714844e+00,-8.414105772972106934e-01,-7.649187743663787842e-02,2.090000000000000000e+02
-1.057420038467294034e+02,-2.004448036877226968e+01,1.463358480286015038e+02,1.955105982481256797e+04,7.829861387690834817e+01,1.056765007908801635e+03,4.995540758406286841e+01,6.878830784699493961e+01,9.484992027282714844e+00,-8.414105772972106934e-01,-7.649187743663787842e-02,2.100000000000000000e+02
-1.338377187444211813e+02,-1.991685740627161749e+01,1.645471523267306111e+02,1.803537804108326964e+04,8.732499418142379000e+01,1.157449324485492980e+03,5.427757955127913192e+01,7.768775792230871957e+01,9.484992027282714844e+00,-8.414105772972106934e-01,-7.649187743663787842e-02,2.110000000000000000e+02
-1.645803377331831143e+02,-1.954020420694740778e+01,1.820331302392423822e+02,1.550200907627446941e+04,9.742888865914119378e+01,1.257812524280416255e+03,5.828310061311231038e+01,8.534632179503023508e+01,9.484992027282714844e+00,-8.414105772972106934e-01,-7.649187743663787842e-02,2.120000000000000000e+02
-1.945507038911659947e+02,-1.849550309171314666e+01,1.985443162104957082e+02,1.411605110088840229e+04,1.082533235837772736e+02,1.358006368154001393e+03,6.236773725574357741e+01,9.199124722559417933e+01,9.484992027282714844e+00,-8.414105772972106934e-01,-7.649187743663787842e-02,2.130000000000000000e+02
-2.218270569276405695e+02,-1.735928601296325269e+01,2.146300949184087585e+02,1.424900769721856705e+04,1.189600660173928190e+02,1.456066037898683135e+03,6.641473919182681129e+01,9.876130477352626258e+01,9.484992027282714844e+00,-8.414105772972106934e-01,-7.649187743663787842e-02,2.140000000000000000e+02
-2.459815386097507144e+02,-1.708388543456771913e+01,2.305859029104367437e+02,1.473484811179868120e+04,1.288550677757557423e+02,1.550561610253789695e+03,7.069732511782399342e+01,1.066406924747539051e+02,9.484992027282714844e+00,-8.414105772972106934e-01,-7.649187743663787842e-02,2.150000000000000000e+02
-2.677693584477992772e+02,-1.825298517025072442e+01,2.458667020300435979e+02,1.430798589461091979e+04,1.377071303370221358e+02,1.641951584063026530e+03,7.587364604601407336e+01,1.156285643313099172e+02,9.484992027282714844e+00,-8.414105772972106934e-01,-7.649187743663787842e-02,2.160000000000000000e+02
-2.890012342440377324e+02,-2.086497836230063285e+01,2.596325601330904647e+02,1.282239761061573881e+04,1.457025782999517105e+02,1.731550072816364263e+03,8.193213255440082321e+01,1.248589162693419894e+02,9.484992027282714844e+00,-8.414105772972106934e-01,-7.649187743663787842e-02,2.170000000000000000e+02
-3.123749062947645143e+02,-2.455058466239159998e+01,2.717629724355260805e+02,1.123326380079487353e+04,1.532896746127216829e+02,1.819873916306420142e+03,8.747589943890352515e+01,1.334152146674987307e+02,9.484992027282714844e+00,-8.414105772972106934e-01,-7.649187743663787842e-02,2.180000000000000000e+02
-3.409238785325060235e+02,-2.874563675814408725e+01,2.831805880732545120e+02,1.053829765304370812e+04,1.609452937311680216e+02,1.906344127510681574e+03,9.055042523142242317e+01,1.409920072280651766e+02,9.484992027282714844e+00,-8.414105772972106934e-01,-7.649187743663787842e-02,2.190000000000000000e+02
-3.770793512850400475e+02,-3.272648177009040182e+01,2.951033514114424179e+02,1.072934006406112530e+04,1.687785175587623598e+02,1.990300012516312563e+03,9.039321789895575421e+01,1.477806014458537902e+02,9.484992027282714844e+00,-8.414105772972106934e-01,-7.649187743663787842e-02,2.200000000000000000e+02
-4.216621559558138870e+02,-3.582732196339657094e+01,3.079713124195945966e+02,1.081905243125956258e+04,1.762179180591829208e+02,2.071844385710774077e+03,8.823982242665920239e+01,1.537331394415632531e+02,9.484992027282714844e+00,-8.414105772972106934e-01,-7.649187743663787842e-02,2.210000000000000000e+02
-4.733114223275138102e+02,-3.788335360711869271e+01,3.210524709531109693e+02,9.892384398577869433e+03,1.821941909870120071e+02,2.151568388571668038e+03,8.626661011140845403e+01,1.580243706317671695e+02,9.484992027282714844e+00,-8.414105772972106934e-01,-7.649187743663787842e-02,2.220000000000000000e+02
-5.287651977150503626e+02,-3.944108269649694876e+01,3.330603218920646214e+02,8.117735021803404379e+03,1.859308440909198907e+02,2.229751571025411977e+03,8.575673522928468628e+01,1.594378087627942477e+02,9.484992027282714844e+00,-8.414105772972106934e-01,-7.649187743663787842e-02,2.230000000000000000e+02
-5.841173447728751853e+02,-4.128294645957663533e+01,3.432011578003089198e+02,6.660980701053951634e+03,1.877361440238901196e+02,2.306094552441496489e+03,8.640958102261993190e+01,1.575802537928946094e+02,9.484992027282714844e+00,-8.414105772972106934e-01,-7.649187743663787842e-02,2.240000000000000000e+02
-6.364714441463543153e+02,-4.358259144997350631e+01,3.517732636838914004e+02,6.483744814689442137e+03,1.889934613588475258e+02,2.380188372677061125e+03,8.733608124381134985e+01,1.538805548660338900e+02,9.484992027282714844e+00,-8.414105772972106934e-01,-7.649187743663787842e-02,2.250000000000000000e+02
-6.848551128449685166e+02,-4.563544022795218780e+01,3.599046827529577968e+02,7.185728550909767364e+03,1.912561038532840030e+02,2.452049207017709705e+03,8.834493498092729169e+01,1.512170305427478070e+02,9.484992027282714844e+00,-8.414105772972106934e-01,-7.649187743663787842e-02,2.260000000000000000e+02
-7.297190307578694046e+02,-4.664013684647233049e+01,3.686743426194207132e+02,7.178065131172759720e+03,1.951564072291494085e+02,2.522082609147966650e+03,8.994183547607758555e+01,1.520916091355707067e+02,9.484992027282714844e+00,-8.414105772972106934e-01,-7.649187743663787842e-02,2.270000000000000000e+02
-7.715651458540710337e+02,-4.690192882592128854e+01,3.782887203439672703e+02,5.267673217981391645e+03,2.000493895034351226e+02,2.590632600607796121e+03,9.213597247606708152e+01,1.567052552659306457e+02,9.484992027282714844e+00,-8.414105772972106934e-01,-7.649187743663787842e-02,2.280000000000000000e+02
-8.101748825492209107e+02,-4.816789213266946490e+01,3.878940391699106840e+02,2.246964506828368030e+03,2.046067686155001866e+02,2.657659543698320704e+03,9.372157723340569646e+01,1.626786575191922566e+02,9.484992027282714844e+00,-8.414105772972106934e-01,-7.649187743663787842e-02,2.290000000000000000e+02
-8.452928657553923131e+02,-5.252520477120935993e+01,3.961483501148090909e+02,8.225323729457995796e+02,2.077783020272408976e+02,2.722827116384009059e+03,9.318641218899188061e+01,1.668483413154526716e+02,9.484992027282714844e+00,-8.414105772972106934e-01,-7.649187743663787842e-02,2.300000000000000000e+02
-8.778921047226110659e+02,-6.071485017255616867e+01,4.021805632083014643e+02,3.624618089826428331e+03,2.093980035774475255e+02,2.785841650986661989e+03,9.040377716962620980e+01,1.676720313662199260e+02,9.484992027282714844e+00,-8.414105772972106934e-01,-7.649187743663787842e-02,2.310000000000000000e+02
-9.102575376657853212e+02,-7.132919946975690095e+01,4.062729457505424762e+02,1.089279914039971118e+04,2.100831420846752735e+02,2.846685656716159428e+03,8.721859383687387890e+01,1.661632638507096544e+02,9.484992027282714844e+00,-8.414105772972106934e-01,-7.649187743663787842e-02,2.320000000000000000e+02
-9.441963525394817225e+02,-8.163367530146237527e+01,4.097860959075969731e+02,1.991858119249028459e+04,2.106541070972889429e+02,2.905606810412116829e+03,8.608091783818190379e+01,1.646240682192046734e+02,9.408499717712402344e+00,-8.414105772972106934e-01,-7.649187743663787842e-02,2.330000000000000000e+02
-9.788827534669030683e+02,-8.929606626968842420e+01,4.143726512999210172e+02,2.685317560567670080e+04,2.115354914284607730e+02,2.962907154463171537e+03,8.800521396366161753e+01,1.645125374022290998e+02,9.408499717712402344e+00,-8.414105772972106934e-01,-7.649187743663787842e-02,2.340000000000000000e+02
-1.010659947576965578e+03,-9.362258598599976267e+01,4.210276311790171349e+02,2.938980252799576556e+04,2.125471960653230781e+02,3.018697927355275169e+03,9.185910306340633724e+01,1.654727107074591004e+02,9.408499717712402344e+00,-8.414105772972106934e-01,-7.649187743663787842e-02,2.350000000000000000e+02
-1.035423320095355393e+03,-9.552161555737984600e+01,4.296176803237685817e+02,2.809151516903136144e+04,2.132434357774800446e+02,3.072837053761588322e+03,9.554128463011261374e+01,1.662137661354331613e+02,9.408499717712402344e+00,-8.414105772972106934e-01,-7.649187743663787842e-02,2.360000000000000000e+02
-1.051689157435694824e+03,-9.644861792975649450e+01,4.391227249090584337e+02,2.543688817131963879e+04,2.135022437232764787e+02,3.125110401899632052e+03,9.777338183684832984e+01,1.660792092004451206e+02,9.408499717712402344e+00,-8.414105772972106934e-01,-7.649187743663787842e-02,2.370000000000000000e+02
-1.061613618932922464e+03,-9.728438963021699237e+01,4.483262820471759369e+02,2.365973372829843356e+04,2.138345729980142096e+02,3.175528824280372646e+03,9.877711293542870408e+01,1.656170584198971483e+02,9.408499717712402344e+00,-8.414105772972106934e-01,-7.649187743663787842e-02,2.380000000000000000e+02
-1.069119045289480709e+03,-9.790801770879920696e+01,4.564572154982506618e+02,2.330497186596582469e+04,2.150225293243552187e+02,3.224426189733796491e+03,9.949524617919564662e+01,1.657458622823533005e+02,9.408499717712402344e+00,-8.414105772972106934e-01,-7.649187743663787842e-02,2.390000000000000000e+02
-1.076958828935443762e+03,-9.762712770392957395e+01,4.634423013460641414e+02,2.350275000033145989e+04,2.173496673877684771e+02,3.272214061484603008e+03,1.004592986661850773e+02,1.666648337423025623e+02,9.408499717712402344e+00,-8.414105772972106934e-01,-7.649187743663787842e-02,2.400000000000000000e+02
-1.085343730868931289e+03,-9.610414159390725786e+01,4.697376209967219438e+02,2.322671784190073959e+04,2.202282073127676085e+02,3.319047292166098487e+03,1.014270928240478042e+02,1.677581362894566155e+02,9.408499717712402344e+00,-8.414105772972106934e-01,-7.649187743663787842e-02,2.410000000000000000e+02
-1.093064313328743538e+03,-9.405829043038804116e+01,4.759014285947064309e+02,2.220588840899637580e+04,2.226818021374060663e+02,3.364765012364674476e+03,1.018783106176015281e+02,1.684887329316793512e+02,9.408499717712402344e+00,-8.414105772972106934e-01,-7.649187743663787842e-02,2.420000000000000000e+02
-1.099559014462283130e+03,-9.312800979198593154e+01,4.821643326711396185e+02,2.086375649898589108e+04,2.242578627968632645e+02,3.409195770198793980e+03,1.015792839125981573e+02,1.691143875145346556e+02,9.408499717712402344e+00,-8.414105772972106934e-01,-7.649187743663787842e-02,2.430000000000000000e+02
-1.105659942622024573e+03,-9.481175493430478696e+01,4.882344239438684781e+02,1.972103108453429741e+04,2.254003589263124923e+02,3.452449133496078503e+03,1.006616345031451374e+02,1.703189904593959909e+02,9.408499717712402344e+00,-8.414105772972106934e-01,-7.649187743663787842e-02,2.440000000000000000e+02
-1.112349204293865569e+03,-9.918445365393463931e+01,4.935027723239381885e+02,1.898995594033789166e+04,2.268397380922201592e+02,3.494795440395560945e+03,9.941124005327105806e+01,1.721470668364936500e+02,9.408499717712402344e+00,-8.414105772972106934e-01,-7.649187743663787842e-02,2.450000000000000000e+02
-1.119012254127288315e+03,-1.045192996165466752e+02,4.975760271938834194e+02,1.857536190564108620e+04,2.286719143021223317e+02,3.536233508004836040e+03,9.818135254875767259e+01,1.734605886746915075e+02,9.408499717712402344e+00,-8.414105772972106934e-01,-7.649187743663787842e-02,2.460000000000000000e+02
-1.123228606293999974e+03,-1.083144269035905438e+02,5.007420297885296350e+02,1.821542076298058601e+04,2.301935228720822124e+02,3.576274752262443144e+03,9.749857515369365046e+01,1.726468148899182324e+02,9.408499717712402344e+00,-8.414105772972106934e-01,-7.649187743663787842e-02,2.470000000000000000e+02
-1.122518739086822961e+03,-1.089982275610819329e+02,5.039301343815959626e+02,1.758057970272211605e+04,2.307205230380618559e+02,3.614266852675566042e+03,9.806455961946164734e+01,1.690167877955198037e+02,9.408499717712402344e+00,-8.414105772972106934e-01,-7.649187743663787842e-02,2.480000000000000000e+02
-1.116386744701366297e+03,-1.069147611008254728e+02,5.081325340483272157e+02,1.644973271809080325e+04,2.304757080426475113e+02,3.649946850230215205e+03,1.004429184904964814e+02,1.635930873838731259e+02,9.408499717712402344e+00,-8.414105772972106934e-01,-7.649187743663787842e-02,2.490000000000000000e+02
-1.106604428426180220e+03,-1.037466359085687486e+02,5.137687624109062199e+02,1.501052815642468340e+04,2.305135445356881974e+02,3.683628404699629755e+03,1.046765900540515304e+02,1.585574708022938921e+02,9.408499717712402344e+00,-8.414105772972106934e-01,-7.649187743663787842e-02,2.500000000000000000e+02
-1.095405274672946234e+03,-1.009637350096978423e+02,5.205297454299839046e+02,1.389229573680851718e+04,2.317391632148151075e+02,3.715834560007715481e+03,1.101947409509912177e+02,1.558244296666284754e+02,9.408499717712402344e+00,-8.414105772972106934e-01,-7.649187743663787842e-02,2.510000000000000000e+02
-1.083458086838161989e+03,-9.874936307981940331e+01,5.277865137168964793e+02,1.362974043520632222e+04,2.341340480440621832e+02,3.746832721016098731e+03,1.160760679992129099e+02,1.559299162502863965e+02,9.408499717712402344e+00,-8.414105772972106934e-01,-7.649187743663787842e-02,2.520000000000000000e+02
-1.069856692310330573e+03,-9.625746522231636959e+01,5.350909599126748617e+02,1.393671165273786210e+04,2.370223842252112263e+02,3.776557926782648792e+03,1.214293003512560745e+02,1.580475891791488721e+02,9.408499717712402344e+00,-8.414105772972106934e-01,-7.649187743663787842e-02,2.530000000000000000e+02
-1.054286334842061933e+03,-9.274015647710214694e+01,5.422735136494507060e+02,1.363219223016015167e+04,2.400137566480489113e+02,3.804912444483776198e+03,1.256302688131487457e+02,1.608968049412178516e+02,9.408499717712402344e+00,-8.414105772972106934e-01,-7.649187743663787842e-02,2.540000000000000000e+02
-1.039043974710184557e+03,-8.835619208136961333e+01,5.491769744672119486e+02,1.171382837962731719e+04,2.435006787926131437e+02,3.832001135152740972e+03,1.284255089704304282e+02,1.636493491193441514e+02,9.408499717712402344e+00,-8.414105772972106934e-01,-7.649187743663787842e-02,2.550000000000000000e+02
-1.028322104376032257e+03,-8.400067611905353715e+01,5.554947520195955804e+02,8.798013761731534032e+03,2.481213406985662004e+02,3.858019125390463159e+03,1.300090770926474306e+02,1.661564971449363384e+02,9.408499717712402344e+00,-8.414105772972106934e-01,-7.649187743663787842e-02,2.560000000000000000e+02
-1.024798803000745465e+03,-8.056208478813732654e+01,5.610106938762642130e+02,7.377623699794161439e+03,2.538095891537418538e+02,3.882988930627509035e+03,1.310268627551300824e+02,1.685601628779156727e+02,9.408499717712402344e+00,-8.414105772972106934e-01,-7.649187743663787842e-02,2.570000000000000000e+02
-1.026643447257709795e+03,-7.842364638815266176e+01,5.659631271965836277e+02,1.017776211513153976e+04,2.595114053275169681e+02,3.906679481435430716e+03,1.323917516649806885e+02,1.708904671101709027e+02,9.408499717712402344e+00,-8.414105772972106934e-01,-7.649187743663787842e-02,2.580000000000000000e+02
-1.028180039556046495e+03,-7.759562898714202106e+01,5.709895467248070418e+02,1.775541601336990061e+04,2.639317338650594138e+02,3.928786762640416782e+03,1.348498262071748286e+02,1.730542858514372710e+02,9.408499717712402344e+00,-8.414105772972106934e-01,-7.649187743663787842e-02,2.590000000000000000e+02
-1.024195714153779591e+03,-7.806908871299239649e+01,5.765420315829055653e+02,2.751712535259985088e+04,2.665794546798115334e+02,3.949146608460217976e+03,1.385447764699175650e+02,1.750804081737690012e+02,9.484992027282714844e+00,-8.796565532684326172e-01,-1.529837548732757568e-01,2.600000000000000000e+02
-1.014232734785252205e+03,-7.980221252762748918e+01,5.823334680628158821e+02,3.527907681719736138e+04,2.681072169524913988e+02,3.967787905934676019e+03,1.429309344396938286e+02,1.772004959929208781e+02,9.484992027282714844e+00,-8.796565532684326172e-01,-1.529837548732757568e-01,2.610000000000000000e+02
-1.002913974962602197e+03,-8.228630571373574298e+01,5.874666690641079185e+02,3.821048361937438312e+04,2.696599344370206381e+02,3.984883205341193388e+03,1.471346275591637323e+02,1.796051137737802037e+02,9.484992027282714844e+00,-8.796565532684326172e-01,-1.529837548732757568e-01,2.620000000000000000e+02
-9.959729684626581729e+02,-8.423192375802921106e+01,5.912346862851159131e+02,3.668415226863305725e+04,2.718316892631728479e+02,4.000696284402230958e+03,1.504916262221790930e+02,1.821754226022176226e+02,9.484992027282714844e+00,-8.796565532684326172e-01,-1.529837548732757568e-01,2.630000000000000000e+02
-9.956552735755400363e+02,-8.395858112657361971e+01,5.938349852675628426e+02,3.353247971043296275e+04,2.741494048741625420e+02,4.015519914934694498e+03,1.528023055110287771e+02,1.845402943027688138e+02,9.484992027282714844e+00,-8.796565532684326172e-01,-1.529837548732757568e-01,2.640000000000000000e+02
-9.995942193057508121e+02,-8.045034675802349966e+01,5.962437930529396226e+02,3.153906943718119874e+04,2.754766017426258031e+02,4.029530804036247901e+03,1.541111987059893522e+02,1.863987354029554808e+02,9.484992027282714844e+00,-8.796565532684326172e-01,-1.529837548732757568e-01,2.650000000000000000e+02
-1.003787671960096532e+03,-7.435191617164826994e+01,5.992895656167183915e+02,3.144404713610531326e+04,2.749581392763947179e+02,4.042640699933602718e+03,1.542854665572383510e+02,1.876918929008513146e+02,9.484992027282714844e+00,-8.796565532684326172e-01,-1.529837548732757568e-01,2.660000000000000000e+02
-1.006460669221726334e+03,-6.802038861074484544e+01,6.027626222759823804e+02,3.201791287659547379e+04,2.727450310032995731e+02,4.054561117496046336e+03,1.529139780895489480e+02,1.883877195458388769e+02,9.484992027282714844e+00,-8.796565532684326172e-01,-1.529837548732757568e-01,2.670000000000000000e+02
-1.009181197722850584e+03,-6.432857798192719656e+01,6.054000039374280959e+02,3.173514050601915733e+04,2.699009825434289951e+02,4.065098249295590904e+03,1.497300959663499498e+02,1.881612581602730074e+02,9.484992027282714844e+00,-8.796565532684326172e-01,-1.529837548732757568e-01,2.680000000000000000e+02
-1.014623598401449840e+03,-6.491647466707516401e+01,6.058163209492870465e+02,3.026743999074700332e+04,2.675675783901018576e+02,4.074417985895961920e+03,1.451688629975665208e+02,1.864679714605125014e+02,9.484992027282714844e+00,-8.796565532684326172e-01,-1.529837548732757568e-01,2.690000000000000000e+02
-1.023586601995051865e+03,-6.917149108447932804e+01,6.036149574550835268e+02,2.852013133028563607e+04,2.660785251146554629e+02,4.082989906779805096e+03,1.404030703754881984e+02,1.830696903379824221e+02,9.484992027282714844e+00,-8.796565532684326172e-01,-1.529837548732757568e-01,2.700000000000000000e+02
-1.034161748901708961e+03,-7.480725489267030071e+01,5.997733539355025414e+02,2.750475684974754040e+04,2.647854085821467152e+02,4.091241181699389472e+03,1.366264463790701313e+02,1.784771344438411234e+02,9.484992027282714844e+00,-8.796565532684326172e-01,-1.529837548732757568e-01,2.710000000000000000e+02
-1.043450952095818593e+03,-7.965704846589969179e+01,5.960165050204619774e+02,2.734725513964705169e+04,2.627498704108422771e+02,4.099253505536496050e+03,1.341414863749022004e+02,1.737549372448202689e+02,9.484992027282714844e+00,-8.796565532684326172e-01,-1.529837548732757568e-01,2.720000000000000000e+02
-1.049845157230910445e+03,-8.321964003015052924e+01,5.936905077571499305e+02,2.734267591854156490e+04,2.596393381125265023e+02,4.106731074585763054e+03,1.321662830641618882e+02,1.698003670692023661e+02,9.484992027282714844e+00,-8.796565532684326172e-01,-1.529837548732757568e-01,2.730000000000000000e+02
-1.053759194013418892e+03,-8.670346787760477980e+01,5.929743260678369552e+02,2.680499009754426879e+04,2.559884191646544878e+02,4.113176645220218234e+03,1.296262332529066441e+02,1.667757557242091480e+02,9.484992027282714844e+00,-8.796565532684326172e-01,-1.529837548732757568e-01,2.740000000000000000e+02
-1.056569874987058711e+03,-9.162943609568068837e+01,5.929431658719771576e+02,2.575860528371745750e+04,2.526082620933169665e+02,4.118073002239606467e+03,1.262013441238227074e+02,1.642218855345218458e+02,9.484992027282714844e+00,-8.796565532684326172e-01,-1.529837548732757568e-01,2.750000000000000000e+02
-1.059142137512081035e+03,-9.832742326228165552e+01,5.923361095029423495e+02,2.481323809406361397e+04,2.497748498954041452e+02,4.121019788605542999e+03,1.225671817975487272e+02,1.616234346079026523e+02,9.484992027282714844e+00,-8.796565532684326172e-01,-1.529837548732757568e-01,2.760000000000000000e+02
-1.061297280182722488e+03,-1.056557002615129051e+02,5.904031940735219450e+02,2.444832405230285804e+04,2.470239350824201665e+02,4.121908987785096542e+03,1.195804744553944658e+02,1.587579145916607217e+02,9.484992027282714844e+00,-8.796565532684326172e-01,-1.529837548732757568e-01,2.770000000000000000e+02
-1.062361593739413820e+03,-1.120178280279544509e+02,5.872341163727924140e+02,2.452323433283480699e+04,2.436955441939030607e+02,4.121062974187447253e+03,1.173041493874101775e+02,1.555476645145035377e+02,9.484992027282714844e+00,-8.796565532684326172e-01,-1.529837548732757568e-01,2.780000000000000000e+02
-1.061945962015839996e+03,-1.166025078012925604e+02,5.834577183238764064e+02,2.443955114128267815e+04,2.396041866922074632e+02,4.119113193933333605e+03,1.149168485300950238e+02,1.517830534845562624e+02,9.484992027282714844e+00,-8.796565532684326172e-01,-1.529837548732757568e-01,2.790000000000000000e+02
-1.060173763468026664e+03,-1.197417991255856293e+02,5.797057300817668875e+02,2.376683371453008294e+04,2.351695109443572846e+02,4.116578758519897747e+03,1.115974432582615066e+02,1.472562840671488402e+02,9.484992027282714844e+00,-8.796565532684326172e-01,-1.529837548732757568e-01,2.800000000000000000e+02
-1.057317706633754369e+03,-1.222597634738738464e+02,5.763445098799558082e+02,2.269764041733363774e+04,2.309926382087919592e+02,4.113497038123728089e+03,1.074010521534472673e+02,1.422533827222473519e+02,9.484992027282714844e+00,-8.796565532684326172e-01,-1.529837548732757568e-01,2.810000000000000000e+02
-1.053390043027725596e+03,-1.246177096277670557e+02,5.735926301715129512e+02,2.187668098553838354e+04,2.274084916355400310e+02,4.109531638908541936e+03,1.031544283424850903e+02,1.377376260863066477e+02,9.484992027282714844e+00,-8.796565532684326172e-01,-1.529837548732757568e-01,2.820000000000000000e+02
-1.048158512473303290e+03,-1.265959268013141639e+02,5.717031430707206709e+02,2.174718386341656151e+04,2.243948104403663137e+02,4.104484589658519326e+03,9.956943105130457639e+01,1.348090965227605125e+02,9.484992027282714844e+00,-8.796565532684326172e-01,-1.529837548732757568e-01,2.830000000000000000e+02
-1.041501340504007430e+03,-1.276067404227478619e+02,5.708684747749880444e+02,2.203578970553512045e+04,2.217795649139645775e+02,4.098658232714427868e+03,9.661405784174490918e+01,1.338227059147600926e+02,9.484992027282714844e+00,-8.796565532684326172e-01,-1.529837548732757568e-01,2.840000000000000000e+02
-1.033654548148952472e+03,-1.272184334433474362e+02,5.708866329878317174e+02,2.192198301695298505e+04,2.194452636397793412e+02,4.092627809089350194e+03,9.379603362067678063e+01,1.340095103124447178e+02,9.484992027282714844e+00,-8.796565532684326172e-01,-1.529837548732757568e-01,2.850000000000000000e+02
-1.025007386666701677e+03,-1.254977023485333802e+02,5.710351527294482139e+02,2.083734320806642063e+04,2.174004211601824181e+02,4.086669641027911894e+03,9.094421827155414917e+01,1.340562779832617366e+02,9.484992027282714844e+00,-8.796565532684326172e-01,-1.529837548732757568e-01,2.860000000000000000e+02
-1.015597872361122540e+03,-1.230447374433264258e+02,5.704847570758067832e+02,1.921213585879085076e+04,2.158038768226555248e+02,4.080527829053169171e+03,8.848831125620802140e+01,1.331506671881390957e+02,9.484992027282714844e+00,-8.796565532684326172e-01,-1.529837548732757568e-01,2.870000000000000000e+02
-1.004872903834695080e+03,-1.207351674759688080e+02,5.689793406923721477e+02,1.841778994740640337e+04,2.149229111926757696e+02,4.073791653674486952e+03,8.687092477653288825e+01,1.315071234023292277e+02,9.484992027282714844e+00,-8.796565532684326172e-01,-1.529837548732757568e-01,2.880000000000000000e+02
-9.920772269261609608e+02,-1.192831193503679685e+02,5.671137580320057623e+02,1.979417498068323039e+04,2.149120376509197285e+02,4.066422801954156057e+03,8.577067575797511267e+01,1.299112373317888682e+02,9.484992027282714844e+00,-8.796565532684326172e-01,-1.529837548732757568e-01,2.890000000000000000e+02
-9.769760650360190084e+02,-1.188373674803882238e+02,5.658251160343687616e+02,2.349578311715137897e+04,2.154724068821872152e+02,4.058767774747105250e+03,8.408336607113224659e+01,1.287941024305135329e+02,9.484992027282714844e+00,-8.796565532684326172e-01,-1.529837548732757568e-01,2.900000000000000000e+02
-9.601892907077314021e+02,-1.189324315355791555e+02,5.654852844230251776e+02,2.816116835836983228e+04,2.157728000848259171e+02,4.051023747850722430e+03,8.077519200430731416e+01,1.277659909201451001e+02,9.484992027282714844e+00,-8.414105772972106934e-01,-3.824593871831893921e-02,2.910000000000000000e+02
-9.427523431650997736e+02,-1.189200824045751119e+02,5.654414771922048430e+02,3.177560230075672735e+04,2.149176240961866142e+02,4.042818693953581715e+03,7.577547365297742488e+01,1.260355142407660196e+02,9.484992027282714844e+00,-8.414105772972106934e-01,-3.824593871831893921e-02,2.920000000000000000e+02
-9.253570868321767193e+02,-1.184983046890323521e+02,5.644903692542818590e+02,3.306726340850669658e+04,2.126442069475916696e+02,4.033442342403391194e+03,7.010213331766178158e+01,1.232774976640787372e+02,9.484992027282714844e+00,-8.414105772972106934e-01,-3.824593871831893921e-02,2.930000000000000000e+02
-9.081123766539292319e+02,-1.178253766772139102e+02,5.618887867554099103e+02,3.229303584495457108e+04,2.095512936614477439e+02,4.022515295535997666e+03,6.514766893715568585e+01,1.200786678461686847e+02,9.484992027282714844e+00,-8.414105772972106934e-01,-3.824593871831893921e-02,2.940000000000000000e+02
-8.910968893571413219e+02,-1.171243733558600297e+02,5.579689440529118656e+02,3.080631194440000036e+04,2.065221117432998881e+02,4.010365616708887501e+03,6.177747817454172718e+01,1.175087870816332156e+02,9.484992027282714844e+00,-8.414105772972106934e-01,-3.824593871831893921e-02,2.950000000000000000e+02
-8.749823018912391035e+02,-1.162726324724695246e+02,5.538052793615173641e+02,2.986912779865332050e+04,2.038654646236506096e+02,3.997724929043703014e+03,5.990635482516046295e+01,1.161880932433380735e+02,9.484992027282714844e+00,-8.414105772972106934e-01,-3.824593871831893921e-02,2.960000000000000000e+02
-8.607872916405792694e+02,-1.148870560460363492e+02,5.502945014729923514e+02,2.977419500915685057e+04,2.010835137393092964e+02,3.985110133929278163e+03,5.872382610824791982e+01,1.157093802127887443e+02,9.484992027282714844e+00,-8.414105772972106934e-01,-3.824593871831893921e-02,2.970000000000000000e+02
-8.487981031564563636e+02,-1.127731696197420206e+02,5.475278400995595121e+02,2.994437453029075550e+04,1.975172306871683077e+02,3.972520519709701603e+03,5.732638968144107139e+01,1.149785753794455445e+02,9.484992027282714844e+00,-8.414105772972106934e-01,-3.824593871831893921e-02,2.980000000000000000e+02
-8.378385739267179133e+02,-1.101534031754401894e+02,5.449751855491181232e+02,2.972514495680873006e+04,1.931745397216216134e+02,3.959674355718388142e+03,5.532377942476634303e+01,1.131786472221342024e+02,9.484992027282714844e+00,-8.414105772972106934e-01,-3.824593871831893921e-02,2.990000000000000000e+02
-8.260197245489382567e+02,-1.073806378126481320e+02,5.421539060224196191e+02,2.902324313470649940e+04,1.888293672475650737e+02,3.946418518262625639e+03,5.304299479250607874e+01,1.104469973081403964e+02,9.484992027282714844e+00,-8.414105772972106934e-01,-3.824593871831893921e-02,3.000000000000000000e+02
-8.126012580109273813e+02,-1.045614550535588307e+02,5.390214612490675563e+02,2.825117482712299534e+04,1.852645771114210902e+02,3.932863079981919782e+03,5.116176850161289735e+01,1.075942549609106891e+02,9.484992027282714844e+00,-8.414105772972106934e-01,-3.824593871831893921e-02,3.010000000000000000e+02
-7.992117279487604264e+02,-1.016994140912447051e+02,5.357115602618478079e+02,2.780276848565834007e+04,1.824548247376437757e+02,3.919186744431313855e+03,4.996364141704995632e+01,1.051208237109538004e+02,9.484992027282714844e+00,-8.414105772972106934e-01,-3.824593871831893921e-02,3.020000000000000000e+02
-7.890047290263564719e+02,-9.926895935608396826e+01,5.319959797330407127e+02,2.766376539597690862e+04,1.795052309006952100e+02,3.905365994169559144e+03,4.880482685465065629e+01,1.025170880743474982e+02,9.484992027282714844e+00,-8.414105772972106934e-01,-3.824593871831893921e-02,3.030000000000000000e+02
-7.841834357133664071e+02,-9.846813401915599684e+01,5.271708602251093225e+02,2.749965534225216106e+04,1.753919070275539980e+02,3.891090875919894188e+03,4.631780635408884450e+01,9.858111670071218668e+01,9.484992027282714844e+00,-8.414105772972106934e-01,-3.824593871831893921e-02,3.040000000000000000e+02
-7.839637874892221134e+02,-1.005802963581815845e+02,5.206025143283759462e+02,2.707459833891367089e+04,1.698121464569401269e+02,3.875914254904772861e+03,4.132247340400232360e+01,9.250030010168467243e+01,9.484992027282714844e+00,-8.414105772972106934e-01,-3.824593871831893921e-02,3.050000000000000000e+02
-7.847954930843682178e+02,-1.058873136379155824e+02,5.124059923079630607e+02,2.647364835041134575e+04,1.634360582301925433e+02,3.859518284420214059e+03,3.373795745333114837e+01,8.463271943272138742e+01,9.484992027282714844e+00,-8.414105772972106934e-01,-3.824593871831893921e-02,3.060000000000000000e+02
-7.827235698149647760e+02,-1.131869891353146613e+02,5.035355924062573649e+02,2.595051182680972124e+04,1.574361020359544909e+02,3.841966186250170722e+03,2.474086054685545832e+01,7.622208484859652344e+01,9.484992027282714844e+00,-8.414105772972106934e-01,-3.824593871831893921e-02,3.070000000000000000e+02
-7.759844652252874084e+02,-1.204264906238159938e+02,4.951284396595771113e+02,2.563123736926201309e+04,1.526746054875908385e+02,3.823747845672107815e+03,1.607955394794524295e+01,6.838033667038320118e+01,9.484992027282714844e+00,-8.414105772972106934e-01,-3.824593871831893921e-02,3.080000000000000000e+02
-7.657864993709592909e+02,-1.258867280895331930e+02,4.877194403648950356e+02,2.540852260525343809e+04,1.491171824169293814e+02,3.805513254278458589e+03,9.131394662879500856e+00,6.138355538925247856e+01,9.484992027282714844e+00,-8.414105772972106934e-01,-3.824593871831893921e-02,3.090000000000000000e+02
-7.548417462845922046e+02,-1.288982405541321725e+02,4.810704386556006966e+02,2.509939750286048366e+04,1.458558060029424723e+02,3.787608305290510543e+03,4.353634149034888878e+00,5.493070012084018572e+01,9.484992027282714844e+00,-8.414105772972106934e-01,-3.824593871831893921e-02,3.100000000000000000e+02
-7.450639061601532376e+02,-1.297083574237191783e+02,4.747013974908807086e+02,2.465074575802463369e+04,1.417575791686310822e+02,3.769770992712279622e+03,1.266265121828467954e+00,4.894184987440809209e+01,9.484992027282714844e+00,-8.414105772972106934e-01,-3.824593871831893921e-02,3.110000000000000000e+02
-7.363373766884949418e+02,-1.289765938297897776e+02,4.685035267229931151e+02,2.416877677041116112e+04,1.363655721114752168e+02,3.751314273593968664e+03,-1.263166601540461897e+00,4.396048467987066033e+01,9.484992027282714844e+00,-8.414105772972106934e-01,-7.649187743663787842e-02,3.120000000000000000e+02
-7.271980258041642173e+02,-1.274712704285993823e+02,4.627840232031322785e+02,2.377623343772555017e+04,1.303715273041095770e+02,3.731674601035683281e+03,-4.564546921775715305e+00,4.075397055148624759e+01,9.484992027282714844e+00,-8.414105772972106934e-01,-7.649187743663787842e-02,3.130000000000000000e+02
-7.166000906933794568e+02,-1.259832129145716522e+02,4.577743860287511097e+02,2.348115616369402414e+04,1.251952489915557862e+02,3.710849845011489379e+03,-9.517014987992126862e+00,3.961555969706824953e+01,9.484992027282714844e+00,-8.414105772972106934e-01,-7.649187743663787842e-02,3.140000000000000000e+02
-7.051212860859151306e+02,-1.250666451037915010e+02,4.532528499452494657e+02,2.319237295245720816e+04,1.219245357710085500e+02,3.689350820387462591e+03,-1.587268214686451984e+01,4.014880628998713519e+01,9.484992027282714844e+00,-8.414105772972106934e-01,-7.649187743663787842e-02,3.150000000000000000e+02
-6.945934283615044933e+02,-1.245781523839693534e+02,4.487734479182879568e+02,2.283539569806964573e+04,1.205015441431872887e+02,3.667787113593471986e+03,-2.211865351777186106e+01,4.166287213738291939e+01,9.484992027282714844e+00,-8.414105772972106934e-01,-7.649187743663787842e-02,3.160000000000000000e+02
-6.866001966547830762e+02,-1.235598522697669921e+02,4.442493495988150016e+02,2.242625670757483749e+04,1.198883768114500299e+02,3.646538579856803153e+03,-2.633074825315497947e+01,4.359840252931223858e+01,9.484992027282714844e+00,-8.414105772972106934e-01,-7.649187743663787842e-02,3.170000000000000000e+02
-6.813087569891595194e+02,-1.208533487215848936e+02,4.401805544876953036e+02,2.203467697547650823e+04,1.189930189041100448e+02,3.625727233736145990e+03,-2.757990698210036840e+01,4.550037390992577002e+01,9.484992027282714844e+00,-8.414105772972106934e-01,-7.649187743663787842e-02,3.180000000000000000e+02
-6.777018569074041352e+02,-1.160759166808803684e+02,4.372053111651587756e+02,2.169975028407606442e+04,1.174319673453431960e+02,3.605326430556224750e+03,-2.670937742103586743e+01,4.674442862505634366e+01,9.484992027282714844e+00,-8.414105772972106934e-01,-7.649187743663787842e-02,3.190000000000000000e+02
-6.748927470596759122e+02,-1.100579232578178619e+02,4.354413491131923593e+02,2.139675138310150578e+04,1.154579956123465649e+02,3.585173049179230475e+03,-2.565403743568091954e+01,4.662131500525867978e+01,9.484992027282714844e+00,-8.414105772972106934e-01,-7.649187743663787842e-02,3.200000000000000000e+02
-6.731446914882243391e+02,-1.042839025679387532e+02,4.343401113882416666e+02,2.107785498628109417e+04,1.133337413401794720e+02,3.564941903669977364e+03,-2.580981228756104429e+01,4.492842485629915927e+01,9.484992027282714844e+00,-8.414105772972106934e-01,-7.649187743663787842e-02,3.210000000000000000e+02
-6.735349203622997720e+02,-9.986119115784660494e+01,4.332126152145613673e+02,2.072689797799753433e+04,1.110087717662490832e+02,3.544313994012154581e+03,-2.695091065547751441e+01,4.245762893463270871e+01,9.484992027282714844e+00,-8.414105772972106934e-01,-7.649187743663787842e-02,3.220000000000000000e+02
-6.766597221913518752e+02,-9.695037723603158497e+01,4.318177040514216287e+02,2.036793052029888349e+04,1.084621080265864066e+02,3.523279095841767230e+03,-2.769807628037307268e+01,4.069084384924548203e+01,9.484992027282714844e+00,-8.414105772972106934e-01,-7.649187743663787842e-02,3.230000000000000000e+02
-6.817922451697584165e+02,-9.507787452964032582e+01,4.303440160057466528e+02,2.003036849103500936e+04,1.061857491337542569e+02,3.502213430656258879e+03,-2.706540274935497337e+01,4.075644337814395612e+01,9.484992027282714844e+00,-8.414105772972106934e-01,-7.649187743663787842e-02,3.240000000000000000e+02
-6.874374783551565997e+02,-9.388325203640570749e+01,4.288429684888126303e+02,1.971780317171424394e+04,1.050645102311412984e+02,3.481527079675906862e+03,-2.557816291911314011e+01,4.249859603098349226e+01,9.484992027282714844e+00,-8.414105772972106934e-01,-7.649187743663787842e-02,3.250000000000000000e+02
-6.927357457344612612e+02,-9.353255247240525705e+01,4.268207532809844906e+02,1.941126104146814760e+04,1.056051262593076672e+02,3.461194085978701878e+03,-2.492709304577175544e+01,4.449648632150422145e+01,9.484992027282714844e+00,-8.414105772972106934e-01,-7.649187743663787842e-02,3.260000000000000000e+02
-6.982107484800012571e+02,-9.448336621813561464e+01,4.235401652748953438e+02,1.909424095384846805e+04,1.072905224756235611e+02,3.440719125043418899e+03,-2.654383100846047228e+01,4.505607835107150549e+01,9.484992027282714844e+00,-8.414105772972106934e-01,-7.649187743663787842e-02,3.270000000000000000e+02
-7.050072145523949985e+02,-9.694699943983061985e+01,4.187593533921960329e+02,1.876842521589861644e+04,1.087401123385341180e+02,3.419616082451123020e+03,-3.042489593338089549e+01,4.337889396149421373e+01,9.484992027282714844e+00,-8.414105772972106934e-01,-7.649187743663787842e-02,3.280000000000000000e+02
-7.133224194545041428e+02,-1.005542791290978073e+02,4.131202569380446903e+02,1.844732708259059291e+04,1.085608566736768807e+02,3.397876481857635554e+03,-3.516146876982006120e+01,4.002467806752238744e+01,9.484992027282714844e+00,-8.414105772972106934e-01,-7.649187743663787842e-02,3.290000000000000000e+02
-7.216492210578410322e+02,-1.043878177802792493e+02,4.077436463444929018e+02,1.814026310664433186e+04,1.061541566402293029e+02,3.375901194184573797e+03,-3.896985449148741054e+01,3.644082704297790087e+01,9.484992027282714844e+00,-8.414105772972106934e-01,-7.649187743663787842e-02,3.300000000000000000e+02
-7.276898486964753374e+02,-1.072522527847245897e+02,4.034143467336709818e+02,1.784422705836308887e+04,1.019249452243905125e+02,3.354027722709014597e+03,-4.077838208266479114e+01,3.402134720839833903e+01,9.484992027282714844e+00,-8.414105772972106934e-01,-7.649187743663787842e-02,3.310000000000000000e+02
-7.301757004972762388e+02,-1.080367641031041330e+02,4.001325471248775898e+02,1.754897809175068687e+04,9.696778703664745080e+01,3.332273222463571074e+03,-4.059886465221484286e+01,3.338284240370444422e+01,9.484992027282714844e+00,-8.414105772972106934e-01,-7.649187743663787842e-02,3.320000000000000000e+02
-7.299814293198633095e+02,-1.061065618798564856e+02,3.973671359256547930e+02,1.725117889906514756e+04,9.260827477008456299e+01,3.310579829695731860e+03,-3.911942690549904000e+01,3.427157362222385473e+01,9.484992027282714844e+00,-8.414105772972106934e-01,-7.649187743663787842e-02,3.330000000000000000e+02
-7.295292367914925080e+02,-1.016756630675334065e+02,3.946485815958069452e+02,1.695688359188683535e+04,9.002944889717707611e+01,3.289169644526440152e+03,-3.702509049224772752e+01,3.601656824942460844e+01,9.484992027282714844e+00,-8.414105772972106934e-01,-7.649187743663787842e-02,3.340000000000000000e+02
-7.309905405294825869e+02,-9.593799771676830801e+01,3.919150332578871030e+02,1.666608616382176842e+04,8.996637422937158135e+01,3.268432732071019473e+03,-3.456558644739561714e+01,3.811793649517716176e+01,9.484992027282714844e+00,-8.414105772972106934e-01,-7.649187743663787842e-02,3.350000000000000000e+02
-7.347870535790614213e+02,-9.070809749209331585e+01,3.894235483023313691e+02,1.637878010263190481e+04,9.248630765469692960e+01,3.248398820005817470e+03,-3.158498974329947373e+01,4.053746863314194115e+01,9.484992027282714844e+00,-8.414105772972106934e-01,-7.649187743663787842e-02,3.360000000000000000e+02
-7.395587835010110211e+02,-8.762611564997808955e+01,3.874682564246315906e+02,1.609497861501987973e+04,9.697447855815437379e+01,3.228457698015143251e+03,-2.792973349188031307e+01,4.349509936070961658e+01,9.484992027282714844e+00,-9.179025292396545410e-01,-7.649187743663787842e-02,3.370000000000000000e+02
-7.435750613234490629e+02,-8.734461343072896966e+01,3.861926170846514879e+02,1.581469033026227589e+04,1.023720714585277847e+02,3.207765041257592202e+03,-2.389197026322278816e+01,4.699035884387177475e+01,9.484992027282714844e+00,-9.179025292396545410e-01,-7.649187743663787842e-02,3.380000000000000000e+02
-7.463926710136450993e+02,-8.926018724058900489e+01,3.855497194184115415e+02,1.553790117392922730e+04,1.075368995106505281e+02,3.185980128349784536e+03,-2.036321952699262283e+01,5.049423643745456047e+01,9.484992027282714844e+00,-9.179025292396545410e-01,-7.649187743663787842e-02,3.390000000000000000e+02
-7.494035303083053350e+02,-9.198473193273116522e+01,3.852822285851789275e+02,1.526460229753918429e+04,1.115291707144153861e+02,3.163552716897607752e+03,-1.853909525408491277e+01,5.313636364600802153e+01,9.484992027282714844e+00,-9.179025292396545410e-01,-7.649187743663787842e-02,3.400000000000000000e+02
-7.548256931871824236e+02,-9.417502510702610152e+01,3.849287254613400364e+02,1.499478526125030839e+04,1.138122718165363949e+02,3.141266606230105481e+03,-1.926910807555634619e+01,5.430677055039643619e+01,9.484992027282714844e+00,-9.179025292396545410e-01,-7.649187743663787842e-02,3.410000000000000000e+02
-7.639206970242341868e+02,-9.514221439530555813e+01,3.839719045838201055e+02,1.472846098273364623e+04,1.144314608231435386e+02,3.119570748626263594e+03,-2.247778770347343880e+01,5.414890353131846723e+01,9.484992027282714844e+00,-9.179025292396545410e-01,-7.649187743663787842e-02,3.420000000000000000e+02
-7.758375245878647775e+02,-9.494693347406135331e+01,3.820739713600856930e+02,1.446563563468608663e+04,1.140320066356853204e+02,3.098365170733574814e+03,-2.712208058217561302e+01,5.342874828090822348e+01,9.484992027282714844e+00,-9.179025292396545410e-01,-7.649187743663787842e-02,3.430000000000000000e+02
-7.879536868057434731e+02,-9.419666878406059141e+01,3.791705960794678276e+02,1.420629379202510609e+04,1.135013564198129643e+02,3.077323122245916238e+03,-3.184410348514552425e+01,5.277720773371822816e+01,9.484992027282714844e+00,-9.179025292396545410e-01,-7.649187743663787842e-02,3.440000000000000000e+02
-7.974042886886271617e+02,-9.391087822444364974e+01,3.752762110233825297e+02,1.395042458865277331e+04,1.133131404054776112e+02,3.056231978758934929e+03,-3.592697186434259038e+01,5.192373534066570073e+01,9.484992027282714844e+00,-9.179025292396545410e-01,-7.649187743663787842e-02,3.450000000000000000e+02
-8.026107411849824302e+02,-9.543074155039553830e+01,3.702164330472783149e+02,1.369801745412269520e+04,1.130961008345412893e+02,3.034950945905176013e+03,-3.978425274567484848e+01,4.969590568047453871e+01,9.484992027282714844e+00,-9.179025292396545410e-01,-7.649187743663787842e-02,3.460000000000000000e+02
-8.037939991200739769e+02,-9.998310324896462475e+01,3.637035104313981719e+02,1.344908175668770127e+04,1.119634470233069123e+02,3.013177135931829980e+03,-4.446170671048662371e+01,4.500753404248968081e+01,9.484992027282714844e+00,-9.179025292396545410e-01,-7.649187743663787842e-02,3.470000000000000000e+02
-8.024157573760251125e+02,-1.077600872970312764e+02,3.558276424748094087e+02,1.320362092355228197e+04,1.094342724264421349e+02,2.990449168569725771e+03,-5.040846055285180682e+01,3.817131337750367948e+01,9.484992027282714844e+00,-9.179025292396545410e-01,-7.649187743663787842e-02,3.480000000000000000e+02
-8.002079297143095573e+02,-1.171925607083992134e+02,3.474962223649895350e+02,1.296161736632323300e+04,1.060872719713393053e+02,2.966487834065926108e+03,-5.656316889799870751e+01,3.136597308622503988e+01,9.484992027282714844e+00,-9.179025292396545410e-01,-7.649187743663787842e-02,3.490000000000000000e+02
-7.984647325608561914e+02,-1.254673380734903105e+02,3.401925306761174852e+02,1.272305879458183335e+04,1.032123788055628211e+02,2.941498365171914884e+03,-6.076029572795010836e+01,2.755352306369621829e+01,9.484992027282714844e+00,-9.179025292396545410e-01,-7.649187743663787842e-02,3.500000000000000000e+02
-7.977548849701707923e+02,-1.304574621384464876e+02,3.350167067766521996e+02,1.248793293142911170e+04,1.017149217876974490e+02,2.916074463970220222e+03,-6.138246543056328619e+01,2.841446668646608487e+01,9.484992027282714844e+00,-9.179025292396545410e-01,-7.649187743663787842e-02,3.510000000000000000e+02
-7.979059635486304387e+02,-1.327053883775274414e+02,3.317457244709648876e+02,1.225624673144383814e+04,1.013277711123163272e+02,2.890790784945955238e+03,-5.897097109749182664e+01,3.286380113937377700e+01,9.484992027282714844e+00,-9.179025292396545410e-01,-7.649187743663787842e-02,3.520000000000000000e+02
-7.982557457255381905e+02,-1.354656923605335521e+02,3.288045951598165857e+02,1.202800204244854649e+04,1.008978589074203001e+02,2.865860700412138613e+03,-5.624264031055622581e+01,3.750790726249766749e+01,9.484992027282714844e+00,-9.179025292396545410e-01,-7.649187743663787842e-02,3.530000000000000000e+02
-7.981981343026129707e+02,-1.422847209295414359e+02,3.243180242581955781e+02,1.180317897157885272e+04,9.945969888135232395e+01,2.841125537439365871e+03,-5.628184372807680802e+01,3.886724208836233174e+01,9.484992027282714844e+00,-9.179025292396545410e-01,-7.649187743663787842e-02,3.540000000000000000e+02
-7.977480398598193005e+02,-1.539540707092595540e+02,3.174308525347648811e+02,1.158176313284724529e+04,9.702431844616307899e+01,2.816284546765992218e+03,-6.034527817848891118e+01,3.564215760705769753e+01,9.484992027282714844e+00,-9.179025292396545410e-01,-7.649187743663787842e-02,3.550000000000000000e+02
-7.975367165127289582e+02,-1.675560050307135782e+02,3.088405786666353379e+02,1.136374008255602530e+04,9.436405122297446724e+01,2.791132688298792345e+03,-6.711831651626528128e+01,2.923221082016891614e+01,9.484992027282714844e+00,-9.179025292396545410e-01,-7.649187743663787842e-02,3.560000000000000000e+02
-7.980153472664839001e+02,-1.785919647741091012e+02,3.001775551367582011e+02,1.114911478823551806e+04,9.211745815266317550e+01,2.765683458611445985e+03,-7.395538105917364646e+01,2.224628282154202452e+01,9.484992027282714844e+00,-9.179025292396545410e-01,-7.649187743663787842e-02,3.570000000000000000e+02
-7.985264357353679543e+02,-1.842988083740968648e+02,2.928311651528345010e+02,1.093788811967654146e+04,9.015709848653114022e+01,2.740144500065286593e+03,-7.880825606543459116e+01,1.652705106171470106e+01,9.484992027282714844e+00,-9.179025292396545410e-01,-7.649187743663787842e-02,3.580000000000000000e+02
-7.972779330680128851e+02,-1.851920612252876595e+02,2.872228075240059297e+02,1.073003824537273977e+04,8.785130169127205590e+01,2.714781264214715520e+03,-8.112197226902833336e+01,1.247737858685161427e+01,9.484992027282714844e+00,-9.179025292396545410e-01,-7.649187743663787842e-02,3.590000000000000000e+02
-7.925642996982614932e+02,-1.837109381344465362e+02,2.829850544967640644e+02,1.052554868404815716e+04,8.492672568613079420e+01,2.689738816291255716e+03,-8.124835308311457993e+01,9.983483692392326248e+00,9.484992027282714844e+00,-9.179025292396545410e-01,-7.649187743663787842e-02,3.600000000000000000e+02
-7.843167166876004330e+02,-1.816795278653614503e+02,2.796561012213497861e+02,1.032440303608999056e+04,8.207542977595403499e+01,2.664964524800436720e+03,-7.945450352657917392e+01,9.559197658523089558e+00,9.484992027282714844e+00,-9.179025292396545410e-01,-7.649187743663787842e-02,3.610000000000000000e+02
-7.745849013993297376e+02,-1.792721847519865435e+02,2.771264213876596614e+02,1.012660468767247585e+04,8.069729584832248293e+01,2.640340226611768685e+03,-7.579387618364415857e+01,1.222202300832003630e+01,9.484992027282714844e+00,-9.179025292396545410e-01,-7.649187743663787842e-02,3.620000000000000000e+02
-7.664653461570883337e+02,-1.762105706030920373e+02,2.754653820620785609e+02,9.932152530360122910e+03,8.189360435030175722e+01,2.615888817140375068e+03,-7.078651542683280695e+01,1.817275621958799547e+01,9.484992027282714844e+00,-9.179025292396545410e-01,-7.649187743663787842e-02,3.630000000000000000e+02
-7.622872393943671341e+02,-1.734097349592442470e+02,2.744562081537631002e+02,9.741022642267858828e+03,8.551495148037065519e+01,2.591799005381788447e+03,-6.582282570749964634e+01,2.579291244919369319e+01,9.523238182067871094e+00,-8.796565532684326172e-01,-3.824593871831893921e-02,3.640000000000000000e+02
-7.623926122571007227e+02,-1.729202603381507117e+02,2.734268077945368987e+02,9.553197244767419761e+03,9.007707710850854710e+01,2.568173118560786861e+03,-6.258757748037010060e+01,3.224299549098839179e+01,9.523238182067871094e+00,-8.796565532684326172e-01,-3.824593871831893921e-02,3.650000000000000000e+02
-7.651781466319168885e+02,-1.760765215511663655e+02,2.716003236451642806e+02,9.368658660083550785e+03,9.367026894312721197e+01,2.544760624202075633e+03,-6.205625110493434704e+01,3.528908767476116282e+01,9.523238182067871094e+00,-8.796565532684326172e-01,-3.824593871831893921e-02,3.660000000000000000e+02
-7.680380656341324084e+02,-1.818716722918748019e+02,2.686442341785551662e+02,9.187408495780702651e+03,9.515849223126861034e+01,2.521055931760928615e+03,-6.415497343452301493e+01,3.471878145853435171e+01,9.523238182067871094e+00,-8.796565532684326172e-01,-3.824593871831893921e-02,3.670000000000000000e+02
-7.684923616109067552e+02,-1.873986152657901414e+02,2.648832047752368908e+02,9.009443497588221362e+03,9.466454708442370247e+01,2.496736802881496260e+03,-6.832785739926384849e+01,3.214381261129472023e+01,9.523238182067871094e+00,-8.796565532684326172e-01,-3.824593871831893921e-02,3.680000000000000000e+02
-7.650467795657426677e+02,-1.900389723577166592e+02,2.609993673646089292e+02,8.834738783366999996e+03,9.297244364658649829e+01,2.472009282529434131e+03,-7.414211805579384418e+01,2.956707706769651622e+01,9.523238182067871094e+00,-8.796565532684326172e-01,-3.824593871831893921e-02,3.690000000000000000e+02
-7.576120560066923417e+02,-1.893133722164249093e+02,2.575500431745776950e+02,8.663274946847945102e+03,9.049343541623966303e+01,2.447469342532406699e+03,-8.107725767593217370e+01,2.814929915205061661e+01,9.523238182067871094e+00,-8.796565532684326172e-01,-3.824593871831893921e-02,3.700000000000000000e+02
-7.473316019059693645e+02,-1.867577634175991363e+02,2.547393932070359597e+02,8.495032378615600464e+03,8.687751649160509260e+01,2.423607729208497403e+03,-8.785891448974894047e+01,2.808259994265171144e+01,9.523238182067871094e+00,-8.796565532684326172e-01,-3.824593871831893921e-02,3.710000000000000000e+02
-7.357872799212190102e+02,-1.842307632601367118e+02,2.525481888666677150e+02,8.330011179713550518e+03,8.168480450545212079e+01,2.400485961236041476e+03,-9.249225052783208412e+01,2.919733202018829843e+01,9.523238182067871094e+00,-8.796565532684326172e-01,-3.824593871831893921e-02,3.720000000000000000e+02
-7.240251189300744272e+02,-1.824372022101375421e+02,2.509368342933923941e+02,8.168207191474980391e+03,7.534023161567188254e+01,2.377865889809773762e+03,-9.344821689256275477e+01,3.136359271894440326e+01,9.523238182067871094e+00,-8.796565532684326172e-01,-3.824593871831893921e-02,3.730000000000000000e+02
-7.121563009808497782e+02,-1.809309643105606824e+02,2.498263234582018413e+02,8.009593247042777875e+03,6.924918201452737776e+01,2.355566775921987755e+03,-9.103196818477033503e+01,3.429068243046026510e+01,9.523238182067871094e+00,-8.796565532684326172e-01,-3.824593871831893921e-02,3.740000000000000000e+02
-6.999367755709915855e+02,-1.792403696776196966e+02,2.488892135970645541e+02,7.854148454957411559e+03,6.482630166013291273e+01,2.333612252254896703e+03,-8.746810381218921293e+01,3.721094571409037144e+01,9.523238182067871094e+00,-8.796565532684326172e-01,-3.824593871831893921e-02,3.750000000000000000e+02
-6.877523293897420444e+02,-1.777851586980108038e+02,2.474615353293943372e+02,7.701852173586001300e+03,6.238897824450668850e+01,2.312052237617779610e+03,-8.539614134343287333e+01,3.905702504263592800e+01,9.523238182067871094e+00,-8.796565532684326172e-01,-3.824593871831893921e-02,3.760000000000000000e+02
-6.768874117687719263e+02,-1.777065352735653221e+02,2.448136538362148258e+02,7.552702813295722990e+03,6.105486815714561999e+01,2.290775247477242374e+03,-8.606624948601080405e+01,3.910336462889267750e+01,9.523238182067871094e+00,-8.796565532684326172e-01,-3.824593871831893921e-02,3.770000000000000000e+02
-6.686550978464696300e+02,-1.798521386298511402e+02,2.406551031900219186e+02,7.406693795793503341e+03,5.969638634314014780e+01,2.269568661135347611e+03,-8.877408941332373615e+01,3.749846142293290541e+01,9.523238182067871094e+00,-8.796565532684326172e-01,-3.824593871831893921e-02,3.780000000000000000e+02
-6.631769348295543978e+02,-1.838664279153965992e+02,2.354918630738079628e+02,7.263796950565918451e+03,5.791673956219074171e+01,2.248330823913490349e+03,-9.181231047905362175e+01,3.520600069147099020e+01,9.523238182067871094e+00,-8.796565532684326172e-01,-3.824593871831893921e-02,3.790000000000000000e+02
-6.590966259232521907e+02,-1.881325455897234065e+02,2.305234590464247049e+02,7.123990357439830404e+03,5.608682303980549477e+01,2.227138579856865363e+03,-9.381971037623981147e+01,3.342597569650911282e+01,9.523238182067871094e+00,-8.796565532684326172e-01,-3.824593871831893921e-02,3.800000000000000000e+02
-6.546311378170991020e+02,-1.906146443875603609e+02,2.270773042638456900e+02,6.987252279900661051e+03,5.458698351451903363e+01,2.206098954518032770e+03,-9.431809950150608302e+01,3.293160044239812123e+01,9.523238182067871094e+00,-8.796565532684326172e-01,-3.824593871831893921e-02,3.810000000000000000e+02
-6.489867814216156603e+02,-1.900506413394950584e+02,2.258890104217498447e+02,6.853580055029374307e+03,5.324047367465891512e+01,2.185222289830559021e+03,-9.332718458212082169e+01,3.370119559073111759e+01,9.523238182067871094e+00,-8.796565532684326172e-01,-3.824593871831893921e-02,3.820000000000000000e+02
-6.428245752994257600e+02,-1.867260294970888026e+02,2.266391282661495552e+02,6.722958491159704863e+03,5.153328587195596810e+01,2.164464625977372634e+03,-9.089526690190609770e+01,3.498546245661930243e+01,9.523238182067871094e+00,-8.796565532684326172e-01,-3.824593871831893921e-02,3.830000000000000000e+02
-6.373983658161434960e+02,-1.823327199150600677e+02,2.280644416227021338e+02,6.595369465316978676e+03,4.924128551706007784e+01,2.143829743861820134e+03,-8.722015538512312105e+01,3.576649579634374732e+01,9.523238182067871094e+00,-8.796565532684326172e-01,-3.824593871831893921e-02,3.840000000000000000e+02
-6.332719330394712642e+02,-1.789711629933475479e+02,2.286529789328624247e+02,6.470788586545154430e+03,4.665422993773972848e+01,2.123339127292457306e+03,-8.309533273362455930e+01,3.543350080686013825e+01,9.523238182067871094e+00,-8.796565532684326172e-01,-3.824593871831893921e-02,3.850000000000000000e+02
-6.298515619374214793e+02,-1.779152871219509677e+02,2.275420590190565235e+02,6.349185286025478490e+03,4.418656386143288728e+01,2.102914981069676287e+03,-7.990043933812967225e+01,3.430309074065257846e+01,9.523238182067871094e+00,-8.796565532684326172e-01,-3.824593871831893921e-02,3.860000000000000000e+02
-6.260917604082267189e+02,-1.789745780786492446e+02,2.250223428707563471e+02,6.230535803766397294e+03,4.193474971937598639e+01,2.082416496828570416e+03,-7.886599191105858608e+01,3.350729768758048976e+01,9.523238182067871094e+00,-8.796565532684326172e-01,-3.824593871831893921e-02,3.870000000000000000e+02
-6.216147803810962387e+02,-1.808648692373058111e+02,2.222191699868260457e+02,6.114837010208386346e+03,3.969744770206739304e+01,2.061857594983648596e+03,-8.021498615245309338e+01,3.412735176228090950e+01,9.523238182067871094e+00,-8.796565532684326172e-01,-3.824593871831893921e-02,3.880000000000000000e+02
-6.171174168708942034e+02,-1.822404885591058701e+02,2.201451765209878886e+02,6.002058333817147286e+03,3.735466189998533082e+01,2.041529633239821123e+03,-8.301340368032930428e+01,3.614953756033969512e+01,9.523238182067871094e+00,-8.796565532684326172e-01,-3.824593871831893921e-02,3.890000000000000000e+02
-6.136547062187707979e+02,-1.825469711073793633e+02,2.188849818499979847e+02,5.892212023376350771e+03,3.507905035145722650e+01,2.021782523098439015e+03,-8.586651323275003733e+01,3.818823123600350300e+01,9.523238182067871094e+00,-8.796565532684326172e-01,-3.824593871831893921e-02,3.900000000000000000e+02
-6.114468287412756808e+02,-1.820822324635421410e+02,2.176249049619577818e+02,5.785285883011971237e+03,3.315176587330824987e+01,2.002641316080997967e+03,-8.779308371101853936e+01,3.843297165614853839e+01,9.523238182067871094e+00,-8.796565532684326172e-01,-3.824593871831893921e-02,3.910000000000000000e+02
-6.093399935027048286e+02,-1.814329526937541175e+02,2.154859290292072274e+02,5.681145480433920056e+03,3.170431473451617421e+01,1.983710325363999800e+03,-8.855805642151693746e+01,3.613751189821778098e+01,9.523238182067871094e+00,-8.796565532684326172e-01,-3.824593871831893921e-02,3.920000000000000000e+02
-6.055438682772551147e+02,-1.809637916246341547e+02,2.123400719450562519e+02,5.579602267144387042e+03,3.070943065869892052e+01,1.964507016695850325e+03,-8.837441913513703184e+01,3.230795119261085802e+01,9.523238182067871094e+00,-8.796565532684326172e-01,-3.824593871831893921e-02,3.930000000000000000e+02
-5.991102250059066137e+02,-1.808658312399073225e+02,2.087953779185666008e+02,5.480824752638452082e+03,3.011657503628998711e+01,1.944858480612670064e+03,-8.756398104787132297e+01,2.880463252225763426e+01,9.523238182067871094e+00,-8.796565532684326172e-01,-3.824593871831893921e-02,3.940000000000000000e+02
-5.908638102975498896e+02,-1.815463164779384897e+02,2.053734751093252271e+02,5.385268790348081893e+03,2.978854398428052264e+01,1.924892297833464909e+03,-8.666547200180002619e+01,2.653446714424353559e+01,9.523238182067871094e+00,-8.031646609306335449e-01,0.000000000000000000e+00,3.950000000000000000e+02
-5.828292982882701381e+02,-1.836933214383646487e+02,2.017716515905035521e+02,5.293021520468329072e+03,2.925004150430663685e+01,1.904655103776161923e+03,-8.674894950123291437e+01,2.441641264662769117e+01,9.523238182067871094e+00,-8.031646609306335449e-01,0.000000000000000000e+00,3.960000000000000000e+02
-5.764933001185518151e+02,-1.877012584404899371e+02,1.970534739535933113e+02,5.203382310367598620e+03,2.768738200137818239e+01,1.883883350890851943e+03,-8.925589977177952505e+01,2.023648864524034252e+01,9.523238182067871094e+00,-8.031646609306335449e-01,0.000000000000000000e+00,3.970000000000000000e+02
-5.714317061531553463e+02,-1.928933038662509603e+02,1.906561348946370344e+02,5.115553158935362262e+03,2.445639603428571718e+01,1.862264669373616925e+03,-9.506181340322996220e+01,1.281734607982548368e+01,9.523238182067871094e+00,-8.031646609306335449e-01,0.000000000000000000e+00,3.980000000000000000e+02
-5.656793268577644085e+02,-1.974265326803026142e+02,1.832438450980989728e+02,5.029827054656840119e+03,1.975819927011616528e+01,1.839929412837835116e+03,-1.034150069497018194e+02,3.588901789344390636e+00,9.523238182067871094e+00,-8.031646609306335449e-01,0.000000000000000000e+00,3.990000000000000000e+02
-5.576997693855769285e+02,-1.992770060166924964e+02,1.765498206216759627e+02,4.947571589950501220e+03,1.478520207443443724e+01,1.817575343986516600e+03,-1.118351247353316467e+02,-3.979360053219352267e+00,9.523238182067871094e+00,-8.031646609306335449e-01,0.000000000000000000e+00,4.000000000000000000e+02
-5.481983493487716714e+02,-1.976665080612526708e+02,1.723082355964379531e+02,4.869636814806863185e+03,1.104977625514334250e+01,1.796012149303011938e+03,-1.173762616929919886e+02,-6.773688096811952164e+00,9.523238182067871094e+00,-8.031646609306335449e-01,0.000000000000000000e+00,4.010000000000000000e+02
-5.399441334154273591e+02,-1.937194980237201207e+02,1.712003682449321786e+02,4.794836166928538660e+03,9.410673844162147361e+00,1.775571413931500501e+03,-1.184125254440662047e+02,-4.289974775359155501e+00,9.523238182067871094e+00,-8.031646609306335449e-01,0.000000000000000000e+00,4.020000000000000000e+02
-5.355256513677340990e+02,-1.896673330226458347e+02,1.726290871936926123e+02,4.720855381906663752e+03,9.602870843204300400e+00,1.755941742817234626e+03,-1.155310838249663448e+02,1.139032338361403163e+00,9.523238182067871094e+00,-8.031646609306335449e-01,0.000000000000000000e+00,4.030000000000000000e+02
-5.349212608246168656e+02,-1.872204740580775990e+02,1.753115120366030624e+02,4.647155238203640693e+03,1.063030301599405902e+01,1.736533298971455224e+03,-1.109062900752384166e+02,6.228278259097464797e+00,9.523238182067871094e+00,-8.031646609306335449e-01,0.000000000000000000e+00,4.040000000000000000e+02
-5.350530923737894682e+02,-1.864866665903440150e+02,1.780358748467128862e+02,4.576330942893127940e+03,1.161858156674043130e+01,1.716957450711376623e+03,-1.068327984821726204e+02,9.018141640402745907e+00,9.523238182067871094e+00,-8.031646609306335449e-01,0.000000000000000000e+00,4.050000000000000000e+02
-5.318132607665945670e+02,-1.862826647058154208e+02,1.800277365055721930e+02,4.511534179871361630e+03,1.240775900420408107e+01,1.697189198775708064e+03,-1.046765725884575886e+02,9.662250315778237564e+00,9.523238182067871094e+00,-8.031646609306335449e-01,0.000000000000000000e+00,4.060000000000000000e+02
-5.229683628340569612e+02,-1.853730450065627338e+02,1.809244543281438382e+02,4.452169712186841934e+03,1.348262100503643524e+01,1.677395605737411643e+03,-1.048284750038894799e+02,9.380465679721510242e+00,9.523238182067871094e+00,-8.031646609306335449e-01,0.000000000000000000e+00,4.070000000000000000e+02
-5.097132573339856663e+02,-1.833754283815855217e+02,1.806690223607224652e+02,4.393454833157678877e+03,1.537341568552164972e+01,1.657698857098470398e+03,-1.071377709003520522e+02,8.912718513641607387e+00,9.523238182067871094e+00,-8.031646609306335449e-01,0.000000000000000000e+00,4.080000000000000000e+02
-4.957878869801668316e+02,-1.806399252051263602e+02,1.794756558312110428e+02,4.331723455181292593e+03,1.805971731310955875e+01,1.638107601514829184e+03,-1.110724030726696583e+02,8.000917683645070611e+00,9.523238182067871094e+00,-8.031646609306335449e-01,0.000000000000000000e+00,4.090000000000000000e+02
-4.849654216803123745e+02,-1.775636572330361673e+02,1.777139155419372401e+02,4.269792716396785181e+03,2.086206564791018536e+01,1.618593038208943653e+03,-1.155520503338104845e+02,6.149611527856905013e+00,9.523238182067871094e+00,-8.031646609306335449e-01,0.000000000000000000e+00,4.100000000000000000e+02
-4.787686593891089615e+02,-1.742648272330070824e+02,1.756380793033015379e+02,4.215036699034022604e+03,2.293704235167274419e+01,1.599180945398179574e+03,-1.190387168827269306e+02,3.612362964136650589e+00,9.523238182067871094e+00,-8.031646609306335449e-01,0.000000000000000000e+00,4.110000000000000000e+02
-4.758647616389846462e+02,-1.708774436282807017e+02,1.732078635678037699e+02,4.170573356726225029e+03,2.398795537444038928e+01,1.579981434549330515e+03,-1.202122335331550858e+02,1.490332759468174118e+00,9.523238182067871094e+00,-8.031646609306335449e-01,0.000000000000000000e+00,4.120000000000000000e+02
-4.733139083082628531e+02,-1.677977745350934526e+02,1.703154937660171981e+02,4.129782887701101572e+03,2.456730747842698293e+01,1.561116341368278881e+03,-1.187063564684734729e+02,9.332468539677165609e-01,9.523238182067871094e+00,-8.031646609306335449e-01,0.000000000000000000e+00,4.130000000000000000e+02
-4.686112992410289735e+02,-1.653333056813569328e+02,1.673266982872387416e+02,4.082574126318892013e+03,2.563339199466736318e+01,1.542579688892119520e+03,-1.151643879592180610e+02,2.314812627283117763e+00,9.523238182067871094e+00,-8.031646609306335449e-01,0.000000000000000000e+00,4.140000000000000000e+02
-4.610733682952486561e+02,-1.631495068511937916e+02,1.653531122544363825e+02,4.027995171541502714e+03,2.767995658438530882e+01,1.524147303860940156e+03,-1.105625648921263746e+02,5.099057734057623748e+00,9.523238182067871094e+00,-8.031646609306335449e-01,0.000000000000000000e+00,4.150000000000000000e+02
-4.517422822429118696e+02,-1.604310521738666750e+02,1.657504600471811500e+02,3.977900938535096429e+03,3.023230054815621770e+01,1.505478397518380007e+03,-1.055570508185568315e+02,8.298114805554178020e+00,9.523238182067871094e+00,-8.031646609306335449e-01,-3.824593871831893921e-02,4.160000000000000000e+02
-4.421244287308179537e+02,-1.569109109086994351e+02,1.690608808123879498e+02,3.944357338987481853e+03,3.222910269952217277e+01,1.486418721326178456e+03,-1.005011630478678626e+02,1.096559896723874772e+01,9.523238182067871094e+00,-8.031646609306335449e-01,-3.824593871831893921e-02,4.170000000000000000e+02
-4.329364646371730032e+02,-1.537070821816574266e+02,1.742742625939768004e+02,3.923636213036485060e+03,3.296058671830041931e+01,1.467236202602568483e+03,-9.588798801132293192e+01,1.244958353600907230e+01,9.523238182067871094e+00,-8.031646609306335449e-01,-3.824593871831893921e-02,4.180000000000000000e+02
-4.238653433218582904e+02,-1.528044774751082571e+02,1.791869529600730857e+02,3.897251924369666085e+03,3.269549512467688146e+01,1.448489461430473966e+03,-9.245448490080912052e+01,1.256422216609814768e+01,9.523238182067871094e+00,-8.031646609306335449e-01,-3.824593871831893921e-02,4.190000000000000000e+02
-4.143521881243991629e+02,-1.553979796752556410e+02,1.817199227189903468e+02,3.852661272019331591e+03,3.243251455296513086e+01,1.430565618720298517e+03,-9.069266514277865099e+01,1.178691503476181879e+01,9.523238182067871094e+00,-8.031646609306335449e-01,-3.824593871831893921e-02,4.200000000000000000e+02
-4.044838829404545777e+02,-1.607048210208328953e+02,1.811836555841912286e+02,3.801097921990891336e+03,3.308905425617763285e+01,1.413325094605783306e+03,-9.036113889178488989e+01,1.122908962153655921e+01,9.523238182067871094e+00,-8.031646609306335449e-01,-3.824593871831893921e-02,4.210000000000000000e+02
-3.950863749817565349e+02,-1.665567616250192771e+02,1.785216615916683622e+02,3.768510323725453418e+03,3.495373843969218797e+01,1.396262408457998390e+03,-9.065163820722398214e+01,1.210979775368173250e+01,9.523238182067871094e+00,-8.031646609306335449e-01,-3.824593871831893921e-02,4.220000000000000000e+02
-3.870484237760413180e+02,-1.712399588226616913e+02,1.754386657768129680e+02,3.765385946535552648e+03,3.780360401651455504e+01,1.379028336868241240e+03,-9.084801943281604508e+01,1.497545893759433966e+01,9.523238182067871094e+00,-8.031646609306335449e-01,-3.824593871831893921e-02,4.230000000000000000e+02
-3.806619170357287203e+02,-1.746866053462342165e+02,1.732380897172979530e+02,3.769620060562245271e+03,4.137218055246239601e+01,1.361752231540909634e+03,-9.068869724995761317e+01,1.934730527619205986e+01,9.523238182067871094e+00,-8.031646609306335449e-01,-3.824593871831893921e-02,4.240000000000000000e+02
-3.755923859871197692e+02,-1.778220833838548742e+02,1.722903397822958595e+02,3.747024580271285231e+03,4.558052822092440692e+01,1.344812466821913404e+03,-9.007437299324953983e+01,2.416416889377592270e+01,9.523238182067871094e+00,-8.031646609306335449e-01,-3.824593871831893921e-02,4.250000000000000000e+02
-3.712907747748738529e+02,-1.809171671841645548e+02,1.723082087607981521e+02,3.691731139962705129e+03,5.035490190492919282e+01,1.328348065429906455e+03,-8.871031200701816033e+01,2.856556671985117646e+01,9.523238182067871094e+00,-8.031646609306335449e-01,-3.824593871831893921e-02,4.260000000000000000e+02
-3.672214311121019819e+02,-1.828831307147081873e+02,1.728934560516656802e+02,3.640175850476660344e+03,5.539110692968733929e+01,1.312114132608925502e+03,-8.639830196846594390e+01,3.223715769785826524e+01,9.523238182067871094e+00,-8.031646609306335449e-01,-3.824593871831893921e-02,4.270000000000000000e+02
-3.627608276544849559e+02,-1.823843332580187564e+02,1.737725657379826316e+02,3.635921882539441867e+03,6.020636773185583479e+01,1.295820116711988703e+03,-8.375848855672825266e+01,3.509195956079793177e+01,9.523238182067871094e+00,-8.031646609306335449e-01,-3.824593871831893921e-02,4.280000000000000000e+02
-3.571943810778411716e+02,-1.796032045046361532e+02,1.746932381198569146e+02,3.677346806870727960e+03,6.443656457132465221e+01,1.279500928316289901e+03,-8.233901544750972334e+01,3.683334931012882407e+01,9.523238182067871094e+00,-8.031646609306335449e-01,-3.824593871831893921e-02,4.290000000000000000e+02
-3.501318243391374381e+02,-1.767089271396629897e+02,1.753634355609988233e+02,3.705388075934068183e+03,6.802360482733297431e+01,1.263429865339110620e+03,-8.353826782517330685e+01,3.702006735350778399e+01,9.523238182067871094e+00,-8.031646609306335449e-01,-3.824593871831893921e-02,4.300000000000000000e+02
-3.419902884323009857e+02,-1.763983980336575996e+02,1.756290997675971539e+02,3.651186489653506214e+03,7.109397573405431103e+01,1.247692678947045351e+03,-8.719797663361009654e+01,3.556232687549299953e+01,9.523238182067871094e+00,-8.031646609306335449e-01,-3.824593871831893921e-02,4.310000000000000000e+02
-3.338513162044432647e+02,-1.798237270226185558e+02,1.756331271601043227e+02,3.499461425519863042e+03,7.368271257146352582e+01,1.232013217433017417e+03,-9.140664820064534979e+01,3.297907901912435591e+01,9.523238182067871094e+00,-8.031646609306335449e-01,-3.824593871831893921e-02,4.320000000000000000e+02
-3.266487559162437719e+02,-1.857292311631198345e+02,1.756191437831319035e+02,3.303478558325994527e+03,7.554091278270857401e+01,1.216099159426350525e+03,-9.393926855899621842e+01,3.003729473501039138e+01,9.523238182067871094e+00,-8.031646609306335449e-01,-3.824593871831893921e-02,4.330000000000000000e+02
-3.204956260072485748e+02,-1.913914727826121123e+02,1.755137932455475038e+02,3.135635812906686624e+03,7.616756139183280538e+01,1.200118843714871218e+03,-9.402759135268593127e+01,2.718404483354993317e+01,9.523238182067871094e+00,-8.031646609306335449e-01,-3.824593871831893921e-02,4.340000000000000000e+02
-3.149140516994573318e+02,-1.943612189250584663e+02,1.748182303137737108e+02,3.023678315506345825e+03,7.506941927982188645e+01,1.184702117017439377e+03,-9.268651284891302566e+01,2.449256326180864107e+01,9.523238182067871094e+00,-8.031646609306335449e-01,-3.824593871831893921e-02,4.350000000000000000e+02
-3.097081334771658021e+02,-1.936051711202843535e+02,1.730835117960575644e+02,2.935546533532165995e+03,7.216775018046655532e+01,1.170406177224931525e+03,-9.129983300633898580e+01,2.220579851245042846e+01,9.523238182067871094e+00,-8.031646609306335449e-01,-3.824593871831893921e-02,4.360000000000000000e+02
-3.053869549021637795e+02,-1.895421237598317816e+02,1.705365474833085955e+02,2.822568988673381682e+03,6.814116417658169667e+01,1.157229069150340365e+03,-9.000141550187424855e+01,2.115779247526995732e+01,9.523238182067871094e+00,-8.031646609306335449e-01,-3.824593871831893921e-02,4.370000000000000000e+02
-3.025451065605666372e+02,-1.834628975816461320e+02,1.680831529141007650e+02,2.671183083873485884e+03,6.432391379875070925e+01,1.144676915310825279e+03,-8.757783728128026723e+01,2.237400434414212214e+01,9.523238182067871094e+00,-8.031646609306335449e-01,-3.824593871831893921e-02,4.380000000000000000e+02
-3.008705410676952852e+02,-1.769906694142881634e+02,1.665188722627824518e+02,2.510357428071685717e+03,6.198614402899920606e+01,1.132279855615443012e+03,-8.295044967555395488e+01,2.606968404233577985e+01,9.523238182067871094e+00,-8.031646609306335449e-01,-3.824593871831893921e-02,4.390000000000000000e+02
-2.990439452721443558e+02,-1.717236814335835504e+02,1.657011045371225464e+02,2.374102781211899128e+03,6.138413822893244287e+01,1.119998397057333932e+03,-7.661768080322156038e+01,3.105764424293533921e+01,9.523238182067871094e+00,-8.031646609306335449e-01,-3.824593871831893921e-02,4.400000000000000000e+02
-2.959049556236409444e+02,-1.688245039341183826e+02,1.646288260267610895e+02,2.265271919665668975e+03,6.140164686630669166e+01,1.108165511468896511e+03,-7.050630044038939559e+01,3.527988805753182078e+01,9.408499717712402344e+00,-8.796565532684326172e-01,-7.649187743663787842e-02,4.410000000000000000e+02
-2.917515200319367068e+02,-1.685035265682352019e+02,1.625151497061929149e+02,2.158436882236903330e+03,6.031827994413879424e+01,1.097150464111604379e+03,-6.636444117373696372e+01,3.710869075095070002e+01,9.408499717712402344e+00,-8.796565532684326172e-01,-7.649187743663787842e-02,4.420000000000000000e+02
-2.883158876472866723e+02,-1.697600814523145232e+02,1.598145960817828382e+02,2.032444453748519663e+03,5.720270058877986230e+01,1.087101205622090674e+03,-6.431437309856187312e+01,3.630478154721504325e+01,9.408499717712402344e+00,-8.796565532684326172e-01,-7.649187743663787842e-02,4.430000000000000000e+02
-2.872121227993809498e+02,-1.708163696012641992e+02,1.580682745602102841e+02,1.892819239386444679e+03,5.273825011751682723e+01,1.077910063276913206e+03,-6.297453447447901453e+01,3.382540037047363057e+01,9.408499717712402344e+00,-8.796565532684326172e-01,-7.649187743663787842e-02,4.440000000000000000e+02
-2.882566365790801228e+02,-1.701661140646901345e+02,1.585813722688649250e+02,1.761399023745279919e+03,4.868664936331333593e+01,1.069288794773434347e+03,-6.093401586051663799e+01,3.077846896887422190e+01,9.408499717712402344e+00,-8.796565532684326172e-01,-7.649187743663787842e-02,4.450000000000000000e+02
-2.893250664868801323e+02,-1.675603925267331533e+02,1.611813022842620740e+02,1.650030515977690811e+03,4.641567685378731767e+01,1.060871620435034856e+03,-5.806053329425049014e+01,2.756576442173980013e+01,9.408499717712402344e+00,-8.796565532684326172e-01,-7.649187743663787842e-02,4.460000000000000000e+02
-2.879852656895598102e+02,-1.641019673737741016e+02,1.643019037197730086e+02,1.549669440526249673e+03,4.579596689599156889e+01,1.052401373440530733e+03,-5.536441075442849069e+01,2.398073522344964204e+01,9.408499717712402344e+00,-8.796565532684326172e-01,-7.649187743663787842e-02,4.470000000000000000e+02
-2.834617190343224138e+02,-1.612436225502199534e+02,1.663579564132194264e+02,1.444170108686300409e+03,4.538253114912208730e+01,1.043947923577381516e+03,-5.362861922072681864e+01,2.005490843254824540e+01,9.408499717712402344e+00,-8.796565532684326172e-01,-7.649187743663787842e-02,4.480000000000000000e+02
-2.771407307667373061e+02,-1.594503506127529135e+02,1.671111184296723877e+02,1.329204533701831679e+03,4.362492145575038194e+01,1.035948050809248343e+03,-5.225708994201409041e+01,1.669078756724411505e+01,9.408499717712402344e+00,-8.796565532684326172e-01,-7.649187743663787842e-02,4.490000000000000000e+02
-2.711881588010369342e+02,-1.576801769301999059e+02,1.677421040248473219e+02,1.214505708235079510e+03,4.000611337319128324e+01,1.028911937466486052e+03,-4.955082323658803034e+01,1.532871848904244416e+01,9.408499717712402344e+00,-8.796565532684326172e-01,-7.649187743663787842e-02,4.500000000000000000e+02
-2.665943391271507608e+02,-1.542702821313127686e+02,1.695909511601719259e+02,1.110245431705419833e+03,3.524164249002910765e+01,1.022999583910268484e+03,-4.424342090877325973e+01,1.678192347989727295e+01,9.408499717712402344e+00,-8.796565532684326172e-01,-7.649187743663787842e-02,4.510000000000000000e+02
-2.624481455603101949e+02,-1.485841970013498496e+02,1.727634755030576343e+02,1.015660951559641035e+03,3.058897834338176835e+01,1.017887637252588320e+03,-3.691613694697900883e+01,2.020184792738859869e+01,9.408499717712402344e+00,-8.796565532684326172e-01,-7.649187743663787842e-02,4.520000000000000000e+02
-2.570939482102197644e+02,-1.419245767650973846e+02,1.758636936982752559e+02,9.220857941277490681e+02,2.693196914141117304e+01,1.013056628154142345e+03,-2.995694968704572148e+01,2.317684702282963372e+01,9.408499717712402344e+00,-8.796565532684326172e-01,-7.649187743663787842e-02,4.530000000000000000e+02
-2.500286552112301024e+02,-1.367447959575819425e+02,1.770376356863982892e+02,8.239620464495055785e+02,2.428668688305515388e+01,1.008191207094163474e+03,-2.602017126919355405e+01,2.309391285318315568e+01,9.408499717712402344e+00,-8.796565532684326172e-01,-7.649187743663787842e-02,4.540000000000000000e+02
-2.427071179821674605e+02,-1.347059218474379065e+02,1.753831927771616392e+02,7.238072101519974240e+02,2.194278727690789310e+01,1.003285093198765935e+03,-2.625707350618353075e+01,1.882308497505130163e+01,9.408499717712402344e+00,-8.796565532684326172e-01,-7.649187743663787842e-02,4.550000000000000000e+02
-2.374434863144649626e+02,-1.352537931936542179e+02,1.715876899205923110e+02,6.271555216028573341e+02,1.902698700805581211e+01,9.984292255008394932e+02,-2.972313217623752735e+01,1.145794055342378215e+01,9.408499717712402344e+00,-8.796565532684326172e-01,-7.649187743663787842e-02,4.560000000000000000e+02
-2.353736852027501527e+02,-1.360157733770352593e+02,1.674112805045633650e+02,5.356241350487471209e+02,1.511169986504046392e+01,9.936419235584098715e+02,-3.429597237003389409e+01,3.559797604466211851e+00,9.408499717712402344e+00,-8.796565532684326172e-01,-7.649187743663787842e-02,4.570000000000000000e+02
-2.353745161588025212e+02,-1.346597184718775111e+02,1.645459188509171327e+02,4.465438115473871221e+02,1.049328962655840769e+01,9.889531743111438118e+02,-3.815500884396311676e+01,-2.456690774465300819e+00,9.408499717712402344e+00,-8.796565532684326172e-01,-7.649187743663787842e-02,4.580000000000000000e+02
-2.349608757384730779e+02,-1.306241911349916336e+02,1.637032583022137260e+02,3.578129690059222412e+02,5.992134504356954494e+00,9.845520954458806955e+02,-4.063846499409646640e+01,-5.572531758102741151e+00,9.408499717712402344e+00,-8.796565532684326172e-01,-7.649187743663787842e-02,4.590000000000000000e+02
-2.323108702697135186e+02,-1.253425796010521509e+02,1.644575183183051195e+02,2.706783263406223341e+02,2.457420817822139725e+00,9.806890708274277131e+02,-4.206912350865877670e+01,-6.266027084678853498e+00,9.408499717712402344e+00,-8.796565532684326172e-01,-7.649187743663787842e-02,4.600000000000000000e+02
-2.275177947390004647e+02,-1.209977225679404569e+02,1.657730918232000477e+02,1.874516653797136314e+02,3.707546795192229183e-01,9.773801186558057452e+02,-4.307618256904851251e+01,-5.712183830777348703e+00,9.408499717712402344e+00,-8.796565532684326172e-01,-7.649187743663787842e-02,4.610000000000000000e+02
-2.219934388605113327e+02,-1.189840387950790586e+02,1.667506482908615908e+02,1.079774500856510713e+02,-1.855236581850476796e-01,9.743050548837854876e+02,-4.408462613557338727e+01,-4.928113452511865944e+00,9.408499717712402344e+00,-8.796565532684326172e-01,-7.649187743663787842e-02,4.620000000000000000e+02
-2.168165300287134869e+02,-1.191711618109154642e+02,1.671165361685139032e+02,2.968564158821391175e+01,6.684856388774278457e-01,9.710932921289113438e+02,-4.511873501193645097e+01,-4.427044815747990469e+00,9.408499717712402344e+00,-8.796565532684326172e-01,-7.649187743663787842e-02,4.630000000000000000e+02
-2.117682430554959865e+02,-1.202062904227903033e+02,1.672506678973202270e+02,-4.926004364520849776e+01,2.731334591966970038e+00,9.677252100858404447e+02,-4.572888315481390009e+01,-4.281778195299750678e+00,9.408499717712402344e+00,-8.796565532684326172e-01,-7.649187743663787842e-02,4.640000000000000000e+02
-2.059344473350316775e+02,-1.203754002704677930e+02,1.678577131247523084e+02,-1.280095890409438653e+02,5.660837818248637632e+00,9.645907623098837576e+02,-4.501069502608061157e+01,-4.202801649690570684e+00,9.408499717712402344e+00,-8.796565532684326172e-01,-7.649187743663787842e-02,4.650000000000000000e+02
-1.990449782683436979e+02,-1.184521513121817406e+02,1.695695652018023338e+02,-2.042489513836280821e+02,8.956783905513930222e+00,9.621271829772358615e+02,-4.195547054669134468e+01,-3.528539702735770334e+00,9.408499717712402344e+00,-8.796565532684326172e-01,-7.649187743663787842e-02,4.660000000000000000e+02
-1.920012317222906404e+02,-1.142191816624783200e+02,1.727107449336479021e+02,-2.766817832468423148e+02,1.219084128581653204e+01,9.604424285511663584e+02,-3.616346463154485491e+01,-1.396235736760672808e+00,9.408499717712402344e+00,-8.796565532684326172e-01,-7.649187743663787842e-02,4.670000000000000000e+02
-1.860365405416937392e+02,-1.084730795997469670e+02,1.772521129046989472e+02,-3.458383620950335171e+02,1.529012572264082337e+01,9.592952984977700908e+02,-2.836372535419377527e+01,2.752750971757052412e+00,9.484992027282714844e+00,-9.561483860015869141e-01,-7.649187743663787842e-02,4.680000000000000000e+02
-1.814399811562996092e+02,-1.024404139334225903e+02,1.828667819659215183e+02,-4.129850257322268590e+02,1.850555643146208240e+01,9.583869179258717850e+02,-2.009457519746325715e+01,8.632654508064092624e+00,9.484992027282714844e+00,-9.561483860015869141e-01,-7.649187743663787842e-02,4.690000000000000000e+02
-1.772053388563508634e+02,-9.687985597168818686e+01,1.890282195409872656e+02,-4.789978763820063250e+02,2.202438447253916820e+01,9.575944173839661744e+02,-1.262565378054222265e+01,1.508235898229474969e+01,9.484992027282714844e+00,-9.561483860015869141e-01,-7.649187743663787842e-02,4.700000000000000000e+02
-1.719524711690442018e+02,-9.155475054917157252e+01,1.951632787315506903e+02,-5.440444368669986943e+02,2.564663608311366261e+01,9.569377882543694795e+02,-6.103162980419710948e+00,2.068732051273588013e+01,9.484992027282714844e+00,-9.561483860015869141e-01,-7.649187743663787842e-02,4.710000000000000000e+02
-1.651989531783764278e+02,-8.563339952473880601e+01,2.008563818538938222e+02,-6.076856656017234855e+02,2.893377083004679662e+01,9.564273786195685716e+02,1.763031553447831357e-01,2.459214146379986232e+01,9.484992027282714844e+00,-9.561483860015869141e-01,-7.649187743663787842e-02,4.720000000000000000e+02
-1.578312064086719602e+02,-7.872090004673066232e+01,2.060034424643146167e+02,-6.688972284153728651e+02,3.168459818707583509e+01,9.559973820557243016e+02,6.669540732328329113e+00,2.690703113893272302e+01,9.484992027282714844e+00,-9.561483860015869141e-01,-7.649187743663787842e-02,4.730000000000000000e+02
-1.514228144340701192e+02,-7.152993323327574160e+01,2.107853350903307046e+02,-7.266218813082195993e+02,3.419924675004540404e+01,9.555598195984334779e+02,1.289119839721715266e+01,2.846645266779137273e+01,9.484992027282714844e+00,-9.561483860015869141e-01,-7.649187743663787842e-02,4.740000000000000000e+02
-1.470183627962957189e+02,-6.545717890559308216e+01,2.154511136526788277e+02,-7.812830759968192069e+02,3.702610589541416175e+01,9.550558272792104617e+02,1.792328977705628290e+01,3.023035076348742223e+01,9.484992027282714844e+00,-9.561483860015869141e-01,-7.649187743663787842e-02,4.750000000000000000e+02
-1.443147039728926870e+02,-6.141935950604974437e+01,2.200740186656577180e+02,-8.353823805265674309e+02,4.049386771570016208e+01,9.544758680241629918e+02,2.155199878389421997e+01,3.277887478729184068e+01,9.484992027282714844e+00,-9.561483860015869141e-01,-7.649187743663787842e-02,4.760000000000000000e+02
-1.417981317740513987e+02,-5.907953427618107867e+01,2.244946049890679660e+02,-8.916380504364096851e+02,4.452571062774018174e+01,9.539280850550539981e+02,2.466655844266813347e+01,3.612326609197350535e+01,9.484992027282714844e+00,-9.561483860015869141e-01,-7.649187743663787842e-02,4.770000000000000000e+02
-1.378302987010271750e+02,-5.719916819854188361e+01,2.284799343323172138e+02,-9.498602224328751618e+02,4.876914603585942132e+01,9.536853163907601356e+02,2.833456383626312913e+01,3.978283023775662741e+01,9.484992027282714844e+00,-9.561483860015869141e-01,-7.649187743663787842e-02,4.780000000000000000e+02
-1.320651852757236497e+02,-5.471939918529515978e+01,2.319109840444138513e+02,-1.006303888355228082e+03,5.269985158802006708e+01,9.540298414373828564e+02,3.249122486566628254e+01,4.299420794224226938e+01,9.484992027282714844e+00,-9.561483860015869141e-01,-7.649187743663787842e-02,4.790000000000000000e+02
-1.261690545733972328e+02,-5.148414408822122823e+01,2.347755598160782711e+02,-1.056716334428732807e+03,5.555379344849325207e+01,9.548729411390559108e+02,3.578456696721158892e+01,4.501115672144916857e+01,9.484992027282714844e+00,-9.561483860015869141e-01,-7.649187743663787842e-02,4.800000000000000000e+02
-1.230019811452978615e+02,-4.800777120296324085e+01,2.369643266364387273e+02,-1.100124024992925115e+03,5.642040059965984256e+01,9.555085462016647853e+02,3.696188987618901933e+01,4.546874133081635705e+01,9.484992027282714844e+00,-9.561483860015869141e-01,-7.649187743663787842e-02,4.810000000000000000e+02
-1.244787111069621801e+02,-4.474018401083330332e+01,2.380767715950090633e+02,-1.139424032638334211e+03,5.480505666536760145e+01,9.549168003273409795e+02,3.644884205801042754e+01,4.464479049212322082e+01,9.484992027282714844e+00,-9.561483860015869141e-01,-7.649187743663787842e-02,4.820000000000000000e+02
-1.296774082945643158e+02,-4.165786911559706596e+01,2.374848114231721468e+02,-1.178475484257926382e+03,5.129215235195863443e+01,9.524907573265327301e+02,3.643455030736586764e+01,4.342775492597230880e+01,9.484992027282714844e+00,-9.561483860015869141e-01,-7.649187743663787842e-02,4.830000000000000000e+02
-1.349827295432341430e+02,-3.851767729582033439e+01,2.347110753077926404e+02,-1.219040089561558489e+03,4.750630021171312478e+01,9.485304062457298642e+02,3.913820721996331287e+01,4.291496742404497411e+01,9.484992027282714844e+00,-9.561483860015869141e-01,-7.649187743663787842e-02,4.840000000000000000e+02
-1.364995442872704530e+02,-3.531269555829383933e+01,2.298876858670024887e+02,-1.260632907447656635e+03,4.510660866353148890e+01,9.439682153207024840e+02,4.477879373843019550e+01,4.384174050828116975e+01,9.484992027282714844e+00,-9.561483860015869141e-01,-7.649187743663787842e-02,4.850000000000000000e+02
-1.328190600759871245e+02,-3.232611871357860878e+01,2.239498447379202730e+02,-1.302536700165371258e+03,4.463359818240001431e+01,9.395705017872787721e+02,5.117095819424792325e+01,4.621372341939171235e+01,9.484992027282714844e+00,-9.561483860015869141e-01,-7.649187743663787842e-02,4.860000000000000000e+02
-1.256626649484856557e+02,-2.975765477151611549e+01,2.183626396681801225e+02,-1.344934431366019453e+03,4.534962916974814107e+01,9.354377409791734408e+02,5.539362634031599697e+01,4.939100223561702308e+01,9.484992027282714844e+00,-9.561483860015869141e-01,-7.649187743663787842e-02,4.870000000000000000e+02
-1.178261635496871236e+02,-2.740688300914671061e+01,2.144722716978281483e+02,-1.388011235274826504e+03,4.623517354482711994e+01,9.312853937000370479e+02,5.610651691205590907e+01,5.259132510751638279e+01,9.484992027282714844e+00,-9.561483860015869141e-01,-7.649187743663787842e-02,4.880000000000000000e+02
-1.104253754793562621e+02,-2.481024034134205181e+01,2.128716425771786476e+02,-1.430718997335540280e+03,4.709968950342442895e+01,9.271173745098656127e+02,5.451043669464341690e+01,5.546131394931055070e+01,9.484992027282714844e+00,-9.561483860015869141e-01,-7.649187743663787842e-02,4.890000000000000000e+02
-1.021581096204957930e+02,-2.167192451397991704e+01,2.132002788650279399e+02,-1.471251790098933270e+03,4.865272169413628944e+01,9.234568289051476313e+02,5.319510021100410313e+01,5.827073926175268070e+01,9.484992027282714844e+00,-9.561483860015869141e-01,-7.649187743663787842e-02,4.900000000000000000e+02
-9.127862669085436664e+01,-1.809471019675540049e+01,2.145243770348632779e+02,-1.508726072043520617e+03,5.156217575568604161e+01,9.208389968667561334e+02,5.400914979092939916e+01,6.156492414355500387e+01,9.484992027282714844e+00,-9.561483860015869141e-01,-7.649187743663787842e-02,4.910000000000000000e+02
-7.818649752479620929e+01,-1.438413819207130473e+01,2.160421819748793837e+02,-1.543836293789893716e+03,5.562845817311119845e+01,9.191463113359595809e+02,5.683050932860658122e+01,6.555667848267273712e+01,9.484992027282714844e+00,-9.561483860015869141e-01,-7.649187743663787842e-02,4.920000000000000000e+02
-6.588579811245199380e+01,-1.067908094038064348e+01,2.175858822248046067e+02,-1.577766388893024669e+03,5.995219040721372039e+01,9.175450657601813873e+02,6.014823045940056545e+01,6.979817606062215418e+01,9.484992027282714844e+00,-9.561483860015869141e-01,-7.649187743663787842e-02,4.930000000000000000e+02
-5.769725847064069058e+01,-6.883038352358028078e+00,2.195445663445800619e+02,-1.610858935993297109e+03,6.381996028547212063e+01,9.151557184591783880e+02,6.265103937841979587e+01,7.345478328245025068e+01,9.484992027282714844e+00,-9.561483860015869141e-01,-7.649187743663787842e-02,4.940000000000000000e+02
-5.436997171760935998e+01,-2.985449563215354374e+00,2.223137840441874005e+02,-1.642692610992418849e+03,6.725524743989399212e+01,9.118160901658970943e+02,6.424435848346564626e+01,7.598735826665796367e+01,9.484992027282714844e+00,-9.561483860015869141e-01,-7.649187743663787842e-02,4.950000000000000000e+02
-5.335237091113583574e+01,6.232814634843037993e-01,2.257729635265310435e+02,-1.673112176167113830e+03,7.068932140270476339e+01,9.082346629943399421e+02,6.569809130270442665e+01,7.765804270765636375e+01,9.484992027282714844e+00,-9.561483860015869141e-01,-7.649187743663787842e-02,4.960000000000000000e+02
-5.091313178356938351e+01,3.308391138958839406e+00,2.292649695103045815e+02,-1.702557996718802315e+03,7.427973061969191804e+01,9.054557325673954438e+02,6.758024433850971491e+01,7.941036555096070515e+01,9.484992027282714844e+00,-9.561483860015869141e-01,-7.649187743663787842e-02,4.970000000000000000e+02
-4.521002554969834364e+01,4.809087376065861008e+00,2.320716276338822581e+02,-1.731396051065467873e+03,7.766915005211012613e+01,9.041206192857353017e+02,6.974530490111766312e+01,8.220452839009709578e+01,9.484992027282714844e+00,-9.561483860015869141e-01,-7.649187743663787842e-02,4.980000000000000000e+02
-3.766076762573584347e+01,5.705815040074924127e+00,2.339349029442551000e+02,-1.759386332701969877e+03,8.036325984350037288e+01,9.040873002704993269e+02,7.180779744870875447e+01,8.630766798459865186e+01,9.446745872497558594e+00,-1.032640218734741211e+00,-1.147378161549568176e-01,4.990000000000000000e+02
-3.163948721102963191e+01,7.147937979387620544e+00,2.351475652416438606e+02,-1.786159851911475016e+03,8.218106348075730239e+01,9.045847476988737981e+02,7.383539448872090816e+01,9.104712243422397933e+01,9.446745872497558594e+00,-1.032640218734741211e+00,-1.147378161549568176e-01,5.000000000000000000e+02
-2.982025056998838863e+01,9.934583545245800451e+00,2.361561547445580800e+02,-1.811854462901996158e+03,8.326439781798262629e+01,9.047056152168515837e+02,7.629105638993405591e+01,9.515652492491130943e+01,9.446745872497558594e+00,-1.032640218734741211e+00,-1.147378161549568176e-01,5.010000000000000000e+02
-3.236773011749244233e+01,1.375295973164247698e+01,2.370875703988326677e+02,-1.836753884895291776e+03,8.376234606819502915e+01,9.039091728636876724e+02,7.926414892472962492e+01,9.746088437774142221e+01,9.446745872497558594e+00,-1.032640218734741211e+00,-1.147378161549568176e-01,5.020000000000000000e+02
-3.717479168555655633e+01,1.741612685869415600e+01,2.376918502865466962e+02,-1.860504673821424149e+03,8.364347636553816301e+01,9.022302619831925767e+02,8.208192777333306367e+01,9.756179651435672895e+01,9.446745872497558594e+00,-1.032640218734741211e+00,-1.147378161549568176e-01,5.030000000000000000e+02
-4.154494960642296064e+01,1.999993981534422005e+01,2.377822419404071752e+02,-1.882318773030932789e+03,8.285620070902700718e+01,9.000914698942542600e+02,8.399141110855987336e+01,9.618659570777958834e+01,9.446745872497558594e+00,-1.032640218734741211e+00,-1.147378161549568176e-01,5.040000000000000000e+02
-4.380161756733809852e+01,2.184013444288916617e+01,2.377244941089170425e+02,-1.902303789312041772e+03,8.158927635992858995e+01,8.978711070840026878e+02,8.523653348950529107e+01,9.495626992858069571e+01,9.446745872497558594e+00,-1.032640218734741211e+00,-1.147378161549568176e-01,5.050000000000000000e+02
-4.375835456508252719e+01,2.437129458915211444e+01,2.383933000970259855e+02,-1.922029858559675631e+03,8.030030607020853495e+01,8.955939900891671641e+02,8.713709386072468988e+01,9.554338279538899315e+01,9.446745872497558594e+00,-1.032640218734741211e+00,-1.147378161549568176e-01,5.060000000000000000e+02
-4.212372642022887703e+01,2.887466008869733969e+01,2.404823269847463507e+02,-1.942965545762715919e+03,7.949590592017239032e+01,8.930317795578657751e+02,9.076785419299858404e+01,9.861589519314372865e+01,9.446745872497558594e+00,-1.032640218734741211e+00,-1.147378161549568176e-01,5.070000000000000000e+02
-3.969266691783786882e+01,3.532155634409002687e+01,2.437640759019777761e+02,-1.964385097464011778e+03,7.946646542600046814e+01,8.900869042790918684e+02,9.558579891146575847e+01,1.033366897262816337e+02,9.446745872497558594e+00,-1.032640218734741211e+00,-1.147378161549568176e-01,5.080000000000000000e+02
-3.698622149021616679e+01,4.236657368657847655e+01,2.471250248454468874e+02,-1.983573281627397591e+03,8.016015873689411819e+01,8.870407725649492932e+02,9.966421019416088711e+01,1.079320522784995546e+02,9.446745872497558594e+00,-1.032640218734741211e+00,-1.147378161549568176e-01,5.090000000000000000e+02
-3.432588441041070837e+01,4.842357730596569354e+01,2.495998099287960486e+02,-1.998749451098725331e+03,8.121849015186899123e+01,8.843662640046641172e+02,1.015879735734272344e+02,1.110335696727959203e+02,9.446745872497558594e+00,-1.032640218734741211e+00,-1.147378161549568176e-01,5.100000000000000000e+02
-3.191660949750826148e+01,5.275155363055034741e+01,2.516160821213247800e+02,-2.011492182632018739e+03,8.215740402927440300e+01,8.822769327933838213e+02,1.021071841048134274e+02,1.127649157411660781e+02,9.446745872497558594e+00,-1.032640218734741211e+00,-1.147378161549568176e-01,5.110000000000000000e+02
-2.972766185224918445e+01,5.559337523810393122e+01,2.551497713556400413e+02,-2.025491529283483032e+03,8.268345541313510694e+01,8.804896041730680736e+02,1.035850968201631304e+02,1.146043649689602262e+02,9.446745872497558594e+00,-1.032640218734741211e+00,-1.147378161549568176e-01,5.120000000000000000e+02
-2.740132869183480580e+01,5.754641691084816557e+01,2.622205856429991400e+02,-2.042719279604916665e+03,8.299097373615359174e+01,8.784293161340028746e+02,1.075587580532987886e+02,1.180989399966888413e+02,9.446745872497558594e+00,-1.032640218734741211e+00,-1.147378161549568176e-01,5.130000000000000000e+02
-2.445489004405089872e+01,5.903645528888159788e+01,2.726988752379752441e+02,-2.061251362413435345e+03,8.376669262883979172e+01,8.756442784884002322e+02,1.128363517000559568e+02,1.235263423214314571e+02,9.446745872497558594e+00,-1.032640218734741211e+00,-1.147378161549568176e-01,5.140000000000000000e+02
-2.066269066851418756e+01,6.041388806798227051e+01,2.833607107638545131e+02,-2.077266342182341759e+03,8.576944629349645766e+01,8.720317042717852019e+02,1.162282999211121250e+02,1.296541461811691534e+02,9.446745872497558594e+00,-1.032640218734741211e+00,-1.147378161549568176e-01,5.150000000000000000e+02
-1.618076506028910444e+01,6.227921373803212646e+01,2.893961130586335457e+02,-2.088912165410598391e+03,8.924572286774673557e+01,8.677523518087455159e+02,1.154033270270670073e+02,1.347239973964992714e+02,9.446745872497558594e+00,-1.032640218734741211e+00,-1.147378161549568176e-01,5.160000000000000000e+02
-1.123472268284422171e+01,6.532764846562582761e+01,2.875645619978531613e+02,-2.097724339551452431e+03,9.368485100575207980e+01,8.630488375974218798e+02,1.111484604183713145e+02,1.377125561058458061e+02,9.446745872497558594e+00,-1.032640218734741211e+00,-1.147378161549568176e-01,5.170000000000000000e+02
-5.803508550563947210e+00,6.969458461517422165e+01,2.785938654721385319e+02,-2.106454564663155907e+03,9.812973212867018447e+01,8.581425227441504830e+02,1.068455575503205637e+02,1.388059265954084367e+02,9.446745872497558594e+00,-1.032640218734741211e+00,-1.147378161549568176e-01,5.180000000000000000e+02
2.020386723488627467e-01,7.449857232067563473e+01,2.668118801123600861e+02,-2.116208610645786393e+03,1.017567418436697153e+02,8.531801705932230107e+02,1.056357056067708982e+02,1.388459302927280987e+02,9.446745872497558594e+00,-1.032640218734741211e+00,-1.147378161549568176e-01,5.190000000000000000e+02
6.350954171520697855e+00,7.819475967213429612e+01,2.572077522577719719e+02,-2.126156477243075642e+03,1.042175948567655723e+02,8.481518226095286082e+02,1.078989264532719972e+02,1.384376813043663788e+02,9.484992027282714844e+00,-8.796565532684326172e-01,-3.824593871831893921e-02,5.200000000000000000e+02
1.145141924842300796e+01,7.950848368193157967e+01,2.522315725309972549e+02,-2.135473292352900899e+03,1.055297651946029873e+02,8.428773233547362906e+02,1.112127384155101026e+02,1.375480224240575353e+02,9.484992027282714844e+00,-8.796565532684326172e-01,-3.824593871831893921e-02,5.210000000000000000e+02
1.424853601025415628e+01,7.811278053217142769e+01,2.507624975236626597e+02,-2.144516582920979999e+03,1.057669069656813008e+02,8.372156627309886971e+02,1.125325175428711191e+02,1.357830664711614190e+02,9.484992027282714844e+00,-8.796565532684326172e-01,-3.824593871831893921e-02,5.220000000000000000e+02
1.458281847315720370e+01,7.454329999757078440e+01,2.497321031983037756e+02,-2.153839261902117869e+03,1.049077662995350693e+02,8.313478482724312926e+02,1.104676673065655450e+02,1.328833108809187706e+02,9.484992027282714844e+00,-8.796565532684326172e-01,-3.824593871831893921e-02,5.230000000000000000e+02
1.383290220877825050e+01,6.962016372980986034e+01,2.467460838667725511e+02,-2.162622622984650661e+03,1.029721235158658601e+02,8.257639256090260460e+02,1.058043122890740051e+02,1.289205379366853776e+02,9.484992027282714844e+00,-8.796565532684326172e-01,-3.824593871831893921e-02,5.240000000000000000e+02
1.398991074935111101e+01,6.403459379077588665e+01,2.415337255115882726e+02,-2.169630347316480766e+03,1.002696111114655650e+02,8.207992883394981618e+02,1.003095886066903404e+02,1.241382384104160792e+02,9.484992027282714844e+00,-8.796565532684326172e-01,-3.824593871831893921e-02,5.250000000000000000e+02
1.606603808470345029e+01,5.839357208248202369e+01,2.354356522000862242e+02,-2.172599409902159096e+03,9.752534930297679239e+01,8.161332033121325367e+02,9.529217898787828744e+01,1.187849695269369477e+02,9.484992027282714844e+00,-8.796565532684326172e-01,-3.824593871831893921e-02,5.260000000000000000e+02
1.929960509160355286e+01,5.342160185791226468e+01,2.298863814873407136e+02,-2.171774003773854929e+03,9.574459889727677364e+01,8.108720236670815211e+02,9.117897988265804088e+01,1.132075712531016052e+02,9.484992027282714844e+00,-8.796565532684326172e-01,-3.824593871831893921e-02,5.270000000000000000e+02
2.189831091261203255e+01,4.991945849789442491e+01,2.253843249496339922e+02,-2.168586763131806947e+03,9.577748089009401156e+01,8.042853046806158090e+02,8.807572379274188279e+01,1.080622486100687638e+02,9.484992027282714844e+00,-8.796565532684326172e-01,-3.824593871831893921e-02,5.280000000000000000e+02
2.261095958786427218e+01,4.842739579189378674e+01,2.215772036122043573e+02,-2.164476542257107212e+03,9.772637211670644319e+01,7.965302733086100488e+02,8.629042528486820629e+01,1.042227583707035592e+02,9.484992027282714844e+00,-8.796565532684326172e-01,-3.824593871831893921e-02,5.290000000000000000e+02
2.165657354989343730e+01,4.888832570011709322e+01,2.179258830425033011e+02,-2.160589873621334846e+03,1.005692823570116161e+02,7.886028255259407160e+02,8.610931149615589675e+01,1.022323785138942185e+02,9.484992027282714844e+00,-8.796565532684326172e-01,-3.824593871831893921e-02,5.300000000000000000e+02
2.027532363833324780e+01,5.061522260765173087e+01,2.141380756493063018e+02,-2.158132253731480887e+03,1.024627716809536651e+02,7.815143833768852346e+02,8.715771223055298833e+01,1.017068834495948977e+02,9.484992027282714844e+00,-8.796565532684326172e-01,-3.824593871831893921e-02,5.310000000000000000e+02
1.954791074276818108e+01,5.260224299044693907e+01,2.101577542596578496e+02,-2.158051806108163873e+03,1.017748701747168525e+02,7.755019486801829771e+02,8.823925455330413570e+01,1.013406821039607166e+02,9.484992027282714844e+00,-8.796565532684326172e-01,-3.824593871831893921e-02,5.320000000000000000e+02
1.964771432967427245e+01,5.404091888097855190e+01,2.060597609950355036e+02,-2.160038976472191280e+03,9.819640333405459387e+01,7.700121197733387817e+02,8.810967769137550931e+01,9.978609373006474925e+01,9.484992027282714844e+00,-8.796565532684326172e-01,-3.824593871831893921e-02,5.330000000000000000e+02
2.002989665909535688e+01,5.477839696848946005e+01,2.021245659841733868e+02,-2.162190747791479225e+03,9.300666647758043837e+01,7.643954521410232701e+02,8.658353034285914873e+01,9.682117848054122078e+01,9.484992027282714844e+00,-8.796565532684326172e-01,-3.824593871831893921e-02,5.340000000000000000e+02
2.006928165299177635e+01,5.538117000575130078e+01,1.988923400655803562e+02,-2.162289854920789367e+03,8.815727634185168426e+01,7.585505308644969773e+02,8.485813056113511266e+01,9.373206741854846769e+01,9.484992027282714844e+00,-8.796565532684326172e-01,-3.824593871831893921e-02,5.350000000000000000e+02
1.942310515491499245e+01,5.662635868598795241e+01,1.968753274486143710e+02,-2.159576026568924135e+03,8.489066622618429392e+01,7.529130279685159621e+02,8.458481808130432000e+01,9.239210412818010809e+01,9.484992027282714844e+00,-8.796565532684326172e-01,-3.824593871831893921e-02,5.360000000000000000e+02
1.797455670498584368e+01,5.870834966838060609e+01,1.960677642939917860e+02,-2.155069155245801085e+03,8.308883037539635552e+01,7.479398685421620030e+02,8.646620341371180984e+01,9.372667450860853933e+01,9.484992027282714844e+00,-8.796565532684326172e-01,-3.824593871831893921e-02,5.370000000000000000e+02
1.575815566132587264e+01,6.086246762616826800e+01,1.958023974293364518e+02,-2.150285181551953428e+03,8.186742472136029392e+01,7.436835342710473924e+02,8.972343890746287798e+01,9.696677836052140265e+01,9.484992027282714844e+00,-8.796565532684326172e-01,-3.824593871831893921e-02,5.380000000000000000e+02
1.317751326558754954e+01,6.186533111377571004e+01,1.952841982299896699e+02,-2.145972608871081320e+03,8.074928103462661966e+01,7.398528476713363489e+02,9.290704898849480742e+01,1.003978057994213486e+02,9.484992027282714844e+00,-8.796565532684326172e-01,-3.824593871831893921e-02,5.390000000000000000e+02
1.126567253177381644e+01,6.110190866091920725e+01,1.944040282770520207e+02,-2.142175029596241075e+03,8.024566003363906930e+01,7.362062607478474092e+02,9.518993376714706756e+01,1.028856560339709176e+02,9.484992027282714844e+00,-8.796565532684326172e-01,-3.824593871831893921e-02,5.400000000000000000e+02
1.146021134489637916e+01,5.923087292025843453e+01,1.939947405434140819e+02,-2.138936992945651582e+03,8.133147667508274026e+01,7.328391364259805414e+02,9.680280456091441010e+01,1.046706903602771490e+02,9.484992027282714844e+00,-8.796565532684326172e-01,-3.824593871831893921e-02,5.410000000000000000e+02
1.476785060776364844e+01,5.771535043639664764e+01,1.951152735482555727e+02,-2.136362394243107701e+03,8.439454279817982751e+01,7.301019189881299098e+02,9.822882796976364261e+01,1.066731935830125622e+02,9.484992027282714844e+00,-8.796565532684326172e-01,-3.824593871831893921e-02,5.420000000000000000e+02
2.084600265460358059e+01,5.756795086328736488e+01,1.979042673570183979e+02,-2.134070953137459583e+03,8.867649789757888357e+01,7.282394033738019061e+02,9.918988521491792199e+01,1.091312027535664129e+02,9.484992027282714844e+00,-8.796565532684326172e-01,-3.824593871831893921e-02,5.430000000000000000e+02
2.783264366083221830e+01,5.851759836799078585e+01,2.011211166174853133e+02,-2.131272506110515678e+03,9.269281032834805956e+01,7.270728511310408066e+02,9.872548881613602134e+01,1.111104168451711303e+02,9.484992027282714844e+00,-8.796565532684326172e-01,-3.824593871831893921e-02,5.440000000000000000e+02
3.324014351514597365e+01,5.940185504528085403e+01,2.028949802465567700e+02,-2.127749483892657736e+03,9.517490808428374294e+01,7.259744167980679777e+02,9.636780532981993019e+01,1.114225932327590272e+02,9.446745872497558594e+00,-9.179025292396545410e-01,-7.649187743663787842e-02,5.450000000000000000e+02
3.536157899394402193e+01,5.932937150887357802e+01,2.020489479286907226e+02,-2.124426531826298742e+03,9.570490761656401446e+01,7.241879360496095615e+02,9.303355997231301444e+01,1.098838224929290845e+02,9.446745872497558594e+00,-9.179025292396545410e-01,-7.649187743663787842e-02,5.460000000000000000e+02
3.416926743144449574e+01,5.840774557578458825e+01,1.988150989245950768e+02,-2.122292930820236506e+03,9.462311561230853840e+01,7.212963755526870955e+02,9.043187191869901653e+01,1.074837021048811039e+02,9.446745872497558594e+00,-9.179025292396545410e-01,-7.649187743663787842e-02,5.470000000000000000e+02
3.103582059320888220e+01,5.739801800129021103e+01,1.943612978916953580e+02,-2.120829252200353949e+03,9.244997717284422833e+01,7.174669372627831763e+02,8.944734277572479186e+01,1.053243801936660020e+02,9.446745872497558594e+00,-9.179025292396545410e-01,-7.649187743663787842e-02,5.480000000000000000e+02
2.755259563951040036e+01,5.682352318148878112e+01,1.897284220083001856e+02,-2.118089609212402138e+03,8.941533095243357820e+01,7.132568036789161852e+02,8.921059873351214264e+01,1.036130684525533070e+02,9.446745872497558594e+00,-9.179025292396545410e-01,-7.649187743663787842e-02,5.490000000000000000e+02
2.444010127978890523e+01,5.656859922514036043e+01,1.852703726288482358e+02,-2.112813064279063838e+03,8.545797698148453492e+01,7.091213488959911047e+02,8.797758422943979895e+01,1.019072290911853997e+02,9.446745872497558594e+00,-9.179025292396545410e-01,-7.649187743663787842e-02,5.500000000000000000e+02
2.142974234524081112e+01,5.631490710495950225e+01,1.810220125335254124e+02,-2.106060007744563336e+03,8.060666633270193415e+01,7.050800625664414838e+02,8.500051599581820483e+01,1.002628273083105341e+02,9.446745872497558594e+00,-9.179025292396545410e-01,-7.649187743663787842e-02,5.510000000000000000e+02
1.806781206153300445e+01,5.614065626387605334e+01,1.773316623173550397e+02,-2.100091590719071974e+03,7.531856728573620785e+01,7.008639009407197591e+02,8.141952707691189062e+01,9.974326775745612395e+01,9.446745872497558594e+00,-9.179025292396545410e-01,-7.649187743663787842e-02,5.520000000000000000e+02
1.454268087506443408e+01,5.649280182106008397e+01,1.748336516148992814e+02,-2.095655633454865892e+03,7.038182247119038948e+01,6.963479743092029821e+02,7.920650486635713605e+01,1.014145071871716937e+02,9.446745872497558594e+00,-9.179025292396545410e-01,-7.649187743663787842e-02,5.530000000000000000e+02
1.171765052011051012e+01,5.755743726010814498e+01,1.736957549524049682e+02,-2.090950960752277751e+03,6.643177639323403127e+01,6.917786035906610778e+02,7.924731336283957717e+01,1.047852061764406244e+02,9.446745872497558594e+00,-9.179025292396545410e-01,-7.649187743663787842e-02,5.540000000000000000e+02
1.038232516086372925e+01,5.883577607109145902e+01,1.730476555782297510e+02,-2.083733573402008915e+03,6.351045239613995363e+01,6.875370527363047586e+02,8.055234039919332645e+01,1.075404465785695720e+02,9.446745872497558594e+00,-9.179025292396545410e-01,-7.649187743663787842e-02,5.550000000000000000e+02
1.051564484534537769e+01,5.951504474331977690e+01,1.714389436522487813e+02,-2.075685128997662105e+03,6.111122393046389334e+01,6.837392757144116331e+02,8.136463104658923839e+01,1.072377944323779957e+02,9.446745872497558594e+00,-9.179025292396545410e-01,-7.649187743663787842e-02,5.560000000000000000e+02
1.126255981310987409e+01,5.930569230471019182e+01,1.680760262965795846e+02,-2.067497236116469139e+03,5.869935704662930220e+01,6.801695330703660147e+02,8.096044317716359728e+01,1.035456813640394103e+02,9.446745872497558594e+00,-9.179025292396545410e-01,-7.649187743663787842e-02,5.570000000000000000e+02
1.152752028585109656e+01,5.883443818178693618e+01,1.636272880732376507e+02,-2.061140419204682985e+03,5.618001258851836610e+01,6.766041870500994264e+02,8.026628450656789937e+01,9.882583203749436507e+01,9.446745872497558594e+00,-9.179025292396545410e-01,-7.649187743663787842e-02,5.580000000000000000e+02
1.055592152753524715e+01,5.905862852173504507e+01,1.596884229284842149e+02,-2.056174865357577801e+03,5.383530273652650067e+01,6.731037930366728688e+02,8.068776179138194493e+01,9.631011392491473089e+01,9.446745872497558594e+00,-9.179025292396545410e-01,-7.649187743663787842e-02,5.590000000000000000e+02
8.076557130079891067e+00,6.021641014547367377e+01,1.573279300393915037e+02,-2.050765153120344621e+03,5.183174604925625317e+01,6.698864141175145051e+02,8.241871980144424015e+01,9.742410999702042318e+01,9.446745872497558594e+00,-9.179025292396545410e-01,-7.649187743663787842e-02,5.600000000000000000e+02
4.158602585526750772e+00,6.134631557291299941e+01,1.561204169059637934e+02,-2.044143835600036255e+03,4.991668873146591068e+01,6.669548765610816190e+02,8.397495979253017140e+01,1.006383674212847836e+02,9.446745872497558594e+00,-9.179025292396545410e-01,-7.649187743663787842e-02,5.610000000000000000e+02
-8.769344405191077385e-01,6.091770713633763989e+01,1.546197652505888982e+02,-2.037212431889049185e+03,4.771556389128454612e+01,6.639905908586370060e+02,8.341699645136941399e+01,1.028096761059132405e+02,9.446745872497558594e+00,-9.179025292396545410e-01,-7.649187743663787842e-02,5.620000000000000000e+02
-6.464301219057233538e+00,5.811711309818679183e+01,1.517701453787976789e+02,-2.030718613811870455e+03,4.528527314465100062e+01,6.606668162132918951e+02,8.011105052230914225e+01,1.017569567082118738e+02,9.446745872497558594e+00,-9.179025292396545410e-01,-7.649187743663787842e-02,5.630000000000000000e+02
-1.190008500462863594e+01,5.367618785741524334e+01,1.478680759635426512e+02,-2.023688927772403986e+03,4.321962023304695322e+01,6.570055284038244281e+02,7.540806352706476900e+01,9.783806396716317977e+01,9.446745872497558594e+00,-9.179025292396545410e-01,-7.649187743663787842e-02,5.640000000000000000e+02
-1.657239300885339617e+01,4.949550349185642517e+01,1.441867413012914767e+02,-2.014508008063079615e+03,4.205425739296515530e+01,6.533137499951262726e+02,7.167778249481443709e+01,9.336342123724261910e+01,9.446745872497558594e+00,-9.179025292396545410e-01,-7.649187743663787842e-02,5.650000000000000000e+02
-2.006584882938295777e+01,4.733873502949450085e+01,1.417185542553579580e+02,-2.003280074324800808e+03,4.157644325705405208e+01,6.497682473874374409e+02,7.056778926409970154e+01,9.059879573784746754e+01,9.446745872497558594e+00,-9.179025292396545410e-01,-7.649187743663787842e-02,5.660000000000000000e+02
-2.202733067550070700e+01,4.768716892761040071e+01,1.403385286725952028e+02,-1.992130286984523991e+03,4.086819446440131287e+01,6.461806906882702606e+02,7.194620385466987500e+01,9.017549110846903204e+01,9.446745872497558594e+00,-9.179025292396545410e-01,-7.649187743663787842e-02,5.670000000000000000e+02
-2.216030132667037833e+01,4.970329996745795142e+01,1.391829184774105670e+02,-1.982711617484368617e+03,3.914203967436878884e+01,6.422455194301437587e+02,7.430295594791641633e+01,9.113188446134608967e+01,9.446745872497558594e+00,-9.179025292396545410e-01,-7.649187743663787842e-02,5.680000000000000000e+02
-2.069342191732539504e+01,5.222848801111308603e+01,1.377771089893631142e+02,-1.973858271908888128e+03,3.656165227132805740e+01,6.379825511571834795e+02,7.610518262000459799e+01,9.224564346467013820e+01,9.446745872497558594e+00,-9.179025292396545410e-01,-7.649187743663787842e-02,5.690000000000000000e+02
-1.899065512732522620e+01,5.481630564854663135e+01,1.367290354663400649e+02,-1.962525081130850594e+03,3.419332933617988601e+01,6.338269110810579150e+02,7.688150615887298045e+01,9.326780253081506089e+01,9.446745872497558594e+00,-9.179025292396545410e-01,-7.649187743663787842e-02,5.700000000000000000e+02
-1.940241228385457362e+01,5.780574229375815776e+01,1.372636834010736493e+02,-1.947152451577421743e+03,3.310861650835067849e+01,6.302621566516972962e+02,7.717324689216002298e+01,9.494774804406461044e+01,9.446745872497558594e+00,-9.179025292396545410e-01,-7.649187743663787842e-02,5.710000000000000000e+02
-2.396155741138136364e+01,6.143346353901597467e+01,1.399883929725601774e+02,-1.929597114911826793e+03,3.350374691563047236e+01,6.274300183628656669e+02,7.757666751180931897e+01,9.798021420817894978e+01,9.484992027282714844e+00,-8.796565532684326172e-01,-3.824593871831893921e-02,5.720000000000000000e+02
-3.286710444620803173e+01,6.500662271784676705e+01,1.440111141255656548e+02,-1.913462801474583102e+03,3.461420848339912482e+01,6.251089644783642143e+02,7.792354302065996308e+01,1.020099819460629078e+02,9.484992027282714844e+00,-8.796565532684326172e-01,-3.824593871831893921e-02,5.730000000000000000e+02
-4.428672065692808246e+01,6.707520173426541987e+01,1.472433168213628960e+02,-1.900702529909700388e+03,3.539656128404021729e+01,6.229886362497491064e+02,7.739436774705518474e+01,1.056829276828557340e+02,9.484992027282714844e+00,-8.796565532684326172e-01,-3.824593871831893921e-02,5.740000000000000000e+02
-5.591777136985183461e+01,6.650518375755677880e+01,1.477208364708094450e+02,-1.890228508159430930e+03,3.527538855171223986e+01,6.208511561532941414e+02,7.542374232835391012e+01,1.076982510661100605e+02,9.484992027282714844e+00,-8.796565532684326172e-01,-3.824593871831893921e-02,5.750000000000000000e+02
-6.689593703770515276e+01,6.337394144131599205e+01,1.449416498319696984e+02,-1.879588785318264854e+03,3.436648281722591491e+01,6.185154787616556860e+02,7.244056077981713315e+01,1.078331307806820405e+02,9.484992027282714844e+00,-8.796565532684326172e-01,-3.824593871831893921e-02,5.760000000000000000e+02
-7.813047711957915453e+01,5.877000672973463224e+01,1.401799785849980253e+02,-1.867442017392197158e+03,3.316599069611766026e+01,6.157762851057486841e+02,6.964680787156612496e+01,1.069563398258896996e+02,9.484992027282714844e+00,-8.796565532684326172e-01,-3.824593871831893921e-02,5.770000000000000000e+02
-9.071409535153725301e+01,5.375585141175201898e+01,1.355265439372597029e+02,-1.854319830534615903e+03,3.208204239645056077e+01,6.125289780436069123e+02,6.803048152542669413e+01,1.060788827719170513e+02,9.484992027282714844e+00,-8.796565532684326172e-01,-3.824593871831893921e-02,5.780000000000000000e+02
-1.040954967078796471e+02,4.858259126907819336e+01,1.324024489145995176e+02,-1.841424079116797657e+03,3.116551565518966527e+01,6.089307232371793361e+02,6.752688567360928573e+01,1.053929872507496839e+02,9.484992027282714844e+00,-8.796565532684326172e-01,-3.824593871831893921e-02,5.790000000000000000e+02
-1.159964132131863153e+02,4.290905531027033248e+01,1.306999107289011590e+02,-1.829288319809958921e+03,3.014407755468346295e+01,6.052982308433129219e+02,6.709599668703958741e+01,1.042049077082947406e+02,9.484992027282714844e+00,-8.796565532684326172e-01,-3.824593871831893921e-02,5.800000000000000000e+02
-1.242097929739247775e+02,3.665538438883550043e+01,1.291780428184938501e+02,-1.817508886963158147e+03,2.870081960986135527e+01,6.017780933284739149e+02,6.560040585514070699e+01,1.017474860611509939e+02,9.484992027282714844e+00,-8.796565532684326172e-01,-3.824593871831893921e-02,5.810000000000000000e+02
-1.284630901267919398e+02,3.045466907960053504e+01,1.266752609163813759e+02,-1.805237181444288581e+03,2.679809706943706260e+01,5.981870774303461076e+02,6.264125815445277112e+01,9.797576691612994182e+01,9.484992027282714844e+00,-8.796565532684326172e-01,-3.824593871831893921e-02,5.820000000000000000e+02
-1.305672730796286487e+02,2.522918538461544813e+01,1.230253524610343447e+02,-1.793301153833876015e+03,2.475035844109879690e+01,5.942610221657087095e+02,5.868553569227788103e+01,9.355906363055964903e+01,9.484992027282714844e+00,-8.796565532684326172e-01,-3.824593871831893921e-02,5.830000000000000000e+02
-1.328989361556032236e+02,2.143174109897995550e+01,1.188942069083841488e+02,-1.780124468590671313e+03,2.289219026310820482e+01,5.900499597643647576e+02,5.452983316111385648e+01,8.916436562706167024e+01,9.484992027282714844e+00,-8.796565532684326172e-01,-3.824593871831893921e-02,5.840000000000000000e+02
-1.368245901049631357e+02,1.885825291099922651e+01,1.148381666662226053e+02,-1.766655273894357379e+03,2.108338634248138987e+01,5.859697774074447807e+02,5.071479492202433903e+01,8.486769432328219409e+01,9.484992027282714844e+00,-8.796565532684326172e-01,-3.824593871831893921e-02,5.850000000000000000e+02
-1.423513925541392382e+02,1.721950901320542471e+01,1.106454921620697860e+02,-1.754561438137345249e+03,1.861030937633040594e+01,5.824078045847563772e+02,4.737989978156383586e+01,8.034225662906919752e+01,9.484992027282714844e+00,-8.796565532684326172e-01,-3.824593871831893921e-02,5.860000000000000000e+02
-1.487781852776570304e+02,1.674822896262753602e+01,1.056740859903511591e+02,-1.744956445168601931e+03,1.479604498521075584e+01,5.793183286523708375e+02,4.452624015336732555e+01,7.559842613788350718e+01,9.484992027282714844e+00,-8.796565532684326172e-01,-3.824593871831893921e-02,5.870000000000000000e+02
-1.553064361676915723e+02,1.805502129993260496e+01,9.981613266438034771e+01,-1.737122431076189969e+03,9.889107713315752335e+00,5.762520211732626194e+02,4.230232832335150306e+01,7.143417368023256131e+01,9.484992027282714844e+00,-8.796565532684326172e-01,-3.824593871831893921e-02,5.880000000000000000e+02
-1.611431511226055591e+02,2.129357993751409595e+01,9.402612307932940894e+01,-1.728721108293189900e+03,5.342243538034381345e+00,5.727754208056576317e+02,4.098786756633126060e+01,6.901339272406676173e+01,9.484992027282714844e+00,-8.796565532684326172e-01,-3.824593871831893921e-02,5.890000000000000000e+02
-1.655495439794485719e+02,2.551604523772221000e+01,8.976437206021000748e+01,-1.717759010109613882e+03,3.017422382268705405e+00,5.688096372779400554e+02,4.072293904912203288e+01,6.886970766184458626e+01,9.484992027282714844e+00,-8.796565532684326172e-01,-3.824593871831893921e-02,5.900000000000000000e+02
-1.682667117520650208e+02,2.899695936606076430e+01,8.784001396250459948e+01,-1.704401222883097944e+03,3.884260420127247926e+00,5.645795378243783489e+02,4.128090725488618773e+01,7.025853302185350913e+01,9.484992027282714844e+00,-8.796565532684326172e-01,-3.824593871831893921e-02,5.910000000000000000e+02
-1.699293600952514680e+02,3.039183198057253321e+01,8.777522916433008504e+01,-1.690633165465827915e+03,7.364187732538994169e+00,5.603525618878920795e+02,4.211687200352753280e+01,7.152066436160930607e+01,9.484992027282714844e+00,-8.796565532684326172e-01,-3.824593871831893921e-02,5.920000000000000000e+02
-1.717692094100257236e+02,2.976201611729356955e+01,8.826870037634216715e+01,-1.678212324764026562e+03,1.188137933117468492e+01,5.562972344249574235e+02,4.267357313028151111e+01,7.120815182123442355e+01,9.484992027282714844e+00,-8.796565532684326172e-01,-3.824593871831893921e-02,5.930000000000000000e+02
-1.746278743420971296e+02,2.855684073253132738e+01,8.826485466160738724e+01,-1.667182328614755534e+03,1.606788462174517917e+01,5.525334422157029621e+02,4.269371911271264253e+01,6.903736449899224681e+01,9.484992027282714844e+00,-8.796565532684326172e-01,-3.824593871831893921e-02,5.940000000000000000e+02
