F3,F4,C3,C4,P3,P4,Cz,Pz,Accel_x,Accel_y,Accel_z,Sample
-7.094058673828840256e-11,-6.275513442233204842e-11,-3.910827217623591423e-11,-4.456524038687348366e-11,-3.092281986027956009e-11,-5.275069270282983780e-11,-6.366462912410497665e-11,-6.730260793119668961e-11,9.484992027282714844e+00,-6.884268522262573242e-01,2.677215635776519775e-01,2.010000000000000000e+02
6.553048429486807436e-01,-2.596081341136959963e+01,-1.601722295952367858e+01,-2.358574205857348716e+01,-2.317692987348709721e+01,-3.252473790579824708e+01,-1.544046919292577513e+01,-1.327969840420701075e+01,9.484992027282714844e+00,-6.884268522262573242e-01,2.677215635776519775e-01,2.020000000000000000e+02
-4.770609600358511670e+00,-4.678884184596881823e+01,-2.652294793076362112e+01,-3.763896881811160711e+01,-4.001652062150787970e+01,-5.411671239547104051e+01,-2.382285877360027371e+01,-2.503554778591933427e+01,9.484992027282714844e+00,-6.884268522262573242e-01,2.677215635776519775e-01,2.030000000000000000e+02
-1.728376635342010559e+01,-6.166751165461482742e+01,-3.062348710439619026e+01,-4.079438450044017372e+01,-4.923526262485120242e+01,-6.313934884676746151e+01,-2.380127791764061840e+01,-3.472014780267090828e+01,9.484992027282714844e+00,-6.884268522262573242e-01,2.677215635776519775e-01,2.040000000000000000e+02
-3.259171961396805273e+01,-7.424908125438560091e+01,-3.210208841234543797e+01,-4.013382004690538452e+01,-5.488906634301201848e+01,-6.758645762647938682e+01,-2.009221079377766728e+01,-4.280537864137659199e+01,9.484992027282714844e+00,-6.884268522262573242e-01,2.677215635776519775e-01,2.050000000000000000e+02
-4.566210563060212735e+01,-8.874783366828705766e+01,-3.520722180198845308e+01,-4.379001838745443820e+01,-6.197508200741049222e+01,-7.668547779003347387e+01,-1.853380638563248795e+01,-4.981126174247947347e+01,9.484992027282714844e+00,-6.884268522262573242e-01,2.677215635776519775e-01,2.060000000000000000e+02
-5.529496407469196129e+01,-1.060660640864016386e+02,-4.076040111002021149e+01,-5.362718698500611936e+01,-7.196062279755460622e+01,-9.257006286426258157e+01,-2.100800252548560820e+01,-5.524613989829231286e+01,9.484992027282714844e+00,-6.884268522262573242e-01,2.677215635776519775e-01,2.070000000000000000e+02
-6.426683921983749315e+01,-1.236521809038513311e+02,-4.637677019476086571e+01,-6.495586507653024455e+01,-8.245598450830675574e+01,-1.099461608171077387e+02,-2.492763246190861537e+01,-5.765726592208466172e+01,9.446745872497558594e+00,-7.266727685928344727e-01,2.294756323099136353e-01,2.080000000000000000e+02
-7.539566248567643925e+01,-1.386857446287185667e+02,-4.984294573932402272e+01,-7.248239258811736363e+01,-9.064240004956991470e+01,-1.228774593146426923e+02,-2.690685177619161550e+01,-5.609582913226768142e+01,9.446745872497558594e+00,-7.266727685928344727e-01,2.294756323099136353e-01,2.090000000000000000e+02
-8.798679586587331869e+01,-1.509352660310742067e+02,-5.156132134250492527e+01,-7.563504458356601390e+01,-9.641080744870669150e+01,-1.308757682807663514e+02,-2.625616337158407987e+01,-5.190890452419080248e+01,9.446745872497558594e+00,-7.266727685928344727e-01,2.294756323099136353e-01,2.100000000000000000e+02
-9.843214481607083144e+01,-1.624937032208763412e+02,-5.362165522195391532e+01,-7.809699232758066501e+01,-1.021097652581738657e+02,-1.383314410994407808e+02,-2.496505338645602023e+01,-4.907193024484513444e+01,9.446745872497558594e+00,-7.266727685928344727e-01,2.294756323099136353e-01,2.110000000000000000e+02
-1.042068391668435652e+02,-1.751916567318312445e+02,-5.713180235655818251e+01,-8.311856941643600294e+01,-1.097565347379113518e+02,-1.490297157214245090e+02,-2.504140238121090078e+01,-5.218611663126739586e+01,9.446745872497558594e+00,-7.266727685928344727e-01,2.294756323099136353e-01,2.120000000000000000e+02
-1.070410371239722735e+02,-1.887720561703372368e+02,-6.115640555780191789e+01,-9.028593717145849951e+01,-1.190645900138142679e+02,-1.622966094118419278e+02,-2.662245258908296819e+01,-6.321321742637246643e+01,9.446745872497558594e+00,-7.266727685928344727e-01,2.294756323099136353e-01,2.130000000000000000e+02
-1.119903950907437320e+02,-2.016326856394143761e+02,-6.426840612443447753e+01,-9.688912655731473933e+01,-1.282107311038007538e+02,-1.745458482695757993e+02,-2.865406423259901203e+01,-7.950009120910362981e+01,9.446745872497558594e+00,-7.266727685928344727e-01,2.294756323099136353e-01,2.140000000000000000e+02
-1.232666967971026679e+02,-2.129395035364650539e+02,-6.652575322104257793e+01,-1.015354826544107709e+02,-1.360226516951524900e+02,-1.836631098872094299e+02,-3.066512822474487621e+01,-9.499373400600779860e+01,9.446745872497558594e+00,-7.266727685928344727e-01,2.294756323099136353e-01,2.150000000000000000e+02
-1.407944636946594983e+02,-2.236166452350398686e+02,-6.941701096033284557e+01,-1.055691296313780185e+02,-1.429583577262847029e+02,-1.910426223329995992e+02,-3.318771319883489923e+01,-1.039437164648525140e+02,9.446745872497558594e+00,-7.266727685928344727e-01,2.294756323099136353e-01,2.160000000000000000e+02
-1.604965935761147193e+02,-2.352630178621338928e+02,-7.394294559997433680e+01,-1.109775018813515999e+02,-1.500013158040528651e+02,-1.994366442907557939e+02,-3.642966696019720985e+01,-1.043193333196868480e+02,9.446745872497558594e+00,-7.266727685928344727e-01,2.294756323099136353e-01,2.170000000000000000e+02
-1.777023906482345410e+02,-2.484058056617650436e+02,-7.924658974388421484e+01,-1.176542996331545510e+02,-1.570848742445514290e+02,-2.096234586478067285e+02,-3.914276739373963210e+01,-9.843913550630531972e+01,9.446745872497558594e+00,-7.266727685928344727e-01,2.294756323099136353e-01,2.180000000000000000e+02
-1.904654786048286041e+02,-2.620215848396746878e+02,-8.342856009328443179e+01,-1.233303475958427953e+02,-1.630313869347728541e+02,-2.197533979098725467e+02,-3.939850374399975408e+01,-9.071530687689664774e+01,9.446745872497558594e+00,-7.266727685928344727e-01,2.294756323099136353e-01,2.190000000000000000e+02
-2.001622784531964498e+02,-2.746734012509195964e+02,-8.556569650041546993e+01,-1.261411017581485794e+02,-1.670584372877519854e+02,-2.277552749806354768e+02,-3.662719891668530181e+01,-8.471923592763414490e+01,9.446745872497558594e+00,-7.266727685928344727e-01,2.294756323099136353e-01,2.200000000000000000e+02
-2.094625695732602253e+02,-2.858798498856513106e+02,-8.664159431576990755e+01,-1.268199376581615070e+02,-1.700513150093302102e+02,-2.337836666133389372e+02,-3.268750020755578589e+01,-8.187908329044694256e+01,9.446745872497558594e+00,-7.266727685928344727e-01,2.294756323099136353e-01,2.210000000000000000e+02
-2.199193334127048729e+02,-2.963087636967175058e+02,-8.848206367585862608e+01,-1.281351992362087913e+02,-1.741140281002481061e+02,-2.400512456911656045e+02,-3.070784256676506629e+01,-8.217669359672800056e+01,9.446745872497558594e+00,-7.266727685928344727e-01,2.294756323099136353e-01,2.220000000000000000e+02
-2.312393268782952873e+02,-3.068269333775006089e+02,-9.201172231756027031e+01,-1.323223763351952584e+02,-1.808139899094121574e+02,-2.485463464396279960e+02,-3.274858906154167926e+01,-8.532595827388922771e+01,9.446745872497558594e+00,-7.266727685928344727e-01,2.294756323099136353e-01,2.230000000000000000e+02
-2.423935740566166714e+02,-3.175928298096596336e+02,-9.665448373779236135e+01,-1.392375318111426168e+02,-1.898666266440086474e+02,-2.592586420700827148e+02,-3.839617206740422262e+01,-9.098372292210933665e+01,9.446745872497558594e+00,-7.266727685928344727e-01,2.294756323099136353e-01,2.240000000000000000e+02
-2.530961611228422043e+02,-3.281241857381846785e+02,-1.012210142629874099e+02,-1.468917900930364340e+02,-1.994991921647670097e+02,-2.705895274065951526e+02,-4.533472960973267618e+01,-9.816262621167334146e+01,9.446745872497558594e+00,-7.266727685928344727e-01,2.294756323099136353e-01,2.250000000000000000e+02
-2.641244902280468523e+02,-3.381105133324754206e+02,-1.050727707709693277e+02,-1.534675557686196044e+02,-2.080385030985189587e+02,-2.811227996120405805e+02,-5.108401549928294116e+01,-1.051269441619551799e+02,9.446745872497558594e+00,-7.266727685928344727e-01,2.294756323099136353e-01,2.260000000000000000e+02
-2.762675670946564424e+02,-3.479840087804905124e+02,-1.083707785956239604e+02,-1.586852394119468954e+02,-2.151744938437586825e+02,-2.907503858829686578e+02,-5.433905350031182024e+01,-1.103507567355818537e+02,9.446745872497558594e+00,-7.266727685928344727e-01,2.294756323099136353e-01,2.270000000000000000e+02
-2.890632659855818929e+02,-3.586244909896458921e+02,-1.114977227098115691e+02,-1.634694115791326112e+02,-2.218507992422601092e+02,-3.002476059567543416e+02,-5.518986637350280944e+01,-1.136541163600440996e+02,9.446745872497558594e+00,-7.266727685928344727e-01,2.294756323099136353e-01,2.280000000000000000e+02
-3.006483498727720871e+02,-3.705253689452947583e+02,-1.145850330429720998e+02,-1.686933317034063293e+02,-2.291111728995083467e+02,-3.101434877738693103e+02,-5.464950506012246478e+01,-1.162461810176810104e+02,9.446745872497558594e+00,-7.266727685928344727e-01,2.294756323099136353e-01,2.290000000000000000e+02
-3.089838217570440975e+02,-3.832512871852604803e+02,-1.176667335034653661e+02,-1.744166782082766076e+02,-2.370966984223159670e+02,-3.202081775073047538e+02,-5.418584267725600512e+01,-1.196233450083836942e+02,9.446745872497558594e+00,-7.266727685928344727e-01,2.294756323099136353e-01,2.300000000000000000e+02
-3.134595319598811329e+02,-3.956920614895952895e+02,-1.210516289894167130e+02,-1.801676642843558511e+02,-2.450584894613512006e+02,-3.299080256625475158e+02,-5.539567136999085051e+01,-1.244848241589843383e+02,9.446745872497558594e+00,-7.266727685928344727e-01,2.294756323099136353e-01,2.310000000000000000e+02
-3.155231086897329078e+02,-4.068394113070844469e+02,-1.252356141670707075e+02,-1.856657134746110387e+02,-2.521788873086306921e+02,-3.390906541990752885e+02,-5.947787377796430519e+01,-1.306329067069927987e+02,9.446745872497558594e+00,-7.266727685928344727e-01,2.294756323099136353e-01,2.320000000000000000e+02
-3.177392880811148643e+02,-4.163739047949884480e+02,-1.303242290452917587e+02,-1.911127514413419703e+02,-2.582811208915754833e+02,-3.480910392619189224e+02,-6.644257154920069297e+01,-1.375428093320651897e+02,9.446745872497558594e+00,-7.266727685928344727e-01,2.294756323099136353e-01,2.330000000000000000e+02
-3.219762776672878317e+02,-4.246102400367590235e+02,-1.356092831552978168e+02,-1.968168790959352918e+02,-2.637404322800630325e+02,-3.572081773277295724e+02,-7.459880764094850747e+01,-1.444976330297640743e+02,9.446745872497558594e+00,-7.266727685928344727e-01,2.294756323099136353e-01,2.340000000000000000e+02
-3.281438359760550156e+02,-4.319857966382442100e+02,-1.398525735982721017e+02,-2.026363118742774532e+02,-2.688145645745098591e+02,-3.661669356867951137e+02,-8.102148146537820139e+01,-1.501741459461582053e+02,9.446745872497558594e+00,-7.266727685928344727e-01,2.294756323099136353e-01,2.350000000000000000e+02
-3.344344358595990343e+02,-4.386714676859419342e+02,-1.421160680776347363e+02,-2.078472457476700583e+02,-2.732090423997833568e+02,-3.741328751738774372e+02,-8.305628430646902416e+01,-1.527485547540727566e+02,9.446745872497558594e+00,-7.266727685928344727e-01,2.294756323099136353e-01,2.360000000000000000e+02
-3.388886574554035178e+02,-4.446972727655429480e+02,-1.424214297880489539e+02,-2.115823885086419978e+02,-2.764005898092527787e+02,-3.802806770875840812e+02,-7.998554620981303742e+01,-1.512064865898610151e+02,9.446745872497558594e+00,-7.266727685928344727e-01,2.294756323099136353e-01,2.370000000000000000e+02
-3.411370370043805451e+02,-4.503997671743209139e+02,-1.416953016813722570e+02,-2.134771568720916548e+02,-2.783914619584420507e+02,-3.844478087500820038e+02,-7.366805990505326918e+01,-1.468168447344905871e+02,9.446745872497558594e+00,-7.266727685928344727e-01,2.294756323099136353e-01,2.380000000000000000e+02
-3.430181888154074841e+02,-4.565895639309028411e+02,-1.410780546684281944e+02,-2.139735836465351895e+02,-2.800232692103090812e+02,-3.873500375765315766e+02,-6.757734335381974233e+01,-1.428439944217680022e+02,9.446745872497558594e+00,-7.266727685928344727e-01,2.677215635776519775e-01,2.390000000000000000e+02
-3.476009187761492285e+02,-4.640780102596968391e+02,-1.411832360425923980e+02,-2.140249837365963685e+02,-2.823872865757493855e+02,-3.901782598199215499e+02,-6.480148956355242262e+01,-1.421275245044034818e+02,9.446745872497558594e+00,-7.266727685928344727e-01,2.677215635776519775e-01,2.400000000000000000e+02
-3.573083910009308966e+02,-4.729134970510176572e+02,-1.418893809579440131e+02,-2.144572817364355615e+02,-2.858664568030080773e+02,-3.938835479010922427e+02,-6.636975177124622860e+01,-1.447195217087064520e+02,9.446745872497558594e+00,-7.266727685928344727e-01,2.677215635776519775e-01,2.410000000000000000e+02
-3.724284649662631637e+02,-4.821001714222807095e+02,-1.427340230766344575e+02,-2.155102079265743669e+02,-2.898032058137350759e+02,-3.986754211427114569e+02,-7.098453690060523513e+01,-1.481906575505909132e+02,9.446745872497558594e+00,-7.266727685928344727e-01,2.677215635776519775e-01,2.420000000000000000e+02
-3.910363572718160867e+02,-4.902051690789239728e+02,-1.434712769959228353e+02,-2.169172761233635356e+02,-2.931982778059509656e+02,-4.040875640943122562e+02,-7.617969242492836202e+01,-1.505236846956249792e+02,9.446745872497558594e+00,-7.266727685928344727e-01,2.677215635776519775e-01,2.430000000000000000e+02
-4.103128299553209217e+02,-4.964106331752141159e+02,-1.442464430694126349e+02,-2.183879727520720735e+02,-2.957603662446781527e+02,-4.095019813429971691e+02,-7.990943540197258699e+01,-1.524188553101976140e+02,9.446745872497558594e+00,-7.266727685928344727e-01,2.677215635776519775e-01,2.440000000000000000e+02
-4.282247340298990821e+02,-5.010921647158083942e+02,-1.452567905624682680e+02,-2.199950335794678722e+02,-2.982250769845777540e+02,-4.146463475090595239e+02,-8.144228233965441177e+01,-1.561950278436970621e+02,9.446745872497558594e+00,-7.266727685928344727e-01,2.677215635776519775e-01,2.450000000000000000e+02
-4.443570247383909191e+02,-5.053859461544088845e+02,-1.463156873161492513e+02,-2.220693961882143412e+02,-3.015948646302940688e+02,-4.196222219202845736e+02,-8.117186740842043946e+01,-1.622796307044618516e+02,9.446745872497558594e+00,-7.266727685928344727e-01,2.677215635776519775e-01,2.460000000000000000e+02
-4.594622766316938396e+02,-5.101540231803351162e+02,-1.469034733919288556e+02,-2.247495941443257834e+02,-3.061020169309363155e+02,-4.245398428488733771e+02,-7.987459735419224671e+01,-1.674679951406751570e+02,9.446745872497558594e+00,-7.266727685928344727e-01,2.677215635776519775e-01,2.470000000000000000e+02
-4.744193182610515578e+02,-5.153249235445682643e+02,-1.467989902396088837e+02,-2.277129265863500223e+02,-3.109912546730533904e+02,-4.292403946057575013e+02,-7.819930296178881690e+01,-1.677458290130762180e+02,9.446745872497558594e+00,-7.266727685928344727e-01,2.677215635776519775e-01,2.480000000000000000e+02
-4.897065002663021005e+02,-5.201451535922901712e+02,-1.466340590391914702e+02,-2.303687184275904656e+02,-3.152870392873392120e+02,-4.334011713111203790e+02,-7.663453484717092579e+01,-1.633614300557028400e+02,9.446745872497558594e+00,-7.266727685928344727e-01,2.677215635776519775e-01,2.490000000000000000e+02
-5.056947819029264792e+02,-5.239973435526708272e+02,-1.476181100280618921e+02,-2.323009655578039201e+02,-3.186568061992024923e+02,-4.368622376602434088e+02,-7.563386976455694821e+01,-1.605714957033746941e+02,9.446745872497558594e+00,-7.266727685928344727e-01,2.677215635776519775e-01,2.500000000000000000e+02
-5.229594533787198998e+02,-5.269814915671809104e+02,-1.504713701777404822e+02,-2.335450012196783973e+02,-3.214642438250784835e+02,-4.398025989312127422e+02,-7.556174680271396937e+01,-1.671166998945695923e+02,9.446745872497558594e+00,-7.266727685928344727e-01,2.677215635776519775e-01,2.510000000000000000e+02
-5.417342431124311588e+02,-5.298086626049071128e+02,-1.545424405736530389e+02,-2.345312662623878168e+02,-3.240897813650963144e+02,-4.426179013489972931e+02,-7.651573943915991549e+01,-1.848993052643945703e+02,9.446745872497558594e+00,-7.266727685928344727e-01,2.677215635776519775e-01,2.520000000000000000e+02
-5.607927136764774332e+02,-5.332271732977283136e+02,-1.580911379779927302e+02,-2.358430496918654171e+02,-3.264176622392810714e+02,-4.456730870942765250e+02,-7.829722789657989779e+01,-2.068816777815131900e+02,9.446745872497558594e+00,-7.266727685928344727e-01,2.677215635776519775e-01,2.530000000000000000e+02
-5.772443392091249734e+02,-5.375391338706208444e+02,-1.596577489585974945e+02,-2.379917218302584843e+02,-3.281285928203255935e+02,-4.491775766751634364e+02,-8.061079821388102573e+01,-2.217998961580206014e+02,9.446745872497558594e+00,-7.266727685928344727e-01,2.677215635776519775e-01,2.540000000000000000e+02
-5.882247647891558699e+02,-5.425108786377627439e+02,-1.593061843608538766e+02,-2.412237857781760795e+02,-3.293907477501547874e+02,-4.531932132718238790e+02,-8.323262924913706229e+01,-2.228928072763305863e+02,9.446745872497558594e+00,-7.266727685928344727e-01,2.677215635776519775e-01,2.550000000000000000e+02
-5.934524232605081124e+02,-5.475789154540216259e+02,-1.585375160599387527e+02,-2.453184608441083583e+02,-3.309992731871293472e+02,-4.576359894000943314e+02,-8.592923050716899525e+01,-2.128688672984517325e+02,9.446745872497558594e+00,-7.266727685928344727e-01,2.677215635776519775e-01,2.560000000000000000e+02
-5.961683564870882037e+02,-5.521432019316216611e+02,-1.589322805787555808e+02,-2.495257336049376136e+02,-3.336488213561324301e+02,-4.622396395348550868e+02,-8.828753850231260003e+01,-2.008274971677992653e+02,9.446745872497558594e+00,-7.266727685928344727e-01,2.677215635776519775e-01,2.570000000000000000e+02
-6.009807451750052678e+02,-5.558406010962162327e+02,-1.607968946345545191e+02,-2.528553465380500711e+02,-3.370739230374838371e+02,-4.665919811679536906e+02,-8.977301099408259688e+01,-1.943048090244496962e+02,9.446745872497558594e+00,-7.266727685928344727e-01,2.677215635776519775e-01,2.580000000000000000e+02
-6.100851968351685173e+02,-5.587161746694519024e+02,-1.630477958405540448e+02,-2.546406460290295399e+02,-3.400534966452742083e+02,-4.703039904026954900e+02,-9.005029666665677723e+01,-1.938070406940009889e+02,9.446745872497558594e+00,-7.266727685928344727e-01,2.677215635776519775e-01,2.590000000000000000e+02
-6.213403184945400426e+02,-5.611576844284049912e+02,-1.643361796122508167e+02,-2.549282186982727580e+02,-3.414268435429512465e+02,-4.731823564486467149e+02,-8.922173366497418101e+01,-1.942823697611975149e+02,9.484992027282714844e+00,-7.649186849594116211e-01,3.442134261131286621e-01,2.600000000000000000e+02
-6.302748587242663234e+02,-5.635570078798200484e+02,-1.642666653993596810e+02,-2.542985861608226514e+02,-3.411806218511746920e+02,-4.752358819592423060e+02,-8.769178652271693863e+01,-1.910981536827707714e+02,9.484992027282714844e+00,-7.649186849594116211e-01,3.442134261131286621e-01,2.610000000000000000e+02
-6.343603101587063975e+02,-5.659403407502463779e+02,-1.636124948692654471e+02,-2.532898841023511523e+02,-3.405503796479174525e+02,-4.765649447424093523e+02,-8.582056901376290625e+01,-1.844208666778517909e+02,9.484992027282714844e+00,-7.649186849594116211e-01,3.442134261131286621e-01,2.620000000000000000e+02
-6.354964539402185437e+02,-5.679706151402415344e+02,-1.635066747245523402e+02,-2.520561552012977700e+02,-3.410502520324412217e+02,-4.773447273246347322e+02,-8.383550284441162148e+01,-1.783696022401418304e+02,9.484992027282714844e+00,-7.649186849594116211e-01,3.442134261131286621e-01,2.630000000000000000e+02
-6.382108785028103739e+02,-5.694458077179681368e+02,-1.645273917092413285e+02,-2.506517921447800745e+02,-3.433755580371401948e+02,-4.779653094589500597e+02,-8.217255702105103410e+01,-1.767428634563548258e+02,9.484992027282714844e+00,-7.649186849594116211e-01,3.442134261131286621e-01,2.640000000000000000e+02
-6.452887812655138760e+02,-5.708433117815613969e+02,-1.665090037567987338e+02,-2.495899658170162638e+02,-3.471506799013313866e+02,-4.791008869219414237e+02,-8.180432511985554811e+01,-1.799227788839543791e+02,9.484992027282714844e+00,-7.649186849594116211e-01,3.442134261131286621e-01,2.650000000000000000e+02
-6.551577742869966414e+02,-5.732358620163148544e+02,-1.690468108050076808e+02,-2.499126262358882968e+02,-3.515672451083891019e+02,-4.814595887386633422e+02,-8.396106822685965199e+01,-1.854664355211677957e+02,9.484992027282714844e+00,-7.649186849594116211e-01,3.442134261131286621e-01,2.660000000000000000e+02
-6.636369651589864134e+02,-5.774375177329147846e+02,-1.719956958824811863e+02,-2.524899130279379733e+02,-3.561046302751082067e+02,-4.853207444860709074e+02,-8.924846528607281471e+01,-1.908813840524032912e+02,9.484992027282714844e+00,-7.649186849594116211e-01,3.442134261131286621e-01,2.670000000000000000e+02
-6.682524197920315601e+02,-5.830464361250546972e+02,-1.754007192744418262e+02,-2.571353842395222955e+02,-3.605848810174811661e+02,-4.902659354706611339e+02,-9.686611937846805631e+01,-1.953872038308234096e+02,9.484992027282714844e+00,-7.649186849594116211e-01,3.442134261131286621e-01,2.680000000000000000e+02
-6.706734118510482858e+02,-5.883361381686271443e+02,-1.790169035641206392e+02,-2.624391788142365840e+02,-3.646596272065935409e+02,-4.953825726163231593e+02,-1.047091885733441359e+02,-1.992959017954449337e+02,9.484992027282714844e+00,-7.649186849594116211e-01,3.442134261131286621e-01,2.690000000000000000e+02
-6.747673527550587096e+02,-5.913143021502631882e+02,-1.820597984898681716e+02,-2.665970791831296083e+02,-3.675121501009110716e+02,-4.997761267459393366e+02,-1.104323869699721854e+02,-2.024875735663777050e+02,9.484992027282714844e+00,-7.649186849594116211e-01,3.442134261131286621e-01,2.700000000000000000e+02
-6.822703824253089806e+02,-5.911950530740962222e+02,-1.835937303679500019e+02,-2.685705295711893541e+02,-3.683114711779260233e+02,-5.029558439945520831e+02,-1.127003997870122021e+02,-2.040278366756372179e+02,9.484992027282714844e+00,-7.649186849594116211e-01,3.442134261131286621e-01,2.710000000000000000e+02
-6.905084226328076511e+02,-5.890815954180707195e+02,-1.833064301871642101e+02,-2.686220534461290299e+02,-3.670833531123814737e+02,-5.048840391906512650e+02,-1.117367724925429684e+02,-2.032304032341655784e+02,9.484992027282714844e+00,-7.649186849594116211e-01,3.442134261131286621e-01,2.720000000000000000e+02
-6.945164886799288979e+02,-5.872633564885671831e+02,-1.819613818977712754e+02,-2.678755014946077608e+02,-3.650822001045629577e+02,-5.058459252657298748e+02,-1.089134703276666869e+02,-2.006985228311257288e+02,9.484992027282714844e+00,-7.649186849594116211e-01,3.442134261131286621e-01,2.730000000000000000e+02
-6.914710745258470297e+02,-5.876589124360673395e+02,-1.810058854209009951e+02,-2.674092455943247160e+02,-3.640965014373982740e+02,-5.063510223248255215e+02,-1.058501439397762169e+02,-1.980420247347016129e+02,9.484992027282714844e+00,-7.649186849594116211e-01,3.442134261131286621e-01,2.740000000000000000e+02
-6.831695257427611523e+02,-5.905923931889799405e+02,-1.815262314426131525e+02,-2.676575451407264836e+02,-3.651306227291065625e+02,-5.070216464178223532e+02,-1.036817300096129202e+02,-1.966057418243592565e+02,9.484992027282714844e+00,-7.649186849594116211e-01,3.442134261131286621e-01,2.750000000000000000e+02
-6.743973080656455750e+02,-5.947441176680606532e+02,-1.833616972106112826e+02,-2.684445132249422841e+02,-3.675884353708379422e+02,-5.083009270304040683e+02,-1.028057094995350553e+02,-1.966154362199347361e+02,9.484992027282714844e+00,-7.649186849594116211e-01,3.442134261131286621e-01,2.760000000000000000e+02
-6.690680851513254765e+02,-5.981700705175156827e+02,-1.851641719134104278e+02,-2.693907513570667334e+02,-3.697423071423258989e+02,-5.100910615572672668e+02,-1.030109509344055141e+02,-1.974757743709759552e+02,9.484992027282714844e+00,-7.649186849594116211e-01,3.442134261131286621e-01,2.770000000000000000e+02
-6.678598710751755334e+02,-5.995358774463072677e+02,-1.854351617620231991e+02,-2.702381177233471590e+02,-3.701431608815895515e+02,-5.117163576458513035e+02,-1.037511071581155875e+02,-1.985723857992496733e+02,9.484992027282714844e+00,-7.649186849594116211e-01,3.442134261131286621e-01,2.780000000000000000e+02
-6.690981054858473271e+02,-5.987170729650089243e+02,-1.837213172079033257e+02,-2.708885967874391554e+02,-3.687570881674904513e+02,-5.124211100504224987e+02,-1.044092284222133458e+02,-1.995598984614398432e+02,9.484992027282714844e+00,-7.649186849594116211e-01,3.442134261131286621e-01,2.790000000000000000e+02
-6.711952021722820518e+02,-5.965503473323549315e+02,-1.809544784649378926e+02,-2.712806291598650432e+02,-3.668463407294605076e+02,-5.120481646867064001e+02,-1.045043925826556688e+02,-2.000294283981504577e+02,9.484992027282714844e+00,-7.649186849594116211e-01,3.442134261131286621e-01,2.800000000000000000e+02
-6.737346198718523738e+02,-5.941622112933438302e+02,-1.786395765291681528e+02,-2.713338349333237147e+02,-3.657555910009043600e+02,-5.112403011514853688e+02,-1.038174362083743745e+02,-1.993745962870066251e+02,9.484992027282714844e+00,-7.649186849594116211e-01,3.442134261131286621e-01,2.810000000000000000e+02
-6.763054675787529959e+02,-5.924391666119311139e+02,-1.776106523719822690e+02,-2.710599858138401714e+02,-3.657368500293914622e+02,-5.109169002868311509e+02,-1.024194324179784417e+02,-1.974070278576950841e+02,9.484992027282714844e+00,-7.649186849594116211e-01,3.442134261131286621e-01,2.820000000000000000e+02
-6.769987067667905194e+02,-5.918601387220580818e+02,-1.774373303799227415e+02,-2.707055584740318750e+02,-3.658332833744468644e+02,-5.114956635250057388e+02,-1.005977602550972279e+02,-1.951042414451662808e+02,9.484992027282714844e+00,-7.649186849594116211e-01,3.442134261131286621e-01,2.830000000000000000e+02
-6.729206071861932514e+02,-5.925179032704716064e+02,-1.769567981327087409e+02,-2.707161658439564462e+02,-3.648295801394302771e+02,-5.125871294584693487e+02,-9.874107897801093259e+01,-1.943536861573234091e+02,9.484992027282714844e+00,-7.649186849594116211e-01,3.442134261131286621e-01,2.840000000000000000e+02
-6.626791400372287626e+02,-5.941006833129295046e+02,-1.753895439120176434e+02,-2.714525260576183427e+02,-3.623475714226118498e+02,-5.134086190551521440e+02,-9.725812564602995280e+01,-1.965059553584496825e+02,9.484992027282714844e+00,-7.649186849594116211e-01,3.442134261131286621e-01,2.850000000000000000e+02
-6.483559255904436895e+02,-5.958438308480281194e+02,-1.730072966394255900e+02,-2.728311380036573155e+02,-3.591625037834506884e+02,-5.134633984481608877e+02,-9.652773949113247909e+01,-2.009804320708324212e+02,9.484992027282714844e+00,-7.649186849594116211e-01,3.442134261131286621e-01,2.860000000000000000e+02
-6.346708226437292524e+02,-5.967091246218838023e+02,-1.708498160296439892e+02,-2.742314033341659183e+02,-3.566468077056379116e+02,-5.128649833256121156e+02,-9.685449554801414251e+01,-2.054573602318832855e+02,9.484992027282714844e+00,-7.649186849594116211e-01,3.442134261131286621e-01,2.870000000000000000e+02
-6.257924310380662973e+02,-5.958965128758302399e+02,-1.698642809594136907e+02,-2.748572617684849320e+02,-3.559597967256405582e+02,-5.121268696568189398e+02,-9.839672144069004389e+01,-2.077554241608440861e+02,9.484992027282714844e+00,-7.649186849594116211e-01,3.442134261131286621e-01,2.880000000000000000e+02
-6.226513919324811468e+02,-5.933925096334132832e+02,-1.702624826554711035e+02,-2.743445583344816328e+02,-3.575619418351247987e+02,-5.117292232641631244e+02,-1.010556060251478812e+02,-2.077093575333540230e+02,9.484992027282714844e+00,-7.649186849594116211e-01,3.442134261131286621e-01,2.890000000000000000e+02
-6.231752959152472613e+02,-5.900576736761537404e+02,-1.715218058769988829e+02,-2.731067687683201939e+02,-3.611105638839097765e+02,-5.118383082541522526e+02,-1.043806633757254758e+02,-2.071987437990884473e+02,9.484992027282714844e+00,-7.649186849594116211e-01,3.442134261131286621e-01,2.900000000000000000e+02
-6.249626402288166673e+02,-5.870877821372804419e+02,-1.728360854223118395e+02,-2.720760015448404374e+02,-3.655248686406620209e+02,-5.122857092917158752e+02,-1.076008008731492964e+02,-2.082378043204779487e+02,9.484992027282714844e+00,-7.649186849594116211e-01,3.442134261131286621e-01,2.910000000000000000e+02
-6.275770553048271267e+02,-5.852836256104535551e+02,-1.735681160360819604e+02,-2.720524215302253310e+02,-3.692154946215850373e+02,-5.127246101576242836e+02,-1.098810234344177843e+02,-2.109758722328650720e+02,9.484992027282714844e+00,-7.649186849594116211e-01,3.442134261131286621e-01,2.920000000000000000e+02
-6.321694977361617021e+02,-5.847736959547964943e+02,-1.734514335827313971e+02,-2.732418594469846767e+02,-3.706569228640880738e+02,-5.128675411398742199e+02,-1.107408707855107650e+02,-2.135853818391651657e+02,9.484992027282714844e+00,-7.649186849594116211e-01,3.442134261131286621e-01,2.930000000000000000e+02
-6.389664905076631385e+02,-5.853819509903394191e+02,-1.726043039383162068e+02,-2.753512863867768488e+02,-3.692306678529880628e+02,-5.127167528152448313e+02,-1.103697459104171230e+02,-2.141013877178268103e+02,9.484992027282714844e+00,-7.649186849594116211e-01,3.442134261131286621e-01,2.940000000000000000e+02
-6.454158378299439391e+02,-5.871367502992417258e+02,-1.714493569485767921e+02,-2.780241610259664640e+02,-3.657534579948576265e+02,-5.126122642727982566e+02,-1.095280107156227132e+02,-2.123163983959689176e+02,9.484992027282714844e+00,-7.649186849594116211e-01,3.442134261131286621e-01,2.950000000000000000e+02
-6.471858537267132760e+02,-5.902340351253309336e+02,-1.705213445338276870e+02,-2.810783252038459636e+02,-3.620694545989716744e+02,-5.129553315066266350e+02,-1.090030752752571743e+02,-2.098211263046101749e+02,9.484992027282714844e+00,-7.649186849594116211e-01,3.442134261131286621e-01,2.960000000000000000e+02
-6.413865031173691023e+02,-5.943962966320118539e+02,-1.701593070496692235e+02,-2.843141604992964062e+02,-3.598038277318502196e+02,-5.137500830810549814e+02,-1.090077132731013307e+02,-2.082331758334123606e+02,9.484992027282714844e+00,-7.649186849594116211e-01,3.442134261131286621e-01,2.970000000000000000e+02
-6.290955834090310645e+02,-5.983441627053545062e+02,-1.702388284111602843e+02,-2.872142577149120370e+02,-3.592216897498924482e+02,-5.144023664364683555e+02,-1.090164049504392096e+02,-2.076255251478945638e+02,9.484992027282714844e+00,-7.649186849594116211e-01,3.442134261131286621e-01,2.980000000000000000e+02
-6.148033699207771861e+02,-6.001641586311245646e+02,-1.702130975172750595e+02,-2.890233471611048799e+02,-3.592051968091232084e+02,-5.140913053802619288e+02,-1.082133074139367181e+02,-2.067857112321188424e+02,9.484992027282714844e+00,-7.649186849594116211e-01,3.442134261131286621e-01,2.990000000000000000e+02
-6.031751490958336035e+02,-5.985221276270214048e+02,-1.695159904284502090e+02,-2.892623657781035718e+02,-3.583854932311255652e+02,-5.124755693314423297e+02,-1.061859693592393796e+02,-2.048164160503149560e+02,9.484992027282714844e+00,-7.649186849594116211e-01,3.442134261131286621e-01,3.000000000000000000e+02
-5.958598039176606562e+02,-5.937329075093541633e+02,-1.680360099917735397e+02,-2.881768094090268164e+02,-3.563971482098319257e+02,-5.100632849695568893e+02,-1.032607912055350425e+02,-2.022915810046238221e+02,9.484992027282714844e+00,-7.649186849594116211e-01,3.442134261131286621e-01,3.010000000000000000e+02
-5.909696195119613549e+02,-5.876738000763613172e+02,-1.662761281236536206e+02,-2.866228648293990204e+02,-3.541258508449396913e+02,-5.078348277672176891e+02,-1.002240706483249824e+02,-2.006842503904130126e+02,9.484992027282714844e+00,-7.649186849594116211e-01,3.442134261131286621e-01,3.020000000000000000e+02
-5.854358086857737362e+02,-5.825082753897851262e+02,-1.650525294858855432e+02,-2.854444950573783331e+02,-3.528016139933168915e+02,-5.064365174304640504e+02,-9.773640233578839798e+01,-2.007293103505362524e+02,9.484992027282714844e+00,-7.649186849594116211e-01,3.442134261131286621e-01,3.030000000000000000e+02
-5.780242088983592339e+02,-5.792731925783695033e+02,-1.649560211642506147e+02,-2.848902592485015930e+02,-3.528506497502399952e+02,-5.056994075242801046e+02,-9.597449703751919969e+01,-2.015662129192180601e+02,9.484992027282714844e+00,-7.649186849594116211e-01,3.442134261131286621e-01,3.040000000000000000e+02
-5.705010297967478436e+02,-5.774884318139652351e+02,-1.659661566303608424e+02,-2.845716982301378835e+02,-3.535741815529743235e+02,-5.049073397950695608e+02,-9.475110430108736637e+01,-2.016182115810722735e+02,9.484992027282714844e+00,-7.649186849594116211e-01,3.442134261131286621e-01,3.050000000000000000e+02
-5.662339029729307640e+02,-5.759776378769927305e+02,-1.674565425015848632e+02,-2.839434034382162508e+02,-3.538533973066391809e+02,-5.034882021226954976e+02,-9.388630973668762181e+01,-2.002173473876090384e+02,9.484992027282714844e+00,-7.649186849594116211e-01,3.442134261131286621e-01,3.060000000000000000e+02
-5.675943214286013472e+02,-5.740257048004871194e+02,-1.685338880919878193e+02,-2.828342745535988456e+02,-3.531098442617931141e+02,-5.014389177914816855e+02,-9.341221845001530255e+01,-1.981842229237722677e+02,9.484992027282714844e+00,-7.649186849594116211e-01,3.442134261131286621e-01,3.070000000000000000e+02
-5.743033267558450916e+02,-5.718168573639485430e+02,-1.684481044092966613e+02,-2.815687792818934554e+02,-3.516098153746787602e+02,-4.991387774706040545e+02,-9.340262409941635724e+01,-1.967694715538369792e+02,9.484992027282714844e+00,-7.649186849594116211e-01,3.442134261131286621e-01,3.080000000000000000e+02
-5.837330556954468648e+02,-5.699052955589301064e+02,-1.668664922714690420e+02,-2.806228878347558293e+02,-3.499607521784886330e+02,-4.968626469982476692e+02,-9.363099450015965886e+01,-1.962149455339057340e+02,9.484992027282714844e+00,-7.649186849594116211e-01,3.442134261131286621e-01,3.090000000000000000e+02
-5.925351038895025795e+02,-5.684258415385244234e+02,-1.639692557248852154e+02,-2.801510785256931513e+02,-3.484382455204072357e+02,-4.945519023251985118e+02,-9.346281658935902215e+01,-1.956241763211572788e+02,9.484992027282714844e+00,-7.649186849594116211e-01,3.442134261131286621e-01,3.100000000000000000e+02
-5.982991650584041281e+02,-5.668754250950785263e+02,-1.603981061737274558e+02,-2.797874022748949301e+02,-3.468332394163961681e+02,-4.920333457524533287e+02,-9.218583632753086476e+01,-1.943314698001154284e+02,9.484992027282714844e+00,-7.649186849594116211e-01,3.442134261131286621e-01,3.110000000000000000e+02
-6.003816035104523507e+02,-5.646177802405725288e+02,-1.570860218193311084e+02,-2.789001052979621704e+02,-3.449187444641466982e+02,-4.893946852744618354e+02,-8.961051432476995160e+01,-1.932256230484815660e+02,9.408499717712402344e+00,-7.649186849594116211e-01,2.677215635776519775e-01,3.120000000000000000e+02
-5.997925288110047859e+02,-5.615126160563380608e+02,-1.549499536399683848e+02,-2.771047931342143329e+02,-3.429788149947938791e+02,-4.870888808407789838e+02,-8.647722373718966082e+01,-1.943906426790632622e+02,9.408499717712402344e+00,-7.649186849594116211e-01,2.677215635776519775e-01,3.130000000000000000e+02
-5.984548066225931962e+02,-5.580158420040872898e+02,-1.544917812448587711e+02,-2.746165981395404287e+02,-3.417772428919049617e+02,-4.856445573715634509e+02,-8.425673563719135473e+01,-1.991268422740122332e+02,9.408499717712402344e+00,-7.649186849594116211e-01,2.677215635776519775e-01,3.140000000000000000e+02
-5.981987892912983398e+02,-5.547112613064223297e+02,-1.554772979150417314e+02,-2.721134294156950091e+02,-3.419146503095684011e+02,-4.852375060229812789e+02,-8.431459308797400354e+01,-2.061754399606319339e+02,9.408499717712402344e+00,-7.649186849594116211e-01,2.677215635776519775e-01,3.150000000000000000e+02
-5.997879563693780938e+02,-5.517979238439070286e+02,-1.569484405348463270e+02,-2.701722602497022763e+02,-3.431504593803334728e+02,-4.854901994652791473e+02,-8.691794506067640214e+01,-2.119886915141240706e+02,9.408499717712402344e+00,-7.649186849594116211e-01,2.677215635776519775e-01,3.160000000000000000e+02
-6.023672034064493346e+02,-5.490340858017513028e+02,-1.576884190382023689e+02,-2.687583137335591346e+02,-3.443325730853481446e+02,-4.856786544202245750e+02,-9.083314236907972372e+01,-2.130828165147040636e+02,9.408499717712402344e+00,-7.649186849594116211e-01,2.677215635776519775e-01,3.170000000000000000e+02
-6.037766518662056114e+02,-5.461112459526744942e+02,-1.569149499046862957e+02,-2.672595171754757075e+02,-3.440622400399477101e+02,-4.852037970852002218e+02,-9.394141855314080658e+01,-2.085742621400308963e+02,9.408499717712402344e+00,-7.649186849594116211e-01,2.677215635776519775e-01,3.180000000000000000e+02
-6.017598707546700325e+02,-5.430196845200235884e+02,-1.547210863076074929e+02,-2.650920179528770859e+02,-3.415927963540702876e+02,-4.839803140776091368e+02,-9.456400289845350926e+01,-2.007486483509615027e+02,9.408499717712402344e+00,-7.649186849594116211e-01,2.677215635776519775e-01,3.190000000000000000e+02
-5.953457637398562383e+02,-5.400708059105786560e+02,-1.518897686624109156e+02,-2.623324208046345802e+02,-3.372716635739963067e+02,-4.824353666197204120e+02,-9.256279620111445183e+01,-1.932097952524767379e+02,9.408499717712402344e+00,-7.649186849594116211e-01,2.677215635776519775e-01,3.200000000000000000e+02
-5.854428859904426190e+02,-5.376749878591291463e+02,-1.492230296521925084e+02,-2.597645964668236047e+02,-3.322454076658752911e+02,-4.811103609963836334e+02,-8.937374700454938647e+01,-1.882661925269467247e+02,9.408499717712402344e+00,-7.649186849594116211e-01,2.677215635776519775e-01,3.210000000000000000e+02
-5.741907575423836079e+02,-5.361751368892007577e+02,-1.469880957960605201e+02,-2.582678949408807512e+02,-3.277335649180306518e+02,-4.801990371868434977e+02,-8.695123416012972939e+01,-1.857715083226994466e+02,9.408499717712402344e+00,-7.649186849594116211e-01,2.677215635776519775e-01,3.220000000000000000e+02
-5.635507328864166539e+02,-5.358130254449473568e+02,-1.449701071429934700e+02,-2.580972221465063967e+02,-3.244210284364678500e+02,-4.794074214462109467e+02,-8.644610147784203491e+01,-1.841845845296302286e+02,9.408499717712402344e+00,-7.649186849594116211e-01,2.677215635776519775e-01,3.230000000000000000e+02
-5.542273192938498596e+02,-5.366344897636975020e+02,-1.430267030543619740e+02,-2.587043228247557636e+02,-3.223247832236722843e+02,-4.782446003470637379e+02,-8.762271494367871583e+01,-1.825507502844725423e+02,9.408499717712402344e+00,-7.649186849594116211e-01,2.677215635776519775e-01,3.240000000000000000e+02
-5.456333798159657817e+02,-5.382180915623209785e+02,-1.415135551626017332e+02,-2.591951476163271764e+02,-3.210443671663356326e+02,-4.764344866690117897e+02,-8.934430172205111376e+01,-1.813464942744025166e+02,9.408499717712402344e+00,-7.649186849594116211e-01,2.677215635776519775e-01,3.250000000000000000e+02
-5.366538760800392538e+02,-5.394934840104303930e+02,-1.410643769791337263e+02,-2.589521077807178244e+02,-3.200867023318231759e+02,-4.740593061917721798e+02,-9.057009687708739420e+01,-1.814350946042984560e+02,9.408499717712402344e+00,-7.649186849594116211e-01,2.677215635776519775e-01,3.260000000000000000e+02
-5.264494471017375190e+02,-5.390654597067763234e+02,-1.418919945469571076e+02,-2.579138622775064960e+02,-3.190681818783541530e+02,-4.713643549714306573e+02,-9.099832153423699310e+01,-1.824342938274982089e+02,9.408499717712402344e+00,-7.649186849594116211e-01,2.677215635776519775e-01,3.270000000000000000e+02
-5.148476153102777744e+02,-5.360641312473469497e+02,-1.433111016875276391e+02,-2.564173878167922567e+02,-3.177740459943070164e+02,-4.685043639643351980e+02,-9.093298350655663853e+01,-1.825603214475712548e+02,9.408499717712402344e+00,-7.649186849594116211e-01,2.677215635776519775e-01,3.280000000000000000e+02
-5.024045552593267985e+02,-5.309139908067872966e+02,-1.440304553234481091e+02,-2.549032597220881371e+02,-3.161532533877624473e+02,-4.655366358115370531e+02,-9.071222645717557498e+01,-1.803633622163670225e+02,9.408499717712402344e+00,-7.649186849594116211e-01,2.677215635776519775e-01,3.290000000000000000e+02
-4.902977801438607912e+02,-5.252459273287815904e+02,-1.430228653728376003e+02,-2.537250103273795503e+02,-3.142501868411192163e+02,-4.626032525580735637e+02,-9.033021547590124101e+01,-1.764946051643314604e+02,9.408499717712402344e+00,-7.649186849594116211e-01,2.677215635776519775e-01,3.300000000000000000e+02
-4.799063743675052365e+02,-5.208336415917084423e+02,-1.402166853049563997e+02,-2.530415026847606441e+02,-3.120617939981876816e+02,-4.599748637179764046e+02,-8.956054517913457858e+01,-1.733337623182291054e+02,9.408499717712402344e+00,-7.649186849594116211e-01,2.677215635776519775e-01,3.310000000000000000e+02
-4.719565238083961276e+02,-5.183726583348231998e+02,-1.364268912829909368e+02,-2.527111552168134949e+02,-3.094290577974680900e+02,-4.578151149077862101e+02,-8.835195373664191720e+01,-1.724757661311208494e+02,9.408499717712402344e+00,-7.649186849594116211e-01,2.677215635776519775e-01,3.320000000000000000e+02
-4.657269887973479854e+02,-5.171347664472252745e+02,-1.326598584353388333e+02,-2.522788752859473789e+02,-3.061424071235328483e+02,-4.559281083583109648e+02,-8.703125031261720324e+01,-1.726281870846610218e+02,9.408499717712402344e+00,-7.649186849594116211e-01,2.677215635776519775e-01,3.330000000000000000e+02
-4.592598296015530650e+02,-5.157840434142474351e+02,-1.294919198702351650e+02,-2.512469864600723213e+02,-3.023079104910781325e+02,-4.538778931616297996e+02,-8.614130686356497790e+01,-1.706319442514391085e+02,9.408499717712402344e+00,-7.649186849594116211e-01,2.677215635776519775e-01,3.340000000000000000e+02
-4.508718447320394489e+02,-5.135675054013735235e+02,-1.270348826457673113e+02,-2.495427156085046363e+02,-2.986701525121050054e+02,-4.514694066064230356e+02,-8.609984295777314856e+01,-1.652740755326789213e+02,9.408499717712402344e+00,-7.649186849594116211e-01,2.677215635776519775e-01,3.350000000000000000e+02
-4.408151616773193382e+02,-5.108000393312709093e+02,-1.253469562751106423e+02,-2.477682503382759478e+02,-2.964509749489178603e+02,-4.491043199788496167e+02,-8.698355193450765910e+01,-1.601938434838273224e+02,9.408499717712402344e+00,-7.649186849594116211e-01,2.677215635776519775e-01,3.360000000000000000e+02
-4.312625011732579878e+02,-5.082933446209667636e+02,-1.247032488018061258e+02,-2.468775805272704247e+02,-2.966009082103258834e+02,-4.475527691960091943e+02,-8.855565275763831323e+01,-1.622575881467919316e+02,9.408499717712402344e+00,-7.649186849594116211e-01,2.677215635776519775e-01,3.370000000000000000e+02
-4.241626731069932248e+02,-5.063915317832143046e+02,-1.253346421472208476e+02,-2.474213598417962885e+02,-2.989288245499510595e+02,-4.472388890543793423e+02,-9.039059863956219942e+01,-1.758338994873940919e+02,9.408499717712402344e+00,-7.649186849594116211e-01,2.677215635776519775e-01,3.380000000000000000e+02
-4.189237662491598257e+02,-5.045901280934812121e+02,-1.268923819481883584e+02,-2.489912639283444378e+02,-3.018889092504255132e+02,-4.476844897092259998e+02,-9.195680143449794741e+01,-1.977901757857680423e+02,9.408499717712402344e+00,-7.649186849594116211e-01,2.677215635776519775e-01,3.390000000000000000e+02
-4.125975559346584305e+02,-5.020576587956886669e+02,-1.283001072000606655e+02,-2.504055456526227772e+02,-3.034103922551055348e+02,-4.476875660109008095e+02,-9.271860189282642750e+01,-2.181848500174226047e+02,9.408499717712402344e+00,-7.649186849594116211e-01,2.677215635776519775e-01,3.400000000000000000e+02
-4.029608107692802150e+02,-4.984844782417001170e+02,-1.283459316154144290e+02,-2.505379405499758150e+02,-3.022669160070267935e+02,-4.461527726692504530e+02,-9.237688992494486229e+01,-2.268311705099081337e+02,9.408499717712402344e+00,-7.649186849594116211e-01,2.677215635776519775e-01,3.410000000000000000e+02
-3.916080301083711674e+02,-4.944291259210590397e+02,-1.266239158875682733e+02,-2.491136577104986145e+02,-2.989017089731446504e+02,-4.428861102048899738e+02,-9.116727868304496951e+01,-2.205117539762263732e+02,9.408499717712402344e+00,-7.649186849594116211e-01,2.677215635776519775e-01,3.420000000000000000e+02
-3.834875881084410594e+02,-4.908804902992451389e+02,-1.239614030322213694e+02,-2.468127667605820079e+02,-2.949508864846175129e+02,-4.386830930366641041e+02,-8.989392228702217835e+01,-2.048174828230125968e+02,9.484992027282714844e+00,-7.266727685928344727e-01,2.677215635776519775e-01,3.430000000000000000e+02
-3.825331450282387777e+02,-4.884875877822710208e+02,-1.218247772757906660e+02,-2.446373537100680551e+02,-2.918113212023308733e+02,-4.346565788719879038e+02,-8.946578823661116076e+01,-1.892672388906080414e+02,9.484992027282714844e+00,-7.266727685928344727e-01,2.677215635776519775e-01,3.440000000000000000e+02
-3.872654952967468489e+02,-4.871158534133546709e+02,-1.211085822930185714e+02,-2.431117463293173842e+02,-2.894964112745321927e+02,-4.313816372291225889e+02,-9.014769688649516866e+01,-1.801627771418989141e+02,9.484992027282714844e+00,-7.266727685928344727e-01,2.677215635776519775e-01,3.450000000000000000e+02
-3.909547132815732766e+02,-4.860044832605717602e+02,-1.213732329194144768e+02,-2.419712561612241188e+02,-2.868391097489516142e+02,-4.285587365528490409e+02,-9.115249735622364824e+01,-1.771656994426234633e+02,9.484992027282714844e+00,-7.266727685928344727e-01,2.677215635776519775e-01,3.460000000000000000e+02
-3.868365126320632044e+02,-4.842927132103072836e+02,-1.212983970771904296e+02,-2.405362383738133758e+02,-2.828963764522150086e+02,-4.254309780147850688e+02,-9.108496003569985078e+01,-1.757385456488339059e+02,9.484992027282714844e+00,-7.266727685928344727e-01,2.677215635776519775e-01,3.470000000000000000e+02
-3.737999172113766235e+02,-4.815043487260406891e+02,-1.199992786412963142e+02,-2.383722075282214519e+02,-2.782280455078494015e+02,-4.215336303511508049e+02,-8.902955464813521758e+01,-1.723048481558960248e+02,9.484992027282714844e+00,-7.266727685928344727e-01,2.677215635776519775e-01,3.480000000000000000e+02
-3.572304386243972658e+02,-4.777645931253068738e+02,-1.179859588394747334e+02,-2.356655055762362281e+02,-2.747428650126785215e+02,-4.171095947429444095e+02,-8.541789501361085968e+01,-1.672110628329444353e+02,9.484992027282714844e+00,-7.266727685928344727e-01,2.677215635776519775e-01,3.490000000000000000e+02
-3.442804117086577662e+02,-4.737311711906934306e+02,-1.167971795879136607e+02,-2.330464634298680267e+02,-2.740911045631014531e+02,-4.128420908673745089e+02,-8.186346864297024695e+01,-1.634120841285653114e+02,9.484992027282714844e+00,-7.266727685928344727e-01,2.677215635776519775e-01,3.500000000000000000e+02
-3.382276741956225123e+02,-4.702998765175868812e+02,-1.175654963455779125e+02,-2.310889833958831332e+02,-2.760148505446550189e+02,-4.091927060848518067e+02,-7.999418631923163048e+01,-1.629867589749248964e+02,9.484992027282714844e+00,-7.266727685928344727e-01,2.677215635776519775e-01,3.510000000000000000e+02
-3.372079790214338573e+02,-4.681408030362488262e+02,-1.198425225207020048e+02,-2.299597528992653679e+02,-2.782219597764010359e+02,-4.059976305584864349e+02,-8.019275188045753566e+01,-1.650747154875273282e+02,9.484992027282714844e+00,-7.266727685928344727e-01,2.677215635776519775e-01,3.520000000000000000e+02
-3.378400581229986983e+02,-4.672161712980705488e+02,-1.218071965194253607e+02,-2.294548763957411666e+02,-2.780142869635660645e+02,-4.026949981297011618e+02,-8.125958623407632331e+01,-1.668076933720744819e+02,9.484992027282714844e+00,-7.266727685928344727e-01,2.677215635776519775e-01,3.530000000000000000e+02
-3.392662025618662938e+02,-4.666024383087778915e+02,-1.216989331232030054e+02,-2.292679477273586599e+02,-2.743273901570792077e+02,-3.989258093268610992e+02,-8.126149760256794252e+01,-1.658752044656707767e+02,9.484992027282714844e+00,-7.266727685928344727e-01,2.677215635776519775e-01,3.540000000000000000e+02
-3.431579923639108074e+02,-4.648906704181970326e+02,-1.191804948389572019e+02,-2.291640235654845128e+02,-2.684674897194372534e+02,-3.948805203051106218e+02,-7.886783674780599540e+01,-1.622175368844821151e+02,9.484992027282714844e+00,-7.266727685928344727e-01,2.677215635776519775e-01,3.550000000000000000e+02
-3.501190617229801774e+02,-4.610677627453499099e+02,-1.154636194009895007e+02,-2.289286565726708886e+02,-2.630225100688655857e+02,-3.910479173160797473e+02,-7.417190160167820068e+01,-1.576934954860942071e+02,9.484992027282714844e+00,-7.266727685928344727e-01,2.677215635776519775e-01,3.560000000000000000e+02
-3.570999595115158627e+02,-4.553207773638184790e+02,-1.122500061247123995e+02,-2.282782455160695463e+02,-2.599914019206803459e+02,-3.876749158719419484e+02,-6.849824668177097919e+01,-1.544875714733050245e+02,9.484992027282714844e+00,-7.266727685928344727e-01,2.677215635776519775e-01,3.570000000000000000e+02
-3.593285609630383988e+02,-4.491007919471710466e+02,-1.105815313605812662e+02,-2.269638010305166063e+02,-2.596808276496462895e+02,-3.845410129726601554e+02,-6.349650932450617802e+01,-1.536027407543713252e+02,9.484992027282714844e+00,-7.266727685928344727e-01,2.677215635776519775e-01,3.580000000000000000e+02
-3.550248124099193774e+02,-4.442529632832313382e+02,-1.105588661927990870e+02,-2.250233533935434025e+02,-2.610080243205093211e+02,-3.812752800301059324e+02,-6.023054934936499194e+01,-1.543304774742937298e+02,9.484992027282714844e+00,-7.266727685928344727e-01,2.677215635776519775e-01,3.590000000000000000e+02
-3.477178608366443768e+02,-4.417568885484140537e+02,-1.118433961945600004e+02,-2.228760395220767805e+02,-2.625502459415749854e+02,-3.778181271767743965e+02,-5.878041167510036757e+01,-1.548672826221682044e+02,9.484992027282714844e+00,-7.266727685928344727e-01,2.677215635776519775e-01,3.600000000000000000e+02
-3.432981081060747783e+02,-4.410174293517447950e+02,-1.141161705288200210e+02,-2.210637936079551764e+02,-2.632981924024438740e+02,-3.744782083658201373e+02,-5.843136644247761069e+01,-1.536908680223482406e+02,9.484992027282714844e+00,-7.266727685928344727e-01,2.677215635776519775e-01,3.610000000000000000e+02
-3.444986556555963944e+02,-4.402751958978658422e+02,-1.169601034857678314e+02,-2.198343625781135415e+02,-2.626996518132364145e+02,-3.715200632242745087e+02,-5.819321230235664189e+01,-1.509093558289114299e+02,9.484992027282714844e+00,-7.266727685928344727e-01,2.677215635776519775e-01,3.620000000000000000e+02
-3.483824326201363419e+02,-4.378381707765822739e+02,-1.194880547587672481e+02,-2.189592110353564749e+02,-2.604199113326346833e+02,-3.687705689497072399e+02,-5.730522264682167588e+01,-1.485917977477824934e+02,9.484992027282714844e+00,-7.266727685928344727e-01,2.677215635776519775e-01,3.630000000000000000e+02
-3.493829751629180009e+02,-4.332187285166407946e+02,-1.204641483210373281e+02,-2.179679757181922923e+02,-2.563834811372689728e+02,-3.657209846938303599e+02,-5.551600437688193779e+01,-1.495301558513140208e+02,9.523238182067871094e+00,-8.031646609306335449e-01,2.677215635776519775e-01,3.640000000000000000e+02
-3.446817754035519101e+02,-4.273725078064135232e+02,-1.191056012393669334e+02,-2.165497794184825580e+02,-2.510723684764780046e+02,-3.620175532437935999e+02,-5.306808491054607657e+01,-1.550549836898974263e+02,9.523238182067871094e+00,-8.031646609306335449e-01,2.677215635776519775e-01,3.650000000000000000e+02
-3.364341534820539437e+02,-4.219637756578551944e+02,-1.158631048567913240e+02,-2.147244238191167369e+02,-2.455973603752627241e+02,-3.577963857426564118e+02,-5.044799386988734113e+01,-1.636183915223191434e+02,9.523238182067871094e+00,-8.031646609306335449e-01,2.677215635776519775e-01,3.660000000000000000e+02
-3.288839333584814995e+02,-4.182728883239619790e+02,-1.123072701111964307e+02,-2.126902109813308925e+02,-2.412479472275088028e+02,-3.535211506755540540e+02,-4.808030517448287355e+01,-1.715480153976855036e+02,9.523238182067871094e+00,-8.031646609306335449e-01,2.677215635776519775e-01,3.670000000000000000e+02
-3.238521225495458111e+02,-4.164895129960486884e+02,-1.100270161120256489e+02,-2.106045871351072947e+02,-2.387924176684123267e+02,-3.495480645380985152e+02,-4.614436916982822368e+01,-1.755619613918190680e+02,9.523238182067871094e+00,-8.031646609306335449e-01,2.677215635776519775e-01,3.680000000000000000e+02
-3.195076971973876425e+02,-4.157413850589562117e+02,-1.094392808177294683e+02,-2.085587007179635748e+02,-2.380801567597434314e+02,-3.459104800721788706e+02,-4.456779912700812929e+01,-1.749258145431556386e+02,9.523238182067871094e+00,-8.031646609306335449e-01,2.677215635776519775e-01,3.690000000000000000e+02
-3.134037549123470399e+02,-4.146871883095382145e+02,-1.095805627198915317e+02,-2.066949858827567823e+02,-2.382193527014303527e+02,-3.424851156085396724e+02,-4.312168900490655687e+01,-1.713105522199145980e+02,9.523238182067871094e+00,-8.031646609306335449e-01,2.677215635776519775e-01,3.700000000000000000e+02
-3.060377953845886623e+02,-4.122663288807455046e+02,-1.090941039802726209e+02,-2.052168272846822674e+02,-2.381327837953990638e+02,-3.392381925246945684e+02,-4.152915540946150941e+01,-1.666691661972754446e+02,9.523238182067871094e+00,-8.031646609306335449e-01,2.677215635776519775e-01,3.710000000000000000e+02
-3.007783660529730696e+02,-4.082116038603699053e+02,-1.075215249288407904e+02,-2.041974077660299827e+02,-2.370786970770082007e+02,-3.362157052162683613e+02,-3.955557988854320683e+01,-1.614192273132443916e+02,9.523238182067871094e+00,-8.031646609306335449e-01,2.677215635776519775e-01,3.720000000000000000e+02
-3.002418633070997203e+02,-4.030826847967159665e+02,-1.057031249016886250e+02,-2.033900492956968264e+02,-2.348686338673905993e+02,-3.333073755900045398e+02,-3.709095562106676880e+01,-1.547849936649918163e+02,9.523238182067871094e+00,-8.031646609306335449e-01,2.677215635776519775e-01,3.730000000000000000e+02
-3.032152230471606345e+02,-3.978073048444064170e+02,-1.048930497581693544e+02,-2.022961537026449150e+02,-2.317915318654179373e+02,-3.301414895117372907e+02,-3.422514308655331661e+01,-1.467257066476836371e+02,9.523238182067871094e+00,-8.031646609306335449e-01,2.677215635776519775e-01,3.740000000000000000e+02
-3.055858280552936321e+02,-3.930076798623865670e+02,-1.054023840363606723e+02,-2.004757080928911819e+02,-2.283685911818529348e+02,-3.263159942853708344e+02,-3.126602856750287174e+01,-1.390404827581937752e+02,9.523238182067871094e+00,-8.031646609306335449e-01,2.677215635776519775e-01,3.750000000000000000e+02
-3.043704445022731306e+02,-3.886175011474035728e+02,-1.060753317919595702e+02,-1.978443183573936039e+02,-2.250652631510056381e+02,-3.217818444788308625e+02,-2.868163798616706117e+01,-1.341507710743126154e+02,9.523238182067871094e+00,-8.031646609306335449e-01,2.677215635776519775e-01,3.760000000000000000e+02
-3.005488414123626626e+02,-3.841480055540619105e+02,-1.051760018307456903e+02,-1.947453499146843114e+02,-2.220984441021130351e+02,-3.170019863519992214e+02,-2.698934476097838342e+01,-1.327724165127110609e+02,9.523238182067871094e+00,-8.031646609306335449e-01,2.677215635776519775e-01,3.770000000000000000e+02
-2.977232392939204146e+02,-3.794045446454410921e+02,-1.019420240735689731e+02,-1.918073970666714558e+02,-2.194598119446754936e+02,-3.127139375889582880e+02,-2.660818152341744280e+01,-1.331365886417652291e+02,9.523238182067871094e+00,-8.031646609306335449e-01,2.677215635776519775e-01,3.780000000000000000e+02
-2.981373151808265902e+02,-3.749536715613235174e+02,-9.740617796947094575e+01,-1.897281547696416055e+02,-2.171482038759083935e+02,-3.094868567683552101e+02,-2.767105114158289325e+01,-1.328299276021600690e+02,9.523238182067871094e+00,-8.031646609306335449e-01,2.677215635776519775e-01,3.790000000000000000e+02
-3.002923982820250330e+02,-3.717683739267843066e+02,-9.371533943017743695e+01,-1.890405324561500038e+02,-2.153813513472859995e+02,-3.073942761626231004e+02,-2.982646953416588076e+01,-1.313314651057389710e+02,9.523238182067871094e+00,-8.031646609306335449e-01,2.677215635776519775e-01,3.800000000000000000e+02
-3.005385423024595184e+02,-3.702698597605335635e+02,-9.252552870017120767e+01,-1.898466314831466661e+02,-2.144887595454997609e+02,-3.059887520350603154e+02,-3.217964522550209949e+01,-1.303411527098296574e+02,9.523238182067871094e+00,-8.031646609306335449e-01,2.677215635776519775e-01,3.810000000000000000e+02
-2.968084333830024661e+02,-3.696795823550444311e+02,-9.386634257901778255e+01,-1.916159672077276355e+02,-2.144778072851113393e+02,-3.045592151192217898e+02,-3.356612309239881142e+01,-1.313791300128104922e+02,9.523238182067871094e+00,-8.031646609306335449e-01,2.677215635776519775e-01,3.820000000000000000e+02
-2.906498457301231610e+02,-3.684061313372721997e+02,-9.636582969253981901e+01,-1.932709461923307117e+02,-2.146666114517056485e+02,-3.025099584152012540e+02,-3.313945407136952781e+01,-1.333023692410024523e+02,9.523238182067871094e+00,-8.031646609306335449e-01,2.677215635776519775e-01,3.830000000000000000e+02
-2.857323609881686934e+02,-3.652320607184949495e+02,-9.847235335087339081e+01,-1.936726315350363166e+02,-2.138712438667889728e+02,-2.996645723055844428e+02,-3.093807983633473668e+01,-1.328273175401282060e+02,9.523238182067871094e+00,-8.031646609306335449e-01,2.677215635776519775e-01,3.840000000000000000e+02
-2.846976753959684174e+02,-3.602626200264403451e+02,-9.950234042368060727e+01,-1.922664606178389022e+02,-2.112098867401864482e+02,-2.963207636225852184e+02,-2.797837023566353309e+01,-1.279970401278865211e+02,9.523238182067871094e+00,-8.031646609306335449e-01,2.677215635776519775e-01,3.850000000000000000e+02
-2.875730153623044316e+02,-3.547847726989125476e+02,-9.971852987104080057e+01,-1.894181190359231550e+02,-2.069583606334890646e+02,-2.930151668944008634e+02,-2.571219019605700851e+01,-1.209143912537301730e+02,9.523238182067871094e+00,-8.031646609306335449e-01,2.677215635776519775e-01,3.860000000000000000e+02
-2.928193753154555452e+02,-3.502223295546450572e+02,-9.968424026512730052e+01,-1.861590031229602573e+02,-2.026662896051225289e+02,-2.901620556487023350e+02,-2.518413380673246138e+01,-1.163547733701025209e+02,9.523238182067871094e+00,-8.031646609306335449e-01,2.677215635776519775e-01,3.870000000000000000e+02
-2.992228156113010300e+02,-3.471752889554063586e+02,-9.970664424384949598e+01,-1.835041655736013126e+02,-2.002288647074428809e+02,-2.878201181150943739e+02,-2.644741034140497504e+01,-1.170979546737094097e+02,9.523238182067871094e+00,-8.031646609306335449e-01,2.677215635776519775e-01,3.880000000000000000e+02
-3.063804012408882045e+02,-3.452993995035585613e+02,-9.982284643363527721e+01,-1.818347909656113188e+02,-2.004966110701652724e+02,-2.857378019260354449e+02,-2.858651538718777374e+01,-1.207157639836091221e+02,9.484992027282714844e+00,-6.884268522262573242e-01,3.442134261131286621e-01,3.890000000000000000e+02
-3.135948436570411104e+02,-3.438640188720805781e+02,-1.000470913273145470e+02,-1.807424634339854492e+02,-2.024944752216306370e+02,-2.835690322385676154e+02,-3.025068193947845430e+01,-1.216775328527105557e+02,9.484992027282714844e+00,-6.884268522262573242e-01,3.442134261131286621e-01,3.900000000000000000e+02
-3.190850680500816452e+02,-3.422888577134544903e+02,-1.003883056440461132e+02,-1.793856720489434338e+02,-2.039688345773824949e+02,-2.810488473458840417e+02,-3.033865759820855601e+01,-1.173630805378529658e+02,9.484992027282714844e+00,-6.884268522262573242e-01,3.442134261131286621e-01,3.910000000000000000e+02
-3.210620748664314306e+02,-3.402520790021312678e+02,-1.006153899108453516e+02,-1.771030589420415708e+02,-2.029596027705529195e+02,-2.780556681456891965e+02,-2.850831380806903326e+01,-1.120933120101399254e+02,9.484992027282714844e+00,-6.884268522262573242e-01,3.442134261131286621e-01,3.920000000000000000e+02
-3.197028334936262581e+02,-3.375910295716980727e+02,-1.001885916933451881e+02,-1.739011134534071061e+02,-1.992043345225119992e+02,-2.746396019372591581e+02,-2.532474744964974889e+01,-1.144624178943731749e+02,9.484992027282714844e+00,-6.884268522262573242e-01,3.442134261131286621e-01,3.930000000000000000e+02
-3.176269113090688734e+02,-3.343738884912809226e+02,-9.861158537874143803e+01,-1.705041842090358841e+02,-1.942226062845024899e+02,-2.710656976371951714e+02,-2.197676898010831792e+01,-1.294966344193903751e+02,9.484992027282714844e+00,-6.884268522262573242e-01,3.442134261131286621e-01,3.940000000000000000e+02
-3.178534479119261960e+02,-3.310595734664866541e+02,-9.588932920349293454e+01,-1.678803232510599628e+02,-1.899642074086364119e+02,-2.677571831373666100e+02,-1.961807253674578533e+01,-1.525911901000490616e+02,9.484992027282714844e+00,-6.884268522262573242e-01,3.442134261131286621e-01,3.950000000000000000e+02
-3.209800816395541005e+02,-3.283387290185437450e+02,-9.258485411093488437e+01,-1.665188766160081286e+02,-1.871533695930320391e+02,-2.650419651846709712e+02,-1.864929282289040202e+01,-1.712683987192694985e+02,9.484992027282714844e+00,-6.884268522262573242e-01,3.442134261131286621e-01,3.960000000000000000e+02
-3.244439505771001677e+02,-3.265600062924604572e+02,-8.940373357757948725e+01,-1.660159929530127556e+02,-1.847839814107301208e+02,-2.628705489102517276e+02,-1.843921162453534635e+01,-1.739892790627086470e+02,9.484992027282714844e+00,-6.884268522262573242e-01,3.442134261131286621e-01,3.970000000000000000e+02
-3.248976435623444559e+02,-3.252551026941359851e+02,-8.675416709089449796e+01,-1.653790443691718792e+02,-1.812376645262074817e+02,-2.608440139736276251e+02,-1.778577748072075337e+01,-1.588276492777035855e+02,9.484992027282714844e+00,-6.884268522262573242e-01,3.442134261131286621e-01,3.980000000000000000e+02
-3.215775490467249256e+02,-3.233740247551386346e+02,-8.472657006532745072e+01,-1.638738672543950088e+02,-1.760404587537777843e+02,-2.586514508211430439e+02,-1.586179549512598896e+01,-1.347538118949414638e+02,9.484992027282714844e+00,-6.884268522262573242e-01,3.442134261131286621e-01,3.990000000000000000e+02
-3.173229661970481175e+02,-3.201510696801828999e+02,-8.339765803097270691e+01,-1.616750970969033006e+02,-1.706245456841566011e+02,-2.565149957781063677e+02,-1.291143460075863914e+01,-1.146415588001773358e+02,9.484992027282714844e+00,-6.884268522262573242e-01,3.442134261131286621e-01,4.000000000000000000e+02
-3.160760528878054174e+02,-3.157743287730449993e+02,-8.297169095126218963e+01,-1.596624689558925638e+02,-1.673008227105442529e+02,-2.550922457351789490e+02,-1.009000401303092076e+01,-1.060515335909176429e+02,9.484992027282714844e+00,-6.884268522262573242e-01,3.442134261131286621e-01,4.010000000000000000e+02
-3.191416125145196929e+02,-3.111529476054229235e+02,-8.352675154925100287e+01,-1.585061593462551173e+02,-1.672872181381358132e+02,-2.547838675579328083e+02,-8.562736522529121430e+00,-1.071806566881209619e+02,9.484992027282714844e+00,-6.884268522262573242e-01,3.442134261131286621e-01,4.020000000000000000e+02
-3.238184684478119379e+02,-3.069803123087367567e+02,-8.465541159520307701e+01,-1.579123398818674104e+02,-1.695251881719918856e+02,-2.550642395106210643e+02,-8.607376130507418566e+00,-1.103709851857943249e+02,9.484992027282714844e+00,-6.884268522262573242e-01,3.442134261131286621e-01,4.030000000000000000e+02
-3.258805665060408501e+02,-3.030572375681754238e+02,-8.548044902782930876e+01,-1.568074884217176077e+02,-1.713717699614267076e+02,-2.545860001737551102e+02,-9.452572298544964724e+00,-1.091868537963246126e+02,9.484992027282714844e+00,-6.884268522262573242e-01,3.442134261131286621e-01,4.040000000000000000e+02
-3.237088202885929604e+02,-2.986053177182861873e+02,-8.514123177361807393e+01,-1.543210953212596905e+02,-1.706115210356970238e+02,-2.521263292348412506e+02,-9.918811096888930479e+00,-1.028785955200200988e+02,9.484992027282714844e+00,-6.884268522262573242e-01,3.442134261131286621e-01,4.050000000000000000e+02
-3.201568877487115969e+02,-2.932592197766557547e+02,-8.332343484387820354e+01,-1.506189162646678597e+02,-1.670859955887167416e+02,-2.476108557208895036e+02,-9.267465882546275679e+00,-9.533285063455014097e+01,9.484992027282714844e+00,-6.884268522262573242e-01,3.442134261131286621e-01,4.060000000000000000e+02
-3.201983877677066630e+02,-2.877136848490245029e+02,-8.039732146608184848e+01,-1.468148096286263353e+02,-1.626419390154951543e+02,-2.423287497845258258e+02,-7.616835287415597122e+00,-9.069636632401443421e+01,9.484992027282714844e+00,-6.884268522262573242e-01,3.442134261131286621e-01,4.070000000000000000e+02
-3.262199639711525379e+02,-2.833274185459185901e+02,-7.713005676609100192e+01,-1.440856157778162014e+02,-1.595593917696683093e+02,-2.381188810169387580e+02,-5.731063393311615073e+00,-9.003881227546889932e+01,9.484992027282714844e+00,-6.884268522262573242e-01,3.442134261131286621e-01,4.080000000000000000e+02
-3.350510394425732557e+02,-2.810339170166803342e+02,-7.431633809306731564e+01,-1.428488684819749324e+02,-1.588311286522889532e+02,-2.361663713942425602e+02,-4.481522142561971123e+00,-9.149427705992138726e+01,9.484992027282714844e+00,-6.884268522262573242e-01,3.442134261131286621e-01,4.090000000000000000e+02
-3.394305677679844848e+02,-2.805916248099197219e+02,-7.257964502145750885e+01,-1.426852817793874237e+02,-1.596257319784299398e+02,-2.363122744834354307e+02,-4.390342610268362478e+00,-9.263813526725925840e+01,9.484992027282714844e+00,-6.884268522262573242e-01,3.442134261131286621e-01,4.100000000000000000e+02
-3.329342253396575870e+02,-2.808404176505541727e+02,-7.225593795366103222e+01,-1.428697929743875648e+02,-1.601215582500722121e+02,-2.372661735275178216e+02,-5.428524227828802395e+00,-9.241143482018878785e+01,9.484992027282714844e+00,-6.884268522262573242e-01,3.442134261131286621e-01,4.110000000000000000e+02
-3.146093729082599566e+02,-2.806719418402080919e+02,-7.320359120324883406e+01,-1.428656462082030885e+02,-1.588271493384927453e+02,-2.374409072460439347e+02,-7.048477872327111982e+00,-9.111902261013483439e+01,9.484992027282714844e+00,-6.884268522262573242e-01,3.442134261131286621e-01,4.120000000000000000e+02
-2.898263315091489858e+02,-2.797967164857195712e+02,-7.464480520644747230e+01,-1.423863617544334375e+02,-1.553612057933346478e+02,-2.358012831304031351e+02,-8.401211666673134459e+00,-8.903684375462398748e+01,9.484992027282714844e+00,-6.884268522262573242e-01,3.442134261131286621e-01,4.130000000000000000e+02
-2.668244428886555397e+02,-2.786667537122361864e+02,-7.536210700675292173e+01,-1.412252591057931568e+02,-1.503467632280753605e+02,-2.322667742035264382e+02,-8.705556113340207958e+00,-8.549842327150417987e+01,9.484992027282714844e+00,-6.884268522262573242e-01,3.442134261131286621e-01,4.140000000000000000e+02
-2.515816427771737835e+02,-2.777398660775020289e+02,-7.435118967921880540e+01,-1.392593741130140188e+02,-1.448316323814901807e+02,-2.275580271655821889e+02,-7.653856460004135442e+00,-7.957206592677357548e+01,9.484992027282714844e+00,-6.884268522262573242e-01,3.442134261131286621e-01,4.150000000000000000e+02
-2.446200174878922553e+02,-2.768499881890056713e+02,-7.154447380534793410e+01,-1.366796693695960130e+02,-1.398131622792479902e+02,-2.226807784652951341e+02,-5.625356139697032631e+00,-7.163023814667349143e+01,9.446745872497558594e+00,-7.649186849594116211e-01,2.294756323099136353e-01,4.160000000000000000e+02
-2.416837706833189259e+02,-2.752834746767580327e+02,-6.797786937429555110e+01,-1.340963620686429749e+02,-1.360635647477802195e+02,-2.183860946827376210e+02,-3.508741703853502258e+00,-6.413627969581966681e+01,9.446745872497558594e+00,-7.649186849594116211e-01,2.294756323099136353e-01,4.170000000000000000e+02
-2.373814560977225483e+02,-2.724713040709189045e+02,-6.514100450435626044e+01,-1.322195838011648448e+02,-1.340322778346690029e+02,-2.149023920947342958e+02,-2.184043209394076257e+00,-6.058323964073042589e+01,9.446745872497558594e+00,-7.649186849594116211e-01,2.294756323099136353e-01,4.180000000000000000e+02
-2.289647410560551180e+02,-2.686387866367872448e+02,-6.395069743007161378e+01,-1.313059080071548124e+02,-1.336294875664129904e+02,-2.120463017883516841e+02,-1.984266318929712725e+00,-6.310513185763011279e+01,9.446745872497558594e+00,-7.649186849594116211e-01,2.294756323099136353e-01,4.190000000000000000e+02
-2.176806481249791432e+02,-2.647870428760916184e+02,-6.414990417247099685e+01,-1.309035930112750066e+02,-1.340577584518769072e+02,-2.095602677042179494e+02,-2.525322633708583453e+00,-7.056223354094709066e+01,9.446745872497558594e+00,-7.649186849594116211e-01,2.294756323099136353e-01,4.200000000000000000e+02
-2.071667104043112886e+02,-2.619582413774514862e+02,-6.460446873130786116e+01,-1.301926802214393319e+02,-1.340442664162451365e+02,-2.073748909696419105e+02,-3.025601726374134159e+00,-7.878951142648020323e+01,9.446745872497558594e+00,-7.649186849594116211e-01,2.294756323099136353e-01,4.210000000000000000e+02
-2.005382489413168514e+02,-2.603875346172649188e+02,-6.421908836893499029e+01,-1.286534919553928376e+02,-1.325417066901741237e+02,-2.055951879123108483e+02,-2.863837594094093220e+00,-8.312173443863093780e+01,9.446745872497558594e+00,-7.649186849594116211e-01,2.294756323099136353e-01,4.220000000000000000e+02
-1.984965686104101223e+02,-2.592954570255806175e+02,-6.268586756012700789e+01,-1.264660704684438315e+02,-1.294511963721888606e+02,-2.042699200305551130e+02,-1.949330969715447281e+00,-8.143501645730202654e+01,9.446745872497558594e+00,-7.649186849594116211e-01,2.294756323099136353e-01,4.230000000000000000e+02
-1.996093837048147179e+02,-2.575588137134627686e+02,-6.047275266990118325e+01,-1.242943586285550737e+02,-1.257258947772602369e+02,-2.031847729388655353e+02,-6.507376663753348112e-01,-7.532102286638746591e+01,9.446745872497558594e+00,-7.649186849594116211e-01,2.294756323099136353e-01,4.240000000000000000e+02
-2.019511533142594999e+02,-2.547513776223154309e+02,-5.817252558883910751e+01,-1.226949422591369512e+02,-1.226624390134907117e+02,-2.018812520638525712e+02,6.041165425958752166e-01,-6.844829010450303031e+01,9.446745872497558594e+00,-7.649186849594116211e-01,2.294756323099136353e-01,4.250000000000000000e+02
-2.043117401285799133e+02,-2.516678160118353844e+02,-5.591032131441806996e+01,-1.217239385322818634e+02,-1.209252171276752961e+02,-1.999142138063166385e+02,1.669439452897677256e+00,-6.356892744581136867e+01,9.446745872497558594e+00,-7.649186849594116211e-01,2.294756323099136353e-01,4.260000000000000000e+02
-2.059759879363923574e+02,-2.498147331952704917e+02,-5.341774101456803692e+01,-1.210816557762200318e+02,-1.201513324455622751e+02,-1.971974087074859199e+02,2.668203311532124644e+00,-6.082776100377714101e+01,9.446745872497558594e+00,-7.649186849594116211e-01,2.294756323099136353e-01,4.270000000000000000e+02
-2.058057288959757898e+02,-2.502089586704159956e+02,-5.067196706583172272e+01,-1.205686969229891474e+02,-1.194814704109685408e+02,-1.941942666272138922e+02,3.712737711199679325e+00,-5.871565505620083059e+01,9.446745872497558594e+00,-7.649186849594116211e-01,2.294756323099136353e-01,4.280000000000000000e+02
-2.021583412800810038e+02,-2.524403012777329423e+02,-4.835844588240934172e+01,-1.203085084370345612e+02,-1.184744542411126531e+02,-1.917547892266297822e+02,4.709983197090878093e+00,-5.633779283384319569e+01,9.446745872497558594e+00,-7.649186849594116211e-01,2.294756323099136353e-01,4.290000000000000000e+02
-1.942015280498080756e+02,-2.547919870138089209e+02,-4.754613583156242385e+01,-1.204691803839368731e+02,-1.174776658060677619e+02,-1.905984732944325515e+02,5.466897784549473727e+00,-5.441808991540574425e+01,9.446745872497558594e+00,-7.649186849594116211e-01,2.294756323099136353e-01,4.300000000000000000e+02
-1.834067339459070354e+02,-2.553780680503450640e+02,-4.877716361890588814e+01,-1.208064224478998767e+02,-1.170980431011457767e+02,-1.907410638126189042e+02,5.938518417394334392e+00,-5.401538265547196715e+01,9.446745872497558594e+00,-7.649186849594116211e-01,2.294756323099136353e-01,4.310000000000000000e+02
-1.732887563719164064e+02,-2.534259155877280136e+02,-5.144984009710151440e+01,-1.206097918271370872e+02,-1.173646587892017124e+02,-1.913254310473516853e+02,6.286505285102975904e+00,-5.464188450090523475e+01,9.446745872497558594e+00,-7.649186849594116211e-01,2.294756323099136353e-01,4.320000000000000000e+02
-1.670942041674688880e+02,-2.496862244511321478e+02,-5.414940881723168786e+01,-1.192134023298749526e+02,-1.174615988091113650e+02,-1.910784130142897084e+02,6.700786761710332939e+00,-5.422499089878556333e+01,9.446745872497558594e+00,-7.649186849594116211e-01,2.294756323099136353e-01,4.330000000000000000e+02
-1.652474173197688287e+02,-2.456913274429812191e+02,-5.565436830062981244e+01,-1.165777164676846951e+02,-1.163174015282270375e+02,-1.891042527679337582e+02,7.287914256519798073e+00,-5.119001575092352141e+01,9.446745872497558594e+00,-7.649186849594116211e-01,2.294756323099136353e-01,4.340000000000000000e+02
-1.649166095750774730e+02,-2.425370294890494733e+02,-5.564600374542033023e+01,-1.132933207714581840e+02,-1.134445099285576362e+02,-1.853973435128345955e+02,8.275256763000925275e+00,-4.625729040462829289e+01,9.446745872497558594e+00,-7.649186849594116211e-01,2.294756323099136353e-01,4.350000000000000000e+02
-1.623873896921199957e+02,-2.402058817773827286e+02,-5.444861758697925325e+01,-1.099503604803730923e+02,-1.091922613772794648e+02,-1.806692123701382116e+02,1.030826548258846742e+01,-4.159653031534526235e+01,9.446745872497558594e+00,-7.649186849594116211e-01,2.294756323099136353e-01,4.360000000000000000e+02
-1.562044469118523011e+02,-2.379295803444560988e+02,-5.221410706805318114e+01,-1.065773012688155177e+02,-1.042783951433007132e+02,-1.757452481616178375e+02,1.425576121234462335e+01,-3.810198958558612503e+01,9.446745872497558594e+00,-7.649186849594116211e-01,2.294756323099136353e-01,4.370000000000000000e+02
-1.482910863619636075e+02,-2.351511521616666869e+02,-4.859199630448074458e+01,-1.028466505686678829e+02,-9.923639073379763431e+01,-1.711578862647452297e+02,2.033760957062077068e+01,-3.411230883016378357e+01,9.446745872497558594e+00,-7.649186849594116211e-01,2.294756323099136353e-01,4.380000000000000000e+02
-1.421376940296468092e+02,-2.321525734998190273e+02,-4.339466365441057860e+01,-9.889648926438576382e+01,-9.442914912503238156e+01,-1.672601111240919636e+02,2.724803701481641838e+01,-2.759752795268332193e+01,9.446745872497558594e+00,-7.649186849594116211e-01,2.294756323099136353e-01,4.390000000000000000e+02
-1.397815127831363498e+02,-2.298028639172180192e+02,-3.758768769042126223e+01,-9.580546867024986568e+01,-9.052491818403495927e+01,-1.645230362425695603e+02,3.230669368395638230e+01,-1.974636810089396022e+01,9.446745872497558594e+00,-7.649186849594116211e-01,2.294756323099136353e-01,4.400000000000000000e+02
-1.404147307155067210e+02,-2.287350190730248869e+02,-3.337488035545629828e+01,-9.495829209498970158e+01,-8.866840898601185472e+01,-1.634396648233719134e+02,3.294342487275298481e+01,-1.541861807104805848e+01,9.446745872497558594e+00,-7.649186849594116211e-01,2.294756323099136353e-01,4.410000000000000000e+02
-1.417769190704243556e+02,-2.287611359810375689e+02,-3.292834303979770993e+01,-9.671036356590684591e+01,-8.983867378466902665e+01,-1.639691063553900676e+02,2.852965387705444300e+01,-1.867552534395053954e+01,9.446745872497558594e+00,-7.649186849594116211e-01,2.294756323099136353e-01,4.420000000000000000e+02
-1.426875109674033411e+02,-2.290150131148898254e+02,-3.667282574771843429e+01,-9.964552671977935461e+01,-9.379994169178462471e+01,-1.651265599075450154e+02,2.105665270820327351e+01,-2.745952661069350142e+01,9.446745872497558594e+00,-7.649186849594116211e-01,2.294756323099136353e-01,4.430000000000000000e+02
-1.440232255394380445e+02,-2.285723765555239879e+02,-4.262671909448135921e+01,-1.013174600245715737e+02,-9.866562617778618005e+01,-1.653462233837335589e+02,1.403230918580629805e+01,-3.368622478964334732e+01,9.446745872497558594e+00,-7.649186849594116211e-01,2.294756323099136353e-01,4.440000000000000000e+02
-1.470649797209503049e+02,-2.269093420802223591e+02,-4.746717493539244970e+01,-9.996560681646178637e+01,-1.016994136772395905e+02,-1.634853705506006918e+02,1.046543023116919358e+01,-3.032665677530803805e+01,9.446745872497558594e+00,-7.649186849594116211e-01,2.294756323099136353e-01,4.450000000000000000e+02
-1.508369960309673843e+02,-2.238794816171111961e+02,-4.851253167830373059e+01,-9.572789815533496949e+01,-1.009006085791688747e+02,-1.596210016300910866e+02,1.146793262593973850e+01,-1.949992988310941655e+01,9.446745872497558594e+00,-7.649186849594116211e-01,2.294756323099136353e-01,4.460000000000000000e+02
-1.513484086769644819e+02,-2.194892903601275975e+02,-4.511675471154649131e+01,-9.034096598895939678e+01,-9.619815108466855236e+01,-1.549292913675990349e+02,1.625172566287983500e+01,-1.309221517657624645e+01,9.446745872497558594e+00,-7.266727685928344727e-01,2.677215635776519775e-01,4.470000000000000000e+02
-1.441101338385619783e+02,-2.139242826392460302e+02,-3.861136183396615706e+01,-8.572818724723993000e+01,-8.937221592710830009e+01,-1.507826538626663933e+02,2.301031129455532209e+01,-2.360624434756618939e+01,9.446745872497558594e+00,-7.266727685928344727e-01,2.677215635776519775e-01,4.480000000000000000e+02
-1.281939938180535137e+02,-2.078357627012692319e+02,-3.118547886091937471e+01,-8.279285071064077783e+01,-8.284819482464808971e+01,-1.478750660685391267e+02,2.969973668489319607e+01,-5.251204912556431736e+01,9.446745872497558594e+00,-7.266727685928344727e-01,2.677215635776519775e-01,4.490000000000000000e+02
-1.082424906341857422e+02,-2.023943703529016602e+02,-2.475295582314765852e+01,-8.130363742942881800e+01,-7.832449323317177914e+01,-1.460296448121348476e+02,3.437834826163862090e+01,-8.681101555579334672e+01,9.446745872497558594e+00,-7.266727685928344727e-01,2.677215635776519775e-01,4.500000000000000000e+02
-9.211355181756334787e+01,-1.987501693810613688e+02,-2.049201185670108316e+01,-8.061027851620565343e+01,-7.618125779397632868e+01,-1.446414715485302622e+02,3.552909319929722187e+01,-1.077891707486946871e+02,9.446745872497558594e+00,-7.266727685928344727e-01,2.677215635776519775e-01,4.510000000000000000e+02
-8.552153017855289363e+01,-1.972461220071927528e+02,-1.892965259142511059e+01,-8.028698696588799066e+01,-7.587391233968719462e+01,-1.432327949258028639e+02,3.270272364931042830e+01,-1.049785375233700506e+02,9.446745872497558594e+00,-7.266727685928344727e-01,2.677215635776519775e-01,4.520000000000000000e+02
-8.794069021872610392e+01,-1.971528845234988694e+02,-2.002988078402404426e+01,-8.018829503120105073e+01,-7.670904381007039774e+01,-1.416915597326456009e+02,2.707988721569836343e+01,-8.343599928532239574e+01,9.446745872497558594e+00,-7.266727685928344727e-01,2.677215635776519775e-01,4.530000000000000000e+02
-9.334793606972561975e+01,-1.972801344194990634e+02,-2.305191698264206934e+01,-8.018450411016374346e+01,-7.824023958295765624e+01,-1.401810669966153000e+02,2.117816287600044234e+01,-5.849452743519987052e+01,9.446745872497558594e+00,-7.266727685928344727e-01,2.677215635776519775e-01,4.540000000000000000e+02
-9.535350742863556661e+01,-1.969331554689752011e+02,-2.647694640359054574e+01,-8.008505014518641474e+01,-8.002763651447821758e+01,-1.389284949879306623e+02,1.755707094822128056e+01,-4.322831106868534334e+01,9.446745872497558594e+00,-7.266727685928344727e-01,2.677215635776519775e-01,4.550000000000000000e+02
-9.230965017951712070e+01,-1.962794255181072458e+02,-2.843360415122833729e+01,-7.982490023095056131e+01,-8.120657686445247236e+01,-1.380309116802341123e+02,1.739019190401404558e+01,-3.965937134042678736e+01,9.446745872497558594e+00,-7.266727685928344727e-01,2.677215635776519775e-01,4.560000000000000000e+02
-8.789724165373445430e+01,-1.957670665418079352e+02,-2.760227956442645336e+01,-7.955238049607100947e+01,-8.053926075068193313e+01,-1.373144283860447104e+02,2.004127338321404750e+01,-4.029628445181651841e+01,9.446745872497558594e+00,-7.266727685928344727e-01,2.677215635776519775e-01,4.570000000000000000e+02
-8.689664418766142262e+01,-1.952270408722424690e+02,-2.399412616349763994e+01,-7.936863006898602180e+01,-7.712337181992870683e+01,-1.363061190467406050e+02,2.393160575153387981e+01,-3.688082096829293732e+01,9.446745872497558594e+00,-7.266727685928344727e-01,2.677215635776519775e-01,4.580000000000000000e+02
-9.051484141415062368e+01,-1.936562626966490370e+02,-1.895497932651551309e+01,-7.897670081555156685e+01,-7.121346582925798430e+01,-1.344182153370820743e+02,2.781831881491075364e+01,-2.761667787415399289e+01,9.446745872497558594e+00,-7.266727685928344727e-01,2.677215635776519775e-01,4.590000000000000000e+02
-9.592559845738855984e+01,-1.900264954600845613e+02,-1.433016309602135152e+01,-7.773137965472574251e+01,-6.438104472829149927e+01,-1.313137856552989433e+02,3.130481373926204469e+01,-1.710652311067997289e+01,9.446745872497558594e+00,-7.266727685928344727e-01,2.677215635776519775e-01,4.600000000000000000e+02
-1.000455631716972675e+02,-1.843916512240891734e+02,-1.141445637532433466e+01,-7.519072601322955052e+01,-5.873633919903841161e+01,-1.272023169671069809e+02,3.427437924512423706e+01,-1.073936054271871399e+01,9.446745872497558594e+00,-7.266727685928344727e-01,2.677215635776519775e-01,4.610000000000000000e+02
-1.029645164339117400e+02,-1.782014193900956798e+02,-1.046360974250592335e+01,-7.169316838962458860e+01,-5.577206114215800881e+01,-1.228131100328546381e+02,3.604311638641661375e+01,-9.792137451858934583e+00,9.446745872497558594e+00,-7.266727685928344727e-01,2.677215635776519775e-01,4.620000000000000000e+02
-1.069878526224110828e+02,-1.734428127342091557e+02,-1.099784742397241644e+01,-6.835491002046182984e+01,-5.571738607346946992e+01,-1.190373023824818119e+02,3.530914903422808493e+01,-1.144668378090682381e+01,9.446745872497558594e+00,-7.266727685928344727e-01,2.677215635776519775e-01,4.630000000000000000e+02
-1.124945294552826454e+02,-1.713106562443274470e+02,-1.242198624497905257e+01,-6.638745091958116973e+01,-5.779729337344065243e+01,-1.164963866602215603e+02,3.116289197055084514e+01,-1.246464393665223724e+01,9.446745872497558594e+00,-7.266727685928344727e-01,2.677215635776519775e-01,4.640000000000000000e+02
-1.159608082885779368e+02,-1.715008748507455039e+02,-1.429808661353831667e+01,-6.626932627502242212e+01,-6.097812760025840362e+01,-1.153159729377227904e+02,2.431952597635086022e+01,-1.217939001613217442e+01,9.446745872497558594e+00,-7.266727685928344727e-01,2.677215635776519775e-01,4.650000000000000000e+02
-1.134103823523412302e+02,-1.726307147208851802e+02,-1.612747707828975763e+01,-6.746097167840548536e+01,-6.445934003384923017e+01,-1.151804826200077514e+02,1.736692340556191994e+01,-1.212982095037864383e+01,9.446745872497558594e+00,-7.266727685928344727e-01,2.677215635776519775e-01,4.660000000000000000e+02
-1.059399298018631725e+02,-1.733315980718796254e+02,-1.715516100059357996e+01,-6.888147037446287868e+01,-6.763195839500576767e+01,-1.155663443876485417e+02,1.351985904597336230e+01,-1.346813217984390576e+01,9.446745872497558594e+00,-7.266727685928344727e-01,2.677215635776519775e-01,4.670000000000000000e+02
-1.003435814200850018e+02,-1.730956945828515927e+02,-1.669973716047979906e+01,-6.970207038047306014e+01,-6.986007835645659725e+01,-1.159968857129363187e+02,1.461686698695257292e+01,-1.520439396838128232e+01,9.446745872497558594e+00,-7.266727685928344727e-01,2.677215635776519775e-01,4.680000000000000000e+02
-1.022986384524574532e+02,-1.722927859124856695e+02,-1.482929344507124370e+01,-6.977089742616431067e+01,-7.055393092658437126e+01,-1.162006566226798441e+02,1.984249260431488437e+01,-1.499051328515179193e+01,9.446745872497558594e+00,-7.266727685928344727e-01,2.677215635776519775e-01,4.690000000000000000e+02
-1.081160611729167158e+02,-1.715100021494968132e+02,-1.260537412098574350e+01,-6.935524085121392091e+01,-6.950759225843057720e+01,-1.160958619947462012e+02,2.625196313401670523e+01,-1.140120309576991531e+01,9.446745872497558594e+00,-7.266727685928344727e-01,2.677215635776519775e-01,4.700000000000000000e+02
-1.043608561727389770e+02,-1.708809531835711368e+02,-1.137833779822085489e+01,-6.853875904677533981e+01,-6.704230799459105583e+01,-1.156084133642727920e+02,3.083432509821909662e+01,-5.341640622961222107e+00,9.446745872497558594e+00,-7.266727685928344727e-01,2.677215635776519775e-01,4.710000000000000000e+02
-7.793261992492080026e+01,-1.699750335486944550e+02,-1.160544053957278265e+01,-6.693379485572381782e+01,-6.369955237843237228e+01,-1.144935214380068373e+02,3.258003705232499669e+01,7.276909634010735317e-01,9.446745872497558594e+00,-7.266727685928344727e-01,2.677215635776519775e-01,4.720000000000000000e+02
-2.830923323430261007e+01,-1.682780164825267093e+02,-1.231082168802822707e+01,-6.403942873537710057e+01,-5.980765327623544181e+01,-1.123949662414784143e+02,3.292046122764486427e+01,4.947898690600823102e+00,9.446745872497558594e+00,-7.266727685928344727e-01,2.677215635776519775e-01,4.730000000000000000e+02
2.993139615847621826e+01,-1.658004384438479519e+02,-1.185345595654962381e+01,-5.991548580712594685e+01,-5.547850689899792087e+01,-1.091965503894771246e+02,3.415770567103584199e+01,7.582682437196581304e+00,9.446745872497558594e+00,-7.266727685928344727e-01,2.677215635776519775e-01,4.740000000000000000e+02
7.773826045610144320e+01,-1.632769005322661542e+02,-9.424378919052855963e+00,-5.548706745047888944e+01,-5.110735299302825752e+01,-1.053920705292548519e+02,3.718504828244806504e+01,1.044795482968447686e+01,9.446745872497558594e+00,-7.266727685928344727e-01,2.677215635776519775e-01,4.750000000000000000e+02
1.061194612281562968e+02,-1.617601738463878291e+02,-5.892910341202764357e+00,-5.209571812938793300e+01,-4.773113341837142798e+01,-1.020387035212231694e+02,4.048956072944599782e+01,1.465162220744730348e+01,9.446745872497558594e+00,-7.266727685928344727e-01,2.677215635776519775e-01,4.760000000000000000e+02
1.212065710425291627e+02,-1.618993833379854550e+02,-3.145679318341876751e+00,-5.061870125434484180e+01,-4.657725609779129172e+01,-1.001646736964601132e+02,4.139428215036537040e+01,1.866273889802494068e+01,9.446745872497558594e+00,-7.266727685928344727e-01,2.677215635776519775e-01,4.770000000000000000e+02
1.354794174748792557e+02,-1.634322756090093662e+02,-2.454408344114085594e+00,-5.089149253340269752e+01,-4.797859026629078016e+01,-1.000358523063335952e+02,3.852276122711236894e+01,1.873953697712011035e+01,9.446745872497558594e+00,-7.266727685928344727e-01,2.677215635776519775e-01,4.780000000000000000e+02
1.541855920226494163e+02,-1.652638085286191654e+02,-3.362607019918868900e+00,-5.191045282601862709e+01,-5.069510251674694246e+01,-1.009197373223021259e+02,3.327834699650657058e+01,1.184376300160261053e+01,9.446745872497558594e+00,-7.266727685928344727e-01,2.677215635776519775e-01,4.790000000000000000e+02
1.703205220504401609e+02,-1.660974050023708060e+02,-4.111322645214045224e+00,-5.260761821097406710e+01,-5.252930469441400874e+01,-1.016056419480181603e+02,2.892101631785237714e+01,-1.175459199083434214e+00,9.446745872497558594e+00,-7.266727685928344727e-01,2.677215635776519775e-01,4.800000000000000000e+02
1.725526519877316787e+02,-1.651897713662247611e+02,-3.204618479625878535e+00,-5.252061885591336932e+01,-5.192130108673927680e+01,-1.012667505893592192e+02,2.798132514112631952e+01,-1.502712967484637829e+01,9.446745872497558594e+00,-7.266727685928344727e-01,2.677215635776519775e-01,4.810000000000000000e+02
1.574955991470546905e+02,-1.627331947854763712e+02,-6.987992446404973634e-01,-5.187032128532712250e+01,-4.915927217163357454e+01,-9.995887073043627424e+01,3.029386314219971155e+01,-2.302172971466609397e+01,9.446745872497558594e+00,-7.266727685928344727e-01,2.677215635776519775e-01,4.820000000000000000e+02
1.338630909671810514e+02,-1.596310419768318241e+02,1.925546948686360338e+00,-5.110772666829080890e+01,-4.603263292752791358e+01,-9.836770399492422712e+01,3.342271580017063570e+01,-2.153809915877423009e+01,9.446745872497558594e+00,-7.266727685928344727e-01,2.677215635776519775e-01,4.830000000000000000e+02
1.147338998395336205e+02,-1.568453182933561152e+02,3.146888400784519035e+00,-5.039208665668840581e+01,-4.416654328949633168e+01,-9.706842679239457539e+01,3.506283186686130193e+01,-1.223349741672404889e+01,9.446745872497558594e+00,-7.266727685928344727e-01,2.677215635776519775e-01,4.840000000000000000e+02
1.060710086739239273e+02,-1.547740775306151022e+02,2.773977511314654976e+00,-4.941261868112087541e+01,-4.356239540845109559e+01,-9.594996081258369713e+01,3.517020087148372198e+01,-2.229106929886341959e-01,9.446745872497558594e+00,-7.266727685928344727e-01,2.677215635776519775e-01,4.850000000000000000e+02
1.027684985600167238e+02,-1.530917788695132913e+02,2.098080323812624215e+00,-4.762841922070136036e+01,-4.271592484166684756e+01,-9.427305133694304118e+01,3.582970001195093346e+01,9.995528846972121073e+00,9.446745872497558594e+00,-7.266727685928344727e-01,2.677215635776519775e-01,4.860000000000000000e+02
9.534453315392610762e+01,-1.511402212913378094e+02,2.722813229677655045e+00,-4.471762943377171950e+01,-4.020201471318512176e+01,-9.130084900095852163e+01,3.900020265408909381e+01,1.713906811876051961e+01,9.446745872497558594e+00,-7.266727685928344727e-01,2.677215635776519775e-01,4.870000000000000000e+02
7.985048101813231369e+01,-1.485571978263782285e+02,5.112070580066301773e+00,-4.093090946136180719e+01,-3.620670474817416107e+01,-8.698688914605691025e+01,4.428778467913411987e+01,2.232967172781309273e+01,9.446745872497558594e+00,-7.266727685928344727e-01,2.677215635776519775e-01,4.880000000000000000e+02
6.125955245495975987e+01,-1.456393946424688579e+02,8.108582595018390293e+00,-3.710212278192403801e+01,-3.252387893319865952e+01,-8.217123994677831433e+01,4.889727173119774761e+01,2.648480979813348313e+01,9.446745872497558594e+00,-7.266727685928344727e-01,2.677215635776519775e-01,4.890000000000000000e+02
4.785363974762719863e+01,-1.431222082228086947e+02,9.833631815613728122e+00,-3.424335680403930837e+01,-3.099298490062165001e+01,-7.811493655166486860e+01,4.988945534882498123e+01,2.900311600878376339e+01,9.446745872497558594e+00,-7.266727685928344727e-01,2.677215635776519775e-01,4.900000000000000000e+02
4.296944273079100185e+01,-1.415496916335259812e+02,9.212772160140048072e+00,-3.293373246517057851e+01,-3.184251497350419413e+01,-7.570592644348334943e+01,4.671954351517547366e+01,2.895512232682608555e+01,9.446745872497558594e+00,-7.266727685928344727e-01,2.677215635776519775e-01,4.910000000000000000e+02
4.217162253280082496e+01,-1.407741358311595832e+02,6.864143396541635411e+00,-3.293758514150067640e+01,-3.347372232523787261e+01,-7.493448342494320968e+01,4.178924227871527819e+01,2.697254677160947267e+01,9.446745872497558594e+00,-7.266727685928344727e-01,2.677215635776519775e-01,4.920000000000000000e+02
3.777665000285867336e+01,-1.400459539512727360e+02,4.626805290536140092e+00,-3.340017134770221219e+01,-3.385085856605746812e+01,-7.502326079225122157e+01,3.856288756163417020e+01,2.531381244753629289e+01,9.523238182067871094e+00,-7.649186849594116211e-01,2.294756323099136353e-01,4.930000000000000000e+02
2.566935532007983056e+01,-1.386279919418069539e+02,4.148164801128928048e+00,-3.351275274437125518e+01,-3.218351571273797163e+01,-7.506797353495267089e+01,3.893890673288285598e+01,2.584660526167840544e+01,9.523238182067871094e+00,-7.649186849594116211e-01,2.294756323099136353e-01,4.940000000000000000e+02
8.113268268734373123e+00,-1.363780437151365277e+02,5.689705484719524975e+00,-3.308513701284709896e+01,-2.940205221731821439e+01,-7.461807613200926426e+01,4.208130022802379244e+01,2.812318223843703890e+01,9.523238182067871094e+00,-7.649186849594116211e-01,2.294756323099136353e-01,4.950000000000000000e+02
-9.096104812799239880e+00,-1.337756772277564323e+02,8.074515438140906554e+00,-3.249935849437270008e+01,-2.711908931656330424e+01,-7.372213891447449896e+01,4.547255537338719478e+01,2.987301991774870658e+01,9.523238182067871094e+00,-7.649186849594116211e-01,2.294756323099136353e-01,4.960000000000000000e+02
-2.158979790155694900e+01,-1.313978740015613766e+02,9.728984747089043594e+00,-3.211122735583512622e+01,-2.615150273304129769e+01,-7.250192464453107277e+01,4.702148198433633297e+01,2.953376172542266431e+01,9.523238182067871094e+00,-7.649186849594116211e-01,2.294756323099136353e-01,4.970000000000000000e+02
-2.904137668576049691e+01,-1.293954278364742549e+02,9.900781299091022447e+00,-3.173720925898282985e+01,-2.595709196173379496e+01,-7.078177657444484794e+01,4.639865628686993659e+01,2.802964025851247243e+01,9.523238182067871094e+00,-7.649186849594116211e-01,2.294756323099136353e-01,4.980000000000000000e+02
-3.407880361126444768e+01,-1.275159484536452510e+02,9.081278193788648423e+00,-3.080155361538891157e+01,-2.537598417097115089e+01,-6.821993903738348308e+01,4.475411628704955547e+01,2.783503125402694423e+01,9.523238182067871094e+00,-7.649186849594116211e-01,2.294756323099136353e-01,4.990000000000000000e+02
-3.943802815654044025e+01,-1.256381586351367332e+02,8.396231379213077162e+00,-2.904013410329412181e+01,-2.385700998086281288e+01,-6.483834377666380533e+01,4.345246905166141005e+01,3.035445395726037532e+01,9.523238182067871094e+00,-7.649186849594116211e-01,2.294756323099136353e-01,5.000000000000000000e+02
-4.598537729408781161e+01,-1.242232013315308450e+02,8.589572948605109559e+00,-2.703019046466920372e+01,-2.201058403235219885e+01,-6.137930352029798087e+01,4.308681885655960286e+01,3.445762809670850402e+01,9.523238182067871094e+00,-7.649186849594116211e-01,2.294756323099136353e-01,5.010000000000000000e+02
-5.267074714204636621e+01,-1.241111219643025834e+02,9.475979678057910860e+00,-2.592903620387437513e+01,-2.105183672125167504e+01,-5.903323269612246804e+01,4.343730565606438176e+01,3.767524198254295698e+01,9.523238182067871094e+00,-7.649186849594116211e-01,2.294756323099136353e-01,5.020000000000000000e+02
-5.772261459632181868e+01,-1.257210970271316910e+02,1.026351811226004429e+01,-2.656431918947964732e+01,-2.170228359040356736e+01,-5.866204132659913739e+01,4.406403500985516075e+01,3.861822253037462360e+01,9.523238182067871094e+00,-7.649186849594116211e-01,2.294756323099136353e-01,5.030000000000000000e+02
-5.995240794593291866e+01,-1.283558039386098244e+02,1.037995078020048823e+01,-2.866156424006931047e+01,-2.352208837319585655e+01,-6.013188252833060687e+01,4.479310349514707923e+01,3.796832068774119762e+01,9.523238182067871094e+00,-7.649186849594116211e-01,2.294756323099136353e-01,5.040000000000000000e+02
-5.953288463474837044e+01,-1.303297867016271994e+02,1.004138308641722688e+01,-3.090395841948748057e+01,-2.521056029072997262e+01,-6.232123210380495948e+01,4.569729638897615587e+01,3.712997109894467940e+01,9.523238182067871094e+00,-7.649186849594116211e-01,2.294756323099136353e-01,5.050000000000000000e+02
-5.802773671593240579e+01,-1.299767631481286116e+02,1.006667308562327889e+01,-3.180789292432837101e+01,-2.559874577809068796e+01,-6.382981357023709279e+01,4.675356301313058793e+01,3.628693217517866287e+01,9.523238182067871094e+00,-7.649186849594116211e-01,2.294756323099136353e-01,5.060000000000000000e+02
-5.770882725401088464e+01,-1.268114851501313751e+02,1.111968585104705198e+01,-3.072648623467330253e+01,-2.452969061318617605e+01,-6.386866593738795927e+01,4.762034158563346864e+01,3.421432339614011653e+01,9.523238182067871094e+00,-7.649186849594116211e-01,2.294756323099136353e-01,5.070000000000000000e+02
-6.047709278110914966e+01,-1.219370284507249380e+02,1.307704738270604139e+01,-2.822025886652136251e+01,-2.293409378719934466e+01,-6.267196114715579824e+01,4.779551047626500804e+01,3.012239148467688210e+01,9.523238182067871094e+00,-7.649186849594116211e-01,2.294756323099136353e-01,5.080000000000000000e+02
-6.690415829854555341e+01,-1.173698519001945897e+02,1.511288708595338903e+01,-2.556795360614569290e+01,-2.203680305776924797e+01,-6.114725873301813408e+01,4.705481588674228988e+01,2.542383705839074537e+01,9.523238182067871094e+00,-7.649186849594116211e-01,2.294756323099136353e-01,5.090000000000000000e+02
-7.590998668958445705e+01,-1.147916463662227216e+02,1.644984640373513685e+01,-2.383778489412588897e+01,-2.231137042303771523e+01,-6.006117681406249176e+01,4.580522339771368934e+01,2.328263837515441992e+01,9.523238182067871094e+00,-7.649186849594116211e-01,2.294756323099136353e-01,5.100000000000000000e+02
-8.520964112993624440e+01,-1.146657105196009070e+02,1.705915720668554059e+01,-2.322422217980010828e+01,-2.304842461616863147e+01,-5.943419164194710902e+01,4.497595618224340797e+01,2.615366472079904270e+01,9.523238182067871094e+00,-7.649186849594116211e-01,2.294756323099136353e-01,5.110000000000000000e+02
-9.223409083968363120e+01,-1.162747347503741366e+02,1.762200543296967226e+01,-2.309552968211892221e+01,-2.293109892775555636e+01,-5.864332709171594615e+01,4.539577468799052440e+01,3.357594468836350643e+01,9.523238182067871094e+00,-7.649186849594116211e-01,2.294756323099136353e-01,5.120000000000000000e+02
-9.512658677996114420e+01,-1.184543073951472252e+02,1.878244829380037118e+01,-2.263170475985680241e+01,-2.116106497351756843e+01,-5.711297114693843469e+01,4.707174515897213496e+01,4.228725836331523169e+01,9.523238182067871094e+00,-7.649186849594116211e-01,2.294756323099136353e-01,5.130000000000000000e+02
-9.361856467677353066e+01,-1.203229586884999662e+02,2.041938354081639773e+01,-2.149354351702140775e+01,-1.816914704837290628e+01,-5.494091254724389728e+01,4.898461407939566925e+01,4.856235777789152053e+01,9.523238182067871094e+00,-7.649186849594116211e-01,2.294756323099136353e-01,5.140000000000000000e+02
-8.951666602918794524e+01,-1.214882396233806503e+02,2.170271945624153886e+01,-1.997453096161098074e+01,-1.527681821021360520e+01,-5.283985178589045972e+01,4.972141314006239554e+01,5.070295461825480743e+01,9.523238182067871094e+00,-7.649186849594116211e-01,2.294756323099136353e-01,5.150000000000000000e+02
-8.632982117877509154e+01,-1.217970522108935256e+02,2.193726705251174280e+01,-1.857608914763113717e+01,-1.361470158348947734e+01,-5.143171569915557484e+01,4.855210972036820749e+01,4.968352519578911597e+01,9.523238182067871094e+00,-7.649186849594116211e-01,2.294756323099136353e-01,5.160000000000000000e+02
-8.781540777897680528e+01,-1.210923211632971288e+02,2.135651546751614660e+01,-1.749134236855388735e+01,-1.329399216777528636e+01,-5.062487818119370786e+01,4.604657157483416086e+01,4.779014036069202120e+01,9.523238182067871094e+00,-7.649186849594116211e-01,2.294756323099136353e-01,5.170000000000000000e+02
-9.588329826752942608e+01,-1.192876430933429219e+02,2.103481794172057562e+01,-1.654160719205083296e+01,-1.356094348765600444e+01,-4.976551179638227040e+01,4.362994406827783678e+01,4.672168062658329291e+01,9.523238182067871094e+00,-7.649186849594116211e-01,2.294756323099136353e-01,5.180000000000000000e+02
-1.092831981749459374e+02,-1.165924335855206664e+02,2.196814556528079265e+01,-1.559599640833857848e+01,-1.366028430205642508e+01,-4.844440183703318326e+01,4.242235988971424376e+01,4.670735264687482413e+01,9.523238182067871094e+00,-7.649186849594116211e-01,2.294756323099136353e-01,5.190000000000000000e+02
-1.243750665744810249e+02,-1.135312181465824324e+02,2.419742862754901580e+01,-1.495916106964432402e+01,-1.349082795949652791e+01,-4.710063868351971905e+01,4.239233447359220008e+01,4.694813257297846576e+01,9.446745872497558594e+00,-8.031646609306335449e-01,1.912296712398529053e-01,5.200000000000000000e+02
-1.376332618832748267e+02,-1.106673439888600115e+02,2.679311855257492425e+01,-1.522145001733952085e+01,-1.343865840318449045e+01,-4.670914704746610369e+01,4.258340616823443270e+01,4.654843046457881428e+01,9.446745872497558594e+00,-8.031646609306335449e-01,1.912296712398529053e-01,5.210000000000000000e+02
-1.479529042056792605e+02,-1.083053750298349769e+02,2.866492098720937065e+01,-1.664384208942828991e+01,-1.370885265453034663e+01,-4.779754776479512657e+01,4.214995582729534362e+01,4.501703545404234319e+01,9.446745872497558594e+00,-8.031646609306335449e-01,1.912296712398529053e-01,5.220000000000000000e+02
-1.566918350170371923e+02,-1.064715150912643367e+02,2.936989049470048485e+01,-1.871203640205749252e+01,-1.401164740468357195e+01,-4.980283420751493395e+01,4.115066668348572421e+01,4.211227810368654900e+01,9.446745872497558594e+00,-8.031646609306335449e-01,1.912296712398529053e-01,5.230000000000000000e+02
-1.653309070248169519e+02,-1.051170966275512910e+02,2.921617609499026003e+01,-2.037599886864700238e+01,-1.396655973876022472e+01,-5.147206867821751075e+01,4.035090873388799082e+01,3.756236310067015438e+01,9.446745872497558594e+00,-8.031646609306335449e-01,1.912296712398529053e-01,5.240000000000000000e+02
-1.731177169141465129e+02,-1.041989724481481971e+02,2.875990621763776289e+01,-2.079277820042898384e+01,-1.370549333063900121e+01,-5.193132183650595834e+01,4.032491628018487972e+01,3.123933126810698013e+01,9.446745872497558594e+00,-8.031646609306335449e-01,1.912296712398529053e-01,5.250000000000000000e+02
-1.772833445022833985e+02,-1.034924915670353585e+02,2.832865129297897511e+01,-1.989074588894072804e+01,-1.391086636720319802e+01,-5.136485733975860057e+01,4.081496584896558488e+01,2.371901820297534869e+01,9.446745872497558594e+00,-8.031646609306335449e-01,1.912296712398529053e-01,5.260000000000000000e+02
-1.759816834087332609e+02,-1.024275218166621926e+02,2.798831583681112534e+01,-1.828122719011389563e+01,-1.517681854479087633e+01,-5.068847159331926377e+01,4.096196223011156690e+01,1.656338420900283381e+01,9.446745872497558594e+00,-8.031646609306335449e-01,1.912296712398529053e-01,5.270000000000000000e+02
-1.712066790194321584e+02,-1.003218402333941413e+02,2.778592975295759970e+01,-1.669110172000182502e+01,-1.735568985066038294e+01,-5.063381141377612948e+01,4.010659880119237641e+01,1.179352912152535282e+01,9.446745872497558594e+00,-8.031646609306335449e-01,1.912296712398529053e-01,5.280000000000000000e+02
-1.684602979488845449e+02,-9.696008082266143902e+01,2.784532420173400169e+01,-1.549557868616648193e+01,-1.958113476035123313e+01,-5.118488809753762325e+01,3.834074682190839667e+01,1.072358007333878049e+01,9.446745872497558594e+00,-8.031646609306335449e-01,1.912296712398529053e-01,5.290000000000000000e+02
-1.727204992632559879e+02,-9.296985931566632644e+01,2.821720506618748914e+01,-1.469541604085134168e+01,-2.092117994381715107e+01,-5.182186881335837825e+01,3.634843052264113794e+01,1.306061163403228420e+01,9.446745872497558594e+00,-8.031646609306335449e-01,1.912296712398529053e-01,5.300000000000000000e+02
-1.838993835801320529e+02,-8.951297647493447585e+01,2.878339451366264257e+01,-1.416634572617022059e+01,-2.098002097883090755e+01,-5.216449073669537029e+01,3.481865673377524217e+01,1.715059611943433993e+01,9.446745872497558594e+00,-8.031646609306335449e-01,1.912296712398529053e-01,5.310000000000000000e+02
-1.959793544966541958e+02,-8.749511730888298189e+01,2.941062911235167121e+01,-1.383589552422745328e+01,-1.996130082667514216e+01,-5.231786174836270220e+01,3.402146522025395825e+01,2.126233987424893712e+01,9.446745872497558594e+00,-8.031646609306335449e-01,1.912296712398529053e-01,5.320000000000000000e+02
-2.010748282798031141e+02,-8.697717464329525683e+01,3.017594154708604037e+01,-1.364481239260476286e+01,-1.832941224391652213e+01,-5.266557511279461323e+01,3.384131920627260115e+01,2.478019606037196354e+01,9.446745872497558594e+00,-8.031646609306335449e-01,1.912296712398529053e-01,5.330000000000000000e+02
-1.953291986572403403e+02,-8.726836212527268799e+01,3.129622338285935257e+01,-1.346097991348506184e+01,-1.655921642671455629e+01,-5.345964675721006643e+01,3.404822406357925502e+01,2.816122125912988849e+01,9.446745872497558594e+00,-8.031646609306335449e-01,1.912296712398529053e-01,5.340000000000000000e+02
-1.818148791317926225e+02,-8.752045323304992053e+01,3.271666723470571014e+01,-1.313307825077572488e+01,-1.517367257981277362e+01,-5.464539898002658447e+01,3.443669346632850647e+01,3.171763236072911241e+01,9.446745872497558594e+00,-8.031646609306335449e-01,1.912296712398529053e-01,5.350000000000000000e+02
-1.680920114662076230e+02,-8.723093236516797333e+01,3.380522100553935161e+01,-1.263386792327946750e+01,-1.476720775552530540e+01,-5.598227926880099403e+01,3.476834066192714090e+01,3.462741899389948230e+01,9.446745872497558594e+00,-8.031646609306335449e-01,1.912296712398529053e-01,5.360000000000000000e+02
-1.606282342229787901e+02,-8.631631730580556905e+01,3.360080761757672008e+01,-1.212668217579448537e+01,-1.571685667369456496e+01,-5.722769610671093687e+01,3.473546336648905708e+01,3.546009543112268148e+01,9.446745872497558594e+00,-8.031646609306335449e-01,1.912296712398529053e-01,5.370000000000000000e+02
-1.606832278375932219e+02,-8.494365170986930025e+01,3.155086314250729629e+01,-1.186555762964235328e+01,-1.776173565873796178e+01,-5.820352105925485375e+01,3.412311448486252630e+01,3.385154627697011165e+01,9.446745872497558594e+00,-8.031646609306335449e-01,1.912296712398529053e-01,5.380000000000000000e+02
-1.646662694942388043e+02,-8.346670593449198350e+01,2.812026735147992440e+01,-1.201909924904066429e+01,-1.996510530388331972e+01,-5.879569382446061354e+01,3.304228912816324737e+01,3.144037704810034484e+01,9.446745872497558594e+00,-8.031646609306335449e-01,1.912296712398529053e-01,5.390000000000000000e+02
-1.679979266518821532e+02,-8.246017522154761537e+01,2.467934462347511726e+01,-1.255129839170876949e+01,-2.128399132940467098e+01,-5.898130441510329547e+01,3.194366242895557662e+01,3.065907280632745824e+01,9.446745872497558594e+00,-8.031646609306335449e-01,1.912296712398529053e-01,5.400000000000000000e+02
-1.686972375745535828e+02,-8.254953431279500364e+01,2.267965482116960629e+01,-1.322150843481904303e+01,-2.132337643096616375e+01,-5.885634630376989662e+01,3.129769869575648045e+01,3.227725123024902132e+01,9.446745872497558594e+00,-8.031646609306335449e-01,1.912296712398529053e-01,5.410000000000000000e+02
-1.677924636255538644e+02,-8.394758373728836887e+01,2.274103377500796341e+01,-1.370759383183940372e+01,-2.058958002683903032e+01,-5.859423711023373471e+01,3.117620786333100114e+01,3.430507937105176097e+01,9.446745872497558594e+00,-8.031646609306335449e-01,1.912296712398529053e-01,5.420000000000000000e+02
-1.670104943209917110e+02,-8.610513014572643442e+01,2.435745814535948739e+01,-1.379607656482039602e+01,-1.999412923698764644e+01,-5.834615679371927399e+01,3.113801523415168049e+01,3.385882702637718467e+01,9.446745872497558594e+00,-8.031646609306335449e-01,1.912296712398529053e-01,5.430000000000000000e+02
-1.665208087356932083e+02,-8.796417040326741699e+01,2.640908165009022923e+01,-1.352017027265537763e+01,-2.003579947295474994e+01,-5.817164039156887156e+01,3.061351870599719405e+01,3.049781452601564524e+01,9.446745872497558594e+00,-8.031646609306335449e-01,1.912296712398529053e-01,5.440000000000000000e+02
-1.649389006535184308e+02,-8.870328455401431711e+01,2.804952418120956281e+01,-1.309008770106265729e+01,-2.034951246731361607e+01,-5.802673273292202794e+01,2.954869454744766699e+01,2.748520196684694383e+01,9.446745872497558594e+00,-8.031646609306335449e-01,1.912296712398529053e-01,5.450000000000000000e+02
-1.612305444524845370e+02,-8.827482808036620554e+01,2.927148061744082952e+01,-1.261472052940553112e+01,-1.995700579101685435e+01,-5.776347026151779573e+01,2.874534246761140821e+01,2.899037669895551517e+01,9.446745872497558594e+00,-8.031646609306335449e-01,1.912296712398529053e-01,5.460000000000000000e+02
-1.562824715674669278e+02,-8.718961760309684905e+01,3.073474477760464652e+01,-1.187643168020076700e+01,-1.797211829855950782e+01,-5.714679188066838833e+01,2.946967325324112608e+01,3.537850506707036402e+01,9.446745872497558594e+00,-8.031646609306335449e-01,1.912296712398529053e-01,5.470000000000000000e+02
-1.524508447229709418e+02,-8.579272325787678710e+01,3.303988934656808851e+01,-1.045933411791884282e+01,-1.421975978700356791e+01,-5.595737335436024296e+01,3.249479364473336318e+01,4.130316620969279029e+01,9.446745872497558594e+00,-8.031646609306335449e-01,1.912296712398529053e-01,5.480000000000000000e+02
-1.516386045666786231e+02,-8.386291621579948696e+01,3.605994867895242351e+01,-8.211700787727750139e+00,-9.394725231786651420e+00,-5.418797306915803347e+01,3.729422679640447313e+01,3.927235193710657768e+01,9.446745872497558594e+00,-8.031646609306335449e-01,1.912296712398529053e-01,5.490000000000000000e+02
-1.539346340706215415e+02,-8.102655626503837993e+01,3.887834853804088198e+01,-5.591290203527023550e+00,-4.729296426707151113e+00,-5.214773127031367039e+01,4.211728627037336992e+01,2.619210273006319767e+01,9.446745872497558594e+00,-8.031646609306335449e-01,1.912296712398529053e-01,5.500000000000000000e+02
-1.580821005158413755e+02,-7.753348727321463230e+01,4.038695445445046062e+01,-3.424702020636686939e+00,-1.383170137498382246e+00,-5.025868923669622745e+01,4.503665308994823135e+01,7.160529093214790919e+00,9.408499717712402344e+00,-7.649186849594116211e-01,2.677215635776519775e-01,5.510000000000000000e+02
-1.630204099697275524e+02,-7.445017846391601779e+01,4.007461566019264865e+01,-2.189936112716168282e+00,1.372640959725686116e-01,-4.863811770843312843e+01,4.524573565640093875e+01,-7.354491556841821875e+00,9.408499717712402344e+00,-7.649186849594116211e-01,2.677215635776519775e-01,5.520000000000000000e+02
-1.687156161558104941e+02,-7.288291828094770608e+01,3.838843999374330451e+01,-1.508086038182227639e+00,2.288257089494436514e-01,-4.688007987288801814e+01,4.361145703554393549e+01,-9.042262887900506030e+00,9.408499717712402344e+00,-7.649186849594116211e-01,2.677215635776519775e-01,5.530000000000000000e+02
-1.754610862229965278e+02,-7.291637032745711622e+01,3.639534221898793476e+01,-4.428239471126289573e-01,-6.428222015711071435e-02,-4.436665587048264570e+01,4.203654871809339966e+01,2.295996250948519446e+00,9.408499717712402344e+00,-7.649186849594116211e-01,2.677215635776519775e-01,5.540000000000000000e+02
-1.826304491356859216e+02,-7.335959765937150223e+01,3.504240898557509354e+01,1.587053140103307669e+00,2.931854970975109609e-01,-4.090134032036439748e+01,4.212988588696316583e+01,1.923622699684710824e+01,9.408499717712402344e+00,-7.649186849594116211e-01,2.677215635776519775e-01,5.550000000000000000e+02
-1.885469519788803154e+02,-7.268796031331839913e+01,3.456873932428970875e+01,4.150445206018048339e+00,1.653020343879688880e+00,-3.705308456696366193e+01,4.417686373223114060e+01,3.282580975298697012e+01,9.408499717712402344e+00,-7.649186849594116211e-01,2.677215635776519775e-01,5.560000000000000000e+02
-1.919069973250352632e+02,-7.039809403139042843e+01,3.444572197230445454e+01,6.062981284416309791e+00,3.451097487923107110e+00,-3.382469028671039268e+01,4.708861828090448398e+01,3.882144397823503823e+01,9.408499717712402344e+00,-7.649186849594116211e-01,2.677215635776519775e-01,5.570000000000000000e+02
-1.933595309811535117e+02,-6.752148990777823201e+01,3.381750755801112973e+01,6.338630907790502533e+00,4.605604027183289872e+00,-3.191241573630031780e+01,4.924623108471496380e+01,3.912941472184320446e+01,9.408499717712402344e+00,-7.649186849594116211e-01,2.677215635776519775e-01,5.580000000000000000e+02
-1.954205864625291724e+02,-6.580245881984228618e+01,3.207582177096992382e+01,4.926968049683637219e+00,4.247120797055686126e+00,-3.125332325466661132e+01,4.954329768352727115e+01,3.822347190700384090e+01,9.408499717712402344e+00,-7.649186849594116211e-01,2.677215635776519775e-01,5.590000000000000000e+02
-2.004730032649604254e+02,-6.625709315052881720e+01,2.921099188610423880e+01,2.599941127897182014e+00,2.243644723977922695e+00,-3.123832888074684888e+01,4.795907480318419402e+01,3.861585886324610328e+01,9.408499717712402344e+00,-7.649186849594116211e-01,2.677215635776519775e-01,5.600000000000000000e+02
-2.086189891993817582e+02,-6.834975027552718529e+01,2.580247414403856965e+01,2.422371342327096500e-01,-8.007194289275503252e-01,-3.128346977738328860e+01,4.544882884403705248e+01,3.946395802542247111e+01,9.408499717712402344e+00,-7.649186849594116211e-01,2.677215635776519775e-01,5.610000000000000000e+02
-2.174871315844466153e+02,-7.044910009253362659e+01,2.270493689321483544e+01,-1.692931924357253592e+00,-3.956550746719585732e+00,-3.116932284599170089e+01,4.335347282094880939e+01,3.875924316710006678e+01,9.408499717712402344e+00,-7.649186849594116211e-01,2.677215635776519775e-01,5.620000000000000000e+02
-2.242835344500745123e+02,-7.109654878570290748e+01,2.063650460514691076e+01,-3.129667874658480287e+00,-6.400779544354008976e+00,-3.090300855908208177e+01,4.272823036872796365e+01,3.614191588561516255e+01,9.408499717712402344e+00,-7.649186849594116211e-01,2.677215635776519775e-01,5.630000000000000000e+02
-2.282299348115484463e+02,-7.000752891707816161e+01,1.988217479713421199e+01,-4.004572190569888335e+00,-7.612412279024283634e+00,-3.041364435892319307e+01,4.391101060365326703e+01,3.340040819532441674e+01,9.408499717712402344e+00,-7.649186849594116211e-01,2.677215635776519775e-01,5.640000000000000000e+02
-2.311022310078369628e+02,-6.806434492666448932e+01,2.022878008611587575e+01,-4.147473077191534685e+00,-7.392971150584344286e+00,-2.950180503856245195e+01,4.647774648496488226e+01,3.254031571394079947e+01,9.408499717712402344e+00,-7.649186849594116211e-01,2.677215635776519775e-01,5.650000000000000000e+02
-2.353438949277988286e+02,-6.645885661567444913e+01,2.113383294852610561e+01,-3.559473226912814425e+00,-5.924677097096719081e+00,-2.809555537405321957e+01,4.953023319233398070e+01,3.373418291969937854e+01,9.408499717712402344e+00,-7.649186849594116211e-01,2.677215635776519775e-01,5.660000000000000000e+02
-2.415154240970477986e+02,-6.578335479273664532e+01,2.200051051997434115e+01,-2.686039199150400236e+00,-3.876858803087088745e+00,-2.647337185624201084e+01,5.211091008398580016e+01,3.523569157217934844e+01,9.408499717712402344e+00,-7.649186849594116211e-01,2.677215635776519775e-01,5.670000000000000000e+02
-2.474377146275364794e+02,-6.574705650198302465e+01,2.238882428020588122e+01,-2.241957740727229975e+00,-2.314743805953185074e+00,-2.514820454112850712e+01,5.353210575796401827e+01,3.513704945374047384e+01,9.408499717712402344e+00,-7.649186849594116211e-01,2.677215635776519775e-01,5.680000000000000000e+02
-2.498632926877799036e+02,-6.557342730808886699e+01,2.207344344359808019e+01,-2.657669982327206526e+00,-2.226694972545374185e+00,-2.450209195858769817e+01,5.353289040863455739e+01,3.312490529052593047e+01,9.408499717712402344e+00,-7.649186849594116211e-01,2.677215635776519775e-01,5.690000000000000000e+02
-2.471852937544863380e+02,-6.462658997235121205e+01,2.100360493731932365e+01,-3.675999320344999433e+00,-3.869791927438200219e+00,-2.452136133113890537e+01,5.233208724655560218e+01,3.064356420091280597e+01,9.408499717712402344e+00,-7.649186849594116211e-01,2.677215635776519775e-01,5.700000000000000000e+02
-2.407691810282667575e+02,-6.278269801400165306e+01,1.926859439340842073e+01,-4.533677124396490399e+00,-6.469945674602058716e+00,-2.485739217313675908e+01,5.062134471755052800e+01,2.951151850532551180e+01,9.408499717712402344e+00,-7.649186849594116211e-01,2.677215635776519775e-01,5.710000000000000000e+02
-2.338011268718582869e+02,-6.042303081476711668e+01,1.711169770699416404e+01,-4.613284749048034428e+00,-8.642732309213897679e+00,-2.511895011125670862e+01,4.941063401635983610e+01,3.038395889622552204e+01,9.446745872497558594e+00,-8.031646609306335449e-01,2.294756323099136353e-01,5.720000000000000000e+02
-2.287253936072156648e+02,-5.821349172177724540e+01,1.496037206537221209e+01,-3.986270046432764502e+00,-9.287836293111467967e+00,-2.511077679292066023e+01,4.962574145960388705e+01,3.224921499951960868e+01,9.446745872497558594e+00,-8.031646609306335449e-01,2.294756323099136353e-01,5.730000000000000000e+02
-2.254876630080107134e+02,-5.685554909274651436e+01,1.339209184088394977e+01,-3.367394207678444218e+00,-8.266877656282304088e+00,-2.484746536611419288e+01,5.156246918201213703e+01,3.308573426437578746e+01,9.446745872497558594e+00,-8.031646609306335449e-01,2.294756323099136353e-01,5.740000000000000000e+02
-2.220122251292268629e+02,-5.684760299926711014e+01,1.297650759090538486e+01,-3.536155903795588529e+00,-6.346812949843297247e+00,-2.441263771295780316e+01,5.456360225298703881e+01,3.112099932768978761e+01,9.446745872497558594e+00,-8.031646609306335449e-01,2.294756323099136353e-01,5.750000000000000000e+02
-2.164054651728729368e+02,-5.822675546097161714e+01,1.399678137905721087e+01,-4.732747948593896581e+00,-4.529478130076313391e+00,-2.384819067365970113e+01,5.727229871064628242e+01,2.604048181185135036e+01,9.446745872497558594e+00,-8.031646609306335449e-01,2.294756323099136353e-01,5.760000000000000000e+02
-2.089069833605208260e+02,-6.038787813065573573e+01,1.617177747685491340e+01,-6.534337193817918887e+00,-3.404126616213034140e+00,-2.318278294410629314e+01,5.839944713688964839e+01,1.954813216876937076e+01,9.446745872497558594e+00,-8.031646609306335449e-01,2.294756323099136353e-01,5.770000000000000000e+02
-2.018645762431624462e+02,-6.219007327578583499e+01,1.861993245168559952e+01,-8.265007938098278828e+00,-3.023343082615610911e+00,-2.252790097273464198e+01,5.750586635410218150e+01,1.476859265596431214e+01,9.446745872497558594e+00,-8.031646609306335449e-01,2.294756323099136353e-01,5.780000000000000000e+02
-1.977182013089550310e+02,-6.246071310218394501e+01,2.024796034765677177e+01,-9.538153727007738780e+00,-3.210301102186349453e+00,-2.208876887054793769e+01,5.524035316783920280e+01,1.442922090210413444e+01,9.446745872497558594e+00,-8.031646609306335449e-01,2.294756323099136353e-01,5.790000000000000000e+02
-1.966812500650376023e+02,-6.068122024084368604e+01,2.045160188179579563e+01,-1.044332392482829164e+01,-3.801153018270269968e+00,-2.201485532603328465e+01,5.289916647353311419e+01,1.877451599105552305e+01,9.446745872497558594e+00,-8.031646609306335449e-01,2.294756323099136353e-01,5.800000000000000000e+02
-1.961734320716568618e+02,-5.738464194138941821e+01,1.963418206066853600e+01,-1.126378692196885822e+01,-4.561764049649355002e+00,-2.219889535991023877e+01,5.166406859295966569e+01,2.493693429371705861e+01,9.446745872497558594e+00,-8.031646609306335449e-01,2.294756323099136353e-01,5.810000000000000000e+02
-1.927169667524613033e+02,-5.392402004486939404e+01,1.901381046076494385e+01,-1.206729753051331500e+01,-5.029991426999913529e+00,-2.226586656645304174e+01,5.201070618829544401e+01,2.882618375208039652e+01,9.446745872497558594e+00,-8.031646609306335449e-01,2.294756323099136353e-01,5.820000000000000000e+02
-1.848960254378798709e+02,-5.168807843415925163e+01,1.972272015569978976e+01,-1.260036895649682265e+01,-4.681664321928110439e+00,-2.184728802139943582e+01,5.356359458373117377e+01,2.848471431756479433e+01,9.446745872497558594e+00,-8.031646609306335449e-01,2.294756323099136353e-01,5.830000000000000000e+02
-1.748811304291193665e+02,-5.127752766120465822e+01,2.186170828695321688e+01,-1.258740292649599724e+01,-3.400850258822174510e+00,-2.094024240291764727e+01,5.535751582820375916e+01,2.603978943866604823e+01,9.446745872497558594e+00,-8.031646609306335449e-01,2.294756323099136353e-01,5.840000000000000000e+02
-1.670923868648751522e+02,-5.221319080098692211e+01,2.435037885471319896e+01,-1.208845357334575965e+01,-1.762553978951473255e+00,-1.998561300817527808e+01,5.634251580050840857e+01,2.601212393123205402e+01,9.446745872497558594e+00,-8.031646609306335449e-01,2.294756323099136353e-01,5.850000000000000000e+02
-1.649668223267799476e+02,-5.337320797939537442e+01,2.575410605216529802e+01,-1.152051280829982716e+01,-7.196195844444446266e-01,-1.951801762048125966e+01,5.593078774386958685e+01,3.085117943831210141e+01,9.446745872497558594e+00,-8.031646609306335449e-01,2.294756323099136353e-01,5.860000000000000000e+02
-1.684281566436911817e+02,-5.382842913099739235e+01,2.537877569933698396e+01,-1.131724430336907972e+01,-8.754942297346133273e-01,-1.967141092325618956e+01,5.435399256954042357e+01,3.756710960304553737e+01,9.446745872497558594e+00,-8.031646609306335449e-01,2.294756323099136353e-01,5.870000000000000000e+02
-1.741000398428950575e+02,-5.344081782851208118e+01,2.369762917054322315e+01,-1.156951578190273722e+01,-2.001962841026397655e+00,-2.001564560842962237e+01,5.259850678829388926e+01,3.903831224397072219e+01,9.446745872497558594e+00,-8.031646609306335449e-01,2.294756323099136353e-01,5.880000000000000000e+02
-1.778946620725982939e+02,-5.280409417205737554e+01,2.182523424321334460e+01,-1.199839548220552388e+01,-3.262886964086646913e+00,-1.991013339542405447e+01,5.184414333252061624e+01,2.964183505254914053e+01,9.446745872497558594e+00,-8.031646609306335449e-01,2.294756323099136353e-01,5.890000000000000000e+02
