F3,F4,C3,C4,P3,P4,Cz,Pz,Accel_x,Accel_y,Accel_z,Sample
-6.002665031701326370e-11,-4.365574568510055542e-11,-3.910827217623591423e-11,-6.912159733474254608e-11,-4.729372449219226837e-11,-8.003553375601768494e-11,-5.456968210637569427e-11,-4.911271389573812485e-11,9.484992027282714844e+00,-6.501809358596801758e-01,7.649187743663787842e-02,2.270000000000000000e+02
-1.564757182351786469e+01,-7.648112792920983338e+00,6.515871944167884067e+00,2.786264497788579320e+00,-3.546409738350121188e+00,-2.602027050470496761e+00,4.794464398768468527e+00,-6.808421292826096760e-01,9.484992027282714844e+00,-6.501809358596801758e-01,7.649187743663787842e-02,2.280000000000000000e+02
-3.019963274872498005e+01,-1.843850488606040017e+01,5.893039879861134978e+00,-8.832522365355544025e-02,-1.164408927038857655e+01,-1.151438416507699003e+01,4.844691445202442992e+00,-2.029836963492925861e+00,9.484992027282714844e+00,-6.501809358596801758e-01,7.649187743663787842e-02,2.290000000000000000e+02
-4.380604258199673495e+01,-3.266193303839463624e+01,-3.064618024346600578e+00,-9.157290930490489700e+00,-2.499978617159467831e+01,-2.744383891525285435e+01,-2.576423168611654546e-01,-4.156558872160530882e+00,9.484992027282714844e+00,-6.501809358596801758e-01,7.649187743663787842e-02,2.300000000000000000e+02
-5.755075058901093144e+01,-4.770739952476924373e+01,-1.535566221772023709e+01,-1.972429701935016055e+01,-4.036510237230868370e+01,-4.532622963327048637e+01,-6.574015646725456463e+00,-6.683500255949184066e+00,9.484992027282714844e+00,-6.501809358596801758e-01,7.649187743663787842e-02,2.310000000000000000e+02
-7.186755937961606833e+01,-6.076788907904483494e+01,-2.502102500789624173e+01,-2.664133059064351983e+01,-5.397293349737265089e+01,-5.945188019977285876e+01,-9.951132529243295721e+00,-9.321317887004624936e+00,9.484992027282714844e+00,-6.501809358596801758e-01,7.649187743663787842e-02,2.320000000000000000e+02
-8.548573063384719717e+01,-7.153238167930794589e+01,-3.024826180200943782e+01,-2.901802059700730752e+01,-6.475054646072385367e+01,-6.854783090224009356e+01,-9.917648711787478533e+00,-1.220557166698199580e+01,9.484992027282714844e+00,-6.501809358596801758e-01,7.649187743663787842e-02,2.330000000000000000e+02
-9.624137337254887825e+01,-8.228231233909809816e+01,-3.345396260859524773e+01,-3.035873504622486507e+01,-7.415411811068224779e+01,-7.598092671002814313e+01,-9.491411911905743182e+00,-1.554775601467008528e+01,9.484992027282714844e+00,-6.501809358596801758e-01,7.649187743663787842e-02,2.340000000000000000e+02
-1.030625627389208603e+02,-9.551408749537768017e+01,-3.714943682558623550e+01,-3.455242611569883593e+01,-8.335745879717796925e+01,-8.558434518374633626e+01,-1.147546446489468508e+01,-1.898667377010497148e+01,9.484992027282714844e+00,-6.501809358596801758e-01,7.649187743663787842e-02,2.350000000000000000e+02
-1.071331138026644112e+02,-1.115336050818186777e+02,-4.067677707395887410e+01,-4.215039430564593204e+01,-9.129337233815385844e+01,-9.785014557849171979e+01,-1.534830393098764034e+01,-2.145694817898129259e+01,9.484992027282714844e+00,-6.884268522262573242e-01,1.147378161549568176e-01,2.360000000000000000e+02
-1.110782757565393695e+02,-1.282025400890752280e+02,-4.133104898881629197e+01,-5.044824361467726703e+01,-9.576500663433762384e+01,-1.101413525491643668e+02,-1.790683137238829659e+01,-2.189732563621237205e+01,9.484992027282714844e+00,-6.884268522262573242e-01,1.147378161549568176e-01,2.370000000000000000e+02
-1.169999041040664451e+02,-1.427481971487504779e+02,-3.818306008043418842e+01,-5.661349591200996656e+01,-9.622672736823005835e+01,-1.199608571039243543e+02,-1.673386111910167529e+01,-2.020511477775744424e+01,9.484992027282714844e+00,-6.884268522262573242e-01,1.147378161549568176e-01,2.380000000000000000e+02
-1.251835947706895240e+02,-1.537560694919848174e+02,-3.399474415065378707e+01,-6.023414685786610789e+01,-9.497252042912987235e+01,-1.273698758935279329e+02,-1.277220138751454215e+01,-1.750256976722448599e+01,9.484992027282714844e+00,-6.884268522262573242e-01,1.147378161549568176e-01,2.390000000000000000e+02
-1.344257823702873793e+02,-1.617534060555908582e+02,-3.298967901906416955e+01,-6.295572482093029976e+01,-9.534566300006918027e+01,-1.342592330006937118e+02,-9.518363568934546493e+00,-1.540949669920701126e+01,9.484992027282714844e+00,-6.884268522262573242e-01,1.147378161549568176e-01,2.400000000000000000e+02
-1.433148432711413989e+02,-1.683966294127094443e+02,-3.690306871374104958e+01,-6.627722520236693526e+01,-9.889097018391203164e+01,-1.419111881812586944e+02,-9.876217371737766371e+00,-1.496295786439077347e+01,9.484992027282714844e+00,-6.884268522262573242e-01,1.147378161549568176e-01,2.410000000000000000e+02
-1.511627528684712161e+02,-1.753398228122105138e+02,-4.348233973999049340e+01,-7.018158986652179010e+01,-1.044305594608731553e+02,-1.498353021960174374e+02,-1.379434317796858522e+01,-1.613603663572303049e+01,9.484992027282714844e+00,-6.884268522262573242e-01,1.147378161549568176e-01,2.420000000000000000e+02
-1.580173010911212259e+02,-1.836285853215604220e+02,-4.883905213305297366e+01,-7.379754343620152213e+01,-1.098858432205897770e+02,-1.569379793405014425e+02,-1.869702552996204759e+01,-1.832983668920041964e+01,9.484992027282714844e+00,-6.884268522262573242e-01,1.147378161549568176e-01,2.430000000000000000e+02
-1.642004007334862763e+02,-1.936144788067795162e+02,-5.104676474605639669e+01,-7.684647232999759581e+01,-1.147560637125643552e+02,-1.632857506065565758e+02,-2.191858158152535907e+01,-2.128041843612663797e+01,9.484992027282714844e+00,-6.884268522262573242e-01,1.147378161549568176e-01,2.440000000000000000e+02
-1.700211009440890848e+02,-2.050351185445533702e+02,-5.142902909640724829e+01,-8.007179047408226324e+01,-1.206667541480746877e+02,-1.703200413341101012e+02,-2.277514132055966911e+01,-2.546459827443504764e+01,9.484992027282714844e+00,-6.884268522262573242e-01,1.147378161549568176e-01,2.450000000000000000e+02
-1.757694904843483528e+02,-2.171701323159541062e+02,-5.267509534206055832e+01,-8.437512099486229999e+01,-1.295795727399518000e+02,-1.794100022517613979e+02,-2.269463300671395700e+01,-3.160977994284257875e+01,9.484992027282714844e+00,-6.884268522262573242e-01,1.147378161549568176e-01,2.460000000000000000e+02
-1.816732368321490867e+02,-2.291589854124049452e+02,-5.606930461146839662e+01,-8.985737982738555729e+01,-1.416104123956383773e+02,-1.904725460085692248e+02,-2.369482301704556448e+01,-3.974826531312100997e+01,9.484992027282714844e+00,-6.884268522262573242e-01,1.147378161549568176e-01,2.470000000000000000e+02
-1.877035039236852754e+02,-2.403690278895046504e+02,-6.057691250788320758e+01,-9.581056653040468518e+01,-1.546031846929499807e+02,-2.020913096113363281e+02,-2.669627856753595552e+01,-4.868226172891809256e+01,9.484992027282714844e+00,-6.884268522262573242e-01,1.147378161549568176e-01,2.480000000000000000e+02
-1.935172372598563015e+02,-2.504782159543310627e+02,-6.425838446949910576e+01,-1.013996127956888813e+02,-1.656809352858444981e+02,-2.127346454338021431e+02,-3.089918878176285943e+01,-5.636204419357909501e+01,9.484992027282714844e+00,-6.884268522262573242e-01,1.147378161549568176e-01,2.490000000000000000e+02
-1.987534609634058143e+02,-2.591870483719776530e+02,-6.619803620365473762e+01,-1.061056940017970192e+02,-1.731339993317433255e+02,-2.216581542502772209e+02,-3.441056807598943124e+01,-6.090698763852651609e+01,9.484992027282714844e+00,-6.884268522262573242e-01,1.147378161549568176e-01,2.500000000000000000e+02
-2.034391250771459454e+02,-2.659851550541025063e+02,-6.703062014471925067e+01,-1.095964822407904649e+02,-1.770110995306231416e+02,-2.287886597514479945e+02,-3.548919655727877398e+01,-6.151576787604335550e+01,9.484992027282714844e+00,-6.884268522262573242e-01,1.147378161549568176e-01,2.510000000000000000e+02
-2.080280547182464943e+02,-2.704591537705618975e+02,-6.788696050968883355e+01,-1.115374296455565855e+02,-1.783141255556874967e+02,-2.341661676163002994e+02,-3.355541358843311173e+01,-5.868271641290994012e+01,9.484992027282714844e+00,-6.884268522262573242e-01,1.147378161549568176e-01,2.520000000000000000e+02
-2.129434804062702824e+02,-2.730357693669111541e+02,-6.912861939954836998e+01,-1.118681311135742362e+02,-1.779956256573141218e+02,-2.378441065594033716e+02,-2.943404427725545247e+01,-5.376554109567496198e+01,9.484992027282714844e+00,-6.884268522262573242e-01,1.147378161549568176e-01,2.530000000000000000e+02
-2.180524316517112311e+02,-2.753884171021663860e+02,-7.016876388068885717e+01,-1.112589615913339003e+02,-1.767843016108699885e+02,-2.402790632930400534e+02,-2.481014460197275184e+01,-4.839913123369569803e+01,9.484992027282714844e+00,-6.884268522262573242e-01,1.147378161549568176e-01,2.540000000000000000e+02
-2.226403822977217715e+02,-2.798258019662634979e+02,-7.039221716028441733e+01,-1.110524277381273350e+02,-1.756965284213520135e+02,-2.425085225455222826e+02,-2.134637943570123753e+01,-4.415426882265001041e+01,9.484992027282714844e+00,-6.884268522262573242e-01,1.147378161549568176e-01,2.550000000000000000e+02
-2.259703234850958324e+02,-2.878599547114454253e+02,-7.008857591856667568e+01,-1.124875522375405126e+02,-1.762476897905153237e+02,-2.456795852874874981e+02,-2.000174819262156234e+01,-4.236305928282490640e+01,9.484992027282714844e+00,-6.884268522262573242e-01,1.147378161549568176e-01,2.560000000000000000e+02
-2.279301200728496042e+02,-2.990127848852298484e+02,-7.040412120533801499e+01,-1.158266979322643238e+02,-1.797556585801430629e+02,-2.503217749116292907e+02,-2.082393206567121524e+01,-4.378986367629386223e+01,9.484992027282714844e+00,-6.884268522262573242e-01,1.147378161549568176e-01,2.570000000000000000e+02
-2.291994481495676155e+02,-3.108978223619478740e+02,-7.237370223631842237e+01,-1.202105217732414530e+02,-1.862676922757364082e+02,-2.561251877894883364e+02,-2.314584899782039429e+01,-4.815549069856751885e+01,9.484992027282714844e+00,-6.884268522262573242e-01,1.147378161549568176e-01,2.580000000000000000e+02
-2.308296732899398194e+02,-3.206569933007713189e+02,-7.599623353084734845e+01,-1.243787807874850841e+02,-1.942571661086622044e+02,-2.624248586436197002e+02,-2.597540679184839973e+01,-5.401553030906507047e+01,9.484992027282714844e+00,-6.884268522262573242e-01,1.147378161549568176e-01,2.590000000000000000e+02
-2.336336337207394536e+02,-3.267767229093487913e+02,-8.023592453614219266e+01,-1.276224988772610232e+02,-2.015976286612376498e+02,-2.688600836036812325e+02,-2.843775060954976652e+01,-5.943400275387193687e+01,9.484992027282714844e+00,-6.884268522262573242e-01,1.147378161549568176e-01,2.600000000000000000e+02
-2.378643903742558905e+02,-3.299889046700309336e+02,-8.392528509158364614e+01,-1.302028439243194953e+02,-2.070771972882157570e+02,-2.755665556454077887e+02,-3.017020951557969966e+01,-6.317251035823755956e+01,9.484992027282714844e+00,-6.884268522262573242e-01,1.147378161549568176e-01,2.610000000000000000e+02
-2.433238175856631642e+02,-3.326282990731942846e+02,-8.668685365932924469e+01,-1.329983324633431039e+02,-2.110958060924876918e+02,-2.827997346888714674e+02,-3.147721553235714964e+01,-6.543028296849843173e+01,9.484992027282714844e+00,-6.884268522262573242e-01,1.147378161549568176e-01,2.620000000000000000e+02
-2.496652496983160745e+02,-3.369477570024273518e+02,-8.899467822118640470e+01,-1.367534356928199486e+02,-2.148950892462135016e+02,-2.904526409276686536e+02,-3.303679383897542721e+01,-6.738719354716704402e+01,9.484992027282714844e+00,-6.884268522262573242e-01,1.147378161549568176e-01,2.630000000000000000e+02
-2.565550791650593965e+02,-3.436312813360354994e+02,-9.137261615516581514e+01,-1.414760547305113505e+02,-2.190683303528639954e+02,-2.979336763960754979e+02,-3.523192039489458693e+01,-6.988177589706174331e+01,9.484992027282714844e+00,-6.884268522262573242e-01,1.147378161549568176e-01,2.640000000000000000e+02
-2.635650490054686088e+02,-3.515918839636678968e+02,-9.364248445476823690e+01,-1.463736174135929105e+02,-2.228575811628088559e+02,-3.045123827555462412e+02,-3.765203355270386965e+01,-7.251398543590676127e+01,9.484992027282714844e+00,-6.884268522262573242e-01,1.147378161549568176e-01,2.650000000000000000e+02
-2.699843169112045871e+02,-3.591357154161860308e+02,-9.508282294628679665e+01,-1.503750666401119815e+02,-2.249696763534720958e+02,-3.098466245471190632e+02,-3.932835386252281751e+01,-7.413037092895228852e+01,9.484992027282714844e+00,-6.884268522262573242e-01,1.147378161549568176e-01,2.660000000000000000e+02
-2.749020532529266347e+02,-3.654889307870266748e+02,-9.532704523405527652e+01,-1.529109282618401267e+02,-2.250715742144166143e+02,-3.142685293820059087e+02,-3.961687583824459580e+01,-7.423444666049272200e+01,9.446745872497558594e+00,-6.501809358596801758e-01,7.649187743663787842e-02,2.670000000000000000e+02
-2.777546626667617602e+02,-3.714149069282366327e+02,-9.496883632769277028e+01,-1.544213388765529089e+02,-2.244196936175203518e+02,-3.186073410568760664e+02,-3.893352749940822832e+01,-7.383879328209877713e+01,9.446745872497558594e+00,-6.501809358596801758e-01,7.649187743663787842e-02,2.680000000000000000e+02
-2.790642295405086770e+02,-3.783924659603121654e+02,-9.507960614678495403e+01,-1.561233774425722913e+02,-2.249083274614295078e+02,-3.236005483548815391e+02,-3.853948572495482949e+01,-7.473881293525391811e+01,9.446745872497558594e+00,-6.501809358596801758e-01,7.649187743663787842e-02,2.690000000000000000e+02
-2.807704734740273125e+02,-3.870834725127187994e+02,-9.605947216404092615e+01,-1.590845501690191668e+02,-2.274387497197394623e+02,-3.292728354462851712e+02,-3.947580295265470340e+01,-7.780916936367248127e+01,9.446745872497558594e+00,-6.501809358596801758e-01,7.649187743663787842e-02,2.700000000000000000e+02
-2.856412803117773365e+02,-3.964861440494410090e+02,-9.711591004617002909e+01,-1.632967340524096471e+02,-2.312305261714773224e+02,-3.348001024157292704e+02,-4.165773008634823782e+01,-8.200908448680547735e+01,9.446745872497558594e+00,-6.501809358596801758e-01,7.649187743663787842e-02,2.710000000000000000e+02
-2.958328379287345342e+02,-4.045862359583557009e+02,-9.712583667549642996e+01,-1.675846401098065144e+02,-2.347379058286196596e+02,-3.390924320355316013e+02,-4.405503974301063863e+01,-8.516744730630216509e+01,9.446745872497558594e+00,-6.501809358596801758e-01,7.649187743663787842e-02,2.720000000000000000e+02
-3.114429525678265236e+02,-4.099448177822046091e+02,-9.609289807284812923e+01,-1.705209939658461735e+02,-2.371842405793076978e+02,-3.417045434045239745e+02,-4.576888842547032255e+01,-8.585381648737529758e+01,9.446745872497558594e+00,-6.501809358596801758e-01,7.649187743663787842e-02,2.730000000000000000e+02
-3.301512022258020806e+02,-4.127734612112203649e+02,-9.556236088928972094e+01,-1.715734238415466280e+02,-2.391148754724854371e+02,-3.432527317918502376e+02,-4.684972658760761988e+01,-8.452010021526984929e+01,9.446745872497558594e+00,-6.501809358596801758e-01,7.649187743663787842e-02,2.740000000000000000e+02
-3.483409419428139699e+02,-4.145599215642619129e+02,-9.731070665432844180e+01,-1.714736345669475668e+02,-2.414727008662503067e+02,-3.448942337589787712e+02,-4.800064683191249060e+01,-8.284127214709951659e+01,9.446745872497558594e+00,-6.501809358596801758e-01,7.649187743663787842e-02,2.750000000000000000e+02
-3.630033622860860305e+02,-4.167097673784955987e+02,-1.014623933603033947e+02,-1.715207600849162191e+02,-2.442903931793043739e+02,-3.473231191086297258e+02,-4.952496557077392936e+01,-8.199197995882423129e+01,9.446745872497558594e+00,-6.501809358596801758e-01,7.649187743663787842e-02,2.760000000000000000e+02
-3.731314193539728876e+02,-4.195266933223765591e+02,-1.059625103904827483e+02,-1.725067780713284264e+02,-2.464625112804715172e+02,-3.502473978771531620e+02,-5.071404451650869305e+01,-8.162227345434757808e+01,9.446745872497558594e+00,-6.501809358596801758e-01,7.649187743663787842e-02,2.770000000000000000e+02
-3.797210062870171896e+02,-4.223793893994748032e+02,-1.081330589267527102e+02,-1.742358987932698255e+02,-2.468743338391618636e+02,-3.528611009297410419e+02,-5.040771493398233360e+01,-8.052119872670573386e+01,9.446745872497558594e+00,-6.501809358596801758e-01,7.649187743663787842e-02,2.780000000000000000e+02
-3.846052381165059160e+02,-4.246753617733270403e+02,-1.069763270373550768e+02,-1.759612649235127719e+02,-2.456991302970996003e+02,-3.548187648946168338e+02,-4.819935764645606469e+01,-7.821904720655084020e+01,9.446745872497558594e+00,-6.501809358596801758e-01,7.649187743663787842e-02,2.790000000000000000e+02
-3.891924269054175056e+02,-4.265597027883081864e+02,-1.040999614048096191e+02,-1.771988480489567337e+02,-2.445243965295057933e+02,-3.566985528133773187e+02,-4.508452347845241093e+01,-7.589338950963838215e+01,9.446745872497558594e+00,-6.501809358596801758e-01,7.649187743663787842e-02,2.800000000000000000e+02
-3.940440817999278806e+02,-4.287093873308235743e+02,-1.024309213950009507e+02,-1.781413007792634744e+02,-2.451992620827722931e+02,-3.594831758335039922e+02,-4.291338416697362845e+01,-7.569176828383842803e+01,9.446745872497558594e+00,-6.501809358596801758e-01,7.649187743663787842e-02,2.810000000000000000e+02
-3.993161245909986974e+02,-4.316169988117335379e+02,-1.039497792557012872e+02,-1.793963024751737976e+02,-2.485515286818704226e+02,-3.636008593512769949e+02,-4.316310104850754215e+01,-7.911414940585564182e+01,9.446745872497558594e+00,-6.501809358596801758e-01,7.649187743663787842e-02,2.820000000000000000e+02
-4.052916408608853089e+02,-4.351973316032704133e+02,-1.084519579189986871e+02,-1.814055978969850003e+02,-2.540930381695043252e+02,-3.684870335788937155e+02,-4.607825098419561982e+01,-8.585721477533707002e+01,9.446745872497558594e+00,-6.501809358596801758e-01,7.649187743663787842e-02,2.830000000000000000e+02
-4.122760635711497343e+02,-4.390208041458668049e+02,-1.141517965475800338e+02,-1.840780150743280501e+02,-2.606926773003983726e+02,-3.730613861843844461e+02,-5.071571863317012685e+01,-9.395436536132956462e+01,9.446745872497558594e+00,-6.501809358596801758e-01,7.649187743663787842e-02,2.840000000000000000e+02
-4.199117509623315527e+02,-4.427250415661242187e+02,-1.191970710628816050e+02,-1.868512519995288130e+02,-2.672815495984618792e+02,-3.765973606449233557e+02,-5.557067523111118135e+01,-1.008940318098570970e+02,9.446745872497558594e+00,-6.501809358596801758e-01,7.649187743663787842e-02,2.850000000000000000e+02
-4.267072056965798765e+02,-4.460775346151931444e+02,-1.226000686516808855e+02,-1.890427596775834900e+02,-2.729216906652927719e+02,-3.791637937948980834e+02,-5.917412059023945403e+01,-1.048093939865116226e+02,9.446745872497558594e+00,-6.501809358596801758e-01,7.649187743663787842e-02,2.860000000000000000e+02
-4.305542185906324448e+02,-4.487618348832447737e+02,-1.240485755885879371e+02,-1.902375402624852541e+02,-2.765402637473416689e+02,-3.813485103844318473e+02,-6.045841520310523265e+01,-1.051167683937028414e+02,9.446745872497558594e+00,-6.501809358596801758e-01,7.649187743663787842e-02,2.870000000000000000e+02
-4.301312998891671668e+02,-4.503975106328930451e+02,-1.233492881733855029e+02,-1.905308861688367870e+02,-2.771177676820811939e+02,-3.836746738405836368e+02,-5.908888343830085432e+01,-1.025565387345491217e+02,9.484992027282714844e+00,-6.501809358596801758e-01,1.147378161549568176e-01,2.880000000000000000e+02
-4.261700406367194773e+02,-4.509920273857446773e+02,-1.204614434602153779e+02,-1.905229095598424465e+02,-2.745266878950760656e+02,-3.862856583356251576e+02,-5.582299676880984407e+01,-9.882941704298673358e+01,9.484992027282714844e+00,-6.501809358596801758e-01,1.147378161549568176e-01,2.890000000000000000e+02
-4.214390669640557121e+02,-4.513300159668747256e+02,-1.161044174646544889e+02,-1.910133921768551772e+02,-2.702224369514568707e+02,-3.890511969774169074e+02,-5.250379141378402892e+01,-9.591441977720023715e+01,9.484992027282714844e+00,-6.501809358596801758e-01,1.147378161549568176e-01,2.900000000000000000e+02
-4.192079836531528940e+02,-4.526454465297404681e+02,-1.120145689479998055e+02,-1.925103540123718631e+02,-2.668096241801181350e+02,-3.918218687990483886e+02,-5.126074394077954821e+01,-9.517236487429750014e+01,9.484992027282714844e+00,-6.501809358596801758e-01,1.147378161549568176e-01,2.910000000000000000e+02
-4.212072201389706265e+02,-4.556388308329107986e+02,-1.101607368903644328e+02,-1.948599335621736373e+02,-2.664840868920139201e+02,-3.945382658390147981e+02,-5.316320301206587828e+01,-9.664363837542805413e+01,9.484992027282714844e+00,-6.501809358596801758e-01,1.147378161549568176e-01,2.920000000000000000e+02
-4.266102886668871861e+02,-4.597352989697876637e+02,-1.113729580949709543e+02,-1.973146007862877696e+02,-2.695147330795074367e+02,-3.971865896741801407e+02,-5.730747345586632946e+01,-9.910176435732751088e+01,9.484992027282714844e+00,-6.501809358596801758e-01,1.147378161549568176e-01,2.930000000000000000e+02
-4.328107558366167495e+02,-4.634206570166009556e+02,-1.146214844353850140e+02,-1.990609216454278112e+02,-2.740969693582060245e+02,-3.997652054201256533e+02,-6.123973153242604894e+01,-1.009935897243212821e+02,9.484992027282714844e+00,-6.501809358596801758e-01,1.147378161549568176e-01,2.940000000000000000e+02
-4.373649272168887023e+02,-4.654569318150207096e+02,-1.177252883407735453e+02,-1.998141456761425161e+02,-2.777914289059109478e+02,-4.023218330703616630e+02,-6.260248310180395492e+01,-1.016373641963441514e+02,9.484992027282714844e+00,-6.501809358596801758e-01,1.147378161549568176e-01,2.950000000000000000e+02
-4.395862652797694068e+02,-4.658381503123974312e+02,-1.189707729121689681e+02,-1.999914184479399637e+02,-2.793712509401498210e+02,-4.049691559319286398e+02,-6.079875716288415788e+01,-1.016995248274749883e+02,9.484992027282714844e+00,-6.501809358596801758e-01,1.147378161549568176e-01,2.960000000000000000e+02
-4.406599063218759511e+02,-4.655560549076928964e+02,-1.182551666124541043e+02,-2.003071191291719515e+02,-2.795163194039676000e+02,-4.077759688146566077e+02,-5.732813952968513149e+01,-1.024995009979132874e+02,9.484992027282714844e+00,-6.501809358596801758e-01,1.147378161549568176e-01,2.970000000000000000e+02
-4.424247938113618375e+02,-4.654717470059102880e+02,-1.168181645603991683e+02,-2.011317819365170863e+02,-2.798173542904366968e+02,-4.105913626874130387e+02,-5.452612678145715108e+01,-1.047045863045431133e+02,9.484992027282714844e+00,-6.501809358596801758e-01,1.147378161549568176e-01,2.980000000000000000e+02
-4.459847332827367268e+02,-4.655479821159204903e+02,-1.159343258524687599e+02,-2.021752771940151661e+02,-2.810691508839732933e+02,-4.129925668966021703e+02,-5.378522379168748557e+01,-1.075610866346117973e+02,9.484992027282714844e+00,-6.501809358596801758e-01,1.147378161549568176e-01,2.990000000000000000e+02
-4.512311544073899654e+02,-4.653120814231507438e+02,-1.158511320782914709e+02,-2.027837189807074765e+02,-2.824504640277774570e+02,-4.144789659992227371e+02,-5.474027927398833526e+01,-1.093699343379023503e+02,9.484992027282714844e+00,-6.501809358596801758e-01,1.147378161549568176e-01,3.000000000000000000e+02
-4.573955250167318809e+02,-4.650541335835776522e+02,-1.159031445844907466e+02,-2.026176963450776611e+02,-2.823559090084451100e+02,-4.148362901583411713e+02,-5.601519440918991677e+01,-1.088510735325743326e+02,9.484992027282714844e+00,-6.501809358596801758e-01,1.147378161549568176e-01,3.010000000000000000e+02
-4.638734552409485445e+02,-4.663195221488514903e+02,-1.155454984668876932e+02,-2.021414176668738492e+02,-2.801214028441177106e+02,-4.144212974062857029e+02,-5.672777121810054268e+01,-1.062800739919075568e+02,9.484992027282714844e+00,-6.501809358596801758e-01,1.147378161549568176e-01,3.020000000000000000e+02
-4.705624994050864984e+02,-4.708559389726490281e+02,-1.151896640336800601e+02,-2.024807171687152731e+02,-2.770414400351348831e+02,-4.141171873664725354e+02,-5.733421343875500042e+01,-1.034723537017817989e+02,9.484992027282714844e+00,-6.501809358596801758e-01,1.147378161549568176e-01,3.030000000000000000e+02
-4.776789280802018425e+02,-4.788062288008007386e+02,-1.159985171674442199e+02,-2.046987198347416097e+02,-2.757002960976609529e+02,-4.149262836790010169e+02,-5.910564741799566946e+01,-1.026739456391406975e+02,9.484992027282714844e+00,-6.501809358596801758e-01,1.147378161549568176e-01,3.040000000000000000e+02
-4.855554600715917104e+02,-4.879218354203534318e+02,-1.188745311760386585e+02,-2.090141268710531222e+02,-2.781223999166139720e+02,-4.174255557843825954e+02,-6.282730730860077983e+01,-1.052130491873721212e+02,9.484992027282714844e+00,-6.501809358596801758e-01,1.147378161549568176e-01,3.050000000000000000e+02
-4.947300257090205946e+02,-4.948093646339204952e+02,-1.236313856364492949e+02,-2.145645140127679724e+02,-2.842706840093193250e+02,-4.214404435154108342e+02,-6.796912385132577583e+01,-1.108252568517389136e+02,9.484992027282714844e+00,-6.501809358596801758e-01,1.147378161549568176e-01,3.060000000000000000e+02
-5.060572016218603721e+02,-4.973355704194547116e+02,-1.290474415867511198e+02,-2.198919029022104041e+02,-2.920581591491355766e+02,-4.261431818350525873e+02,-7.301877767280848275e+01,-1.179408041818722950e+02,9.484992027282714844e+00,-6.501809358596801758e-01,1.147378161549568176e-01,3.070000000000000000e+02
-5.203480070053030886e+02,-4.961206787827482572e+02,-1.335919339849012886e+02,-2.237636803411598976e+02,-2.986972556351744288e+02,-4.304737286136100920e+02,-7.653098830648525563e+01,-1.245232287869469019e+02,9.484992027282714844e+00,-6.501809358596801758e-01,1.147378161549568176e-01,3.080000000000000000e+02
-5.375563904229295531e+02,-4.937963789938858667e+02,-1.360993136935069288e+02,-2.257124353381602759e+02,-3.021993922876625902e+02,-4.335780267830141383e+02,-7.787486763978040472e+01,-1.288649383403891306e+02,9.484992027282714844e+00,-6.501809358596801758e-01,1.147378161549568176e-01,3.090000000000000000e+02
-5.562233841590764314e+02,-4.927327133003041126e+02,-1.359735139361736174e+02,-2.259652058566873620e+02,-3.019896012769913796e+02,-4.350307410435898419e+02,-7.716185916058498151e+01,-1.300414015190607415e+02,9.484992027282714844e+00,-6.501809358596801758e-01,1.147378161549568176e-01,3.100000000000000000e+02
-5.739087102009982573e+02,-4.932836922789937262e+02,-1.331268448194497296e+02,-2.249767407422146448e+02,-2.985661500985282828e+02,-4.348451464117226806e+02,-7.472977354890565493e+01,-1.280600612160320679e+02,9.484992027282714844e+00,-6.501809358596801758e-01,1.147378161549568176e-01,3.110000000000000000e+02
-5.885429919660385849e+02,-4.939850183932126697e+02,-1.280314520220341592e+02,-2.230455418245860528e+02,-2.928951251221726579e+02,-4.333885507610685863e+02,-7.088730926232699403e+01,-1.237986111867290902e+02,9.484992027282714844e+00,-6.501809358596801758e-01,1.147378161549568176e-01,3.120000000000000000e+02
-5.997212121626155295e+02,-4.932633010126966155e+02,-1.218666536038527966e+02,-2.203057021313470045e+02,-2.861299131492131664e+02,-4.312555417972414489e+02,-6.614782251395388357e+01,-1.187343370075826670e+02,9.484992027282714844e+00,-6.884268522262573242e-01,1.529837548732757568e-01,3.130000000000000000e+02
-6.088454264245908689e+02,-4.909144719556109635e+02,-1.163259204427844224e+02,-2.169862734614316651e+02,-2.795955534210523865e+02,-4.290526815511278755e+02,-6.149120099705714892e+01,-1.144456486341563277e+02,9.484992027282714844e+00,-6.884268522262573242e-01,1.529837548732757568e-01,3.140000000000000000e+02
-6.179441906470908634e+02,-4.880799037512595078e+02,-1.128900219074865845e+02,-2.136137572590480431e+02,-2.746389970384965409e+02,-4.271398987889556338e+02,-5.814153440873030831e+01,-1.120330963013889232e+02,9.484992027282714844e+00,-6.884268522262573242e-01,1.529837548732757568e-01,3.150000000000000000e+02
-6.280942866874711399e+02,-4.860337321093264791e+02,-1.120105500250998602e+02,-2.109484370977364733e+02,-2.721982048702877819e+02,-4.255362084323688805e+02,-5.691935917911121123e+01,-1.117759798754706253e+02,9.484992027282714844e+00,-6.884268522262573242e-01,1.529837548732757568e-01,3.160000000000000000e+02
-6.387016311902993948e+02,-4.851353143211516681e+02,-1.129168636250499276e+02,-2.096850103855841780e+02,-2.723895118827687156e+02,-4.241261851414748776e+02,-5.774446091801269176e+01,-1.132336613544782722e+02,9.484992027282714844e+00,-6.884268522262573242e-01,1.529837548732757568e-01,3.170000000000000000e+02
-6.481697751612143747e+02,-4.848754220692378567e+02,-1.142950584135766121e+02,-2.100930558491194233e+02,-2.745117060425361615e+02,-4.229934430370081486e+02,-5.976233263699691634e+01,-1.156685090933539186e+02,9.484992027282714844e+00,-6.884268522262573242e-01,1.529837548732757568e-01,3.180000000000000000e+02
-6.553300463044868138e+02,-4.846790570724160716e+02,-1.152662570335329519e+02,-2.117845635065681904e+02,-2.774655349608156030e+02,-4.224764700174187055e+02,-6.194344704067304974e+01,-1.184275071825658188e+02,9.484992027282714844e+00,-6.884268522262573242e-01,1.529837548732757568e-01,3.190000000000000000e+02
-6.604634907675354043e+02,-4.844656654164288625e+02,-1.158454597723323332e+02,-2.137795907331918102e+02,-2.802389788723837682e+02,-4.227769435741753341e+02,-6.360683266464809549e+01,-1.210295775578877056e+02,9.484992027282714844e+00,-6.884268522262573242e-01,1.529837548732757568e-01,3.200000000000000000e+02
-6.651621736438573862e+02,-4.844574493763935834e+02,-1.165894641657306465e+02,-2.149612341359232346e+02,-2.821556217591283939e+02,-4.234983651596530763e+02,-6.452010804135511535e+01,-1.230398515500843359e+02,9.484992027282714844e+00,-6.884268522262573242e-01,1.529837548732757568e-01,3.210000000000000000e+02
-6.712276110402715403e+02,-4.846493140032530960e+02,-1.179019630459039263e+02,-2.147631435602073680e+02,-2.829325535940994314e+02,-4.237114491029479950e+02,-6.471779981644033342e+01,-1.240393853035369602e+02,9.484992027282714844e+00,-6.884268522262573242e-01,1.529837548732757568e-01,3.220000000000000000e+02
-6.794518904636888692e+02,-4.846441020849180177e+02,-1.196654060622427096e+02,-2.136292450022704656e+02,-2.827216253147842053e+02,-4.226711314929447099e+02,-6.437100908264471855e+01,-1.238458032206700636e+02,9.484992027282714844e+00,-6.884268522262573242e-01,1.529837548732757568e-01,3.230000000000000000e+02
-6.890951503717240030e+02,-4.840296052147422188e+02,-1.214254957129963941e+02,-2.127910432838834254e+02,-2.821407182860230023e+02,-4.205825021021420298e+02,-6.382302019291603301e+01,-1.228005594250610102e+02,9.484992027282714844e+00,-6.884268522262573242e-01,1.529837548732757568e-01,3.240000000000000000e+02
-6.983204678103111291e+02,-4.828244728560401882e+02,-1.228097818618422252e+02,-2.133827515211478385e+02,-2.820922691372173858e+02,-4.186254798394874115e+02,-6.358433179078826925e+01,-1.217878300912868781e+02,9.484992027282714844e+00,-6.884268522262573242e-01,1.529837548732757568e-01,3.250000000000000000e+02
-7.052407757943857405e+02,-4.814644747111104834e+02,-1.237188943604868427e+02,-2.155186785556745122e+02,-2.832472148338135867e+02,-4.180682714856377515e+02,-6.406567192113641340e+01,-1.218019249265008739e+02,9.484992027282714844e+00,-6.884268522262573242e-01,1.529837548732757568e-01,3.260000000000000000e+02
-7.089362585793647895e+02,-4.803580550973101140e+02,-1.241593958138494145e+02,-2.181056659708774532e+02,-2.854450786679515204e+02,-4.191833961873745693e+02,-6.517145630689708469e+01,-1.232740060511290494e+02,9.484992027282714844e+00,-6.884268522262573242e-01,1.529837548732757568e-01,3.270000000000000000e+02
-7.098787402043110433e+02,-4.795032104617818050e+02,-1.239782808575565696e+02,-2.195906923674585869e+02,-2.875239220857772580e+02,-4.209345238459542315e+02,-6.615678041127932829e+01,-1.256468872171924431e+02,9.484992027282714844e+00,-6.884268522262573242e-01,1.529837548732757568e-01,3.280000000000000000e+02
-7.095606737659019245e+02,-4.785544706262946875e+02,-1.228174609083406494e+02,-2.190377273701501508e+02,-2.878815783377929165e+02,-4.217382893756960129e+02,-6.602075572168030249e+01,-1.275775701022839712e+02,9.484992027282714844e+00,-6.884268522262573242e-01,1.529837548732757568e-01,3.290000000000000000e+02
-7.095809466545193800e+02,-4.772463057032393863e+02,-1.203799337657098931e+02,-2.166881597349118351e+02,-2.854966887845049541e+02,-4.206632825605123571e+02,-6.424128595803097141e+01,-1.277291856697480625e+02,9.484992027282714844e+00,-6.884268522262573242e-01,1.529837548732757568e-01,3.300000000000000000e+02
-7.107846959275184417e+02,-4.757761429574051135e+02,-1.168170723419073056e+02,-2.136847732088339171e+02,-2.806972509857441764e+02,-4.181030884197181194e+02,-6.130759234487061349e+01,-1.256673830735255706e+02,9.484992027282714844e+00,-6.884268522262573242e-01,1.529837548732757568e-01,3.310000000000000000e+02
-7.130144643779947273e+02,-4.748441207316668624e+02,-1.129087470964427666e+02,-2.113389759204484903e+02,-2.750732053520451927e+02,-4.154430609385647131e+02,-5.858645658104308040e+01,-1.222265653383810786e+02,9.484992027282714844e+00,-6.884268522262573242e-01,1.529837548732757568e-01,3.320000000000000000e+02
-7.155620518197783895e+02,-4.753142183796030622e+02,-1.098108138092235322e+02,-2.105332772830100225e+02,-2.705425989984324815e+02,-4.140565333516715327e+02,-5.752748047804914222e+01,-1.190274526651076030e+02,9.484992027282714844e+00,-6.884268522262573242e-01,1.529837548732757568e-01,3.330000000000000000e+02
-7.178579012482139206e+02,-4.776654494191533900e+02,-1.084320829806106303e+02,-2.114994667569035300e+02,-2.682113600832632301e+02,-4.144189604766324919e+02,-5.871952020369826641e+01,-1.174322562548635460e+02,9.484992027282714844e+00,-6.884268522262573242e-01,1.529837548732757568e-01,3.340000000000000000e+02
-7.197772300742285552e+02,-4.814947531080463250e+02,-1.088257596153844133e+02,-2.138246877044165899e+02,-2.678445269755683285e+02,-4.159267565020593338e+02,-6.146714623998957450e+01,-1.176912912158639983e+02,9.484992027282714844e+00,-6.884268522262573242e-01,1.529837548732757568e-01,3.350000000000000000e+02
-7.213659792670979414e+02,-4.853682590706176256e+02,-1.100704263460023640e+02,-2.165377774454344149e+02,-2.682970615816736881e+02,-4.174425926889691709e+02,-6.419933054165528574e+01,-1.189266421467923465e+02,9.484992027282714844e+00,-6.884268522262573242e-01,1.529837548732757568e-01,3.360000000000000000e+02
-7.224194774213578967e+02,-4.872534463134805947e+02,-1.108280970563229175e+02,-2.183656582107618078e+02,-2.684965022710787252e+02,-4.180849461977176134e+02,-6.543324849201007964e+01,-1.199504084915944304e+02,9.484992027282714844e+00,-6.884268522262573242e-01,1.529837548732757568e-01,3.370000000000000000e+02
-7.225076898894936903e+02,-4.854765970328060121e+02,-1.102397720415997355e+02,-2.182622452274553098e+02,-2.681610879955303517e+02,-4.176727396238132997e+02,-6.462655149241015806e+01,-1.201961023162753008e+02,9.484992027282714844e+00,-6.884268522262573242e-01,1.529837548732757568e-01,3.380000000000000000e+02
-7.215249123367549373e+02,-4.797254834637599288e+02,-1.084840649390647513e+02,-2.160035522189062931e+02,-2.677138320551440529e+02,-4.165660472922102144e+02,-6.236996189713647709e+01,-1.199614904989066417e+02,9.484992027282714844e+00,-6.884268522262573242e-01,1.529837548732757568e-01,3.390000000000000000e+02
-7.201757654842765533e+02,-4.714193789763310178e+02,-1.065715744856178162e+02,-2.123874910076863216e+02,-2.675939301734175615e+02,-4.151447346694540101e+02,-5.989427469980250862e+01,-1.198302397250478180e+02,9.523238182067871094e+00,-6.501809358596801758e-01,1.529837548732757568e-01,3.400000000000000000e+02
-7.197406776861151911e+02,-4.630940539213737566e+02,-1.055778517731159809e+02,-2.087883284331026061e+02,-2.676825028550690604e+02,-4.134580837807100124e+02,-5.833301393222791376e+01,-1.199274049695935673e+02,9.523238182067871094e+00,-6.501809358596801758e-01,1.529837548732757568e-01,3.410000000000000000e+02
-7.211394049293980970e+02,-4.571263204102579039e+02,-1.059462593824313217e+02,-2.063470432776650796e+02,-2.673776038145863367e+02,-4.113527768505222184e+02,-5.822791085847018167e+01,-1.197691975374571030e+02,9.523238182067871094e+00,-6.501809358596801758e-01,1.529837548732757568e-01,3.420000000000000000e+02
-7.240709537246281116e+02,-4.546069731048248741e+02,-1.073360756618435516e+02,-2.053835890755143510e+02,-2.661692072715031827e+02,-4.088660696915259223e+02,-5.944062678447301096e+01,-1.188347571811204944e+02,9.523238182067871094e+00,-6.501809358596801758e-01,1.529837548732757568e-01,3.430000000000000000e+02
-7.270544978537373026e+02,-4.550569021668842424e+02,-1.089535152189037035e+02,-2.054198186714461372e+02,-2.640740183628763589e+02,-4.063844210846406213e+02,-6.132373293273792569e+01,-1.172115847815949792e+02,9.523238182067871094e+00,-6.501809358596801758e-01,1.529837548732757568e-01,3.440000000000000000e+02
-7.284166027949353293e+02,-4.570549684352574786e+02,-1.099925252358495982e+02,-2.057180015296335114e+02,-2.615315299456245839e+02,-4.043556656213529550e+02,-6.300624807365989000e+01,-1.156396654981712118e+02,9.523238182067871094e+00,-6.501809358596801758e-01,1.529837548732757568e-01,3.450000000000000000e+02
-7.273969062842965059e+02,-4.592220081286719733e+02,-1.099108198296502223e+02,-2.058956024514375258e+02,-2.589904751668809695e+02,-4.028943753520925384e+02,-6.378546703430220077e+01,-1.149418059811466719e+02,9.523238182067871094e+00,-6.501809358596801758e-01,1.529837548732757568e-01,3.460000000000000000e+02
-7.244673958795812041e+02,-4.608684744814853502e+02,-1.085528456130743962e+02,-2.061896557515387940e+02,-2.567097064788017633e+02,-4.017821696074938700e+02,-6.355421402077081439e+01,-1.154572019943957457e+02,9.523238182067871094e+00,-6.501809358596801758e-01,1.529837548732757568e-01,3.470000000000000000e+02
-7.207063637144703989e+02,-4.619773465227450515e+02,-1.062076148743260546e+02,-2.072177664275332063e+02,-2.549565367352167868e+02,-4.009047035940512842e+02,-6.297072094276313692e+01,-1.169907438178181565e+02,9.523238182067871094e+00,-6.501809358596801758e-01,1.529837548732757568e-01,3.480000000000000000e+02
-7.168960573462152297e+02,-4.627231615267312463e+02,-1.035512302704122476e+02,-2.094064036122395009e+02,-2.542340439474164668e+02,-4.005906985127852522e+02,-6.307512086248380001e+01,-1.191813786539296416e+02,9.523238182067871094e+00,-6.501809358596801758e-01,1.529837548732757568e-01,3.490000000000000000e+02
-7.131337785130285738e+02,-4.629988350048461143e+02,-1.013483073101897389e+02,-2.124653975108626582e+02,-2.550604061831771787e+02,-4.013256319848710518e+02,-6.445769567813636058e+01,-1.217452404696300619e+02,9.523238182067871094e+00,-6.501809358596801758e-01,1.529837548732757568e-01,3.500000000000000000e+02
-7.091308824968475619e+02,-4.623507982209331431e+02,-1.000155214515285707e+02,-2.153311762335895310e+02,-2.573904676182053208e+02,-4.030334204638477331e+02,-6.663276776323539252e+01,-1.243365647739158248e+02,9.523238182067871094e+00,-6.501809358596801758e-01,1.529837548732757568e-01,3.510000000000000000e+02
-7.047213803117941779e+02,-4.603820598015385031e+02,-9.942661741719177826e+01,-2.167564906202065913e+02,-2.603294763768617486e+02,-4.047397892980759480e+02,-6.830350578122693150e+01,-1.263687236851318403e+02,9.523238182067871094e+00,-6.501809358596801758e-01,1.529837548732757568e-01,3.520000000000000000e+02
-7.000320595020405108e+02,-4.572720082867565452e+02,-9.918587940172312756e+01,-2.162019703062615008e+02,-2.625746807318172387e+02,-4.051416327913927944e+02,-6.843990439625883937e+01,-1.272319845143928205e+02,9.523238182067871094e+00,-6.501809358596801758e-01,1.529837548732757568e-01,3.530000000000000000e+02
-6.952610643679200848e+02,-4.539232133103548676e+02,-9.912922239536658253e+01,-2.143208505697598412e+02,-2.632726793103225873e+02,-4.036521143501372535e+02,-6.724614030997111058e+01,-1.268032440740499851e+02,9.523238182067871094e+00,-6.501809358596801758e-01,1.529837548732757568e-01,3.540000000000000000e+02
-6.904151990409360451e+02,-4.515075642176987003e+02,-9.951277604201266058e+01,-2.125237117916503848e+02,-2.624884879662344019e+02,-4.008977448546879714e+02,-6.606137471938973249e+01,-1.256336531475425318e+02,9.523238182067871094e+00,-6.501809358596801758e-01,1.529837548732757568e-01,3.550000000000000000e+02
-6.852948717780760717e+02,-4.506755595609959073e+02,-1.006296192333597901e+02,-2.118737569801094196e+02,-2.608382921097511371e+02,-3.981236394834550083e+02,-6.617981819877161342e+01,-1.244504951106292765e+02,9.523238182067871094e+00,-6.501809358596801758e-01,1.529837548732757568e-01,3.560000000000000000e+02
-6.796747995178192241e+02,-4.510430806839480056e+02,-1.022062370520447985e+02,-2.122282865857014258e+02,-2.587167239342480798e+02,-3.960567432479583658e+02,-6.763616199910813975e+01,-1.234118011352242092e+02,9.523238182067871094e+00,-6.501809358596801758e-01,1.529837548732757568e-01,3.570000000000000000e+02
-6.734365811886931397e+02,-4.514163931491764288e+02,-1.032637217175063142e+02,-2.124045587749192237e+02,-2.559844335940342717e+02,-3.943316439800607895e+02,-6.911866684139158679e+01,-1.219613246220693554e+02,9.523238182067871094e+00,-6.501809358596801758e-01,1.529837548732757568e-01,3.580000000000000000e+02
-6.665395704987815861e+02,-4.506450788870502038e+02,-1.027393702301884559e+02,-2.112647101991738054e+02,-2.524484304805159809e+02,-3.920128552724795554e+02,-6.913465286422820100e+01,-1.195691810193616220e+02,9.523238182067871094e+00,-6.501809358596801758e-01,1.529837548732757568e-01,3.590000000000000000e+02
-6.589734907930525196e+02,-4.484648447311861901e+02,-1.003984373726683543e+02,-2.087594801094780905e+02,-2.485537719480001897e+02,-3.886522383822257325e+02,-6.735926488865618467e+01,-1.166239284677689056e+02,9.523238182067871094e+00,-6.501809358596801758e-01,1.529837548732757568e-01,3.600000000000000000e+02
-6.508606392286218352e+02,-4.456664797628393444e+02,-9.721204262028402354e+01,-2.060058292439830439e+02,-2.454311417637919703e+02,-3.848375155179992362e+02,-6.494028708389839721e+01,-1.144649144118405957e+02,9.523238182067871094e+00,-6.501809358596801758e-01,1.529837548732757568e-01,3.610000000000000000e+02
-6.426291051524674458e+02,-4.434729504487164604e+02,-9.480397202653136901e+01,-2.043570370632386357e+02,-2.441224746048362704e+02,-3.817343812924445956e+02,-6.351983066763818897e+01,-1.143652132437728142e+02,9.523238182067871094e+00,-6.501809358596801758e-01,1.529837548732757568e-01,3.620000000000000000e+02
-6.349847841712999070e+02,-4.426339283990387230e+02,-9.438614046289501402e+01,-2.043144294950902804e+02,-2.447000317197393997e+02,-3.800959430144098405e+02,-6.391075039430506877e+01,-1.163846498376015006e+02,9.523238182067871094e+00,-6.501809358596801758e-01,1.529837548732757568e-01,3.630000000000000000e+02
-6.285493060600874742e+02,-4.429275666563596587e+02,-9.603699784453067423e+01,-2.052107320515967785e+02,-2.461674405763512823e+02,-3.796514034187946436e+02,-6.561154022285211340e+01,-1.192526577015432849e+02,9.523238182067871094e+00,-6.501809358596801758e-01,1.529837548732757568e-01,3.640000000000000000e+02
-6.233805952929974410e+02,-4.433699363115508731e+02,-9.883768342150858643e+01,-2.058457733029360952e+02,-2.472562094708537188e+02,-3.793451843261741487e+02,-6.745639021321449036e+01,-1.214222386164597083e+02,9.523238182067871094e+00,-6.501809358596801758e-01,1.529837548732757568e-01,3.650000000000000000e+02
-6.188036506608987111e+02,-4.428858540651774547e+02,-1.016316191883236115e+02,-2.054319174378940716e+02,-2.473534675465816690e+02,-3.781182893351151506e+02,-6.862388920566104389e+01,-1.222459665619874158e+02,9.523238182067871094e+00,-6.501809358596801758e-01,1.529837548732757568e-01,3.660000000000000000e+02
-6.137673713825502091e+02,-4.409186282332211704e+02,-1.037071340078510957e+02,-2.040490486192476283e+02,-2.467203502810982627e+02,-3.755522822871139397e+02,-6.903227570489934806e+01,-1.221466792741462086e+02,9.523238182067871094e+00,-6.501809358596801758e-01,1.529837548732757568e-01,3.670000000000000000e+02
-6.075005088187203910e+02,-4.376276555685142284e+02,-1.049006324536704824e+02,-2.023539519850797888e+02,-2.459276930837240798e+02,-3.719516533652381440e+02,-6.890796559301634261e+01,-1.217526199941676168e+02,9.523238182067871094e+00,-6.501809358596801758e-01,1.529837548732757568e-01,3.680000000000000000e+02
-5.999589749338088041e+02,-4.336783629020790158e+02,-1.052414768728967829e+02,-2.009475040508336861e+02,-2.451978559213507651e+02,-3.679609164690818943e+02,-6.817685421768419474e+01,-1.210488917940165265e+02,9.523238182067871094e+00,-6.501809358596801758e-01,1.529837548732757568e-01,3.690000000000000000e+02
-5.916968491597795037e+02,-4.298645104717099912e+02,-1.046698332261889846e+02,-2.000070560408917117e+02,-2.443252093303240144e+02,-3.641307624225469226e+02,-6.643946173790436660e+01,-1.195008571907728765e+02,9.523238182067871094e+00,-6.501809358596801758e-01,1.529837548732757568e-01,3.700000000000000000e+02
-5.833023185290048787e+02,-4.267733885237475988e+02,-1.031555697183293887e+02,-1.994258360821436327e+02,-2.431242050835935515e+02,-3.607499707978417973e+02,-6.355941360827864628e+01,-1.169639615708974816e+02,9.408499717712402344e+00,-6.884268522262573242e-01,1.147378161549568176e-01,3.710000000000000000e+02
-5.749054143488251611e+02,-4.245729277313946568e+02,-1.010146410964714505e+02,-1.991760289824781012e+02,-2.417631673303849311e+02,-3.579214366232777138e+02,-6.014088493059807661e+01,-1.142652658096494633e+02,9.408499717712402344e+00,-6.884268522262573242e-01,1.147378161549568176e-01,3.720000000000000000e+02
-5.661779278934398008e+02,-4.229605821262384779e+02,-9.895177058798071812e+01,-1.994404371194143550e+02,-2.405460223701609266e+02,-3.556618813447075809e+02,-5.725745951782300835e+01,-1.127022432847240907e+02,9.408499717712402344e+00,-6.884268522262573242e-01,1.147378161549568176e-01,3.730000000000000000e+02
-5.567957642348183072e+02,-4.213251597124649379e+02,-9.765009968206231861e+01,-2.003642812332973335e+02,-2.394300336379778855e+02,-3.538799318918627250e+02,-5.560476318825021735e+01,-1.129086092262696184e+02,9.408499717712402344e+00,-6.884268522262573242e-01,1.147378161549568176e-01,3.740000000000000000e+02
-5.468925281778790577e+02,-4.191104723112298416e+02,-9.724740673302039795e+01,-2.017174438893639490e+02,-2.379324618241596454e+02,-3.523049910724298570e+02,-5.490462082910744357e+01,-1.142802116737007054e+02,9.408499717712402344e+00,-6.884268522262573242e-01,1.147378161549568176e-01,3.750000000000000000e+02
-5.370511458141450021e+02,-4.161971328475483460e+02,-9.723472048125586298e+01,-2.028911287684127274e+02,-2.356463209608709803e+02,-3.505584324767851285e+02,-5.418749503737990381e+01,-1.155709618218174910e+02,9.408499717712402344e+00,-6.884268522262573242e-01,1.147378161549568176e-01,3.760000000000000000e+02
-5.278551752814501015e+02,-4.130231963076196280e+02,-9.693711413412984257e+01,-2.033348731889161627e+02,-2.328396952527652957e+02,-3.484096320451251358e+02,-5.271449558867698215e+01,-1.160430240913512989e+02,9.408499717712402344e+00,-6.884268522262573242e-01,1.147378161549568176e-01,3.770000000000000000e+02
-5.194193959407384682e+02,-4.102920544176342901e+02,-9.613813296754278781e+01,-2.030505284049920647e+02,-2.303972548030419603e+02,-3.459802892447980867e+02,-5.063055387454141965e+01,-1.159632813392713615e+02,9.408499717712402344e+00,-6.884268522262573242e-01,1.147378161549568176e-01,3.780000000000000000e+02
-5.113532631117323035e+02,-4.084331203761512370e+02,-9.523652738656574002e+01,-2.026261222301598082e+02,-2.290163318394797898e+02,-3.436288793341577730e+02,-4.873045029302602416e+01,-1.159816182126926378e+02,9.408499717712402344e+00,-6.884268522262573242e-01,1.147378161549568176e-01,3.790000000000000000e+02
-5.031957116611745278e+02,-4.072463394256910760e+02,-9.480164063046822776e+01,-2.027180695241124795e+02,-2.284445884715455577e+02,-3.415662321760569284e+02,-4.765019922996134483e+01,-1.161837299533829082e+02,9.408499717712402344e+00,-6.884268522262573242e-01,1.147378161549568176e-01,3.800000000000000000e+02
-4.948951148934193043e+02,-4.060530219211966596e+02,-9.501744662864325619e+01,-2.034541915364943634e+02,-2.276168776960307696e+02,-3.395895510586942692e+02,-4.736536095357132581e+01,-1.159406224430642851e+02,9.408499717712402344e+00,-6.884268522262573242e-01,1.147378161549568176e-01,3.810000000000000000e+02
-4.868552151154599414e+02,-4.042488940018231460e+02,-9.560151404280077259e+01,-2.043391647310056669e+02,-2.256943700029410138e+02,-3.372800513795095867e+02,-4.748502918816961937e+01,-1.147627581086208011e+02,9.408499717712402344e+00,-6.884268522262573242e-01,1.147378161549568176e-01,3.820000000000000000e+02
-4.794842756088894475e+02,-4.017984278542580796e+02,-9.626789169739845420e+01,-2.047721724652940338e+02,-2.230474731575259284e+02,-3.345277344534254098e+02,-4.792665391938771791e+01,-1.131831957787408101e+02,9.408499717712402344e+00,-6.884268522262573242e-01,1.147378161549568176e-01,3.830000000000000000e+02
-4.726673685992391256e+02,-3.992364215969653287e+02,-9.718812453703822030e+01,-2.046550903086451854e+02,-2.211578284933718805e+02,-3.318219417324735332e+02,-4.912676369819746469e+01,-1.125412388541726614e+02,9.408499717712402344e+00,-6.884268522262573242e-01,1.147378161549568176e-01,3.840000000000000000e+02
-4.656693699503300650e+02,-3.971857653569311424e+02,-9.889615256518595743e+01,-2.044725218421144746e+02,-2.214215171974979057e+02,-3.299110427637529028e+02,-5.147554873189346836e+01,-1.137014746867553185e+02,9.408499717712402344e+00,-6.884268522262573242e-01,1.147378161549568176e-01,3.850000000000000000e+02
-4.575781243302501480e+02,-3.958064694893364504e+02,-1.016926496369860615e+02,-2.047725494885430635e+02,-2.239033489399125756e+02,-3.290858217363120275e+02,-5.456326024622853765e+01,-1.159834336559902113e+02,9.408499717712402344e+00,-6.884268522262573242e-01,1.147378161549568176e-01,3.860000000000000000e+02
-4.479080626856532490e+02,-3.946284595628760599e+02,-1.051241620737964695e+02,-2.055703441831983582e+02,-2.271465565367843737e+02,-3.287875927488009893e+02,-5.708866778927540508e+01,-1.175302970556404034e+02,9.408499717712402344e+00,-6.884268522262573242e-01,1.147378161549568176e-01,3.870000000000000000e+02
-4.368859926445825295e+02,-3.928916859121882226e+02,-1.080826065876419761e+02,-2.062647247237382544e+02,-2.292036259945818983e+02,-3.279873565574689565e+02,-5.766560410593319830e+01,-1.170132846072310713e+02,9.408499717712402344e+00,-6.884268522262573242e-01,1.147378161549568176e-01,3.880000000000000000e+02
-4.252323110974100473e+02,-3.900971805181043237e+02,-1.094787571705819573e+02,-2.061288376716292987e+02,-2.289669801805719089e+02,-3.260209041854591305e+02,-5.584990527888794531e+01,-1.151453123196558863e+02,9.408499717712402344e+00,-6.884268522262573242e-01,1.147378161549568176e-01,3.890000000000000000e+02
-4.136807847544964716e+02,-3.863611718422339436e+02,-1.089257708431318861e+02,-2.048842072952579656e+02,-2.267125069400703978e+02,-3.231037669498934974e+02,-5.247107671062121881e+01,-1.144902239079713127e+02,9.408499717712402344e+00,-6.884268522262573242e-01,1.147378161549568176e-01,3.900000000000000000e+02
-4.026425845778639996e+02,-3.823665041499489234e+02,-1.068971785008834559e+02,-2.028487228087253698e+02,-2.235754570596359372e+02,-3.200700342837899370e+02,-4.900131989873420935e+01,-1.175446412839614823e+02,9.408499717712402344e+00,-6.884268522262573242e-01,1.147378161549568176e-01,3.910000000000000000e+02
-3.921894885916244675e+02,-3.789654623880965119e+02,-1.043095599020348345e+02,-2.005963421437179477e+02,-2.205706838582914315e+02,-3.176211650977729732e+02,-4.652123711158628794e+01,-1.246543354846871807e+02,9.484992027282714844e+00,-6.884268522262573242e-01,1.147378161549568176e-01,3.920000000000000000e+02
-3.822311036632072501e+02,-3.766740654806924340e+02,-1.019439404137567635e+02,-1.985059091031012031e+02,-2.179919549638775607e+02,-3.157894848568716952e+02,-4.511528016342958836e+01,-1.335396091172879096e+02,9.484992027282714844e+00,-6.884268522262573242e-01,1.147378161549568176e-01,3.930000000000000000e+02
-3.726597072132835820e+02,-3.753465626926042660e+02,-1.001323666086721005e+02,-1.965959061368409948e+02,-2.155082977075239796e+02,-3.140419908844664860e+02,-4.407779057703601211e+01,-1.408402374613860957e+02,9.484992027282714844e+00,-6.884268522262573242e-01,1.147378161549568176e-01,3.940000000000000000e+02
-3.633845250641170423e+02,-3.742406308479928612e+02,-9.882684251676550957e+01,-1.947145339085454907e+02,-2.126669124891282081e+02,-3.118262713979438558e+02,-4.264144222717595767e+01,-1.443924334191501657e+02,9.484992027282714844e+00,-6.884268522262573242e-01,1.147378161549568176e-01,3.950000000000000000e+02
-3.543298139965613700e+02,-3.724787703789345414e+02,-9.786953337531053876e+01,-1.928364655744844640e+02,-2.093320198800897742e+02,-3.090303474739348530e+02,-4.063121939560005558e+01,-1.444047199700046349e+02,9.484992027282714844e+00,-6.884268522262573242e-01,1.147378161549568176e-01,3.960000000000000000e+02
-3.454517348499582567e+02,-3.696339366255717778e+02,-9.720550331336698946e+01,-1.911668736894525864e+02,-2.058257787883499077e+02,-3.060074412131757526e+02,-3.859298099131797244e+01,-1.427341390112330828e+02,9.484992027282714844e+00,-6.884268522262573242e-01,1.147378161549568176e-01,3.970000000000000000e+02
-3.367237460293424647e+02,-3.660006567723394255e+02,-9.691187059030403361e+01,-1.899618753449922224e+02,-2.028083635439156751e+02,-3.032315627346606561e+02,-3.735969428747330312e+01,-1.410780287302097804e+02,9.484992027282714844e+00,-6.884268522262573242e-01,1.147378161549568176e-01,3.980000000000000000e+02
-3.280351737404353116e+02,-3.622984990322720478e+02,-9.708725083000058476e+01,-1.892317666569210814e+02,-2.010030041363922919e+02,-3.009169897830256559e+02,-3.738053617214245605e+01,-1.396756291651638549e+02,9.484992027282714844e+00,-6.884268522262573242e-01,1.147378161549568176e-01,3.990000000000000000e+02
-3.190873954602559479e+02,-3.590254150927069077e+02,-9.770633057045415626e+01,-1.885977992433165582e+02,-2.008176156368433567e+02,-2.988795462688503903e+02,-3.828219831184605937e+01,-1.374652931676332628e+02,9.484992027282714844e+00,-6.884268522262573242e-01,1.147378161549568176e-01,4.000000000000000000e+02
-3.094987835322422143e+02,-3.560310376187831025e+02,-9.853497328500634467e+01,-1.874764588972693673e+02,-2.019782639055158597e+02,-2.967043018726776609e+02,-3.900840760045389288e+01,-1.333054505289496774e+02,9.484992027282714844e+00,-6.884268522262573242e-01,1.147378161549568176e-01,4.010000000000000000e+02
-2.991797399654233232e+02,-3.527068700726895258e+02,-9.914639311175369585e+01,-1.854872558277807002e+02,-2.034149629231774270e+02,-2.940556794180729412e+02,-3.849356042059389438e+01,-1.270373311882824510e+02,9.484992027282714844e+00,-6.884268522262573242e-01,1.147378161549568176e-01,4.020000000000000000e+02
-2.886952916427899254e+02,-3.486150652467090367e+02,-9.905722227395199297e+01,-1.827549205934624297e+02,-2.036183226096616181e+02,-2.908694800916732675e+02,-3.641391373021315303e+01,-1.195359505252947656e+02,9.484992027282714844e+00,-6.884268522262573242e-01,1.147378161549568176e-01,4.030000000000000000e+02
-2.791780544447169632e+02,-3.439471504568923592e+02,-9.797991241556519526e+01,-1.798338858379802332e+02,-2.014291137326436001e+02,-2.872929461433259348e+02,-3.345598561967608475e+01,-1.119614097891173969e+02,9.484992027282714844e+00,-6.884268522262573242e-01,1.147378161549568176e-01,4.040000000000000000e+02
-2.716201300453376462e+02,-3.393551079742010188e+02,-9.606700768062046336e+01,-1.772870315705788471e+02,-1.968024152951318229e+02,-2.834623249768205824e+02,-3.086527032302387852e+01,-1.050702599171463589e+02,9.484992027282714844e+00,-6.884268522262573242e-01,1.147378161549568176e-01,4.050000000000000000e+02
-2.660059811416874709e+02,-3.353463915546972203e+02,-9.396316630080309551e+01,-1.752934114682973359e+02,-1.909796870199515979e+02,-2.793970191527760107e+02,-2.960993696922082563e+01,-9.917981798125265414e+01,9.484992027282714844e+00,-6.884268522262573242e-01,1.147378161549568176e-01,4.060000000000000000e+02
-2.610598169789166150e+02,-3.318804695829501270e+02,-9.252706365617541451e+01,-1.736447965052427662e+02,-1.858444632599814668e+02,-2.751697407085625855e+02,-2.978780099445157248e+01,-9.455575163392404647e+01,9.484992027282714844e+00,-6.884268522262573242e-01,1.147378161549568176e-01,4.070000000000000000e+02
-2.549840829243148619e+02,-3.285958372269806205e+02,-9.231396261191798658e+01,-1.721113266002730597e+02,-1.828649067044566436e+02,-2.711784127827654629e+02,-3.069739682338058628e+01,-9.158149987296337713e+01,9.484992027282714844e+00,-6.884268522262573242e-01,1.147378161549568176e-01,4.080000000000000000e+02
-2.467136535525878571e+02,-3.254184302848580046e+02,-9.317882662867441468e+01,-1.707722338598152874e+02,-1.823576919326937968e+02,-2.681245607928690333e+02,-3.142397745339212634e+01,-9.042355268069604790e+01,9.484992027282714844e+00,-6.884268522262573242e-01,1.147378161549568176e-01,4.090000000000000000e+02
-2.366707176810987221e+02,-3.228621627894731319e+02,-9.435633085570452749e+01,-1.699300610149484783e+02,-1.835411148555117506e+02,-2.665225820717578245e+02,-3.140648122093512029e+01,-9.056403912397445310e+01,9.484992027282714844e+00,-6.884268522262573242e-01,1.147378161549568176e-01,4.100000000000000000e+02
-2.263791288028655799e+02,-3.216377044688429123e+02,-9.503182333672498316e+01,-1.696910803477956051e+02,-1.852274299049904585e+02,-2.661179061898092186e+02,-3.059976833880045888e+01,-9.082763947700368590e+01,9.484992027282714844e+00,-6.884268522262573242e-01,1.147378161549568176e-01,4.110000000000000000e+02
-2.172803974842272510e+02,-3.218931008464712704e+02,-9.495720320338477904e+01,-1.696562131504483659e+02,-1.865203272658177411e+02,-2.658270706421067189e+02,-2.925780814015615761e+01,-9.003228356827366952e+01,9.484992027282714844e+00,-6.884268522262573242e-01,1.147378161549568176e-01,4.120000000000000000e+02
-2.097772475006740933e+02,-3.228242594538694448e+02,-9.454909220746640131e+01,-1.690752416836760403e+02,-1.870067125862710782e+02,-2.644087181974582563e+02,-2.765429613415062704e+01,-8.772642195479829752e+01,9.484992027282714844e+00,-6.884268522262573242e-01,1.147378161549568176e-01,4.130000000000000000e+02
-2.032604068821592591e+02,-3.230925039204885252e+02,-9.434672114519594288e+01,-1.673622756397937792e+02,-1.865054061324021859e+02,-2.613588249140493645e+02,-2.597812493182846083e+01,-8.436333430172771841e+01,9.484992027282714844e+00,-6.884268522262573242e-01,1.147378161549568176e-01,4.140000000000000000e+02
-1.969123465403863520e+02,-3.217505963899789094e+02,-9.433646677918386558e+01,-1.645237444906149449e+02,-1.848520663213048465e+02,-2.572456469210455907e+02,-2.438398287782774787e+01,-8.079881386331453541e+01,9.484992027282714844e+00,-6.884268522262573242e-01,1.147378161549568176e-01,4.150000000000000000e+02
-1.903978730907529098e+02,-3.189035374067989324e+02,-9.383162488648758881e+01,-1.611599453013047878e+02,-1.820424578960082727e+02,-2.531865421786733350e+02,-2.301811463711646866e+01,-7.763788483248845296e+01,9.484992027282714844e+00,-6.884268522262573242e-01,1.147378161549568176e-01,4.160000000000000000e+02
-1.838032423148233647e+02,-3.155303411303202665e+02,-9.207651504687669330e+01,-1.580837266149703737e+02,-1.785102032969216452e+02,-2.499590102681913777e+02,-2.192732045980847033e+01,-7.499701228773119510e+01,9.446745872497558594e+00,-6.501809358596801758e-01,1.529837548732757568e-01,4.170000000000000000e+02
-1.770575742429282400e+02,-3.125996179023595687e+02,-8.899317593367663903e+01,-1.558562549277007747e+02,-1.750264372403048583e+02,-2.475130966531851300e+02,-2.093393939398947623e+01,-7.270278068870948118e+01,9.446745872497558594e+00,-6.501809358596801758e-01,1.529837548732757568e-01,4.180000000000000000e+02
-1.696156978421176973e+02,-3.102146753571264526e+02,-8.531930622273625886e+01,-1.544985165155012510e+02,-1.721182527693949851e+02,-2.451983372111462813e+02,-1.965066441921680962e+01,-7.053038899940474948e+01,9.446745872497558594e+00,-6.501809358596801758e-01,1.529837548732757568e-01,4.190000000000000000e+02
-1.608457696142781970e+02,-3.075034662398311411e+02,-8.199673668945706595e+01,-1.534655903239831787e+02,-1.695424502209425555e+02,-2.423495717356904606e+02,-1.770079264981268352e+01,-6.817776923079190965e+01,9.446745872497558594e+00,-6.501809358596801758e-01,1.529837548732757568e-01,4.200000000000000000e+02
-1.507633264253827292e+02,-3.033713204834989483e+02,-7.944532724409464208e+01,-1.519014452879878263e+02,-1.664838652273019761e+02,-2.386837133141734739e+02,-1.502188295973110144e+01,-6.514277145437381478e+01,9.446745872497558594e+00,-6.501809358596801758e-01,1.529837548732757568e-01,4.210000000000000000e+02
-1.403348757667763493e+02,-2.975417266420104170e+02,-7.744587694365054631e+01,-1.491278452574051698e+02,-1.624567107717844010e+02,-2.343126301493498431e+02,-1.202235746819587803e+01,-6.088914915764598845e+01,9.446745872497558594e+00,-6.501809358596801758e-01,1.529837548732757568e-01,4.220000000000000000e+02
-1.309523658105881623e+02,-2.910517007915827890e+02,-7.567580343087593064e+01,-1.451632346096871515e+02,-1.580565983548749500e+02,-2.295748733199866365e+02,-9.430596194307327096e+00,-5.537465160735018799e+01,9.446745872497558594e+00,-6.501809358596801758e-01,1.529837548732757568e-01,4.230000000000000000e+02
-1.234894827869384244e+02,-2.857744563163491875e+02,-7.425374780521497087e+01,-1.409097039770017545e+02,-1.547049206330125344e+02,-2.249251468161573939e+02,-7.913646883492674533e+00,-4.946247829457388434e+01,9.446745872497558594e+00,-6.501809358596801758e-01,1.529837548732757568e-01,4.240000000000000000e+02
-1.177240363759838147e+02,-2.832848928846965464e+02,-7.368088066823156623e+01,-1.377395676551104771e+02,-1.534660218998033088e+02,-2.208661457937232626e+02,-7.736770087431978027e+00,-4.466458797367113220e+01,9.446745872497558594e+00,-6.501809358596801758e-01,1.529837548732757568e-01,4.250000000000000000e+02
-1.125612810426687247e+02,-2.838900859226328066e+02,-7.426455770987240612e+01,-1.366527537783881598e+02,-1.540139121301617706e+02,-2.177891554505599743e+02,-8.714591432360066392e+00,-4.222367898591346602e+01,9.446745872497558594e+00,-6.501809358596801758e-01,1.529837548732757568e-01,4.260000000000000000e+02
-1.068023025374041026e+02,-2.864858659394521965e+02,-7.566993653303325118e+01,-1.375836886916627009e+02,-1.547886424066123254e+02,-2.157466215913109409e+02,-1.044526972205039783e+01,-4.221124557267148703e+01,9.446745872497558594e+00,-6.501809358596801758e-01,1.529837548732757568e-01,4.270000000000000000e+02
-9.986282086274150060e+01,-2.892630788264896182e+02,-7.709240775050784578e+01,-1.394242208429191123e+02,-1.542887753538534525e+02,-2.143885623796686559e+02,-1.259019549561162421e+01,-4.344349532001524494e+01,9.446745872497558594e+00,-6.501809358596801758e-01,1.529837548732757568e-01,4.280000000000000000e+02
-9.201020723989404360e+01,-2.906955556295101815e+02,-7.787037249921741022e+01,-1.407879038052360556e+02,-1.523402246101086348e+02,-2.132131311565285614e+02,-1.496731629765054095e+01,-4.436842744486511947e+01,9.446745872497558594e+00,-6.501809358596801758e-01,1.529837548732757568e-01,4.290000000000000000e+02
-8.408466492699517403e+01,-2.901572958704459779e+02,-7.792000065804086262e+01,-1.409297731474812281e+02,-1.501834711967162548e+02,-2.119692211232963928e+02,-1.744149985755302623e+01,-4.424758700301117642e+01,9.446745872497558594e+00,-6.501809358596801758e-01,1.529837548732757568e-01,4.300000000000000000e+02
-7.697379237992890921e+01,-2.879353125327411362e+02,-7.762519962645228588e+01,-1.401263912691820224e+02,-1.493523564707425066e+02,-2.108709029230744818e+02,-1.979721105225462452e+01,-4.365026966937602992e+01,9.446745872497558594e+00,-6.501809358596801758e-01,1.529837548732757568e-01,4.310000000000000000e+02
-7.113379555499204798e+01,-2.848430850323093182e+02,-7.738222306748548363e+01,-1.392705357801373793e+02,-1.503850208435537752e+02,-2.104061428930094735e+02,-2.174420545716520792e+01,-4.381032300527749612e+01,9.446745872497558594e+00,-6.501809358596801758e-01,1.529837548732757568e-01,4.320000000000000000e+02
-6.637387189743230920e+01,-2.817867456611252237e+02,-7.727658512299012727e+01,-1.390567319571391636e+02,-1.524491450860637087e+02,-2.108717459429108203e+02,-2.302247960127260740e+01,-4.536760086726917507e+01,9.446745872497558594e+00,-6.501809358596801758e-01,1.529837548732757568e-01,4.330000000000000000e+02
-6.201216349504238678e+01,-2.794561138904364270e+02,-7.711378921367440853e+01,-1.394159902551386949e+02,-1.540426400206279141e+02,-2.120193043442500311e+02,-2.348506841137805168e+01,-4.755752892730606618e+01,9.446745872497558594e+00,-6.501809358596801758e-01,1.529837548732757568e-01,4.340000000000000000e+02
-5.732593358032954711e+01,-2.781575375451757282e+02,-7.665791910589314284e+01,-1.396231032577202313e+02,-1.540351474726494416e+02,-2.131246423235679686e+02,-2.313868757223963257e+01,-4.860040265937504955e+01,9.446745872497558594e+00,-6.501809358596801758e-01,1.529837548732757568e-01,4.350000000000000000e+02
-5.199355312483203306e+01,-2.777615383926031427e+02,-7.580301177370165533e+01,-1.389427655075974144e+02,-1.522197963073790561e+02,-2.134477182618361439e+02,-2.220497365355731745e+01,-4.704979392140148775e+01,9.446745872497558594e+00,-6.501809358596801758e-01,1.529837548732757568e-01,4.360000000000000000e+02
-4.618336054107567179e+01,-2.777713777571648279e+02,-7.458091332434105425e+01,-1.372679585742625932e+02,-1.491522182858025189e+02,-2.127270400041816174e+02,-2.117013404663202891e+01,-4.301412429432684803e+01,9.446745872497558594e+00,-6.501809358596801758e-01,1.529837548732757568e-01,4.370000000000000000e+02
-4.020729166076944239e+01,-2.775074735007146955e+02,-7.312000663017897750e+01,-1.352278008222674544e+02,-1.456557705947943759e+02,-2.113121461282676137e+02,-2.066466102268623217e+01,-3.820088085764973584e+01,9.446745872497558594e+00,-6.501809358596801758e-01,1.529837548732757568e-01,4.380000000000000000e+02
-3.408433872205841908e+01,-2.763386385691997020e+02,-7.165068979163606855e+01,-1.336734717811077644e+02,-1.424324274470877754e+02,-2.098230085580175910e+02,-2.108802152887255943e+01,-3.469282188980560022e+01,9.446745872497558594e+00,-6.501809358596801758e-01,1.529837548732757568e-01,4.390000000000000000e+02
-2.748733193017005760e+01,-2.738838441945836166e+02,-7.050296712141653188e+01,-1.329837228869619139e+02,-1.398908181467058967e+02,-2.086244990209806929e+02,-2.220999816556923179e+01,-3.343471272544184103e+01,9.446745872497558594e+00,-6.501809358596801758e-01,1.529837548732757568e-01,4.400000000000000000e+02
-2.018646342856254705e+01,-2.701736900852247345e+02,-6.999342922224195718e+01,-1.327965828503365628e+02,-1.380885731704588579e+02,-2.075887842754555095e+02,-2.318213370365083392e+01,-3.366772851667246869e+01,9.446745872497558594e+00,-6.501809358596801758e-01,1.529837548732757568e-01,4.410000000000000000e+02
-1.256726307956887467e+01,-2.657441925367425029e+02,-7.022445048057670647e+01,-1.323920335910638642e+02,-1.367401070577584505e+02,-2.063489411465056946e+02,-2.310211400676689664e+01,-3.373208439921654644e+01,9.446745872497558594e+00,-6.501809358596801758e-01,1.529837548732757568e-01,4.420000000000000000e+02
-5.630457303728690022e+00,-2.615398050782628161e+02,-7.094210165263393719e+01,-1.313474940254086505e+02,-1.353494012499768360e+02,-2.047584897491465199e+02,-2.169240392010760843e+01,-3.245468520156919112e+01,9.446745872497558594e+00,-6.501809358596801758e-01,1.529837548732757568e-01,4.430000000000000000e+02
-3.408634952916145266e-01,-2.584950680650413233e+02,-7.159241343048961426e+01,-1.298257186132523202e+02,-1.334836881566516240e+02,-2.030559497004032892e+02,-1.944994740454285420e+01,-2.989692744458352536e+01,9.484992027282714844e+00,-6.884268522262573242e-01,1.912296712398529053e-01,4.440000000000000000e+02
3.146111792074862024e+00,-2.568964032070875874e+02,-7.157802319533948321e+01,-1.282260040512896921e+02,-1.310340246211144404e+02,-2.015279525758701311e+02,-1.709374868809209147e+01,-2.692354257401711948e+01,9.484992027282714844e+00,-6.884268522262573242e-01,1.912296712398529053e-01,4.450000000000000000e+02
5.651169566883254447e+00,-2.559788400882193855e+02,-7.057493394971970702e+01,-1.265936404012027197e+02,-1.282518137921956622e+02,-2.000224027295153064e+02,-1.487481299715591376e+01,-2.416985799742224117e+01,9.484992027282714844e+00,-6.884268522262573242e-01,1.912296712398529053e-01,4.460000000000000000e+02
8.308345366153389477e+00,-2.542364063655145401e+02,-6.870750263313129835e+01,-1.244386439876261647e+02,-1.255085636390485888e+02,-1.978784670359709708e+02,-1.249925020783894070e+01,-2.148335196585776430e+01,9.484992027282714844e+00,-6.884268522262573242e-01,1.912296712398529053e-01,4.470000000000000000e+02
1.161456986741040964e+01,-2.504176047423652562e+02,-6.647262215526143336e+01,-1.211807207379920328e+02,-1.229839505644831661e+02,-1.944318504914908772e+02,-9.762533330565929646e+00,-1.832248738136058819e+01,9.484992027282714844e+00,-6.884268522262573242e-01,1.912296712398529053e-01,4.480000000000000000e+02
1.502320552164519540e+01,-2.445118477802525376e+02,-6.447291678655119540e+01,-1.167691495940694040e+02,-1.205633884941221368e+02,-1.896415574925986220e+02,-7.162962092957513960e+00,-1.456895251327296137e+01,9.484992027282714844e+00,-6.884268522262573242e-01,1.912296712398529053e-01,4.490000000000000000e+02
1.744249213259536191e+01,-2.378901995305686796e+02,-6.313690219959926253e+01,-1.118324107017497226e+02,-1.180436029968686853e+02,-1.842228483459612107e+02,-5.707587226641862799e+00,-1.083034244733153173e+01,9.484992027282714844e+00,-6.884268522262573242e-01,1.912296712398529053e-01,4.500000000000000000e+02
1.821306912941872724e+01,-2.323924126399347188e+02,-6.259398570537314299e+01,-1.072075359688260505e+02,-1.154594381700644590e+02,-1.791538720928333532e+02,-5.973670148623568821e+00,-7.917256799718416005e+00,9.484992027282714844e+00,-6.884268522262573242e-01,1.912296712398529053e-01,4.510000000000000000e+02
1.772307444201487669e+01,-2.290380784120052340e+02,-6.269866682609745112e+01,-1.033257895622318756e+02,-1.131933886602828352e+02,-1.750126052102268659e+02,-7.326165615188074298e+00,-6.051144225572897994e+00,9.484992027282714844e+00,-6.884268522262573242e-01,1.912296712398529053e-01,4.520000000000000000e+02
1.715779498042275009e+01,-2.273918805979296849e+02,-6.308786894985769322e+01,-1.000386193211861610e+02,-1.117118772050630469e+02,-1.717312261078145639e+02,-8.152740712145714497e+00,-4.634039820457019232e+00,9.484992027282714844e+00,-6.884268522262573242e-01,1.912296712398529053e-01,4.530000000000000000e+02
1.761998757573564944e+01,-2.260726557144339495e+02,-6.321465006162998179e+01,-9.698815166162603418e+01,-1.111081295269109432e+02,-1.689095458857332233e+02,-7.018460529127423797e+00,-2.812494103630797326e+00,9.484992027282714844e+00,-6.884268522262573242e-01,1.912296712398529053e-01,4.540000000000000000e+02
1.932926460250109812e+01,-2.239443186777339179e+02,-6.244027091035559351e+01,-9.409401424585075802e+01,-1.108462947281818742e+02,-1.663011929673166378e+02,-3.742251059612499375e+00,-2.474949680354256998e-01,9.484992027282714844e+00,-6.884268522262573242e-01,1.912296712398529053e-01,4.550000000000000000e+02
2.148605037664401607e+01,-2.210081110432347486e+02,-6.031454444639075518e+01,-9.168876818299668230e+01,-1.099812545993850108e+02,-1.640250386332668313e+02,5.281698173889708414e-01,2.665174692960135872e+00,9.484992027282714844e+00,-6.884268522262573242e-01,1.912296712398529053e-01,4.560000000000000000e+02
2.283361952491804914e+01,-2.183118223409442180e+02,-5.695077261396772883e+01,-9.021986641592366141e+01,-1.077334893826723601e+02,-1.623762779153771589e+02,4.245166831885853753e+00,5.299809654335604137e+00,9.484992027282714844e+00,-6.884268522262573242e-01,1.912296712398529053e-01,4.570000000000000000e+02
2.243174940523886107e+01,-2.170291583328066736e+02,-5.316788931974315346e+01,-8.983258711446023881e+01,-1.040062097361360429e+02,-1.614753573688776669e+02,6.519368002389001049e+00,7.457189890051267867e+00,9.484992027282714844e+00,-6.884268522262573242e-01,1.912296712398529053e-01,4.580000000000000000e+02
2.009411737234677275e+01,-2.175009966877792067e+02,-5.014357041661151015e+01,-9.019364697961418642e+01,-9.947282675381029549e+01,-1.610734085500639594e+02,7.430163165205158293e+00,9.469420212298246042e+00,9.484992027282714844e+00,-6.884268522262573242e-01,1.912296712398529053e-01,4.590000000000000000e+02
1.626678698704927228e+01,-2.189830378508431750e+02,-4.872974828472433728e+01,-9.066597892317713558e+01,-9.521612050739577171e+01,-1.606549194266808627e+02,7.485518037698057014e+00,1.165023108633295124e+01,9.484992027282714844e+00,-6.884268522262573242e-01,1.912296712398529053e-01,4.600000000000000000e+02
1.156302105167014815e+01,-2.202448446537846394e+02,-4.894481886595713149e+01,-9.068966732338276415e+01,-9.222420154679139159e+01,-1.597632356417525443e+02,6.892236690068784810e+00,1.367925288107471715e+01,9.484992027282714844e+00,-6.884268522262573242e-01,1.912296712398529053e-01,4.610000000000000000e+02
6.413987465778518526e+00,-2.204855910061605755e+02,-5.003383079736158834e+01,-9.009258459728516755e+01,-9.102188501431146506e+01,-1.583157262467570945e+02,5.389902366931892175e+00,1.464308283803256927e+01,9.484992027282714844e+00,-6.884268522262573242e-01,1.912296712398529053e-01,4.620000000000000000e+02
1.069227673343448259e+00,-2.198165956415400615e+02,-5.097848957493351918e+01,-8.910394923133708289e+01,-9.149863480685326067e+01,-1.566505511587929504e+02,2.778835398628871189e+00,1.384329644353010735e+01,9.484992027282714844e+00,-6.884268522262573242e-01,1.912296712398529053e-01,4.630000000000000000e+02
-4.203773842516966397e+00,-2.189483749566793449e+02,-5.099998797596390432e+01,-8.803181141854201996e+01,-9.289745439838907259e+01,-1.551971116289391830e+02,-4.249019760927694733e-01,1.169876373833403704e+01,9.484992027282714844e+00,-6.884268522262573242e-01,1.912296712398529053e-01,4.640000000000000000e+02
-9.056045867042939790e+00,-2.183824082314231418e+02,-4.976636362052613549e+01,-8.684336478801287740e+01,-9.403298018288251114e+01,-1.539842898837091525e+02,-2.925082123044830951e+00,9.840353708242219000e+00,9.484992027282714844e+00,-6.884268522262573242e-01,1.912296712398529053e-01,4.650000000000000000e+02
-1.329801023305617491e+01,-2.178329413189003390e+02,-4.741059541567392444e+01,-8.505353359867467589e+01,-9.384560077397918576e+01,-1.524606762888279263e+02,-3.375066003060965159e+00,1.010616235567385957e+01,9.484992027282714844e+00,-6.884268522262573242e-01,1.912296712398529053e-01,4.660000000000000000e+02
-1.722887280270788324e+01,-2.164163744807165131e+02,-4.456267463239328208e+01,-8.214573940552645581e+01,-9.210715601270840125e+01,-1.499261203018327251e+02,-1.375393028638427495e+00,1.313343755790856449e+01,9.484992027282714844e+00,-6.884268522262573242e-01,1.912296712398529053e-01,4.670000000000000000e+02
-2.162845340785770532e+01,-2.134729976338371671e+02,-4.228881057814305677e+01,-7.823472938702298052e+01,-8.972010138115501832e+01,-1.463012725848798254e+02,2.099394361365739314e+00,1.771797529905961710e+01,9.484992027282714844e+00,-6.884268522262573242e-01,1.912296712398529053e-01,4.680000000000000000e+02
-2.726470139206958265e+01,-2.093103063821813521e+02,-4.165528402647123585e+01,-7.433807731161186894e+01,-8.816333913454582216e+01,-1.425132782048385707e+02,5.269175137540514697e+00,2.156126243534117748e+01,9.484992027282714844e+00,-6.884268522262573242e-01,1.912296712398529053e-01,4.690000000000000000e+02
-3.427870037483944543e+01,-2.051709030300235099e+02,-4.297714461563145960e+01,-7.184800278110924410e+01,-8.833364310957222187e+01,-1.399828728428883551e+02,6.732374184005038842e+00,2.289905339600591105e+01,9.484992027282714844e+00,-6.884268522262573242e-01,1.912296712398529053e-01,4.700000000000000000e+02
-4.203953547141463787e+01,-2.024057576662416977e+02,-4.536486781805524515e+01,-7.153156918231752570e+01,-8.973361647960200571e+01,-1.395237656489389337e+02,6.337716160139279964e+00,2.171776439507948453e+01,9.484992027282714844e+00,-6.884268522262573242e-01,1.912296712398529053e-01,4.710000000000000000e+02
-4.969583177411868746e+01,-2.015243793642521268e+02,-4.719861854103783116e+01,-7.291005886806897252e+01,-9.084410287094306113e+01,-1.406053506553903389e+02,5.059818133900989778e+00,1.959189553080523183e+01,9.484992027282714844e+00,-6.884268522262573242e-01,1.912296712398529053e-01,4.720000000000000000e+02
-5.695596197500572089e+01,-2.018715642834285973e+02,-4.733855303614245713e+01,-7.458114531859973795e+01,-9.043545521618580096e+01,-1.416673298453697498e+02,4.068181520959115005e+00,1.838848389114627935e+01,9.484992027282714844e+00,-6.884268522262573242e-01,1.912296712398529053e-01,4.730000000000000000e+02
-6.435564691217996369e+01,-2.021392455747068198e+02,-4.603900751697892701e+01,-7.520659756051509248e+01,-8.862582990627106483e+01,-1.412380243682591754e+02,3.841281380555301439e+00,1.899498038224191987e+01,9.484992027282714844e+00,-6.884268522262573242e-01,1.912296712398529053e-01,4.740000000000000000e+02
-7.272519264196989752e+01,-2.012420498324618165e+02,-4.464346820403625316e+01,-7.431599176782356153e+01,-8.666253820344627457e+01,-1.388993404598254529e+02,4.053309830756006704e+00,2.107291669648020616e+01,9.484992027282714844e+00,-7.266727685928344727e-01,1.529837548732757568e-01,4.750000000000000000e+02
-8.234488483364111744e+01,-1.988753914618237104e+02,-4.425805303497827481e+01,-7.232987072582136534e+01,-8.561875381599429602e+01,-1.353598365904781531e+02,4.193778775645114365e+00,2.379057199700446290e+01,9.484992027282714844e+00,-7.266727685928344727e-01,1.529837548732757568e-01,4.760000000000000000e+02
-9.261017481292765297e+01,-1.954734528154804138e+02,-4.465494246147295598e+01,-6.997898578465128594e+01,-8.529863198171506156e+01,-1.317497705314958694e+02,4.212364710955625924e+00,2.662129385685830130e+01,9.484992027282714844e+00,-7.266727685928344727e-01,1.529837548732757568e-01,4.770000000000000000e+02
-1.025186771739440701e+02,-1.917974920550364004e+02,-4.446546903660191674e+01,-6.776736587360028352e+01,-8.444374512561216761e+01,-1.288568227385062528e+02,4.566497097357569146e+00,2.943836820304704815e+01,9.484992027282714844e+00,-7.266727685928344727e-01,1.529837548732757568e-01,4.780000000000000000e+02
-1.114821376917720954e+02,-1.885515218842474496e+02,-4.245970318157969814e+01,-6.588008103817901429e+01,-8.203286818390188273e+01,-1.268720460604440632e+02,5.722080467324303754e+00,3.202808580165583408e+01,9.484992027282714844e+00,-7.266727685928344727e-01,1.529837548732757568e-01,4.790000000000000000e+02
-1.196882784699273543e+02,-1.862032370834299400e+02,-3.865885056572074063e+01,-6.437732986597302443e+01,-7.839721299276106947e+01,-1.256155640819283690e+02,7.668360702700283582e+00,3.380138105812147842e+01,9.484992027282714844e+00,-7.266727685928344727e-01,1.529837548732757568e-01,4.800000000000000000e+02
-1.277465138009151815e+02,-1.849230632157220953e+02,-3.426745285642755334e+01,-6.330641270690762212e+01,-7.509336393656576547e+01,-1.248561517886669208e+02,9.900715428839248489e+00,3.415469590104203235e+01,9.484992027282714844e+00,-7.266727685928344727e-01,1.529837548732757568e-01,4.810000000000000000e+02
-1.360751874432939985e+02,-1.845426840770935542e+02,-3.061541720336003891e+01,-6.262504477865695662e+01,-7.369788308281067657e+01,-1.244495379426139152e+02,1.179751771180190190e+01,3.312410930319447289e+01,9.484992027282714844e+00,-7.266727685928344727e-01,1.529837548732757568e-01,4.820000000000000000e+02
-1.446700401471989608e+02,-1.845914489193387453e+02,-2.821852341644239459e+01,-6.215452677195185061e+01,-7.465785227296919402e+01,-1.243299141817687996e+02,1.296112586030449165e+01,3.154263113058595991e+01,9.484992027282714844e+00,-7.266727685928344727e-01,1.529837548732757568e-01,4.830000000000000000e+02
-1.533818779670064032e+02,-1.845039853669463810e+02,-2.677385351842303862e+01,-6.172537214049361864e+01,-7.712003520589610162e+01,-1.244783269978074713e+02,1.326598200996886590e+01,3.045702165903776404e+01,9.484992027282714844e+00,-7.266727685928344727e-01,1.529837548732757568e-01,4.840000000000000000e+02
-1.622589337550398341e+02,-1.839095154957442446e+02,-2.583554023669785238e+01,-6.135996558053989247e+01,-7.963953052818419565e+01,-1.248618291524230699e+02,1.275774613402722935e+01,3.035781047314594616e+01,9.484992027282714844e+00,-7.266727685928344727e-01,1.529837548732757568e-01,4.850000000000000000e+02
-1.715488570213194635e+02,-1.827618340477329184e+02,-2.530055731669017405e+01,-6.123302368379836480e+01,-8.099130749373216531e+01,-1.253220063491689871e+02,1.164107462829588258e+01,3.099807187404007891e+01,9.484992027282714844e+00,-7.266727685928344727e-01,1.529837548732757568e-01,4.860000000000000000e+02
-1.814412991303190665e+02,-1.811915734114454608e+02,-2.524376865140129667e+01,-6.141517999397842686e+01,-8.052517775470528250e+01,-1.255155355425927155e+02,1.035167333383878940e+01,3.192827459284467295e+01,9.484992027282714844e+00,-7.266727685928344727e-01,1.529837548732757568e-01,4.870000000000000000e+02
-1.919238544740544512e+02,-1.792452842492739364e+02,-2.545662774703123432e+01,-6.169236863083824574e+01,-7.813596614407470042e+01,-1.250468300462430307e+02,9.498101936459306671e+00,3.314779298806820407e+01,9.484992027282714844e+00,-7.266727685928344727e-01,1.529837548732757568e-01,4.880000000000000000e+02
-2.028856352179238911e+02,-1.768021676264602320e+02,-2.533908775642817091e+01,-6.169082302787410299e+01,-7.420006921998992766e+01,-1.237433555556704050e+02,9.586102265883937434e+00,3.514000029329395147e+01,9.484992027282714844e+00,-7.266727685928344727e-01,1.529837548732757568e-01,4.890000000000000000e+02
-2.142463840508248722e+02,-1.737863878307780396e+02,-2.433872892710269298e+01,-6.120118558849571855e+01,-6.957848462255333288e+01,-1.218154015060208621e+02,1.071965856747465295e+01,3.830344243857757647e+01,9.484992027282714844e+00,-7.266727685928344727e-01,1.529837548732757568e-01,4.900000000000000000e+02
-2.258582242323716400e+02,-1.704246618900381236e+02,-2.246069474557930334e+01,-6.034776962269324940e+01,-6.543039075407523342e+01,-1.196883779702086485e+02,1.257827773468397936e+01,4.241050085609936104e+01,9.484992027282714844e+00,-7.266727685928344727e-01,1.529837548732757568e-01,4.910000000000000000e+02
-2.373222035550911642e+02,-1.671985591445316004e+02,-2.029328690965098758e+01,-5.940735720643101558e+01,-6.269798830858417205e+01,-1.176293864857013887e+02,1.470715663801547635e+01,4.661790540872902966e+01,9.484992027282714844e+00,-7.266727685928344727e-01,1.529837548732757568e-01,4.920000000000000000e+02
-2.480986096598619497e+02,-1.644684938535581296e+02,-1.853690523568479875e+01,-5.846619620367982861e+01,-6.156932540097773199e+01,-1.155283138225436232e+02,1.681838242431081198e+01,5.002970610497436610e+01,9.484992027282714844e+00,-7.266727685928344727e-01,1.529837548732757568e-01,4.930000000000000000e+02
-2.579676721857249504e+02,-1.621434303718581305e+02,-1.750470476502437123e+01,-5.728636183315620656e+01,-6.140266804131874778e+01,-1.130756037083608589e+02,1.880332970010863392e+01,5.231153428688048734e+01,9.484992027282714844e+00,-7.266727685928344727e-01,1.529837548732757568e-01,4.940000000000000000e+02
-2.673609569281727545e+02,-1.597919135660838492e+02,-1.702125152637131578e+01,-5.554035810282857710e+01,-6.123157489523941877e+01,-1.101702519891598513e+02,2.051133663994869494e+01,5.378310790705268118e+01,9.484992027282714844e+00,-7.266727685928344727e-01,1.529837548732757568e-01,4.950000000000000000e+02
-2.770795432395316311e+02,-1.571393979720810421e+02,-1.668452866146185443e+01,-5.319837013850701624e+01,-6.042226850204315269e+01,-1.071450168454734921e+02,2.165373058852424037e+01,5.499276127561211069e+01,9.408499717712402344e+00,-6.884268522262573242e-01,1.529837548732757568e-01,4.960000000000000000e+02
-2.875757825632135791e+02,-1.544494698522635190e+02,-1.614454154310465128e+01,-5.069790715942713177e+01,-5.893928759804771289e+01,-1.045708820479369479e+02,2.204885110501072631e+01,5.627246866989821683e+01,9.408499717712402344e+00,-6.884268522262573242e-01,1.529837548732757568e-01,4.970000000000000000e+02
-2.985741556382552062e+02,-1.523449284237640313e+02,-1.519068605158417995e+01,-4.870838234117240972e+01,-5.709966402468171509e+01,-1.028042869701355357e+02,2.198006422097205359e+01,5.765801645370333972e+01,9.408499717712402344e+00,-6.884268522262573242e-01,1.529837548732757568e-01,4.980000000000000000e+02
-3.095629944010156578e+02,-1.511999258064720379e+02,-1.375256312887756849e+01,-4.767186822159590065e+01,-5.520039579109493388e+01,-1.016900824178071616e+02,2.218105838969086108e+01,5.912072532701131422e+01,9.408499717712402344e+00,-6.884268522262573242e-01,1.529837548732757568e-01,4.990000000000000000e+02
-3.207028887223098081e+02,-1.507421526052365834e+02,-1.198826976125155852e+01,-4.750255398455385603e+01,-5.343506126857528216e+01,-1.006875647556669264e+02,2.326995608590596021e+01,6.075730956507322844e+01,9.408499717712402344e+00,-6.884268522262573242e-01,1.529837548732757568e-01,5.000000000000000000e+02
-3.330759470947541558e+02,-1.503214630260274589e+02,-1.038243493743379986e+01,-4.769265593938507664e+01,-5.207220914790138977e+01,-9.931481563601073503e+01,2.506646796498500862e+01,6.267261214528923574e+01,9.408499717712402344e+00,-6.884268522262573242e-01,1.529837548732757568e-01,5.010000000000000000e+02
-3.477594971637561230e+02,-1.495871074145362627e+02,-9.584500821660412839e+00,-4.772690213398141168e+01,-5.151399661790048867e+01,-9.753044373891793839e+01,2.650692467010082964e+01,6.466996339917193382e+01,9.408499717712402344e+00,-6.884268522262573242e-01,1.529837548732757568e-01,5.020000000000000000e+02
-3.644691202618113266e+02,-1.488387773828956142e+02,-9.930869091389467940e+00,-4.745090244546690883e+01,-5.200743552638505207e+01,-9.574001388425847381e+01,2.641394899728425116e+01,6.616310397891572848e+01,9.408499717712402344e+00,-6.884268522262573242e-01,1.529837548732757568e-01,5.030000000000000000e+02
-3.811453404133994809e+02,-1.486308997452995300e+02,-1.101584005403265110e+01,-4.708923398188699139e+01,-5.324183808241821225e+01,-9.443748252410432542e+01,2.456544395585206075e+01,6.656891473403175041e+01,9.408499717712402344e+00,-6.884268522262573242e-01,1.529837548732757568e-01,5.040000000000000000e+02
-3.950851783718306933e+02,-1.490295699029403522e+02,-1.180268281302505784e+01,-4.693118756117871726e+01,-5.430347729284881098e+01,-9.379589005619584441e+01,2.211324593176550479e+01,6.595154570967065411e+01,9.408499717712402344e+00,-6.884268522262573242e-01,1.529837548732757568e-01,5.050000000000000000e+02
-4.047450823001533990e+02,-1.493371597323804849e+02,-1.131104706790029013e+01,-4.699562537071290080e+01,-5.415445620605100885e+01,-9.354751373489523303e+01,2.087694288906334350e+01,6.531508465105980576e+01,9.408499717712402344e+00,-6.884268522262573242e-01,1.529837548732757568e-01,5.060000000000000000e+02
-4.106444519652436043e+02,-1.486279095151364800e+02,-9.311721843088605510e+00,-4.697450500906614934e+01,-5.227947767387706790e+01,-9.322068842823995283e+01,2.202914672440283539e+01,6.609603471257065621e+01,9.408499717712402344e+00,-6.884268522262573242e-01,1.529837548732757568e-01,5.070000000000000000e+02
-4.146331391925067464e+02,-1.465697336525468586e+02,-6.391131623308126564e+00,-4.647547014549172673e+01,-4.896558132781774475e+01,-9.248331058739847776e+01,2.524248766987494719e+01,6.909443319701398423e+01,9.408499717712402344e+00,-6.884268522262573242e-01,1.529837548732757568e-01,5.080000000000000000e+02
-4.182772687929200401e+02,-1.436726233586956596e+02,-3.325376731547805775e+00,-4.530415749081947752e+01,-4.503008023896734358e+01,-9.127779118924252089e+01,2.900237007527385913e+01,7.374306155952498898e+01,9.408499717712402344e+00,-6.884268522262573242e-01,1.529837548732757568e-01,5.090000000000000000e+02
-4.218401828350743585e+02,-1.407539666339693838e+02,-4.293825885690267796e-01,-4.354189258871930690e+01,-4.133285256862517087e+01,-8.969666431379039295e+01,3.176998122761969512e+01,7.845168696853920665e+01,9.408499717712402344e+00,-6.884268522262573242e-01,1.529837548732757568e-01,5.100000000000000000e+02
-4.246210492832154273e+02,-1.382524354411745833e+02,2.427735006066441770e+00,-4.143344576278734337e+01,-3.850787483176871717e+01,-8.782686908925617786e+01,3.299754531751129605e+01,8.182854757666197543e+01,9.408499717712402344e+00,-6.884268522262573242e-01,1.529837548732757568e-01,5.110000000000000000e+02
-4.260828582250616137e+02,-1.361338204971063988e+02,5.200790635130189798e+00,-3.927051019200574444e+01,-3.698356052024212204e+01,-8.577006122055234982e+01,3.323124282571822619e+01,8.369962472023168232e+01,9.408499717712402344e+00,-6.884268522262573242e-01,1.529837548732757568e-01,5.120000000000000000e+02
-4.265779544372120426e+02,-1.343809336297125014e+02,7.225325389759916561e+00,-3.737333222651574260e+01,-3.699992381586702095e+01,-8.376613476608775954e+01,3.339128874191493423e+01,8.492244413060518582e+01,9.408499717712402344e+00,-6.884268522262573242e-01,1.529837548732757568e-01,5.130000000000000000e+02
-4.270710831185029974e+02,-1.333528653682471941e+02,7.596027488551044371e+00,-3.608465669561672939e+01,-3.843956394256917974e+01,-8.218027189909423669e+01,3.395482564518096069e+01,8.623476559264321395e+01,9.408499717712402344e+00,-6.884268522262573242e-01,1.529837548732757568e-01,5.140000000000000000e+02
-4.282761003735700456e+02,-1.334777947100329811e+02,6.087186558485313981e+00,-3.564171003103564317e+01,-4.066663836118846120e+01,-8.125988760751374684e+01,3.467580462960120258e+01,8.740842714548614367e+01,9.408499717712402344e+00,-6.884268522262573242e-01,1.529837548732757568e-01,5.150000000000000000e+02
-4.300506725161408212e+02,-1.346015872589763376e+02,3.660524893616980080e+00,-3.597219952455333214e+01,-4.268700518583614212e+01,-8.088575511128192375e+01,3.492459758343682097e+01,8.754164757580178957e+01,9.408499717712402344e+00,-6.884268522262573242e-01,1.529837548732757568e-01,5.160000000000000000e+02
-4.315010824116228605e+02,-1.358069478760884294e+02,1.929175296216726565e+00,-3.662331886646302337e+01,-4.363785864723240593e+01,-8.061265188601669252e+01,3.426914424168057849e+01,8.606882292094280729e+01,9.408499717712402344e+00,-6.884268522262573242e-01,1.529837548732757568e-01,5.170000000000000000e+02
-4.315783570394488606e+02,-1.360267936992743216e+02,1.998748101587580095e+00,-3.695886424178343077e+01,-4.319853574472847413e+01,-7.999452374363772833e+01,3.288065546612199341e+01,8.330858772615579255e+01,9.408499717712402344e+00,-6.884268522262573242e-01,1.529837548732757568e-01,5.180000000000000000e+02
-4.296783161769013759e+02,-1.348698044450306952e+02,3.739934566561942120e+00,-3.651608234719833490e+01,-4.156196624603285272e+01,-7.886869331604475519e+01,3.155907048051324182e+01,7.997114267463075521e+01,9.408499717712402344e+00,-6.884268522262573242e-01,1.529837548732757568e-01,5.190000000000000000e+02
-4.259582415787062928e+02,-1.327797738899853357e+02,6.102259843852039012e+00,-3.525876457874437619e+01,-3.908141373275270780e+01,-7.732535492273814270e+01,3.135673884975108194e+01,7.641587212134868423e+01,9.408499717712402344e+00,-6.884268522262573242e-01,1.529837548732757568e-01,5.200000000000000000e+02
-4.213396587480028757e+02,-1.303908972636843373e+02,8.033583716274165454e+00,-3.357784305607879105e+01,-3.606723170667464728e+01,-7.549537784318795275e+01,3.292100212732520959e+01,7.279764964333571697e+01,9.523238182067871094e+00,-6.884268522262573242e-01,1.529837548732757568e-01,5.210000000000000000e+02
-4.172088483152858771e+02,-1.278437285888303450e+02,9.087970322212868268e+00,-3.207764709430193761e+01,-3.295144676533027450e+01,-7.348566647718826061e+01,3.589663277713407297e+01,6.992074283115721300e+01,9.523238182067871094e+00,-6.884268522262573242e-01,1.529837548732757568e-01,5.220000000000000000e+02
-4.148337464091537186e+02,-1.248457263572997817e+02,9.313026295387999198e+00,-3.128205204454047816e+01,-3.048091609075027009e+01,-7.153312236110377853e+01,3.888323619266702735e+01,6.929600277343888592e+01,9.523238182067871094e+00,-6.884268522262573242e-01,1.529837548732757568e-01,5.230000000000000000e+02
-4.146847962424549223e+02,-1.213685837571240427e+02,8.844237932758233001e+00,-3.137271658223971826e+01,-2.943433502518882960e+01,-7.006901151178294640e+01,4.021284619301741259e+01,7.161949468143507147e+01,9.523238182067871094e+00,-6.884268522262573242e-01,1.529837548732757568e-01,5.240000000000000000e+02
-4.160974912685528579e+02,-1.181022303298141196e+02,7.822084600591551862e+00,-3.205778645259715631e+01,-2.991516022776932004e+01,-6.941797150588718068e+01,3.915639951211596781e+01,7.505333234427439493e+01,9.523238182067871094e+00,-6.884268522262573242e-01,1.529837548732757568e-01,5.250000000000000000e+02
-4.176573137914124345e+02,-1.160472664742649158e+02,6.652505023933827033e+00,-3.269047986611667511e+01,-3.096046583719180489e+01,-6.936137675215422860e+01,3.660595872014914676e+01,7.570976813135530392e+01,9.523238182067871094e+00,-6.884268522262573242e-01,1.529837548732757568e-01,5.260000000000000000e+02
-4.181451327686459081e+02,-1.156061166046283688e+02,6.079433863876829491e+00,-3.265851194500032761e+01,-3.110148822176324757e+01,-6.912077717077409034e+01,3.452695100650157656e+01,7.086268927827768493e+01,9.523238182067871094e+00,-6.884268522262573242e-01,1.529837548732757568e-01,5.270000000000000000e+02
-4.173160465097221277e+02,-1.161349791111451850e+02,6.737516664214581397e+00,-3.181726348282518302e+01,-2.958629827962158743e+01,-6.797322108592834411e+01,3.448425081637105905e+01,6.200625721694768799e+01,9.523238182067871094e+00,-6.884268522262573242e-01,1.529837548732757568e-01,5.280000000000000000e+02
-4.158274043583201092e+02,-1.164553816943252968e+02,8.545728803210749902e+00,-3.060056668082233955e+01,-2.716940830640805871e+01,-6.597805589594463527e+01,3.643829299215531137e+01,5.410162677753578464e+01,9.523238182067871094e+00,-6.884268522262573242e-01,1.529837548732757568e-01,5.290000000000000000e+02
-4.143495841999683762e+02,-1.158097171170243200e+02,1.065316524728086733e+01,-2.964897654458400211e+01,-2.559293473396701302e+01,-6.403444865791061602e+01,3.886809925868556093e+01,5.070680028075139489e+01,9.523238182067871094e+00,-6.884268522262573242e-01,1.529837548732757568e-01,5.300000000000000000e+02
-4.126993078712093848e+02,-1.143214288937856509e+02,1.213282769648503745e+01,-2.924500012275439076e+01,-2.607886593609964621e+01,-6.311055146855505882e+01,4.011750591242116570e+01,4.917508664143178976e+01,9.523238182067871094e+00,-6.884268522262573242e-01,1.529837548732757568e-01,5.310000000000000000e+02
-4.098976573679046851e+02,-1.126056902688537775e+02,1.278623056759715837e+01,-2.909185203844072021e+01,-2.817434449171287270e+01,-6.336552041498225663e+01,3.974917724710485345e+01,4.102703240045002531e+01,9.523238182067871094e+00,-6.884268522262573242e-01,1.529837548732757568e-01,5.320000000000000000e+02
-4.051821699398037708e+02,-1.110654196669083831e+02,1.325594427889700455e+01,-2.866617191882414772e+01,-3.003934358761807744e+01,-6.404890256875114574e+01,3.870738580211764202e+01,1.817306291254408279e+01,9.523238182067871094e+00,-6.884268522262573242e-01,1.529837548732757568e-01,5.330000000000000000e+02
-3.990221640107083658e+02,-1.096494191581900850e+02,1.431646980657387758e+01,-2.779440127544921779e+01,-2.996075117711916391e+01,-6.428198322261596331e+01,3.823204912736355254e+01,-2.008540101998733007e+01,9.523238182067871094e+00,-6.884268522262573242e-01,1.529837548732757568e-01,5.340000000000000000e+02
-3.930900545912586495e+02,-1.082261934460830162e+02,1.604601541670353981e+01,-2.686186925541369419e+01,-2.775350789930189421e+01,-6.391596436571489903e+01,3.861937344882426260e+01,-6.551163575532200412e+01,9.523238182067871094e+00,-6.884268522262573242e-01,1.529837548732757568e-01,5.350000000000000000e+02
-3.890810835991760541e+02,-1.070144773548331614e+02,1.769866521284075134e+01,-2.645245137101392174e+01,-2.484029505155194784e+01,-6.360204633992452727e+01,3.900480175545726524e+01,-1.062661531080161694e+02,9.523238182067871094e+00,-6.884268522262573242e-01,1.529837548732757568e-01,5.360000000000000000e+02
-3.873604393358691595e+02,-1.065007483081758437e+02,1.839015708445549535e+01,-2.680013816527753079e+01,-2.301487579197873856e+01,-6.404432072893723671e+01,3.831230135728446839e+01,-1.344957766183042622e+02,9.523238182067871094e+00,-6.884268522262573242e-01,1.529837548732757568e-01,5.370000000000000000e+02
-3.866494360024253183e+02,-1.069054569936838561e+02,1.792433131682128078e+01,-2.759933551360745696e+01,-2.303787726214341092e+01,-6.523637199864879221e+01,3.641525118302206465e+01,-1.500667035753613163e+02,9.523238182067871094e+00,-6.884268522262573242e-01,1.529837548732757568e-01,5.380000000000000000e+02
-3.850623912666478645e+02,-1.078208545995748864e+02,1.697549755271347749e+01,-2.832559703222705139e+01,-2.426019412117875618e+01,-6.645407171921488043e+01,3.438684487384716704e+01,-1.584418922635786657e+02,9.523238182067871094e+00,-6.884268522262573242e-01,1.529837548732757568e-01,5.390000000000000000e+02
-3.815845046068425290e+02,-1.084661221039559678e+02,1.647555411960593119e+01,-2.868000512283333592e+01,-2.545311041147124342e+01,-6.695577608721032448e+01,3.359928268746807589e+01,-1.657842414425240349e+02,9.523238182067871094e+00,-6.884268522262573242e-01,1.529837548732757568e-01,5.400000000000000000e+02
-3.767151926940296107e+02,-1.083316871251754492e+02,1.677383050369917328e+01,-2.871323242373455287e+01,-2.598168245234410278e+01,-6.664204856213291350e+01,3.449418567251632339e+01,-1.755368907688562103e+02,9.523238182067871094e+00,-6.884268522262573242e-01,1.529837548732757568e-01,5.410000000000000000e+02
-3.717884226545265847e+02,-1.075710140124174359e+02,1.732614600168926700e+01,-2.860070631680719089e+01,-2.626097809158272867e+01,-6.604062635033369588e+01,3.613486417009517027e+01,-1.879724992317378565e+02,9.523238182067871094e+00,-6.884268522262573242e-01,1.529837548732757568e-01,5.420000000000000000e+02
-3.676564385825868158e+02,-1.067479294464028499e+02,1.719069494852374191e+01,-2.839946211385631614e+01,-2.715636921902387257e+01,-6.569587662199683109e+01,3.695070381131154136e+01,-2.013755254615571175e+02,9.523238182067871094e+00,-6.884268522262573242e-01,1.529837548732757568e-01,5.430000000000000000e+02
-3.639400048920952031e+02,-1.061869371184693591e+02,1.591820407181330665e+01,-2.805582001609946019e+01,-2.895833701117589953e+01,-6.561016847630344273e+01,3.604636345890321536e+01,-2.133980722055239312e+02,9.523238182067871094e+00,-6.884268522262573242e-01,1.529837548732757568e-01,5.440000000000000000e+02
-3.594450933219013677e+02,-1.055775139215311356e+02,1.405692195066603745e+01,-2.759623949426168110e+01,-3.093292684555672167e+01,-6.528049187759006600e+01,3.395147782203639508e+01,-2.224390169542894000e+02,9.523238182067871094e+00,-6.884268522262573242e-01,1.529837548732757568e-01,5.450000000000000000e+02
-3.532724297496852159e+02,-1.042480542023076850e+02,1.278526516677902691e+01,-2.723993811787568120e+01,-3.189336082054887811e+01,-6.426708436604621966e+01,3.216499399729400466e+01,-2.289230990317537362e+02,9.523238182067871094e+00,-6.884268522262573242e-01,1.529837548732757568e-01,5.460000000000000000e+02
-3.456137755627596562e+02,-1.018694448631013074e+02,1.293939331099227275e+01,-2.729261942939410801e+01,-3.126717341376570403e+01,-6.271656683705077739e+01,3.189696786426793551e+01,-2.351946774760735934e+02,9.523238182067871094e+00,-6.884268522262573242e-01,1.529837548732757568e-01,5.470000000000000000e+02
-3.375855878321244745e+02,-9.893647570011944481e+01,1.427513377235936787e+01,-2.792787537683125265e+01,-2.963744121861418535e+01,-6.131677680981920275e+01,3.311115849421366875e+01,-2.430287740225085145e+02,9.599730491638183594e+00,-7.649186849594116211e-01,1.912296712398529053e-01,5.480000000000000000e+02
-3.303281800346003365e+02,-9.654992255753404606e+01,1.567125797465541837e+01,-2.904131895229056681e+01,-2.817553948744625814e+01,-6.069636792606797826e+01,3.470689338688771386e+01,-2.505181689540304433e+02,9.599730491638183594e+00,-7.649186849594116211e-01,1.912296712398529053e-01,5.490000000000000000e+02
-3.241898141066812968e+02,-9.561144831095589325e+01,1.615963519775141322e+01,-3.024416776692942221e+01,-2.743930003920559102e+01,-6.080356892314739525e+01,3.564126249922537681e+01,-2.522262778484582668e+02,9.599730491638183594e+00,-7.649186849594116211e-01,1.912296712398529053e-01,5.500000000000000000e+02
-3.186448360616750506e+02,-9.604953367402504227e+01,1.585540744568424998e+01,-3.096861601913860795e+01,-2.671482805128835025e+01,-6.085552235579871194e+01,3.592241154556450056e+01,-2.442026767006373120e+02,9.599730491638183594e+00,-7.649186849594116211e-01,1.912296712398529053e-01,5.510000000000000000e+02
-3.129318055310250202e+02,-9.671577486014030001e+01,1.588059408015578811e+01,-3.065257152101639804e+01,-2.465980274905359693e+01,-5.995757889524793427e+01,3.652245758602839487e+01,-2.298465287613125838e+02,9.599730491638183594e+00,-7.649186849594116211e-01,1.912296712398529053e-01,5.520000000000000000e+02
-3.067971219963546901e+02,-9.611443345109182701e+01,1.727773644188437174e+01,-2.899884826951074501e+01,-2.077673743146078777e+01,-5.788114423101251305e+01,3.829014848406131932e+01,-2.198635781292869069e+02,9.599730491638183594e+00,-7.649186849594116211e-01,1.912296712398529053e-01,5.530000000000000000e+02
-3.006858059060268715e+02,-9.347787674119899748e+01,1.990710586730983778e+01,-2.622533669097811071e+01,-1.631612365531509568e+01,-5.531009121124407102e+01,4.092737768071765458e+01,-2.242272105197198471e+02,9.599730491638183594e+00,-7.649186849594116211e-01,1.912296712398529053e-01,5.540000000000000000e+02
-2.952488472690656636e+02,-8.939247804020214971e+01,2.242078444173967000e+01,-2.311539397711021593e+01,-1.358463019108694425e+01,-5.332078526308032451e+01,4.305117027959477127e+01,-2.426038428902447777e+02,9.599730491638183594e+00,-7.649186849594116211e-01,1.912296712398529053e-01,5.550000000000000000e+02
-2.906480944752247524e+02,-8.546340992673412984e+01,2.340918182634868572e+01,-2.072818708427621459e+01,-1.408786509141100396e+01,-5.255015465611904801e+01,4.333944923622948409e+01,-2.629697984160611668e+02,9.599730491638183594e+00,-7.649186849594116211e-01,1.912296712398529053e-01,5.560000000000000000e+02
-2.863148683119543421e+02,-8.321071599761944526e+01,2.267054009251842217e+01,-1.986453541931041400e+01,-1.712363116739288671e+01,-5.278265859131715843e+01,4.171192634010913025e+01,-2.712506803803025832e+02,9.599730491638183594e+00,-7.649186849594116211e-01,1.912296712398529053e-01,5.570000000000000000e+02
-2.814118158515393588e+02,-8.300531124471308431e+01,2.139083750943882478e+01,-2.061954826875171420e+01,-2.018825671122795029e+01,-5.327725203370573581e+01,3.944353170028989553e+01,-2.637112311858672911e+02,9.599730491638183594e+00,-7.649186849594116211e-01,1.912296712398529053e-01,5.580000000000000000e+02
-2.755808367497902509e+02,-8.386995006887445925e+01,2.106340770127008000e+01,-2.235026691700841184e+01,-2.095098060731288570e+01,-5.347168684460302757e+01,3.811194450845869142e+01,-2.500731591247204051e+02,9.599730491638183594e+00,-7.649186849594116211e-01,1.912296712398529053e-01,5.590000000000000000e+02
-2.692547377765113197e+02,-8.431078464114943927e+01,2.218363899970336206e+01,-2.409975188993848860e+01,-1.908592968737684714e+01,-5.339462978801384452e+01,3.835531629795514164e+01,-2.438163927005170990e+02,9.599730491638183594e+00,-7.649186849594116211e-01,1.912296712398529053e-01,5.600000000000000000e+02
-2.631917339892170276e+02,-8.350090233508853999e+01,2.394823989260476083e+01,-2.517515856611316849e+01,-1.632974331887817243e+01,-5.345061862222428317e+01,3.955173572329113085e+01,-2.488958363674319116e+02,9.599730491638183594e+00,-7.649186849594116211e-01,1.912296712398529053e-01,5.610000000000000000e+02
-2.576664063459484169e+02,-8.183345470729727822e+01,2.519315412400555942e+01,-2.546369385439720645e+01,-1.473577656875750108e+01,-5.386521245900803478e+01,4.062883874253202521e+01,-2.560500663095426717e+02,9.599730491638183594e+00,-7.649186849594116211e-01,1.912296712398529053e-01,5.620000000000000000e+02
-2.521441541628391860e+02,-8.040176064021579805e+01,2.558695158290538529e+01,-2.528214822697555064e+01,-1.475034058305027429e+01,-5.434411583232576959e+01,4.115631010663855704e+01,-2.524953849049579730e+02,9.599730491638183594e+00,-7.649186849594116211e-01,1.912296712398529053e-01,5.630000000000000000e+02
-2.458351640846485680e+02,-7.991751479947561165e+01,2.588460185002259095e+01,-2.494619121545292728e+01,-1.490535504670515365e+01,-5.424374994275240169e+01,4.165153447450938984e+01,-2.354219974151546921e+02,9.599730491638183594e+00,-7.649186849594116211e-01,1.912296712398529053e-01,5.640000000000000000e+02
-2.386104440621420508e+02,-8.009089205419877544e+01,2.702564429382073286e+01,-2.446655944157100748e+01,-1.339961938454143819e+01,-5.307030210532502679e+01,4.284956787319788418e+01,-2.159286013297478348e+02,9.599730491638183594e+00,-7.649186849594116211e-01,1.912296712398529053e-01,5.650000000000000000e+02
-2.313158670921256999e+02,-8.005163333960626915e+01,2.901158109237439930e+01,-2.365685426990421547e+01,-1.006884382962198288e+01,-5.088206091739266412e+01,4.469542918749539240e+01,-2.096119715347122110e+02,9.599730491638183594e+00,-7.649186849594116211e-01,1.912296712398529053e-01,5.660000000000000000e+02
-2.250723582045466173e+02,-7.937546074259807938e+01,3.069200703055321355e+01,-2.253460470995742071e+01,-6.875945360485275160e+00,-4.831036926313936419e+01,4.609075697778098402e+01,-2.230994568955557043e+02,9.599730491638183594e+00,-7.649186849594116211e-01,1.912296712398529053e-01,5.670000000000000000e+02
-2.201917228055990563e+02,-7.864846559122634062e+01,3.068003181508538546e+01,-2.156454739172477275e+01,-6.401344063118813210e+00,-4.619251812735637941e+01,4.573685857423879497e+01,-2.491967447109909699e+02,9.599730491638183594e+00,-7.649186849594116211e-01,1.912296712398529053e-01,5.680000000000000000e+02
-2.158346347492606583e+02,-7.893893684982685954e+01,2.851662225173458864e+01,-2.140986544430779759e+01,-9.644366105523658916e+00,-4.505402339701868186e+01,4.336563321982248453e+01,-2.743432835252406221e+02,9.599730491638183594e+00,-7.649186849594116211e-01,1.912296712398529053e-01,5.690000000000000000e+02
-2.108883701257018402e+02,-8.064127381030994002e+01,2.499275173205387546e+01,-2.234591345790067862e+01,-1.508216242215712555e+01,-4.477218463395547587e+01,4.023234609141582041e+01,-2.902302178407189786e+02,9.599730491638183594e+00,-7.649186849594116211e-01,1.912296712398529053e-01,5.700000000000000000e+02
-2.053015751775383251e+02,-8.283519684751627210e+01,2.141151518321930780e+01,-2.389701274781873508e+01,-1.978777419690231909e+01,-4.467187137982364220e+01,3.835295891394162027e+01,-2.985341031032476167e+02,9.599730491638183594e+00,-7.649186849594116211e-01,1.912296712398529053e-01,5.710000000000000000e+02
-2.005559458363568410e+02,-8.385348326175517286e+01,1.860621086993523932e+01,-2.510793090745755762e+01,-2.155896872419361898e+01,-4.402346045269405295e+01,3.907649695025065739e+01,-3.055579035581558855e+02,9.599730491638183594e+00,-7.649186849594116211e-01,1.912296712398529053e-01,5.720000000000000000e+02
-1.987067538319879532e+02,-8.260218617542523134e+01,1.665896829136727320e+01,-2.527192382948851446e+01,-2.023503304438236228e+01,-4.258125672430833220e+01,4.216628434115955315e+01,-3.134568974098983745e+02,9.599730491638183594e+00,-7.649186849594116211e-01,1.912296712398529053e-01,5.730000000000000000e+02
-2.007626584026638739e+02,-7.945009823209329625e+01,1.544895074389205547e+01,-2.446854615807933442e+01,-1.725663837665524625e+01,-4.070819238892727299e+01,4.611679602559343039e+01,-3.169010244401997625e+02,9.599730491638183594e+00,-7.649186849594116211e-01,1.912296712398529053e-01,5.740000000000000000e+02
-2.057993743661972985e+02,-7.591003948384968680e+01,1.524023592915727932e+01,-2.342704343431978486e+01,-1.416309505637582333e+01,-3.895840875664180203e+01,4.935318605436259531e+01,-3.077579045815200516e+02,9.599730491638183594e+00,-7.649186849594116211e-01,1.912296712398529053e-01,5.750000000000000000e+02
-2.115339938867018645e+02,-7.348454499264516926e+01,1.650551305137378222e+01,-2.288512773633738107e+01,-1.154946649563316896e+01,-3.752209884082185454e+01,5.124727851876923523e+01,-2.825871466130338376e+02,9.599730491638183594e+00,-7.649186849594116211e-01,1.912296712398529053e-01,5.760000000000000000e+02
-2.157839212553153629e+02,-7.273609753831806302e+01,1.912667507490550634e+01,-2.307559042744469480e+01,-9.276077623500896152e+00,-3.609897410046687583e+01,5.216968241578433663e+01,-2.459079139492914692e+02,9.599730491638183594e+00,-7.649186849594116211e-01,1.912296712398529053e-01,5.770000000000000000e+02
-2.175756563409304363e+02,-7.327024552226794185e+01,2.193728880276103155e+01,-2.377019639404352347e+01,-7.348142298764287261e+00,-3.434067913984472398e+01,5.273983989292901242e+01,-2.070620522377994348e+02,9.599730491638183594e+00,-7.649186849594116211e-01,1.912296712398529053e-01,5.780000000000000000e+02
-2.171818712736694579e+02,-7.437828259701200295e+01,2.332858899206439673e+01,-2.470210638977368944e+01,-6.314896865424088901e+00,-3.238241490219661500e+01,5.312040289959986694e+01,-1.742667612069963070e+02,9.408499717712402344e+00,-7.266727685928344727e-01,1.147378161549568176e-01,5.790000000000000000e+02
-2.153799990072493529e+02,-7.558021518371242564e+01,2.251890477088272746e+01,-2.584584507398176356e+01,-6.749883093305470538e+00,-3.085211548035658780e+01,5.301288893544551684e+01,-1.507781926208299410e+02,9.408499717712402344e+00,-7.266727685928344727e-01,1.147378161549568176e-01,5.800000000000000000e+02
-2.127415437500312692e+02,-7.663933908876788337e+01,2.027195648738234013e+01,-2.729333882729770266e+01,-8.492988503154265345e+00,-3.029879479403098230e+01,5.222285166576148185e+01,-1.351409972120072780e+02,9.408499717712402344e+00,-7.266727685928344727e-01,1.147378161549568176e-01,5.810000000000000000e+02
-2.094380687359353033e+02,-7.728031752725473780e+01,1.828258945419474912e+01,-2.895850714645894186e+01,-1.059464996952556248e+01,-3.062480299297385500e+01,5.112326511633909831e+01,-1.239376379470540996e+02,9.408499717712402344e+00,-7.266727685928344727e-01,1.147378161549568176e-01,5.820000000000000000e+02
-2.054117513813071128e+02,-7.710386313390154100e+01,1.776004968211600499e+01,-3.050663031890871935e+01,-1.206752827461241395e+01,-3.112042856287007453e+01,5.052432116298587061e+01,-1.143145475739511312e+02,9.408499717712402344e+00,-7.266727685928344727e-01,1.147378161549568176e-01,5.830000000000000000e+02
-2.005385426188440761e+02,-7.584534170241931861e+01,1.854817446069500875e+01,-3.159538728721236112e+01,-1.262687233791439212e+01,-3.107406955807891791e+01,5.109183117447537370e+01,-1.048997612884086266e+02,9.408499717712402344e+00,-7.266727685928344727e-01,1.147378161549568176e-01,5.840000000000000000e+02
-1.946978051124060585e+02,-7.366893642019567778e+01,1.958182972165741376e+01,-3.214029273330561409e+01,-1.263659848335009883e+01,-3.033450449035080965e+01,5.286340303149700048e+01,-9.547263344368184335e+01,9.408499717712402344e+00,-7.266727685928344727e-01,1.147378161549568176e-01,5.850000000000000000e+02
-1.879185302492442133e+02,-7.114651384489297925e+01,2.012960372117595398e+01,-3.232973613887224928e+01,-1.240802351208913024e+01,-2.929389537257520715e+01,5.524967333344466169e+01,-8.632162109218552359e+01,9.408499717712402344e+00,-7.266727685928344727e-01,1.147378161549568176e-01,5.860000000000000000e+02
-1.806390935945491947e+02,-6.894430159676630865e+01,2.051493221053533489e+01,-3.243308733426238177e+01,-1.173412738339902717e+01,-2.840477339735662099e+01,5.743636037911346648e+01,-7.781921415095348493e+01,9.408499717712402344e+00,-7.266727685928344727e-01,1.147378161549568176e-01,5.870000000000000000e+02
-1.737657233684767561e+02,-6.750222364753062720e+01,2.161145176725767669e+01,-3.264058325370024249e+01,-1.021495047077041818e+01,-2.778718223596661119e+01,5.883648771054868121e+01,-7.025351282707561040e+01,9.408499717712402344e+00,-7.266727685928344727e-01,1.147378161549568176e-01,5.880000000000000000e+02
-1.682283919315268577e+02,-6.688623094253125601e+01,2.370857106134826608e+01,-3.305060701300317305e+01,-7.964302973996382207e+00,-2.728768000292620854e+01,5.932368371106713312e+01,-6.377168580879515503e+01,9.408499717712402344e+00,-7.266727685928344727e-01,1.147378161549568176e-01,5.890000000000000000e+02
-1.642384916471528413e+02,-6.677919351367381751e+01,2.595885849934529688e+01,-3.369801954841386760e+01,-5.841013290544651682e+00,-2.680631613000150537e+01,5.917841545507326373e+01,-5.835918496052545379e+01,9.408499717712402344e+00,-7.266727685928344727e-01,1.147378161549568176e-01,5.900000000000000000e+02
-1.609172766412666533e+02,-6.655979561474305228e+01,2.694760140269499971e+01,-3.451611230014532339e+01,-4.878831014779279940e+00,-2.645916291839967016e+01,5.882972116094606463e+01,-5.385274769800889771e+01,9.408499717712402344e+00,-7.266727685928344727e-01,1.147378161549568176e-01,5.910000000000000000e+02
-1.567990580449659319e+02,-6.553747601198483608e+01,2.580981304241504404e+01,-3.530302232612666558e+01,-5.489324073056195630e+00,-2.640578614049445605e+01,5.853421217737923143e+01,-4.999674260828396655e+01,9.408499717712402344e+00,-7.266727685928344727e-01,1.147378161549568176e-01,5.920000000000000000e+02
-1.509334500442164426e+02,-6.337851936314473278e+01,2.288222791929365485e+01,-3.582150383397311089e+01,-7.238302337631466798e+00,-2.657938506549180602e+01,5.819198202195912017e+01,-4.654614163234873558e+01,9.408499717712402344e+00,-7.266727685928344727e-01,1.147378161549568176e-01,5.930000000000000000e+02
-1.436858640250757162e+02,-6.049419207138998900e+01,1.942386306647313177e+01,-3.599231940815298003e+01,-9.331561924995185109e+00,-2.664804963306232821e+01,5.746322147408136516e+01,-4.337298511776316445e+01,9.408499717712402344e+00,-7.266727685928344727e-01,1.147378161549568176e-01,5.940000000000000000e+02
-1.364978989598821499e+02,-5.797906040115776705e+01,1.680137859033857239e+01,-3.595271648665948305e+01,-1.118905587932749768e+01,-2.624325251814298099e+01,5.614816487435018644e+01,-4.045439849419199163e+01,9.408499717712402344e+00,-7.266727685928344727e-01,1.147378161549568176e-01,5.950000000000000000e+02
-1.307439257764817739e+02,-5.694884670135434135e+01,1.582709182972030248e+01,-3.585375772669794969e+01,-1.250228502220488735e+01,-2.521706367905062507e+01,5.453757767128263367e+01,-3.770995043343282305e+01,9.408499717712402344e+00,-7.266727685928344727e-01,1.147378161549568176e-01,5.960000000000000000e+02
-1.266271548072800215e+02,-5.770849389245267957e+01,1.657974578677385580e+01,-3.559731235514482250e+01,-1.288139147058609524e+01,-2.371187846119937603e+01,5.337653057659190381e+01,-3.486227887162021943e+01,9.408499717712402344e+00,-7.266727685928344727e-01,1.147378161549568176e-01,5.970000000000000000e+02
-1.230285296200454468e+02,-5.947445287632581312e+01,1.857030956695598434e+01,-3.484706427330456791e+01,-1.173027805945093860e+01,-2.203521596240170766e+01,5.337127948316629045e+01,-3.147710573539006873e+01,9.408499717712402344e+00,-7.266727685928344727e-01,1.147378161549568176e-01,5.980000000000000000e+02
-1.183809146455241716e+02,-6.094890496938751312e+01,2.102828840054644388e+01,-3.336643880779229221e+01,-8.685754048517992487e+00,-2.047459812881788821e+01,5.461820498264933121e+01,-2.723420929531494039e+01,9.408499717712402344e+00,-7.266727685928344727e-01,1.147378161549568176e-01,5.990000000000000000e+02
-1.118054383853777836e+02,-6.127605623892668518e+01,2.321685316275397781e+01,-3.134787569371110294e+01,-4.226600388141378062e+00,-1.917722455603143317e+01,5.646131568789860466e+01,-2.224363848225766560e+01,9.408499717712402344e+00,-7.266727685928344727e-01,3.824593871831893921e-02,6.000000000000000000e+02
-1.036076978857454378e+02,-6.054611796828248771e+01,2.472890131364692934e+01,-2.934587883822314325e+01,2.836025064534624107e-01,-1.811937097635745886e+01,5.793723735428648070e+01,-1.702976404981018277e+01,9.408499717712402344e+00,-7.266727685928344727e-01,3.824593871831893921e-02,6.010000000000000000e+02
-9.484518165944245993e+01,-5.944806236228760099e+01,2.561620949013740756e+01,-2.781871024814972770e+01,3.349157155502325622e+00,-1.716121444962845999e+01,5.844262651340613957e+01,-1.217602163572519203e+01,9.408499717712402344e+00,-7.266727685928344727e-01,3.824593871831893921e-02,6.020000000000000000e+02
-8.646103948898962699e+01,-5.849978676908358466e+01,2.619044153764116345e+01,-2.672107493939620326e+01,4.292332841276220279e+00,-1.617291557584758266e+01,5.808096213042517775e+01,-8.015660486838896759e+00,9.408499717712402344e+00,-7.266727685928344727e-01,3.824593871831893921e-02,6.030000000000000000e+02
-7.873059217370973784e+01,-5.763557832124206470e+01,2.662007065340367262e+01,-2.557881197694587172e+01,3.576483106906380272e+00,-1.516798856619061553e+01,5.746009900221179123e+01,-4.660140947213221807e+00,9.408499717712402344e+00,-7.266727685928344727e-01,3.824593871831893921e-02,6.040000000000000000e+02
-7.137509966428115149e+01,-5.651375608793387073e+01,2.669057640443497803e+01,-2.401538262503891019e+01,2.234992192275967682e+00,-1.435047428393954760e+01,5.715062457256499329e+01,-2.263134323322447017e+00,9.408499717712402344e+00,-7.266727685928344727e-01,3.824593871831893921e-02,6.050000000000000000e+02
-6.407814993768988643e+01,-5.513111054990076809e+01,2.599723032566907932e+01,-2.222880987135067699e+01,9.660786984350124840e-01,-1.401468152320012450e+01,5.724130484548732056e+01,-1.148815072847355623e+00,9.408499717712402344e+00,-7.266727685928344727e-01,3.824593871831893921e-02,6.060000000000000000e+02
-5.686482854633504758e+01,-5.403241030797653366e+01,2.440158624789910391e+01,-2.093850054644644842e+01,-2.935007705418684054e-01,-1.435473905562321306e+01,5.727875359233075869e+01,-1.562273300980450585e+00,9.408499717712402344e+00,-7.266727685928344727e-01,3.824593871831893921e-02,6.070000000000000000e+02
-5.002441425879806047e+01,-5.388244089115323732e+01,2.228079254243129981e+01,-2.082779400838990114e+01,-2.020947113949659979e+00,-1.532524715651743463e+01,5.655694653140380979e+01,-3.234288762811047491e+00,9.408499717712402344e+00,-7.266727685928344727e-01,3.824593871831893921e-02,6.080000000000000000e+02
-4.370668389490310801e+01,-5.485734111805868451e+01,2.029875478081157780e+01,-2.198863807007001014e+01,-4.406874636435532011e+00,-1.664685884657592396e+01,5.453238486051122891e+01,-5.264925562692951644e+00,9.408499717712402344e+00,-7.266727685928344727e-01,3.824593871831893921e-02,6.090000000000000000e+02
-3.761309167332728975e+01,-5.649966976067298674e+01,1.891293883439357160e+01,-2.386261456670399639e+01,-6.993591039812599774e+00,-1.793941730743244989e+01,5.113644364154606592e+01,-6.547138840764091583e+00,9.408499717712402344e+00,-7.266727685928344727e-01,3.824593871831893921e-02,6.100000000000000000e+02
-3.109423367896306445e+01,-5.816947772184721543e+01,1.808527668434908264e+01,-2.570314683406104450e+01,-8.963357645636278903e+00,-1.889884664131386671e+01,4.686685496709105792e+01,-6.436815572924388107e+00,9.408499717712402344e+00,-7.266727685928344727e-01,3.824593871831893921e-02,6.110000000000000000e+02
-2.358877396759999101e+01,-5.958098875810901518e+01,1.744218395113784936e+01,-2.710673786965708132e+01,-9.777773332560173003e+00,-1.942667955448268913e+01,4.263746541529690148e+01,-5.128922617717762478e+00,9.408499717712402344e+00,-7.266727685928344727e-01,3.824593871831893921e-02,6.120000000000000000e+02
-1.501614048168994486e+01,-6.082234742608488887e+01,1.669483435853908304e+01,-2.810880109459685627e+01,-9.557624709221272497e+00,-1.963005542599421460e+01,3.947267942877442692e+01,-3.337004103974322788e+00,9.408499717712402344e+00,-7.266727685928344727e-01,3.824593871831893921e-02,6.130000000000000000e+02
-5.770368166635307716e+00,-6.185527105967048556e+01,1.593669755546943634e+01,-2.879965025039564352e+01,-8.854118954484874848e+00,-1.968673580441100057e+01,3.818914192554075271e+01,-1.558938229351042537e+00,9.408499717712402344e+00,-7.266727685928344727e-01,3.824593871831893921e-02,6.140000000000000000e+02
3.656312590504967375e+00,-6.212686968580965186e+01,1.559667761517994222e+01,-2.892045337618401391e+01,-8.043768988467490999e+00,-1.965966802618640941e+01,3.915546443404309684e+01,3.925794381320883986e-01,9.408499717712402344e+00,-7.266727685928344727e-01,3.824593871831893921e-02,6.150000000000000000e+02
