F3,F4,C3,C4,P3,P4,Cz,Pz,Accel_x,Accel_y,Accel_z,Sample
-9.458744898438453674e-11,-7.094058673828840256e-11,-4.547473508864641190e-11,-5.093170329928398132e-11,-6.366462912410497665e-11,-7.639755494892597198e-11,-6.002665031701326370e-11,-7.639755494892597198e-11,9.484992027282714844e+00,-6.501809358596801758e-01,3.442134261131286621e-01,2.250000000000000000e+02
-5.677829594418290071e+01,-4.180927605761007726e+01,-1.349266400939814048e+01,-1.578449355027260026e+01,-3.433492736121479538e+01,-3.254398500675051764e+01,-1.612764627036085585e+01,-2.812932418761010922e+01,9.484992027282714844e+00,-6.501809358596801758e-01,3.442134261131286621e-01,2.260000000000000000e+02
-1.105653876833894174e+02,-8.746416086523458944e+01,-3.542922975999135815e+01,-3.961165484618322807e+01,-7.472563358988736582e+01,-7.421801684409365407e+01,-3.834082068439602153e+01,-5.861145808146466152e+01,9.484992027282714844e+00,-6.501809358596801758e-01,3.442134261131286621e-01,2.270000000000000000e+02
-1.604181636702760443e+02,-1.371444647705620810e+02,-6.680157668756419298e+01,-7.227697307655671466e+01,-1.216244173233662877e+02,-1.258634962876458303e+02,-6.739105701367770962e+01,-9.219357912900341034e+01,9.484992027282714844e+00,-6.501809358596801758e-01,3.442134261131286621e-01,2.280000000000000000e+02
-2.080776622907687852e+02,-1.874254169029172772e+02,-1.008714118983043591e+02,-1.071821816953006419e+02,-1.696935073008335166e+02,-1.798629979231100151e+02,-9.845334236412963946e+01,-1.276252616195724841e+02,9.484992027282714844e+00,-6.501809358596801758e-01,3.442134261131286621e-01,2.290000000000000000e+02
-2.567822964170709383e+02,-2.348232925605698256e+02,-1.299481910404065275e+02,-1.370549937670366489e+02,-2.129703626751097545e+02,-2.278249551092121692e+02,-1.258959118805269100e+02,-1.626025430022209548e+02,9.484992027282714844e+00,-6.501809358596801758e-01,3.442134261131286621e-01,2.300000000000000000e+02
-3.091382266005266501e+02,-2.789909630757028935e+02,-1.522151798176591910e+02,-1.605032062829759525e+02,-2.501123673073525424e+02,-2.680847811255425768e+02,-1.481398032519937260e+02,-1.951138796169752823e+02,9.484992027282714844e+00,-6.501809358596801758e-01,3.442134261131286621e-01,2.310000000000000000e+02
-3.654809954986521916e+02,-3.223589895601617172e+02,-1.721494727735698689e+02,-1.821353971983871816e+02,-2.847951917353466342e+02,-3.058510791051940032e+02,-1.681279403834469122e+02,-2.242306107003441866e+02,9.484992027282714844e+00,-6.501809358596801758e-01,3.442134261131286621e-01,2.320000000000000000e+02
-4.237099094788900402e+02,-3.669682502735859089e+02,-1.949948265934453957e+02,-2.070142030071920090e+02,-3.215162451301321198e+02,-3.468686115772488847e+02,-1.897323218440396886e+02,-2.501602277303891242e+02,9.484992027282714844e+00,-6.501809358596801758e-01,3.442134261131286621e-01,2.330000000000000000e+02
-4.805704000715286384e+02,-4.121063273794989072e+02,-2.214720846489417454e+02,-2.357021311247781341e+02,-3.614083369342470178e+02,-3.917621527231840446e+02,-2.142295009060653683e+02,-2.739259931771775882e+02,9.484992027282714844e+00,-6.501809358596801758e-01,3.442134261131286621e-01,2.340000000000000000e+02
-5.334781187384405712e+02,-4.551423315741212718e+02,-2.477775930310390322e+02,-2.646154689064242120e+02,-4.019378011467542819e+02,-4.364547966353293305e+02,-2.400340011698335729e+02,-2.969003248170511142e+02,9.484992027282714844e+00,-6.501809358596801758e-01,3.442134261131286621e-01,2.350000000000000000e+02
-5.817662484630727704e+02,-4.943236956321497928e+02,-2.699440941078828473e+02,-2.902945553608869886e+02,-4.399985312234084631e+02,-4.770739274717980152e+02,-2.649552145157585983e+02,-3.201563824088871115e+02,9.484992027282714844e+00,-6.501809358596801758e-01,3.442134261131286621e-01,2.360000000000000000e+02
-6.267038691027537425e+02,-5.303625376157924620e+02,-2.875854237194471352e+02,-3.125171574835976571e+02,-4.748297947141527402e+02,-5.135317038793073152e+02,-2.880024829548465277e+02,-3.438284204237488666e+02,9.484992027282714844e+00,-6.501809358596801758e-01,3.442134261131286621e-01,2.370000000000000000e+02
-6.704305443263901907e+02,-5.653059020676673754e+02,-3.036260531981897657e+02,-3.333868815373371035e+02,-5.081641901207294723e+02,-5.484801925305964687e+02,-3.091830472131532588e+02,-3.670613794082701133e+02,9.484992027282714844e+00,-6.501809358596801758e-01,3.442134261131286621e-01,2.380000000000000000e+02
-7.146040717932182815e+02,-6.002538894047074791e+02,-3.212277541897992705e+02,-3.543336920444517091e+02,-5.422548064157654153e+02,-5.838188447452830587e+02,-3.284753332080381369e+02,-3.888874232594353089e+02,9.370253562927246094e+00,-6.884268522262573242e-01,3.824593424797058105e-01,2.390000000000000000e+02
-7.596458290660530110e+02,-6.345297672669166786e+02,-3.414936501204920205e+02,-3.747945491749278517e+02,-5.781700369247500930e+02,-6.190493047770250996e+02,-3.458017570649317349e+02,-4.094537257225447320e+02,9.370253562927246094e+00,-6.884268522262573242e-01,3.824593424797058105e-01,2.400000000000000000e+02
-8.049200859289921937e+02,-6.670011648985700958e+02,-3.637164149086165708e+02,-3.937076909858142244e+02,-6.156119656304954333e+02,-6.528264934612461730e+02,-3.619581996347178574e+02,-4.303510236575584713e+02,9.370253562927246094e+00,-6.884268522262573242e-01,3.824593424797058105e-01,2.410000000000000000e+02
-8.494679856056172866e+02,-6.978430182846004755e+02,-3.868570684555661501e+02,-4.115123546784998325e+02,-6.535538900733154151e+02,-6.851709524345178579e+02,-3.788608157908629437e+02,-4.534314232014912704e+02,9.370253562927246094e+00,-6.884268522262573242e-01,3.824593424797058105e-01,2.420000000000000000e+02
-8.926213267992907276e+02,-7.287600695825576622e+02,-4.101587497915079439e+02,-4.300970009763768758e+02,-6.905839781773192954e+02,-7.175275559667725247e+02,-3.982349398948363159e+02,-4.790328070324612781e+02,9.370253562927246094e+00,-6.884268522262573242e-01,3.824593424797058105e-01,2.430000000000000000e+02
-9.341364994731775369e+02,-7.615456679051758329e+02,-4.326257605557429997e+02,-4.508751781284609024e+02,-7.249799811525936093e+02,-7.508878963804509112e+02,-4.199413022779426683e+02,-5.053409978119361767e+02,9.370253562927246094e+00,-6.884268522262573242e-01,3.824593424797058105e-01,2.440000000000000000e+02
-9.740028899745584567e+02,-7.965724206588765810e+02,-4.527525352685170219e+02,-4.733375055072065152e+02,-7.552686765702428602e+02,-7.845032993344548231e+02,-4.418625107218176709e+02,-5.296844588502463012e+02,9.370253562927246094e+00,-6.884268522262573242e-01,3.824593424797058105e-01,2.450000000000000000e+02
-1.012298356158555180e+03,-8.326296661339647471e+02,-4.693869910249359236e+02,-4.956552734573142516e+02,-7.813032096759570777e+02,-8.167366123299898391e+02,-4.616621069858474584e+02,-5.506719657354242372e+02,9.370253562927246094e+00,-6.884268522262573242e-01,3.824593424797058105e-01,2.460000000000000000e+02
-1.049212360354888006e+03,-8.679542080547598744e+02,-4.828868809748173589e+02,-5.164531128098560657e+02,-8.047741650985162778e+02,-8.468807894478413800e+02,-4.786659867690932515e+02,-5.691824882641840304e+02,9.370253562927246094e+00,-6.884268522262573242e-01,3.824593424797058105e-01,2.470000000000000000e+02
-1.084998796642149500e+03,-9.012541133711656585e+02,-4.951174198266071471e+02,-5.357283841067592220e+02,-8.282444435700190297e+02,-8.757496297521147426e+02,-4.940124625226062562e+02,-5.873008356893105884e+02,9.370253562927246094e+00,-6.884268522262573242e-01,3.824593424797058105e-01,2.480000000000000000e+02
-1.119714623125821163e+03,-9.319509644254949308e+02,-5.080815367413833883e+02,-5.541594580247128761e+02,-8.533217947298207946e+02,-9.044996743174933727e+02,-5.091293218243736192e+02,-6.063114329689869919e+02,9.370253562927246094e+00,-6.884268522262573242e-01,3.824593424797058105e-01,2.490000000000000000e+02
-1.152993879827920864e+03,-9.599313141804241241e+02,-5.224984101192349044e+02,-5.719341551158158836e+02,-8.796587384306722015e+02,-9.332459974541006886e+02,-5.243098487979432321e+02,-6.257382850730673454e+02,9.370253562927246094e+00,-6.884268522262573242e-01,3.824593424797058105e-01,2.500000000000000000e+02
-1.184236360310180316e+03,-9.854713198739937070e+02,-5.376579136652962916e+02,-5.885538275108019661e+02,-9.057543441502421047e+02,-9.611029768719827189e+02,-5.388327890421469419e+02,-6.442531338952503575e+02,9.370253562927246094e+00,-6.884268522262573242e-01,3.824593424797058105e-01,2.510000000000000000e+02
-1.213173421697869344e+03,-1.009393578316722596e+03,-5.524676410040028713e+02,-6.036815653309759000e+02,-9.306717354686870749e+02,-9.874388111476091581e+02,-5.522219340215415286e+02,-6.613335629606781367e+02,9.370253562927246094e+00,-6.884268522262573242e-01,3.824593424797058105e-01,2.520000000000000000e+02
-1.240268322171873479e+03,-1.032948807444322483e+03,-5.664723199616973943e+02,-6.178678321864381360e+02,-9.548660578266235461e+02,-1.012746384546661830e+03,-5.650466251768621078e+02,-6.778625333122517986e+02,9.370253562927246094e+00,-6.884268522262573242e-01,3.824593424797058105e-01,2.530000000000000000e+02
-1.266452414023442543e+03,-1.057199416207422473e+03,-5.799295090550831446e+02,-6.322447756608044074e+02,-9.793515450067297934e+02,-1.038128715955257576e+03,-5.783647645705759714e+02,-6.950755667237317539e+02,9.370253562927246094e+00,-6.884268522262573242e-01,3.824593424797058105e-01,2.540000000000000000e+02
-1.292366237587231808e+03,-1.082375910580345590e+03,-5.932036664301340352e+02,-6.475423716422938014e+02,-1.004250418450308644e+03,-1.064070757917327683e+03,-5.925478046191174144e+02,-7.130635198608179053e+02,9.370253562927246094e+00,-6.884268522262573242e-01,3.824593424797058105e-01,2.550000000000000000e+02
-1.317880931656662142e+03,-1.107887643270953049e+03,-6.063880417354012025e+02,-6.635250202857168915e+02,-1.028423277184073413e+03,-1.089927224852510335e+03,-6.069142207333998158e+02,-7.305160317789477631e+02,9.370253562927246094e+00,-6.884268522262573242e-01,3.824593424797058105e-01,2.560000000000000000e+02
-1.342459450453478894e+03,-1.133042075602679688e+03,-6.195730700056960814e+02,-6.794021665207874321e+02,-1.050672248798645342e+03,-1.114645803594255085e+03,-6.206642553471310748e+02,-7.460944785951787708e+02,9.370253562927246094e+00,-6.884268522262573242e-01,3.824593424797058105e-01,2.570000000000000000e+02
-1.366034799633112925e+03,-1.157734796562737756e+03,-6.332458456872391253e+02,-6.947111706236755708e+02,-1.071247564340967983e+03,-1.137868456659364711e+03,-6.340894542814485249e+02,-7.600672779465730855e+02,9.370253562927246094e+00,-6.884268522262573242e-01,3.824593424797058105e-01,2.580000000000000000e+02
-1.389479479573961726e+03,-1.182370117708190719e+03,-6.481133184655122932e+02,-7.097448205538430557e+02,-1.091976498132324195e+03,-1.160242082357354775e+03,-6.486332284293785051e+02,-7.744780727273891898e+02,9.370253562927246094e+00,-6.884268522262573242e-01,3.824593424797058105e-01,2.590000000000000000e+02
-1.414066094344040721e+03,-1.207092617491915462e+03,-6.643528344738388114e+02,-7.251398058625795784e+02,-1.114717373031381612e+03,-1.182708654058196771e+03,-6.655200553009026407e+02,-7.915083668318939090e+02,9.446745872497558594e+00,-7.266727685928344727e-01,3.824593424797058105e-01,2.600000000000000000e+02
-1.440312402359356383e+03,-1.231178234046100897e+03,-6.810374371102102486e+02,-7.410832348297744829e+02,-1.139555112260899477e+03,-1.205595522118533154e+03,-6.841674049541261411e+02,-8.114617793665556746e+02,9.446745872497558594e+00,-7.266727685928344727e-01,3.824593424797058105e-01,2.610000000000000000e+02
-1.467283207908231361e+03,-1.253323418001977188e+03,-6.964507621220991496e+02,-7.569178416367185491e+02,-1.164496757633452944e+03,-1.228391599694358774e+03,-7.019845151110348525e+02,-8.322352674639587349e+02,9.446745872497558594e+00,-7.266727685928344727e-01,3.824593424797058105e-01,2.620000000000000000e+02
-1.493103105338270780e+03,-1.272664629720361972e+03,-7.091842348995710381e+02,-7.715249891399589615e+02,-1.187020911008728035e+03,-1.250292816532863981e+03,-7.159956891196043216e+02,-8.508155029088884476e+02,9.446745872497558594e+00,-7.266727685928344727e-01,3.824593424797058105e-01,2.630000000000000000e+02
-1.516334631442144655e+03,-1.289602048379982079e+03,-7.191246220135362819e+02,-7.841606641546586616e+02,-1.206059881212047003e+03,-1.270868407405541802e+03,-7.250614379268699849e+02,-8.654853329906272847e+02,9.446745872497558594e+00,-7.266727685928344727e-01,3.824593424797058105e-01,2.640000000000000000e+02
-1.537063264789779623e+03,-1.305672845111635070e+03,-7.274696881424229105e+02,-7.950506949378986974e+02,-1.222621797961221091e+03,-1.290221788805290089e+03,-7.308476082751662943e+02,-8.768511124919459689e+02,9.446745872497558594e+00,-7.266727685928344727e-01,3.824593424797058105e-01,2.650000000000000000e+02
-1.556782405164331976e+03,-1.322587650495322578e+03,-7.357466638125611098e+02,-8.052536737456193805e+02,-1.238580596830970535e+03,-1.308628437125765231e+03,-7.366790168461238864e+02,-8.869403186420777274e+02,9.446745872497558594e+00,-7.266727685928344727e-01,3.824593424797058105e-01,2.660000000000000000e+02
-1.577201723981039777e+03,-1.341244596695194105e+03,-7.446866210719981609e+02,-8.158927267950771238e+02,-1.254879477971463075e+03,-1.326126362506593978e+03,-7.451799941070084969e+02,-8.973583033983959467e+02,9.446745872497558594e+00,-7.266727685928344727e-01,3.824593424797058105e-01,2.670000000000000000e+02
-1.599004458268164399e+03,-1.361416245666980558e+03,-7.538897921286161363e+02,-8.273573846029780725e+02,-1.270841648912141409e+03,-1.342495593241310416e+03,-7.565814128379852264e+02,-9.082047267955135794e+02,9.446745872497558594e+00,-7.266727685928344727e-01,3.824593424797058105e-01,2.680000000000000000e+02
-1.621577678257521711e+03,-1.382130517176274225e+03,-7.625157532903645006e+02,-8.391274867559700397e+02,-1.285161489519278348e+03,-1.357638076817460387e+03,-7.689819712902881292e+02,-9.185810178717301824e+02,9.446745872497558594e+00,-7.266727685928344727e-01,3.824593424797058105e-01,2.690000000000000000e+02
-1.643846940488151631e+03,-1.402258326793412380e+03,-7.703478272346083031e+02,-8.503573291595207593e+02,-1.297550649599514145e+03,-1.371975843489139152e+03,-7.801841437783850779e+02,-9.279798764915976790e+02,9.446745872497558594e+00,-7.266727685928344727e-01,3.824593424797058105e-01,2.700000000000000000e+02
-1.665356533648998266e+03,-1.420865145446940460e+03,-7.782133206401422285e+02,-8.606538894911336683e+02,-1.309397748792368020e+03,-1.386397007183620190e+03,-7.894248608774560125e+02,-9.370860681016470153e+02,9.446745872497558594e+00,-7.266727685928344727e-01,3.824593424797058105e-01,2.710000000000000000e+02
-1.686532871458648060e+03,-1.437319951846679487e+03,-7.872955725878996418e+02,-8.702894309154758048e+02,-1.322741687180650388e+03,-1.401646666241022103e+03,-7.975559803048431604e+02,-9.472022883254298904e+02,9.446745872497558594e+00,-7.266727685928344727e-01,3.824593424797058105e-01,2.720000000000000000e+02
-1.707849811263027732e+03,-1.451430752784137439e+03,-7.979312380857595599e+02,-8.796987620551562941e+02,-1.338472110753246852e+03,-1.417647134883738545e+03,-8.057560526850029419e+02,-9.589239241614495768e+02,9.446745872497558594e+00,-7.266727685928344727e-01,3.824593424797058105e-01,2.730000000000000000e+02
-1.728712906802858470e+03,-1.463665031196167092e+03,-8.090179703179132957e+02,-8.888807265241366622e+02,-1.355395317072679518e+03,-1.433425001843188056e+03,-8.141845582596642998e+02,-9.713959354602206986e+02,9.446745872497558594e+00,-7.266727685928344727e-01,3.824593424797058105e-01,2.740000000000000000e+02
-1.747279450499156610e+03,-1.475140789239344940e+03,-8.186208222209656924e+02,-8.973851384045492523e+02,-1.370986493054192124e+03,-1.447817947314647427e+03,-8.218735895406525742e+02,-9.828738464436746654e+02,9.446745872497558594e+00,-7.266727685928344727e-01,3.824593424797058105e-01,2.750000000000000000e+02
-1.761647251777324982e+03,-1.487098163905669935e+03,-8.252971465163918765e+02,-9.048744142126411134e+02,-1.383157385348415573e+03,-1.460371838455494981e+03,-8.278174899465707313e+02,-9.920471036455473950e+02,9.446745872497558594e+00,-7.266727685928344727e-01,3.824593424797058105e-01,2.760000000000000000e+02
-1.771522772737866035e+03,-1.500055788611829939e+03,-8.290494614383187582e+02,-9.115712581008792768e+02,-1.391580278445727345e+03,-1.471592134089177762e+03,-8.320555745907231540e+02,-9.989125884599170604e+02,9.446745872497558594e+00,-7.266727685928344727e-01,3.824593424797058105e-01,2.770000000000000000e+02
-1.778861451160706565e+03,-1.513344776353666475e+03,-8.311865600695873582e+02,-9.180354686895188934e+02,-1.397645310132492341e+03,-1.482311157471503520e+03,-8.356665781938345390e+02,-1.004509501134633410e+03,9.446745872497558594e+00,-7.266727685928344727e-01,3.824593424797058105e-01,2.780000000000000000e+02
-1.786741233443146029e+03,-1.525546224426818299e+03,-8.333287311058516025e+02,-9.244966936497189636e+02,-1.403289962990766526e+03,-1.492816823887139890e+03,-8.397615468727967709e+02,-1.009900645443683061e+03,9.446745872497558594e+00,-7.266727685928344727e-01,3.824593424797058105e-01,2.790000000000000000e+02
-1.797308251906002624e+03,-1.535585877629641800e+03,-8.364358407128738691e+02,-9.305302774112155930e+02,-1.409759883440737212e+03,-1.502631671052153706e+03,-8.445627104778882313e+02,-1.015419595584768103e+03,9.446745872497558594e+00,-7.266727685928344727e-01,3.824593424797058105e-01,2.800000000000000000e+02
-1.810470698679026100e+03,-1.543605159222521252e+03,-8.405593998845456554e+02,-9.355301814166614349e+02,-1.417207089107222600e+03,-1.511164692118763924e+03,-8.495050475855896366e+02,-1.020832077299780394e+03,9.446745872497558594e+00,-7.266727685928344727e-01,3.824593424797058105e-01,2.810000000000000000e+02
-1.824325472161719517e+03,-1.550865035635546974e+03,-8.452848757704550735e+02,-9.395302063994486161e+02,-1.425200177369596986e+03,-1.518542972867435765e+03,-8.541854462348487687e+02,-1.026103489144391006e+03,9.446745872497558594e+00,-7.266727685928344727e-01,3.824593424797058105e-01,2.820000000000000000e+02
-1.836761061807951592e+03,-1.558798378734885773e+03,-8.503240753908089573e+02,-9.434995506796371956e+02,-1.433552132804732992e+03,-1.525757400846524888e+03,-8.591209137609994286e+02,-1.031908675116633276e+03,9.446745872497558594e+00,-7.266727685928344727e-01,3.824593424797058105e-01,2.830000000000000000e+02
-1.846777386623919483e+03,-1.568040155487200536e+03,-8.557774209190752117e+02,-9.487383229576030317e+02,-1.442751491555764915e+03,-1.533970572630114930e+03,-8.654801226845133897e+02,-1.039320584248116575e+03,9.446745872497558594e+00,-7.266727685928344727e-01,3.824593424797058105e-01,2.840000000000000000e+02
-1.854625753372235067e+03,-1.578176638600094975e+03,-8.619655788007576120e+02,-9.559016470602714435e+02,-1.453656916145187097e+03,-1.543662853263159377e+03,-8.739769829764318274e+02,-1.048916317562236600e+03,9.370253562927246094e+00,-7.649186849594116211e-01,3.442134261131286621e-01,2.850000000000000000e+02
-1.861127031561224157e+03,-1.588248465041005147e+03,-8.690604733791733452e+02,-9.645211094426454110e+02,-1.466692250687755404e+03,-1.554397715601896380e+03,-8.839685393275694878e+02,-1.060113536065012340e+03,9.370253562927246094e+00,-7.649186849594116211e-01,3.442134261131286621e-01,2.860000000000000000e+02
-1.867112428360335798e+03,-1.597403835251834153e+03,-8.767910455326436932e+02,-9.733614368374473997e+02,-1.481160223533826411e+03,-1.565304525889705928e+03,-8.936358024995097367e+02,-1.071361559017536820e+03,9.370253562927246094e+00,-7.649186849594116211e-01,3.442134261131286621e-01,2.870000000000000000e+02
-1.873352375656152617e+03,-1.605162192917472566e+03,-8.844058046574652963e+02,-9.811890542891952691e+02,-1.495261047779566752e+03,-1.575709236051051903e+03,-9.011586950468110899e+02,-1.081071707677251879e+03,9.370253562927246094e+00,-7.649186849594116211e-01,3.442134261131286621e-01,2.880000000000000000e+02
-1.880496450455519607e+03,-1.611329367155702130e+03,-8.909624522828648878e+02,-9.873105937432967494e+02,-1.506966188429463955e+03,-1.585342477006969830e+03,-9.059272536017338098e+02,-1.088548775107472011e+03,9.370253562927246094e+00,-7.649186849594116211e-01,3.442134261131286621e-01,2.890000000000000000e+02
-1.888578688070671660e+03,-1.615922543805796295e+03,-8.958380536175812949e+02,-9.916404403518431536e+02,-1.515233374695221755e+03,-1.594109630381906754e+03,-9.088231152124633354e+02,-1.094219647986398741e+03,9.370253562927246094e+00,-7.649186849594116211e-01,3.442134261131286621e-01,2.900000000000000000e+02
-1.896496577273794856e+03,-1.619276997614000493e+03,-8.991587897561723821e+02,-9.945253179965451409e+02,-1.520659321309047755e+03,-1.601834352474472553e+03,-9.114065978896816205e+02,-1.099047040549742633e+03,9.370253562927246094e+00,-7.649186849594116211e-01,3.442134261131286621e-01,2.910000000000000000e+02
-1.902390296023928840e+03,-1.622133785282496319e+03,-9.017889567832094144e+02,-9.966049520745773407e+02,-1.524977960067328922e+03,-1.608288844892269708e+03,-9.147508948689010140e+02,-1.103657016095628933e+03,9.370253562927246094e+00,-7.649186849594116211e-01,3.442134261131286621e-01,2.920000000000000000e+02
-1.905120984975858846e+03,-1.625420402984127350e+03,-9.047447318907065892e+02,-9.986919399936703030e+02,-1.529669980055600263e+03,-1.613419721365436544e+03,-9.188408938051221639e+02,-1.107865227721855717e+03,9.370253562927246094e+00,-7.649186849594116211e-01,3.442134261131286621e-01,2.930000000000000000e+02
-1.905734276212076338e+03,-1.629779457493395512e+03,-9.083662894001890891e+02,-1.001509743069099386e+03,-1.534765444355708723e+03,-1.617466904118104367e+03,-9.228631452514086959e+02,-1.110929435753724874e+03,9.370253562927246094e+00,-7.649186849594116211e-01,3.442134261131286621e-01,2.940000000000000000e+02
-1.907370367585970826e+03,-1.635207637109382176e+03,-9.118999300276905160e+02,-1.005299685048967604e+03,-1.538856592669329984e+03,-1.620809888491537322e+03,-9.259406744054823548e+02,-1.112224191552616048e+03,9.370253562927246094e+00,-7.649186849594116211e-01,3.442134261131286621e-01,2.950000000000000000e+02
-1.913301993642603065e+03,-1.641083646375206627e+03,-9.139476284239271990e+02,-1.009593259602654825e+03,-1.540367202080516563e+03,-1.623677569798653394e+03,-9.276353939251328029e+02,-1.111774430935477312e+03,9.370253562927246094e+00,-7.649186849594116211e-01,3.442134261131286621e-01,2.960000000000000000e+02
-1.924573841943165007e+03,-1.646517526102287093e+03,-9.135844212270662865e+02,-1.013447270597122383e+03,-1.539079260102877697e+03,-1.626007241071535418e+03,-9.279867360476307567e+02,-1.110314899400832701e+03,9.370253562927246094e+00,-7.649186849594116211e-01,3.442134261131286621e-01,2.970000000000000000e+02
-1.939221420895247093e+03,-1.650724601875424469e+03,-9.113243926407756135e+02,-1.016080201208517678e+03,-1.536652470189141695e+03,-1.627616796239838322e+03,-9.273769863068700943e+02,-1.108969288946852430e+03,9.370253562927246094e+00,-7.649186849594116211e-01,3.442134261131286621e-01,2.980000000000000000e+02
-1.953679866595278554e+03,-1.653226879753787216e+03,-9.090977149201412431e+02,-1.017449286560884048e+03,-1.535655545270687071e+03,-1.628584565836503771e+03,-9.265185078672150212e+02,-1.108825868854678447e+03,9.370253562927246094e+00,-7.649186849594116211e-01,3.442134261131286621e-01,2.990000000000000000e+02
-1.965076766207487708e+03,-1.653963124212403272e+03,-9.090839833989790577e+02,-1.018290140904631130e+03,-1.537830661606071999e+03,-1.629505861675022743e+03,-9.264482002922927677e+02,-1.110587885919058408e+03,9.370253562927246094e+00,-7.649186849594116211e-01,3.442134261131286621e-01,3.000000000000000000e+02
-1.972510214726090453e+03,-1.653424893108344804e+03,-9.121817937311903961e+02,-1.019559140321176528e+03,-1.542933373705023314e+03,-1.631313818740902889e+03,-9.281855465005940005e+02,-1.114353134931426439e+03,9.370253562927246094e+00,-7.649186849594116211e-01,3.442134261131286621e-01,3.010000000000000000e+02
-1.976568606647303113e+03,-1.652709230405172320e+03,-9.172960520101905786e+02,-1.021715733945400984e+03,-1.549016213971394791e+03,-1.634666865567123750e+03,-9.320371455189690550e+02,-1.119556948569260157e+03,9.370253562927246094e+00,-7.649186849594116211e-01,3.442134261131286621e-01,3.020000000000000000e+02
-1.978024169355665208e+03,-1.653241736285726802e+03,-9.220855220502826342e+02,-1.024427298069739663e+03,-1.553890393427617482e+03,-1.639333076277539703e+03,-9.371096198561800747e+02,-1.125175312891890371e+03,9.370253562927246094e+00,-7.649186849594116211e-01,3.442134261131286621e-01,3.030000000000000000e+02
-1.977149907085639143e+03,-1.656112611228638798e+03,-9.246673587724935715e+02,-1.026922151735354646e+03,-1.556606323023898312e+03,-1.644151767661011263e+03,-9.416545047638392134e+02,-1.130189404141385921e+03,9.370253562927246094e+00,-7.649186849594116211e-01,3.442134261131286621e-01,3.040000000000000000e+02
-1.974148219704176427e+03,-1.661367015456566378e+03,-9.249437779647662410e+02,-1.028644901358532252e+03,-1.557847829906973402e+03,-1.647750532242847839e+03,-9.441812042927327866e+02,-1.134056599715299171e+03,9.370253562927246094e+00,-7.649186849594116211e-01,3.442134261131286621e-01,3.050000000000000000e+02
-1.969906752441803974e+03,-1.667757243211739024e+03,-9.244876006290762689e+02,-1.029615918783906864e+03,-1.559056189485744653e+03,-1.649515888823967543e+03,-9.444842075931485397e+02,-1.136822511738776484e+03,9.370253562927246094e+00,-7.649186849594116211e-01,3.442134261131286621e-01,3.060000000000000000e+02
-1.966050474521150363e+03,-1.673229140428261871e+03,-9.251314309229501305e+02,-1.030222365791932589e+03,-1.561142228199930514e+03,-1.650009241132332363e+03,-9.437159308631963768e+02,-1.138803457939457985e+03,9.370253562927246094e+00,-7.649186849594116211e-01,3.442134261131286621e-01,3.070000000000000000e+02
-1.964091920487659536e+03,-1.675922181489205741e+03,-9.274847375961380749e+02,-1.030735654875127466e+03,-1.563860878411488784e+03,-1.650444377996521780e+03,-9.434464935233127107e+02,-1.140156254756800990e+03,9.370253562927246094e+00,-7.649186849594116211e-01,3.442134261131286621e-01,3.080000000000000000e+02
-1.964451098121508949e+03,-1.675109955378691438e+03,-9.306088401997209303e+02,-1.031108972873903667e+03,-1.566229060818270682e+03,-1.651692974000267441e+03,-9.445247600596610482e+02,-1.140759172532424145e+03,9.370253562927246094e+00,-7.649186849594116211e-01,3.442134261131286621e-01,3.090000000000000000e+02
-1.966197931941497245e+03,-1.671553250407171845e+03,-9.329870493843438908e+02,-1.031258010341994350e+03,-1.567441968925634228e+03,-1.653702093490209791e+03,-9.466462191886178061e+02,-1.140487565429731603e+03,9.370253562927246094e+00,-7.649186849594116211e-01,3.442134261131286621e-01,3.100000000000000000e+02
-1.967682953929067935e+03,-1.667091240938767442e+03,-9.337652545204455237e+02,-1.031428145037806189e+03,-1.567381557542854125e+03,-1.655758667530758203e+03,-9.487886742175833206e+02,-1.139510834884078349e+03,9.370253562927246094e+00,-7.649186849594116211e-01,3.442134261131286621e-01,3.110000000000000000e+02
-1.967537277764023884e+03,-1.663710453300514473e+03,-9.331547835634272587e+02,-1.032120503434879538e+03,-1.566391465855528622e+03,-1.657207450116636210e+03,-9.499820536430596576e+02,-1.138238260744536092e+03,9.446745872497558594e+00,-6.119350194931030273e-01,3.059675097465515137e-01,3.120000000000000000e+02
-1.965374839728578536e+03,-1.662607611968203400e+03,-9.318889359272304773e+02,-1.033571745777461729e+03,-1.564822079335446460e+03,-1.657885067400479329e+03,-9.498462537949596936e+02,-1.137007149991228744e+03,9.446745872497558594e+00,-6.119350194931030273e-01,3.059675097465515137e-01,3.130000000000000000e+02
-1.961856682018078118e+03,-1.663680671448581279e+03,-9.305256767092911332e+02,-1.035334860493583392e+03,-1.562932456117337551e+03,-1.657943527223781530e+03,-9.486904138065181087e+02,-1.135863179366415807e+03,9.446745872497558594e+00,-6.119350194931030273e-01,3.059675097465515137e-01,3.140000000000000000e+02
-1.958190440451538279e+03,-1.665644833942732021e+03,-9.292961632895240882e+02,-1.036469848413140880e+03,-1.561123869205377559e+03,-1.657392016912998315e+03,-9.472656338531753590e+02,-1.134624101317384202e+03,9.446745872497558594e+00,-6.119350194931030273e-01,3.059675097465515137e-01,3.150000000000000000e+02
-1.955376182595963201e+03,-1.666674865290459593e+03,-9.283774174130107895e+02,-1.036205629724643359e+03,-1.559927322719647464e+03,-1.655902219091690768e+03,-9.462833265768531419e+02,-1.133042655181882992e+03,9.446745872497558594e+00,-6.119350194931030273e-01,3.059675097465515137e-01,3.160000000000000000e+02
-1.953612572521156835e+03,-1.665240353998492992e+03,-9.279529673107053895e+02,-1.034412713886111305e+03,-1.559450520224043430e+03,-1.653042698938845660e+03,-9.458460403313132474e+02,-1.130789438660435280e+03,9.446745872497558594e+00,-6.119350194931030273e-01,3.059675097465515137e-01,3.170000000000000000e+02
-1.952224792578416555e+03,-1.660754876443354533e+03,-9.278608535817004395e+02,-1.031460353267503706e+03,-1.558818150310276451e+03,-1.648658048894839794e+03,-9.451681121568916524e+02,-1.127379295999198348e+03,9.446745872497558594e+00,-6.119350194931030273e-01,3.059675097465515137e-01,3.180000000000000000e+02
-1.950198629121866134e+03,-1.653762442020964045e+03,-9.273917852410490923e+02,-1.027753371730342224e+03,-1.556494790364957908e+03,-1.643057799437009180e+03,-9.430274607880014628e+02,-1.122435474879088588e+03,9.446745872497558594e+00,-6.119350194931030273e-01,3.059675097465515137e-01,3.190000000000000000e+02
-1.946942334790440100e+03,-1.645616409723682182e+03,-9.257893393153088937e+02,-1.023563286959320294e+03,-1.551587713597042239e+03,-1.636945800958788595e+03,-9.388559000212951560e+02,-1.116337302562701780e+03,9.446745872497558594e+00,-6.119350194931030273e-01,3.059675097465515137e-01,3.200000000000000000e+02
-1.942632727978297225e+03,-1.637854672450933776e+03,-9.231535487405458298e+02,-1.019340069871498486e+03,-1.545020907685087877e+03,-1.631221282923934723e+03,-9.336054195034574832e+02,-1.110642855982898936e+03,9.446745872497558594e+00,-6.119350194931030273e-01,3.059675097465515137e-01,3.210000000000000000e+02
-1.937809886076515795e+03,-1.631611109780009883e+03,-9.207395318044206078e+02,-1.015996871542568329e+03,-1.539263428015828595e+03,-1.626715927532060050e+03,-9.294137258140838185e+02,-1.107535836863757595e+03,9.446745872497558594e+00,-6.119350194931030273e-01,3.059675097465515137e-01,3.220000000000000000e+02
-1.932613880909850423e+03,-1.627352738587905151e+03,-9.200696677081682537e+02,-1.014607046183854663e+03,-1.536558794747050570e+03,-1.623872852634319997e+03,-9.280599463013854802e+02,-1.108378672632990401e+03,9.446745872497558594e+00,-6.119350194931030273e-01,3.059675097465515137e-01,3.230000000000000000e+02
-1.926494027325716615e+03,-1.624991942596311446e+03,-9.215363275751021774e+02,-1.015634351017750191e+03,-1.537147207576240362e+03,-1.622484414634387576e+03,-9.294468773668581889e+02,-1.112496874014624609e+03,9.446745872497558594e+00,-6.119350194931030273e-01,3.059675097465515137e-01,3.240000000000000000e+02
-1.918803556518931600e+03,-1.624137675031839535e+03,-9.238416393853053705e+02,-1.018422510291209164e+03,-1.539096116398020968e+03,-1.621693648291135105e+03,-9.315029014872644666e+02,-1.117348112654811530e+03,9.446745872497558594e+00,-6.119350194931030273e-01,3.059675097465515137e-01,3.250000000000000000e+02
-1.909768164679790971e+03,-1.624211093964339398e+03,-9.249011976923866314e+02,-1.021497108008654209e+03,-1.539850831758623599e+03,-1.620355276952770510e+03,-9.316631821761197898e+02,-1.120071536080732130e+03,9.446745872497558594e+00,-6.119350194931030273e-01,3.059675097465515137e-01,3.260000000000000000e+02
-1.900820146198318525e+03,-1.624387425824819275e+03,-9.234240023316374391e+02,-1.023441146286850085e+03,-1.538012216006486369e+03,-1.617555465648778409e+03,-9.286337908793111637e+02,-1.119150385851386091e+03,9.446745872497558594e+00,-6.119350194931030273e-01,3.059675097465515137e-01,3.270000000000000000e+02
-1.893806862827234909e+03,-1.623626389134352394e+03,-9.197593210385255134e+02,-1.023585711044649429e+03,-1.533784101762177670e+03,-1.612941651410326131e+03,-9.229427989744042407e+02,-1.114873804558995744e+03,9.446745872497558594e+00,-6.119350194931030273e-01,3.059675097465515137e-01,3.280000000000000000e+02
-1.889654053567160418e+03,-1.621031618499432398e+03,-9.153760046911063455e+02,-1.022042454436250182e+03,-1.528011752589791968e+03,-1.606693792622487763e+03,-9.160461540073807782e+02,-1.108483109795746941e+03,9.446745872497558594e+00,-6.119350194931030273e-01,3.059675097465515137e-01,3.290000000000000000e+02
-1.887641644306162561e+03,-1.616387901071781698e+03,-9.116313873078029246e+02,-1.019284058512681213e+03,-1.521120236813918382e+03,-1.599275527279657581e+03,-9.090970490184577102e+02,-1.101068412863815411e+03,9.446745872497558594e+00,-6.119350194931030273e-01,3.059675097465515137e-01,3.300000000000000000e+02
-1.885886366585717724e+03,-1.610367551924082136e+03,-9.089587217288651573e+02,-1.015784712544601120e+03,-1.513081025770909946e+03,-1.591211310740522549e+03,-9.025313941275671823e+02,-1.093265889452777856e+03,9.446745872497558594e+00,-6.119350194931030273e-01,3.059675097465515137e-01,3.310000000000000000e+02
-1.882518585534249723e+03,-1.604062070256095240e+03,-9.069463922181976159e+02,-1.011939073064614149e+03,-1.504173298498891882e+03,-1.582976606514273271e+03,-8.965006946251536419e+02,-1.085708495747104280e+03,9.446745872497558594e+00,-6.119350194931030273e-01,3.059675097465515137e-01,3.320000000000000000e+02
-1.876553643000528155e+03,-1.598150254042394408e+03,-9.048858818493391709e+02,-1.008090650536619023e+03,-1.495410063440868271e+03,-1.574946462590023657e+03,-8.912931612932077314e+02,-1.079349312511952803e+03,9.446745872497558594e+00,-6.119350194931030273e-01,3.059675097465515137e-01,3.330000000000000000e+02
-1.867982621981709144e+03,-1.592473414149559403e+03,-9.021970018379320209e+02,-1.004493495203936618e+03,-1.488016183907254344e+03,-1.567386554912506199e+03,-8.871614055335721787e+02,-1.075096200390572221e+03,9.446745872497558594e+00,-6.119350194931030273e-01,3.059675097465515137e-01,3.340000000000000000e+02
-1.857432844048664720e+03,-1.586467522029680822e+03,-8.986009642557382904e+02,-1.001288341614799492e+03,-1.482557687840232347e+03,-1.560522731437413768e+03,-8.839217776132045401e+02,-1.073170010048364475e+03,9.446745872497558594e+00,-6.119350194931030273e-01,3.059675097465515137e-01,3.350000000000000000e+02
-1.845955190763875180e+03,-1.580017711915760628e+03,-8.942327619873817639e+02,-9.986261321937840876e+02,-1.478713260116159290e+03,-1.554645990436611555e+03,-8.810309585584612933e+02,-1.072999026554108241e+03,9.446745872497558594e+00,-6.119350194931030273e-01,3.059675097465515137e-01,3.360000000000000000e+02
-1.834983801539974820e+03,-1.573775935873329217e+03,-8.896882705075236117e+02,-9.967926386875867593e+02,-1.475837741800868571e+03,-1.550058179609412718e+03,-8.781605248481248509e+02,-1.073779088053837768e+03,9.446745872497558594e+00,-6.119350194931030273e-01,3.059675097465515137e-01,3.370000000000000000e+02
-1.826026777398622926e+03,-1.568476345197593673e+03,-8.857399971717602511e+02,-9.960205828868029130e+02,-1.473517954617550686e+03,-1.546733154172819013e+03,-8.755199224386526566e+02,-1.074974221250062101e+03,9.446745872497558594e+00,-6.119350194931030273e-01,3.059675097465515137e-01,3.380000000000000000e+02
-1.819892073905639563e+03,-1.563885383577939137e+03,-8.827077736033536439e+02,-9.959943520799339467e+02,-1.471414750416863626e+03,-1.543919942718479888e+03,-8.733676189424796803e+02,-1.076083829542862986e+03,9.446745872497558594e+00,-6.119350194931030273e-01,3.059675097465515137e-01,3.390000000000000000e+02
-1.815974879936939715e+03,-1.558568062214573729e+03,-8.800304498189398146e+02,-9.955463521172617902e+02,-1.468699178331823759e+03,-1.540153245035475038e+03,-8.711783083176044329e+02,-1.075982713592351729e+03,9.446745872497558594e+00,-6.119350194931030273e-01,3.059675097465515137e-01,3.400000000000000000e+02
-1.812386655893224543e+03,-1.550958417062852277e+03,-8.766704395476224363e+02,-9.930938890318849417e+02,-1.464057853621770391e+03,-1.533915922811866267e+03,-8.675761922852918815e+02,-1.072891758055426862e+03,9.446745872497558594e+00,-6.119350194931030273e-01,3.059675097465515137e-01,3.410000000000000000e+02
-1.807091140346686643e+03,-1.540887554070038505e+03,-8.722011787990932135e+02,-9.877354570112388501e+02,-1.456650317695701915e+03,-1.524609917403565760e+03,-8.614634182668282847e+02,-1.065522957534043144e+03,9.446745872497558594e+00,-6.119350194931030273e-01,3.059675097465515137e-01,3.420000000000000000e+02
-1.799234285648833975e+03,-1.530112559524673316e+03,-8.675643907163930635e+02,-9.801724472789284164e+02,-1.447186208153286771e+03,-1.513108384301715432e+03,-8.534172358117868953e+02,-1.054608936753462331e+03,9.484992027282714844e+00,-6.884268522262573242e-01,2.677215635776519775e-01,3.430000000000000000e+02
-1.789569076175693681e+03,-1.521184193645608048e+03,-8.645579125984152142e+02,-9.725690174843598470e+02,-1.437898251599650166e+03,-1.501416203903937458e+03,-8.458750847468188567e+02,-1.043283567480751572e+03,9.484992027282714844e+00,-6.884268522262573242e-01,2.677215635776519775e-01,3.440000000000000000e+02
-1.779675457438811918e+03,-1.515534847871582770e+03,-8.643050078006591548e+02,-9.672674574230293274e+02,-1.431176111654732267e+03,-1.491625199449493721e+03,-8.416197210929169614e+02,-1.035568369216330893e+03,9.484992027282714844e+00,-6.884268522262573242e-01,2.677215635776519775e-01,3.450000000000000000e+02
-1.770743420580929978e+03,-1.512437622495755477e+03,-8.660842888392755867e+02,-9.652650362679099771e+02,-1.427958633408504056e+03,-1.484851970140030062e+03,-8.417037035900125375e+02,-1.033878950180607717e+03,9.484992027282714844e+00,-6.884268522262573242e-01,2.677215635776519775e-01,3.460000000000000000e+02
-1.762946633764037188e+03,-1.509702970426012143e+03,-8.676921059967727388e+02,-9.656075027066567600e+02,-1.427230843296267267e+03,-1.480784093213251481e+03,-8.445674141683497282e+02,-1.037425790449107353e+03,9.484992027282714844e+00,-6.884268522262573242e-01,2.677215635776519775e-01,3.470000000000000000e+02
-1.755699106823681404e+03,-1.505434314425570392e+03,-8.670782593169454913e+02,-9.661298183691519625e+02,-1.426891304590686104e+03,-1.477996338528227625e+03,-8.470946161475767440e+02,-1.042708177161695403e+03,9.484992027282714844e+00,-6.884268522262573242e-01,2.677215635776519775e-01,3.480000000000000000e+02
-1.748252004812407449e+03,-1.499285282164512182e+03,-8.637479200247281597e+02,-9.649293637856028454e+02,-1.425032138303259217e+03,-1.474742654186522941e+03,-8.466728971682605334e+02,-1.045643219690116211e+03,9.484992027282714844e+00,-6.884268522262573242e-01,2.677215635776519775e-01,3.490000000000000000e+02
-1.739981498035582490e+03,-1.492243143692310696e+03,-8.586648995940961413e+02,-9.614413183101303275e+02,-1.420564578146348367e+03,-1.469747989432187751e+03,-8.425843778591138289e+02,-1.043712385752413866e+03,9.484992027282714844e+00,-6.884268522262573242e-01,2.677215635776519775e-01,3.500000000000000000e+02
-1.730318061196124745e+03,-1.485355572378495253e+03,-8.529293988890448190e+02,-9.564091094662753676e+02,-1.413079460662787369e+03,-1.462635295316498741e+03,-8.358446897742728652e+02,-1.036792431337387825e+03,9.484992027282714844e+00,-6.884268522262573242e-01,2.677215635776519775e-01,3.510000000000000000e+02
-1.718771953728603876e+03,-1.478683136042840488e+03,-8.467082744735562301e+02,-9.509550930602392782e+02,-1.402661699169301301e+03,-1.453859972098831122e+03,-8.280196392516722881e+02,-1.026560176042563853e+03,9.484992027282714844e+00,-6.884268522262573242e-01,2.677215635776519775e-01,3.520000000000000000e+02
-1.705276112364935216e+03,-1.471384712793916151e+03,-8.395215103736248921e+02,-9.456247552029051349e+02,-1.390131484324798294e+03,-1.444284813060553688e+03,-8.202363585537816562e+02,-1.015328693024951008e+03,9.484992027282714844e+00,-6.884268522262573242e-01,2.677215635776519775e-01,3.530000000000000000e+02
-1.690505841575452223e+03,-1.462708290673324655e+03,-8.314569992077456391e+02,-9.401864539243166519e+02,-1.377303237273788227e+03,-1.434710203525084580e+03,-8.130679608619002465e+02,-1.005161139226171144e+03,9.484992027282714844e+00,-6.884268522262573242e-01,2.677215635776519775e-01,3.540000000000000000e+02
-1.675658544574435382e+03,-1.452875773780057898e+03,-8.238280520168027579e+02,-9.342339751963105527e+02,-1.366474820250013181e+03,-1.425641159166272246e+03,-8.069547665409972979e+02,-9.974590375441546257e+02,9.484992027282714844e+00,-6.884268522262573242e-01,2.677215635776519775e-01,3.550000000000000000e+02
-1.661699148677521634e+03,-1.443068674608447509e+03,-8.183713750341462401e+02,-9.279214702085134832e+02,-1.359108384308818131e+03,-1.417330031678392743e+03,-8.023983001350243285e+02,-9.927620573784349745e+02,9.484992027282714844e+00,-6.884268522262573242e-01,2.677215635776519775e-01,3.560000000000000000e+02
-1.648688538773511254e+03,-1.434581131750416262e+03,-8.156900998482965406e+02,-9.220716674511850215e+02,-1.354714346176976733e+03,-1.409874604042688134e+03,-7.996134863327822586e+02,-9.905901820226519021e+02,9.484992027282714844e+00,-6.884268522262573242e-01,2.677215635776519775e-01,3.570000000000000000e+02
-1.635826695947858070e+03,-1.427891212360492091e+03,-8.145487717775952206e+02,-9.175308323658694007e+02,-1.351066952394792224e+03,-1.403180696940688449e+03,-7.980671743624164947e+02,-9.895077418129453690e+02,9.484992027282714844e+00,-6.884268522262573242e-01,2.677215635776519775e-01,3.580000000000000000e+02
-1.622166513993070112e+03,-1.422377587520567886e+03,-8.128076626483371001e+02,-9.143688673192383476e+02,-1.345759461071668966e+03,-1.396837678633882888e+03,-7.965138029720490067e+02,-9.876388690455341930e+02,9.484992027282714844e+00,-6.884268522262573242e-01,2.677215635776519775e-01,3.590000000000000000e+02
-1.607310986556203943e+03,-1.416803470623101020e+03,-8.091349626643636839e+02,-9.116791633006534994e+02,-1.337853227685241336e+03,-1.390142034228640341e+03,-7.936448451873677641e+02,-9.835106740526211979e+02,9.484992027282714844e+00,-6.884268522262573242e-01,2.677215635776519775e-01,3.600000000000000000e+02
-1.591489157652462382e+03,-1.410108751683734226e+03,-8.038725127156041026e+02,-9.081784295499713835e+02,-1.328263451142912118e+03,-1.382391703348562942e+03,-7.888587353367380501e+02,-9.767236632943734094e+02,9.484992027282714844e+00,-6.884268522262573242e-01,2.677215635776519775e-01,3.610000000000000000e+02
-1.575116098000805096e+03,-1.401955074241923512e+03,-7.983270774516032589e+02,-9.030832068928497165e+02,-1.318665860563481601e+03,-1.373269103264245359e+03,-7.825399009777636365e+02,-9.679940900787000828e+02,9.484992027282714844e+00,-6.884268522262573242e-01,2.677215635776519775e-01,3.620000000000000000e+02
-1.558446487079943381e+03,-1.392779394509748954e+03,-7.933608058028925143e+02,-8.965567188080801770e+02,-1.310020454487965708e+03,-1.363010981562318420e+03,-7.756901846522036976e+02,-9.586022390607020043e+02,9.484992027282714844e+00,-6.884268522262573242e-01,2.677215635776519775e-01,3.630000000000000000e+02
-1.541730381965621746e+03,-1.383446156605879423e+03,-7.887414656828102579e+02,-8.894688967495783345e+02,-1.302000244736703962e+03,-1.352239978821653040e+03,-7.692694810447117106e+02,-9.497092791035356640e+02,9.523238182067871094e+00,-6.119350194931030273e-01,2.294756323099136353e-01,3.640000000000000000e+02
-1.525610492013153589e+03,-1.374745482921606708e+03,-7.837595601111169117e+02,-8.827818238801819462e+02,-1.293633104348541337e+03,-1.341623479753395486e+03,-7.637412733473718163e+02,-9.420080943826565090e+02,9.523238182067871094e+00,-6.119350194931030273e-01,2.294756323099136353e-01,3.650000000000000000e+02
-1.511129096113989817e+03,-1.366970691354011706e+03,-7.782537140665331208e+02,-8.770492060329345350e+02,-1.284372086430840682e+03,-1.331628079871845102e+03,-7.590396155996700145e+02,-9.357881720251612023e+02,9.523238182067871094e+00,-6.119350194931030273e-01,2.294756323099136353e-01,3.660000000000000000e+02
-1.499092096267582747e+03,-1.359762526135186818e+03,-7.728735974102728505e+02,-8.722560222168599466e+02,-1.274609699052236238e+03,-1.322468296060463899e+03,-7.548223238097698413e+02,-9.311240660579858286e+02,9.523238182067871094e+00,-6.119350194931030273e-01,2.294756323099136353e-01,3.670000000000000000e+02
-1.489291684767154493e+03,-1.352316678180654662e+03,-7.683820827207239290e+02,-8.679133885399523933e+02,-1.265339618970115680e+03,-1.314144482626891431e+03,-7.507430381839178608e+02,-9.278679072894026376e+02,9.523238182067871094e+00,-6.119350194931030273e-01,2.294756323099136353e-01,3.680000000000000000e+02
-1.480393456615430750e+03,-1.343895235214563172e+03,-7.648758278669531592e+02,-8.632751769887327100e+02,-1.257430311767739568e+03,-1.306462766201564591e+03,-7.465775643546865012e+02,-9.254605851171197628e+02,9.523238182067871094e+00,-6.119350194931030273e-01,2.294756323099136353e-01,3.690000000000000000e+02
-1.470758923065442559e+03,-1.334336855608596125e+03,-7.617775574508068530e+02,-8.576372105599580209e+02,-1.251099959277022663e+03,-1.299044251524814626e+03,-7.422052687297377815e+02,-9.228756466485510828e+02,9.523238182067871094e+00,-6.119350194931030273e-01,2.294756323099136353e-01,3.700000000000000000e+02
-1.459588755707773998e+03,-1.324179301331684655e+03,-7.584905738696011213e+02,-8.506791448325682268e+02,-1.245806584573198961e+03,-1.291398677132511693e+03,-7.375392067238979052e+02,-9.189611071508452369e+02,9.523238182067871094e+00,-6.119350194931030273e-01,2.294756323099136353e-01,3.710000000000000000e+02
-1.447414142435147369e+03,-1.314262403447386077e+03,-7.548990046265073488e+02,-8.426790976606644108e+02,-1.240479065557238073e+03,-1.283093833088904603e+03,-7.325159824560923880e+02,-9.130646784119314816e+02,9.523238182067871094e+00,-6.119350194931030273e-01,2.294756323099136353e-01,3.720000000000000000e+02
-1.435493038267223710e+03,-1.305102538000428467e+03,-7.512151966759201969e+02,-8.343967560186704304e+02,-1.233976682751467706e+03,-1.273954303059300400e+03,-7.271768022139615368e+02,-9.054633992997264613e+02,9.523238182067871094e+00,-6.119350194931030273e-01,2.294756323099136353e-01,3.730000000000000000e+02
-1.424625930741879984e+03,-1.296536004615611546e+03,-7.474786034722535533e+02,-8.266485402126866120e+02,-1.225660554097074510e+03,-1.264185725428329306e+03,-7.217441030273394063e+02,-8.971914393803765506e+02,9.523238182067871094e+00,-6.119350194931030273e-01,2.294756323099136353e-01,3.740000000000000000e+02
-1.414423083017199133e+03,-1.287918773865627827e+03,-7.433683625132480302e+02,-8.198808868795929357e+02,-1.215809519589095771e+03,-1.254324305845000026e+03,-7.165504475661803099e+02,-8.893334036851231303e+02,9.523238182067871094e+00,-6.119350194931030273e-01,2.294756323099136353e-01,3.750000000000000000e+02
-1.403613175250243103e+03,-1.278694478102978110e+03,-7.385165224825257155e+02,-8.140554658126811773e+02,-1.205497472501721404e+03,-1.244978636174113490e+03,-7.117932499229568748e+02,-8.823303832917829368e+02,9.523238182067871094e+00,-6.119350194931030273e-01,2.294756323099136353e-01,3.760000000000000000e+02
-1.391058104191410166e+03,-1.268835698442114108e+03,-7.328632975238506333e+02,-8.088700025625128092e+02,-1.195844821838325288e+03,-1.236461090942071678e+03,-7.073001768013441506e+02,-8.758701385802328332e+02,9.523238182067871094e+00,-6.119350194931030273e-01,2.294756323099136353e-01,3.770000000000000000e+02
-1.376555636016143126e+03,-1.258844539455242057e+03,-7.266148798304573120e+02,-8.040705926154446388e+02,-1.187178906936213025e+03,-1.228564704099435403e+03,-7.026046100849093818e+02,-8.694309987808428559e+02,9.523238182067871094e+00,-6.119350194931030273e-01,2.294756323099136353e-01,3.780000000000000000e+02
-1.360799803597672508e+03,-1.249404009206099772e+03,-7.199374114310760433e+02,-7.995823805918626022e+02,-1.178863387073395415e+03,-1.220725040729788361e+03,-6.973791766181493585e+02,-8.629415872261056393e+02,9.523238182067871094e+00,-6.119350194931030273e-01,2.294756323099136353e-01,3.790000000000000000e+02
-1.344731330373077753e+03,-1.241011857114410759e+03,-7.128683029383180383e+02,-7.954031436188060979e+02,-1.170018502377348341e+03,-1.212511115191471845e+03,-6.918633199004423204e+02,-8.568932982363662632e+02,9.523238182067871094e+00,-6.119350194931030273e-01,2.294756323099136353e-01,3.800000000000000000e+02
-1.329031463241555457e+03,-1.233823444051363367e+03,-7.056032468183218498e+02,-7.914321160231022532e+02,-1.160498028841040195e+03,-1.204029284905351233e+03,-6.867982844572193244e+02,-8.517862967606583879e+02,9.523238182067871094e+00,-6.119350194931030273e-01,2.294756323099136353e-01,3.810000000000000000e+02
-1.314204539387129671e+03,-1.227645447817139257e+03,-6.987589050084407063e+02,-7.874081487496437148e+02,-1.151168022214657412e+03,-1.195812399683161175e+03,-6.827869548841501910e+02,-8.474844172100176820e+02,9.523238182067871094e+00,-6.119350194931030273e-01,2.294756323099136353e-01,3.820000000000000000e+02
-1.300939034862283279e+03,-1.221933134840041703e+03,-6.931492977510451965e+02,-7.830020928316371283e+02,-1.143163162327414511e+03,-1.188236990996412715e+03,-6.796093697763421915e+02,-8.431791725794562353e+02,9.523238182067871094e+00,-6.119350194931030273e-01,2.294756323099136353e-01,3.830000000000000000e+02
-1.290086611155537867e+03,-1.215817653886741027e+03,-6.891459815194443763e+02,-7.779813581980727122e+02,-1.136795436096339699e+03,-1.181037592388878238e+03,-6.761699124544045389e+02,-8.380493977220428405e+02,9.523238182067871094e+00,-6.119350194931030273e-01,2.294756323099136353e-01,3.840000000000000000e+02
-1.282048957524076286e+03,-1.208334437161654932e+03,-6.862214311466677827e+02,-7.723264227871538878e+02,-1.131139777707773192e+03,-1.173460668743382485e+03,-6.712292288395601645e+02,-8.319602871871284151e+02,9.523238182067871094e+00,-6.119350194931030273e-01,2.294756323099136353e-01,3.850000000000000000e+02
-1.276136226634956301e+03,-1.198899685069960924e+03,-6.831565454812657663e+02,-7.662218663516107426e+02,-1.124659623890955572e+03,-1.164957436532710290e+03,-6.643184080080770855e+02,-8.254661829544302236e+02,9.523238182067871094e+00,-6.119350194931030273e-01,2.294756323099136353e-01,3.860000000000000000e+02
-1.270709997931235648e+03,-1.187751234631859234e+03,-6.787721009321935526e+02,-7.599026175926528595e+02,-1.116258356266128658e+03,-1.155715296070481145e+03,-6.560334631017653919e+02,-8.190895627586851333e+02,9.523238182067871094e+00,-6.119350194931030273e-01,2.294756323099136353e-01,3.870000000000000000e+02
-1.264259433579741653e+03,-1.175943277721509730e+03,-6.725969929183056593e+02,-7.534589204488686391e+02,-1.105838567932197520e+03,-1.146456823297701703e+03,-6.475081380200037984e+02,-8.126457787301123972e+02,9.523238182067871094e+00,-6.119350194931030273e-01,2.294756323099136353e-01,3.880000000000000000e+02
-1.256596423538550198e+03,-1.164748435250932744e+03,-6.650252163398313314e+02,-7.467770118386961258e+02,-1.094032185220546580e+03,-1.137692496479390229e+03,-6.396048649691117589e+02,-8.053780522738129548e+02,9.484992027282714844e+00,-7.266727685928344727e-01,2.677215635776519775e-01,3.890000000000000000e+02
-1.249054984806196899e+03,-1.154827298801489633e+03,-6.569728690242263838e+02,-7.396952065446575943e+02,-1.081564262265884508e+03,-1.129196585873557979e+03,-6.325416083741681632e+02,-7.968173351399780131e+02,9.484992027282714844e+00,-7.266727685928344727e-01,2.677215635776519775e-01,3.900000000000000000e+02
-1.243368583891285425e+03,-1.145799055630692465e+03,-6.493741490512713881e+02,-7.322515480373999708e+02,-1.068940290908483348e+03,-1.120253763118470943e+03,-6.261609180288833159e+02,-7.875027377545479794e+02,9.484992027282714844e+00,-7.266727685928344727e-01,2.677215635776519775e-01,3.910000000000000000e+02
-1.240085153522110886e+03,-1.136569169137397694e+03,-6.427688848109419268e+02,-7.247484118382521956e+02,-1.056584623481082872e+03,-1.110391336955827683e+03,-6.203572133166976528e+02,-7.787404419558574773e+02,9.484992027282714844e+00,-7.266727685928344727e-01,2.677215635776519775e-01,3.920000000000000000e+02
-1.237899342938349946e+03,-1.126191897649023986e+03,-6.371257134990714803e+02,-7.175225880222212709e+02,-1.045056356193199690e+03,-1.099846631900774355e+03,-6.151520604076927157e+02,-7.715604087141534819e+02,9.484992027282714844e+00,-7.266727685928344727e-01,2.677215635776519775e-01,3.930000000000000000e+02
-1.234531290586507112e+03,-1.114611598920852884e+03,-6.319792357966739473e+02,-7.106359384039569704e+02,-1.034956633320904530e+03,-1.089345031314649077e+03,-6.104221735347041431e+02,-7.658558819824247621e+02,9.484992027282714844e+00,-7.266727685928344727e-01,2.677215635776519775e-01,3.940000000000000000e+02
-1.228441495322878154e+03,-1.102694996003575170e+03,-6.268234905440078819e+02,-7.038237222622835816e+02,-1.026530864348811519e+03,-1.079466529373063622e+03,-6.056806951882635985e+02,-7.604954603279109051e+02,9.484992027282714844e+00,-7.266727685928344727e-01,2.677215635776519775e-01,3.950000000000000000e+02
-1.219953358492672123e+03,-1.091547467506658222e+03,-6.215003761626021515e+02,-6.968007785137481278e+02,-1.019348586759767613e+03,-1.070224950911279848e+03,-6.002386963410967837e+02,-7.542507854814900838e+02,9.484992027282714844e+00,-7.266727685928344727e-01,2.677215635776519775e-01,3.960000000000000000e+02
-1.210888058862738035e+03,-1.081690913034708728e+03,-6.162196110088505066e+02,-6.896237698777672449e+02,-1.012389308783906017e+03,-1.061170467901790289e+03,-5.936273182778313640e+02,-7.466398428568136296e+02,9.484992027282714844e+00,-7.266727685928344727e-01,2.677215635776519775e-01,3.970000000000000000e+02
-1.203103808191104690e+03,-1.072766769276099922e+03,-6.111251254943440472e+02,-6.827021352030080834e+02,-1.004514900607186064e+03,-1.051795398835626656e+03,-5.858979000533372528e+02,-7.379789773520813014e+02,9.484992027282714844e+00,-7.266727685928344727e-01,2.677215635776519775e-01,3.980000000000000000e+02
-1.197190897499468974e+03,-1.063954161649694015e+03,-6.058392842912198830e+02,-6.763923971294916555e+02,-9.950373425642274015e+02,-1.041846532822669360e+03,-5.775708415840724683e+02,-7.288126044479477059e+02,9.484992027282714844e+00,-7.266727685928344727e-01,2.677215635776519775e-01,3.990000000000000000e+02
-1.192332840707072592e+03,-1.054676238270919384e+03,-5.995924354765463704e+02,-6.705622061956285052e+02,-9.840810602834876590e+02,-1.031393522760571159e+03,-5.693607433970018974e+02,-7.194705993409147595e+02,9.484992027282714844e+00,-7.266727685928344727e-01,2.677215635776519775e-01,4.000000000000000000e+02
-1.187253620664774644e+03,-1.044966544231309854e+03,-5.920305411792455743e+02,-6.646024757916106864e+02,-9.725965462011167801e+02,-1.020760542962309955e+03,-5.619551428194570235e+02,-7.102257887605492215e+02,9.484992027282714844e+00,-7.266727685928344727e-01,2.677215635776519775e-01,4.010000000000000000e+02
-1.181290749376438725e+03,-1.035247984388133318e+03,-5.840018381503309683e+02,-6.579533342982595059e+02,-9.620149268091336126e+02,-1.010428517020277013e+03,-5.559530522101501901e+02,-7.017504976420259482e+02,9.484992027282714844e+00,-7.266727685928344727e-01,2.677215635776519775e-01,4.020000000000000000e+02
-1.174684510341021451e+03,-1.025853108898763367e+03,-5.773988185106165929e+02,-6.507039370954751121e+02,-9.536403252071781935e+02,-1.000888705816662423e+03,-5.518285472162394854e+02,-6.951652494719392053e+02,9.484992027282714844e+00,-7.266727685928344727e-01,2.677215635776519775e-01,4.030000000000000000e+02
-1.167999297018290235e+03,-1.016814195535771432e+03,-5.738800409165758083e+02,-6.437066876172998491e+02,-9.479798854348287023e+02,-9.924293055875373284e+02,-5.497565687733422237e+02,-6.913780508595323226e+02,9.484992027282714844e+00,-7.266727685928344727e-01,2.677215635776519775e-01,4.040000000000000000e+02
-1.161347616473830385e+03,-1.008073341064788565e+03,-5.734203246195165775e+02,-6.380360527818477294e+02,-9.443234174971266839e+02,-9.849510819557376635e+02,-5.493368402756300384e+02,-6.901761406045889089e+02,9.484992027282714844e+00,-7.266727685928344727e-01,2.677215635776519775e-01,4.050000000000000000e+02
-1.154148185527798887e+03,-9.997605930341060230e+02,-5.739740286654525789e+02,-6.341825106267058345e+02,-9.408643453504164427e+02,-9.779589039773895820e+02,-5.494525769486708668e+02,-6.898860711194292890e+02,9.484992027282714844e+00,-7.266727685928344727e-01,2.677215635776519775e-01,4.060000000000000000e+02
-1.145571525108663536e+03,-9.921184454107194597e+02,-5.726809322289686861e+02,-6.316115566586511250e+02,-9.354440232146225753e+02,-9.707698790755671325e+02,-5.485181007549392689e+02,-6.880497518140714419e+02,9.484992027282714844e+00,-7.266727685928344727e-01,2.677215635776519775e-01,4.070000000000000000e+02
-1.135225547407918839e+03,-9.851093089728851737e+02,-5.677332351912236845e+02,-6.290454423257824601e+02,-9.266533693234150633e+02,-9.628242250553594204e+02,-5.451464226359689746e+02,-6.827933702621812699e+02,9.484992027282714844e+00,-7.266727685928344727e-01,2.677215635776519775e-01,4.080000000000000000e+02
-1.123519850607563058e+03,-9.781727650130669645e+02,-5.594666779452074934e+02,-6.252827968748454168e+02,-9.147056815919945620e+02,-9.539443307696392367e+02,-5.389424888248363459e+02,-6.740172431116584448e+02,9.484992027282714844e+00,-7.266727685928344727e-01,2.677215635776519775e-01,4.090000000000000000e+02
-1.111487453723322233e+03,-9.705077754986086802e+02,-5.499299797454566487e+02,-6.199519878455662365e+02,-9.015033352979507981e+02,-9.444414852624299783e+02,-5.309028915318344843e+02,-6.635819337232114776e+02,9.484992027282714844e+00,-7.266727685928344727e-01,2.677215635776519775e-01,4.100000000000000000e+02
-1.100244395945444921e+03,-9.616839086332297484e+02,-5.414299277318850727e+02,-6.136345893245727439e+02,-8.897226885850541294e+02,-9.350058253263082406e+02,-5.230204948881141718e+02,-6.542764292918636784e+02,9.484992027282714844e+00,-7.266727685928344727e-01,2.677215635776519775e-01,4.110000000000000000e+02
-1.090425656795727264e+03,-9.519900908853314832e+02,-5.352284713209216989e+02,-6.072966261371702785e+02,-8.813480673345015930e+02,-9.263489785417800704e+02,-5.171675830140015933e+02,-6.481350624291344502e+02,9.484992027282714844e+00,-7.266727685928344727e-01,2.677215635776519775e-01,4.120000000000000000e+02
-1.081879022061201795e+03,-9.421605273594223036e+02,-5.311923765211670343e+02,-6.015342472292604725e+02,-8.765358004319905376e+02,-9.187369322119193384e+02,-5.139248459937175539e+02,-6.451798927950981124e+02,9.484992027282714844e+00,-7.266727685928344727e-01,2.677215635776519775e-01,4.130000000000000000e+02
-1.073738839283683774e+03,-9.327543522871728783e+02,-5.282957213989420779e+02,-5.962607511135665845e+02,-8.735527315079925756e+02,-9.117299145313745612e+02,-5.121929014245361031e+02,-6.434685496767251607e+02,9.484992027282714844e+00,-7.266727685928344727e-01,2.677215635776519775e-01,4.140000000000000000e+02
-1.064850345529025162e+03,-9.238018967138045809e+02,-5.253415832694311121e+02,-5.910148545866704808e+02,-8.698475874852401830e+02,-9.044078401860442682e+02,-5.099238703282799179e+02,-6.404560198401368325e+02,9.484992027282714844e+00,-7.266727685928344727e-01,2.677215635776519775e-01,4.150000000000000000e+02
-1.054348491374642435e+03,-9.150149644878856634e+02,-5.214271940471041944e+02,-5.854829641984765658e+02,-8.635352139796104893e+02,-8.959903188197586132e+02,-5.054699595026982024e+02,-6.346831125793960382e+02,9.446745872497558594e+00,-6.501809358596801758e-01,1.912296712398529053e-01,4.160000000000000000e+02
-1.042086177884654717e+03,-9.062461885803691075e+02,-5.161062156825455531e+02,-5.796755764514541625e+02,-8.542918858283360350e+02,-8.863671170936304406e+02,-4.985655107714833321e+02,-6.265006618093216275e+02,9.446745872497558594e+00,-6.501809358596801758e-01,1.912296712398529053e-01,4.170000000000000000e+02
-1.028674767880822401e+03,-8.976643588016208923e+02,-5.094303781682137924e+02,-5.736508574701283578e+02,-8.431539974241222808e+02,-8.760728484803594256e+02,-4.902744381747243096e+02,-6.173334379075604375e+02,9.446745872497558594e+00,-6.501809358596801758e-01,1.912296712398529053e-01,4.180000000000000000e+02
-1.015149633638273372e+03,-8.895088998789983634e+02,-5.019339493938794021e+02,-5.672358740089393905e+02,-8.315840390706384824e+02,-8.657530971910819062e+02,-4.821090554160855390e+02,-6.082772055683335566e+02,9.446745872497558594e+00,-6.501809358596801758e-01,1.912296712398529053e-01,4.190000000000000000e+02
-1.002505058651668151e+03,-8.817771995480125042e+02,-4.944481102750416994e+02,-5.601932212695592170e+02,-8.206365321159269115e+02,-8.556759509706935205e+02,-4.751195015906628214e+02,-5.993994497243752448e+02,9.446745872497558594e+00,-6.501809358596801758e-01,1.912296712398529053e-01,4.200000000000000000e+02
-9.913446605425833695e+02,-8.742432581130151448e+02,-4.877348831992446776e+02,-5.527210640355256146e+02,-8.107912584741311548e+02,-8.457813809952608608e+02,-4.695966858575843617e+02,-5.903842535439757739e+02,9.446745872497558594e+00,-6.501809358596801758e-01,1.912296712398529053e-01,4.210000000000000000e+02
-9.817197453959861377e+02,-8.667900405379014046e+02,-4.821735970916338374e+02,-5.456788078756580944e+02,-8.023198945180497503e+02,-8.361573874585487829e+02,-4.653675586665558512e+02,-5.817287224752340080e+02,9.446745872497558594e+00,-6.501809358596801758e-01,1.912296712398529053e-01,4.220000000000000000e+02
-9.730869999586943777e+02,-8.596455221829569382e+02,-4.777419503464770969e+02,-5.401144881370955773e+02,-7.955710350521744658e+02,-8.273481669864249852e+02,-4.621635751890871688e+02,-5.750191766549473869e+02,9.446745872497558594e+00,-6.501809358596801758e-01,1.912296712398529053e-01,4.230000000000000000e+02
-9.643988424217495776e+02,-8.532102705112588410e+02,-4.742295217593832604e+02,-5.364030586259787015e+02,-7.907383751585307436e+02,-8.200491716978049226e+02,-4.596577899666926896e+02,-5.716895130842158324e+02,9.446745872497558594e+00,-6.501809358596801758e-01,1.912296712398529053e-01,4.240000000000000000e+02
-9.544724458807068004e+02,-8.476176025784011472e+02,-4.713774240438442575e+02,-5.338003750461657546e+02,-7.873167700612902991e+02,-8.144036353819201395e+02,-4.572761038179614843e+02,-5.713139950059662624e+02,9.446745872497558594e+00,-6.501809358596801758e-01,1.912296712398529053e-01,4.250000000000000000e+02
-9.426519934718999139e+02,-8.424710227643113285e+02,-4.687761362418077624e+02,-5.308910731819050852e+02,-7.838807724885514290e+02,-8.095887619952918612e+02,-4.541909046020887217e+02,-5.712064130063877201e+02,9.446745872497558594e+00,-6.501809358596801758e-01,1.912296712398529053e-01,4.260000000000000000e+02
-9.293841061801485921e+02,-8.370294600855954741e+02,-4.657507699602092544e+02,-5.265770662398144850e+02,-7.786340750585800379e+02,-8.041772165679603859e+02,-4.497104483422940575e+02,-5.680648678821085014e+02,9.446745872497558594e+00,-6.501809358596801758e-01,1.912296712398529053e-01,4.270000000000000000e+02
-9.161357107657986489e+02,-8.306939791548984431e+02,-4.616101870298771246e+02,-5.207745576259776499e+02,-7.704952297079917116e+02,-7.970663340978148881e+02,-4.438164861292279966e+02,-5.604617448550811787e+02,9.446745872497558594e+00,-6.501809358596801758e-01,1.912296712398529053e-01,4.280000000000000000e+02
-9.044707437190186283e+02,-8.233938089012617638e+02,-4.562444552422984998e+02,-5.142860131771908527e+02,-7.599196390915012671e+02,-7.882262523167623840e+02,-4.373490004439704535e+02,-5.500103915213799155e+02,9.446745872497558594e+00,-6.501809358596801758e-01,1.912296712398529053e-01,4.290000000000000000e+02
-8.948877662730110387e+02,-8.155921298000266688e+02,-4.505016943358882600e+02,-5.080894655320234961e+02,-7.487626302196158576e+02,-7.786741141416946448e+02,-4.315979024906750965e+02,-5.401471564954222231e+02,9.446745872497558594e+00,-6.501809358596801758e-01,1.912296712398529053e-01,4.300000000000000000e+02
-8.864061831079934564e+02,-8.079522393085080694e+02,-4.457655967197956670e+02,-5.027130892506334021e+02,-7.391725756097475823e+02,-7.697254492679949180e+02,-4.275401069965114402e+02,-5.335629203991820759e+02,9.446745872497558594e+00,-6.501809358596801758e-01,1.912296712398529053e-01,4.310000000000000000e+02
-8.773455759146936543e+02,-8.009194491372982156e+02,-4.428786435763931877e+02,-4.981050592518636222e+02,-7.322492425490736423e+02,-7.621338496403413956e+02,-4.252524156058061635e+02,-5.304594441829272000e+02,9.446745872497558594e+00,-6.501809358596801758e-01,1.912296712398529053e-01,4.320000000000000000e+02
-8.666827704533620818e+02,-7.944850333981994481e+02,-4.413444692659954853e+02,-4.939070331855273253e+02,-7.274489616494515758e+02,-7.557738210176753455e+02,-4.239229731917707795e+02,-5.289662122529271073e+02,9.446745872497558594e+00,-6.501809358596801758e-01,1.912296712398529053e-01,4.330000000000000000e+02
-8.547873824853695623e+02,-7.882659579094847686e+02,-4.396497498375488249e+02,-4.897847961605093587e+02,-7.231631203784509125e+02,-7.500189268226513377e+02,-4.224377196753953285e+02,-5.270393743196300420e+02,9.446745872497558594e+00,-6.501809358596801758e-01,1.912296712398529053e-01,4.340000000000000000e+02
-8.429064136578053876e+02,-7.818430149712789898e+02,-4.365280205003614356e+02,-4.855886930305714486e+02,-7.180015101305075405e+02,-7.443876495016593253e+02,-4.200913257710485595e+02,-5.239637111486404137e+02,9.446745872497558594e+00,-6.501809358596801758e-01,1.912296712398529053e-01,4.350000000000000000e+02
-8.319428510815314439e+02,-7.751305972248251237e+02,-4.319955031176477860e+02,-4.813329552114764738e+02,-7.117548785265462357e+02,-7.388454646272471109e+02,-4.168860719584154140e+02,-5.202280362544074706e+02,9.446745872497558594e+00,-6.501809358596801758e-01,1.912296712398529053e-01,4.360000000000000000e+02
-8.217163791786356342e+02,-7.684932103147134512e+02,-4.271450018126220129e+02,-4.770839755737983978e+02,-7.052949895425676914e+02,-7.335321329264857013e+02,-4.132391059049132309e+02,-5.162620021740322045e+02,9.446745872497558594e+00,-6.501809358596801758e-01,1.912296712398529053e-01,4.370000000000000000e+02
-8.113729097796199312e+02,-7.624749583460152280e+02,-4.229164765915857060e+02,-4.728431118466260159e+02,-6.995869681500544175e+02,-7.282773457801340555e+02,-4.094242207870966013e+02,-5.115627069007000500e+02,9.446745872497558594e+00,-6.501809358596801758e-01,1.912296712398529053e-01,4.380000000000000000e+02
-8.004239086927054814e+02,-7.573125344752670571e+02,-4.191157356905719098e+02,-4.685064318851941607e+02,-6.947270190736107907e+02,-7.224990786966877749e+02,-4.052900443549565352e+02,-5.051594659638708436e+02,9.446745872497558594e+00,-6.501809358596801758e-01,1.912296712398529053e-01,4.390000000000000000e+02
-7.893146641735193043e+02,-7.526358332320737645e+02,-4.146884857959003057e+02,-4.639691479318280471e+02,-6.898473897375438355e+02,-7.156733611530494272e+02,-4.005140176334725766e+02,-4.968628779676005252e+02,9.446745872497558594e+00,-6.501809358596801758e-01,1.912296712398529053e-01,4.400000000000000000e+02
-7.789713750490645907e+02,-7.476545003896180788e+02,-4.089481192461512364e+02,-4.593094151935806622e+02,-6.839275391594646862e+02,-7.079267100325564570e+02,-3.951106034686463317e+02,-4.878989040698393183e+02,9.446745872497558594e+00,-6.501809358596801758e-01,1.912296712398529053e-01,4.410000000000000000e+02
-7.698514991665438174e+02,-7.417249330869049118e+02,-4.024347521042600420e+02,-4.548453038600041509e+02,-6.767291504954960146e+02,-7.000906815632447433e+02,-3.896264976635316089e+02,-4.801816167435335956e+02,9.446745872497558594e+00,-6.501809358596801758e-01,1.912296712398529053e-01,4.420000000000000000e+02
-7.614761529089923897e+02,-7.348271380941123425e+02,-3.964682207623645809e+02,-4.509100491936287654e+02,-6.689901416711154525e+02,-6.930503441745509008e+02,-3.847502612758316900e+02,-4.748506840094291874e+02,9.446745872497558594e+00,-6.501809358596801758e-01,1.912296712398529053e-01,4.430000000000000000e+02
-7.528609904662862391e+02,-7.275076366157136363e+02,-3.918412791884661601e+02,-4.474715155678923111e+02,-6.617168099307064040e+02,-6.869649468634816003e+02,-3.806519653342356833e+02,-4.714016339898425940e+02,9.446745872497558594e+00,-6.501809358596801758e-01,1.912296712398529053e-01,4.440000000000000000e+02
-7.433527513154203916e+02,-7.203329504056032420e+02,-3.880028920383692821e+02,-4.439671531916596905e+02,-6.552249285021816831e+02,-6.811246837001167478e+02,-3.766972112730127265e+02,-4.681350555885360336e+02,9.446745872497558594e+00,-6.501809358596801758e-01,1.912296712398529053e-01,4.450000000000000000e+02
-7.330543246468614598e+02,-7.133764602273622586e+02,-3.835782755121135779e+02,-4.396252517888224247e+02,-6.488052715858266311e+02,-6.746216053816601743e+02,-3.718991066271660202e+02,-4.634577835798718297e+02,9.446745872497558594e+00,-6.501809358596801758e-01,1.912296712398529053e-01,4.460000000000000000e+02
-7.225510996983803125e+02,-7.062522930460827411e+02,-3.776886845956159959e+02,-4.340944578779144649e+02,-6.413347865737432585e+02,-6.672049126258998513e+02,-3.657879411917206198e+02,-4.569289387340786561e+02,9.523238182067871094e+00,-7.266727685928344727e-01,2.677215635776519775e-01,4.470000000000000000e+02
-7.123884743611611157e+02,-6.986696524843173393e+02,-3.707643364273026236e+02,-4.278400355955432133e+02,-6.323229535423383822e+02,-6.595000609167877883e+02,-3.589471094853602153e+02,-4.493238871044386542e+02,9.523238182067871094e+00,-7.266727685928344727e-01,2.677215635776519775e-01,4.480000000000000000e+02
-7.028830046521652548e+02,-6.909432728265528567e+02,-3.641135260920900691e+02,-4.218993479280097745e+02,-6.224937018534515119e+02,-6.524163060716327891e+02,-3.527059150456793759e+02,-4.419058489260487477e+02,9.523238182067871094e+00,-7.266727685928344727e-01,2.677215635776519775e-01,4.490000000000000000e+02
-6.943219144566328396e+02,-6.838922601181952814e+02,-3.587593837641366008e+02,-4.171331673553991095e+02,-6.133852217257822304e+02,-6.463439964751228217e+02,-3.481949169937906845e+02,-4.356103392926488596e+02,9.523238182067871094e+00,-7.266727685928344727e-01,2.677215635776519775e-01,4.500000000000000000e+02
-6.870966938510200634e+02,-6.781424952184493122e+02,-3.546935074628909206e+02,-4.135773858696707066e+02,-6.062586979237562446e+02,-6.408891016470979594e+02,-3.455263957941619992e+02,-4.306611461199477162e+02,9.523238182067871094e+00,-7.266727685928344727e-01,2.677215635776519775e-01,4.510000000000000000e+02
-6.814366472880656147e+02,-6.734887990240490581e+02,-3.511639935600051103e+02,-4.104398605171227246e+02,-6.011936845700533922e+02,-6.353253811458898781e+02,-3.437581652396238496e+02,-4.266896914155681770e+02,9.523238182067871094e+00,-7.266727685928344727e-01,2.677215635776519775e-01,4.520000000000000000e+02
-6.769627741260023868e+02,-6.689724474077565901e+02,-3.475692983952467330e+02,-4.067510678271751203e+02,-5.970989810266087261e+02,-6.292770301601758547e+02,-3.416502670650761502e+02,-4.231179225432642852e+02,9.523238182067871094e+00,-7.266727685928344727e-01,2.677215635776519775e-01,4.530000000000000000e+02
-6.726206737143065766e+02,-6.636584220997010561e+02,-3.439902010636169507e+02,-4.021200221461535875e+02,-5.925920284136836926e+02,-6.230006567300929419e+02,-3.385579517030746501e+02,-4.195393871126316299e+02,9.523238182067871094e+00,-7.266727685928344727e-01,2.677215635776519775e-01,4.540000000000000000e+02
-6.672361983082532788e+02,-6.573959203100694140e+02,-3.408881083493793085e+02,-3.969627821462299835e+02,-5.869817997440391082e+02,-6.170760342454395868e+02,-3.347430807174487200e+02,-4.159267441210531615e+02,9.523238182067871094e+00,-7.266727685928344727e-01,2.677215635776519775e-01,4.550000000000000000e+02
-6.602906357402703179e+02,-6.508333518179811108e+02,-3.384037171901727561e+02,-3.920379203905795293e+02,-5.805598679882309625e+02,-6.118478463657093016e+02,-3.309426092955764034e+02,-4.125546599440749560e+02,9.523238182067871094e+00,-7.266727685928344727e-01,2.677215635776519775e-01,4.560000000000000000e+02
-6.522159010466916698e+02,-6.446884479227946940e+02,-3.360488639302766387e+02,-3.877227593942698149e+02,-5.740652903060536119e+02,-6.071059518474044125e+02,-3.276676626616031172e+02,-4.096493768113282385e+02,9.523238182067871094e+00,-7.266727685928344727e-01,2.677215635776519775e-01,4.570000000000000000e+02
-6.439433006073695651e+02,-6.390246044321393128e+02,-3.331274161380238183e+02,-3.837034166696757893e+02,-5.679548962505591589e+02,-6.022482529867875201e+02,-3.248881564057801370e+02,-4.070327854911870418e+02,9.523238182067871094e+00,-7.266727685928344727e-01,2.677215635776519775e-01,4.580000000000000000e+02
-6.361460907816035615e+02,-6.332710600029090529e+02,-3.294540268653872772e+02,-3.793698146700839970e+02,-5.622021510114223020e+02,-5.967810405099976379e+02,-3.223017724631586134e+02,-4.041259179251969726e+02,9.523238182067871094e+00,-7.266727685928344727e-01,2.677215635776519775e-01,4.590000000000000000e+02
-6.288696995053683167e+02,-6.269329178365205735e+02,-3.256057433647870312e+02,-3.745151357251547779e+02,-5.566887893345083285e+02,-5.907378234609714127e+02,-3.197655483164944599e+02,-4.003727902313034974e+02,9.523238182067871094e+00,-7.266727685928344727e-01,2.677215635776519775e-01,4.600000000000000000e+02
-6.218120382100382812e+02,-6.202108905591694565e+02,-3.223967471918585943e+02,-3.696252656443748492e+02,-5.516121191205256764e+02,-5.846576989453446913e+02,-3.173548915248475168e+02,-3.957076764512494265e+02,9.523238182067871094e+00,-7.266727685928344727e-01,2.677215635776519775e-01,4.610000000000000000e+02
-6.148242365688320206e+02,-6.138462295575600365e+02,-3.200544371274650075e+02,-3.654225714522690396e+02,-5.473438684850784739e+02,-5.791038904420292965e+02,-3.149890975213525053e+02,-3.905678709820522272e+02,9.523238182067871094e+00,-7.266727685928344727e-01,2.677215635776519775e-01,4.620000000000000000e+02
-6.080593990652787397e+02,-6.083349982796812583e+02,-3.179203066986092381e+02,-3.620796155620787431e+02,-5.438765581573038617e+02,-5.741076075600522017e+02,-3.121254534750701168e+02,-3.854061593822871146e+02,9.523238182067871094e+00,-7.266727685928344727e-01,2.677215635776519775e-01,4.630000000000000000e+02
-6.016698243089240350e+02,-6.033460750150052263e+02,-3.150184707385215006e+02,-3.589218602922092032e+02,-5.405462627099423116e+02,-5.690536895288969390e+02,-3.080154623719490701e+02,-3.802148357747419141e+02,9.523238182067871094e+00,-7.266727685928344727e-01,2.677215635776519775e-01,4.640000000000000000e+02
-5.954922794431877264e+02,-5.979848914803451407e+02,-3.109760365290476329e+02,-3.549976542944041284e+02,-5.364774347861775823e+02,-5.631786044691430106e+02,-3.023972012778044700e+02,-3.746137252358853402e+02,9.523238182067871094e+00,-7.266727685928344727e-01,2.677215635776519775e-01,4.650000000000000000e+02
-5.891640978075347448e+02,-5.916789124441238528e+02,-3.063888008892186008e+02,-3.500102683936565882e+02,-5.313631702168263473e+02,-5.562792402427403431e+02,-2.959548762010608698e+02,-3.684511177559943462e+02,9.523238182067871094e+00,-7.266727685928344727e-01,2.677215635776519775e-01,4.660000000000000000e+02
-5.825661604179417736e+02,-5.848025634513514888e+02,-3.022213861422806076e+02,-3.446849903011752758e+02,-5.257239544997933081e+02,-5.489648041371733598e+02,-2.899956099035639454e+02,-3.622482106178485992e+02,9.523238182067871094e+00,-7.266727685928344727e-01,2.677215635776519775e-01,4.670000000000000000e+02
-5.760486914043390243e+02,-5.784090978780873229e+02,-2.987996259058581927e+02,-3.401607013271463984e+02,-5.202964643974828505e+02,-5.421707487444136859e+02,-2.855493701558475550e+02,-3.569098014661808520e+02,9.408499717712402344e+00,-6.884268522262573242e-01,2.677215635776519775e-01,4.680000000000000000e+02
-5.700919609561060497e+02,-5.733050699472523775e+02,-2.953937611426240437e+02,-3.369690939774282015e+02,-5.151575191337637989e+02,-5.363677482793937088e+02,-2.826831548694135563e+02,-3.528827080832115826e+02,9.408499717712402344e+00,-6.884268522262573242e-01,2.677215635776519775e-01,4.690000000000000000e+02
-5.647273972117764060e+02,-5.693119923068529715e+02,-2.908499477875307093e+02,-3.345876330355977188e+02,-5.095581873105984414e+02,-5.312138481719503034e+02,-2.806159522235093391e+02,-3.495933066345351108e+02,9.408499717712402344e+00,-6.884268522262573242e-01,2.677215635776519775e-01,4.700000000000000000e+02
-5.593843087632149036e+02,-5.653671459256584058e+02,-2.847186926910521834e+02,-3.319731721503280824e+02,-5.027396600263955406e+02,-5.259704039501912121e+02,-2.784486435777589577e+02,-3.458098939454612264e+02,9.408499717712402344e+00,-6.884268522262573242e-01,2.677215635776519775e-01,4.710000000000000000e+02
-5.534557880599168129e+02,-5.603544036387520464e+02,-2.778232951229028913e+02,-3.285296102982574666e+02,-4.949508330674343597e+02,-5.202518316330629204e+02,-2.757982204151621772e+02,-3.407089142675572475e+02,9.408499717712402344e+00,-6.884268522262573242e-01,2.677215635776519775e-01,4.720000000000000000e+02
-5.470629999315333407e+02,-5.539627597976632387e+02,-2.717342656230193825e+02,-3.245883129952071613e+02,-4.875877002176912356e+02,-5.143870225386199309e+02,-2.728449231549006981e+02,-3.347254126614816414e+02,9.408499717712402344e+00,-6.884268522262573242e-01,2.677215635776519775e-01,4.730000000000000000e+02
-5.411760972031206620e+02,-5.469164287593948757e+02,-2.676141434940639101e+02,-3.210165828959534338e+02,-4.822005433892618385e+02,-5.090977977897182427e+02,-2.699512202405267089e+02,-3.294032106978233969e+02,9.408499717712402344e+00,-6.884268522262573242e-01,2.677215635776519775e-01,4.740000000000000000e+02
-5.368141327688163074e+02,-5.404611478354208884e+02,-2.654301426095312308e+02,-3.184178591163540659e+02,-4.792199968117120079e+02,-5.048637129336589169e+02,-2.673514973148112404e+02,-3.262976261585831708e+02,9.408499717712402344e+00,-6.884268522262573242e-01,2.677215635776519775e-01,4.750000000000000000e+02
-5.339858906642211878e+02,-5.355262052479256454e+02,-2.641069265971409550e+02,-3.166901078770915774e+02,-4.775365115764125221e+02,-5.015636735732423404e+02,-2.651419001088861478e+02,-3.257480873451841035e+02,9.408499717712402344e+00,-6.884268522262573242e-01,2.677215635776519775e-01,4.760000000000000000e+02
-5.313892095453666116e+02,-5.321360959552748682e+02,-2.623805876102217098e+02,-3.152542646403683193e+02,-4.753143278832908436e+02,-4.986388272607591716e+02,-2.633859497476710203e+02,-3.264708782647148837e+02,9.408499717712402344e+00,-6.884268522262573242e-01,2.677215635776519775e-01,4.770000000000000000e+02
-5.272389026320033736e+02,-5.294224545448441859e+02,-2.596326773057783157e+02,-3.136108061863972125e+02,-4.713310920172530132e+02,-4.955195225395200396e+02,-2.620781228783348524e+02,-3.263168902386983063e+02,9.408499717712402344e+00,-6.884268522262573242e-01,2.677215635776519775e-01,4.780000000000000000e+02
-5.205539310044987360e+02,-5.261892629601038607e+02,-2.561466152195239374e+02,-3.116694360567059903e+02,-4.657429476381607856e+02,-4.919243044293079947e+02,-2.609945343344343200e+02,-3.237081954143391158e+02,9.408499717712402344e+00,-6.884268522262573242e-01,2.677215635776519775e-01,4.790000000000000000e+02
-5.118247901686718251e+02,-5.216628319676428873e+02,-2.527744544475583552e+02,-3.096343766202876395e+02,-4.597876634742137867e+02,-4.878900701712191221e+02,-2.597258183989160898e+02,-3.187989910772535040e+02,9.408499717712402344e+00,-6.884268522262573242e-01,2.677215635776519775e-01,4.800000000000000000e+02
-5.025463987322755202e+02,-5.159463425731653388e+02,-2.503449460133181219e+02,-3.076605666672687676e+02,-4.548271475857595760e+02,-4.836415520472673961e+02,-2.579890277337410680e+02,-3.134792443135047506e+02,9.408499717712402344e+00,-6.884268522262573242e-01,2.677215635776519775e-01,4.810000000000000000e+02
-4.940858800135929414e+02,-5.098984050598382964e+02,-2.491863180866300809e+02,-3.056423250974983148e+02,-4.515210437222535802e+02,-4.794502033064059106e+02,-2.559402408013777404e+02,-3.100656427496560354e+02,9.408499717712402344e+00,-6.884268522262573242e-01,2.677215635776519775e-01,4.820000000000000000e+02
-4.868376237435854819e+02,-5.045645334149476184e+02,-2.489996842598486637e+02,-3.033213723277658573e+02,-4.496484078333633079e+02,-4.755412943383089441e+02,-2.541450935668594866e+02,-3.095302318600897706e+02,9.408499717712402344e+00,-6.884268522262573242e-01,2.677215635776519775e-01,4.830000000000000000e+02
-4.802209161132486770e+02,-5.005741933599472304e+02,-2.490945148707980934e+02,-3.005940314692293214e+02,-4.484742635371053439e+02,-4.720467996979150485e+02,-2.531734298646833849e+02,-3.106414251112444163e+02,9.408499717712402344e+00,-6.884268522262573242e-01,2.677215635776519775e-01,4.840000000000000000e+02
-4.733002449052189604e+02,-4.978700163290661749e+02,-2.488007217165486509e+02,-2.977185880905190061e+02,-4.472075907949611064e+02,-4.690009769048838280e+02,-2.531356949503715441e+02,-3.108800289147482090e+02,9.408499717712402344e+00,-6.884268522262573242e-01,2.677215635776519775e-01,4.850000000000000000e+02
-4.654129535048978141e+02,-4.958357690108537099e+02,-2.477438649111772975e+02,-2.951768541856752108e+02,-4.452149799904591418e+02,-4.663422876001750410e+02,-2.535188378488476246e+02,-3.085809605530366753e+02,9.408499717712402344e+00,-6.884268522262573242e-01,2.677215635776519775e-01,4.860000000000000000e+02
-4.564228207451710659e+02,-4.936097354046153214e+02,-2.457688873258284730e+02,-2.932153512726208646e+02,-4.419916262593567353e+02,-4.638593536963153383e+02,-2.533934230581169231e+02,-3.045293475230078002e+02,9.408499717712402344e+00,-6.884268522262573242e-01,2.677215635776519775e-01,4.870000000000000000e+02
-4.466690496865433033e+02,-4.903821159450671985e+02,-2.426646559092009738e+02,-2.914302176024696109e+02,-4.371355421491480229e+02,-4.611091406403365909e+02,-2.518316242272364889e+02,-3.014735309178709031e+02,9.408499717712402344e+00,-6.884268522262573242e-01,2.677215635776519775e-01,4.880000000000000000e+02
-4.368353088861347260e+02,-4.856485079819913153e+02,-2.380987370171517341e+02,-2.888494544386924190e+02,-4.305193344269748650e+02,-4.574688939320226382e+02,-2.483235311371070111e+02,-3.017292561225053760e+02,9.408499717712402344e+00,-6.884268522262573242e-01,2.677215635776519775e-01,4.890000000000000000e+02
-4.277637067998075509e+02,-4.794348177640636095e+02,-2.319796828613061734e+02,-2.846003679971845486e+02,-4.225621120909524961e+02,-4.524409653659381547e+02,-2.430356751168883420e+02,-3.048516524841165847e+02,9.408499717712402344e+00,-6.884268522262573242e-01,2.677215635776519775e-01,4.900000000000000000e+02
-4.200747887886132048e+02,-4.723800330744263647e+02,-2.249314204207885268e+02,-2.786862496145447494e+02,-4.143017979230255605e+02,-4.460690939634905590e+02,-2.367885048725686374e+02,-3.075123508926039904e+02,9.408499717712402344e+00,-6.884268522262573242e-01,2.677215635776519775e-01,4.910000000000000000e+02
-4.136521053273604593e+02,-4.654967141332731444e+02,-2.182781711368759261e+02,-2.721581910822033024e+02,-4.070503803905514815e+02,-4.391021814663099576e+02,-2.306844496748183246e+02,-3.058993227111482156e+02,9.408499717712402344e+00,-6.884268522262573242e-01,2.677215635776519775e-01,4.920000000000000000e+02
-4.074193494916821692e+02,-4.596310342603683239e+02,-2.133498896885539580e+02,-2.664327378245777709e+02,-4.017539919393564105e+02,-4.326610705100929408e+02,-2.255533881396584093e+02,-2.987067551967077179e+02,9.446745872497558594e+00,-7.649186849594116211e-01,2.294756323099136353e-01,4.930000000000000000e+02
-3.998279553947616023e+02,-4.549774019516246426e+02,-2.106217427955039057e+02,-2.622953787763096898e+02,-3.984684017757881520e+02,-4.276019485626088681e+02,-2.215897318690404063e+02,-2.881752359873282785e+02,9.446745872497558594e+00,-7.649186849594116211e-01,2.294756323099136353e-01,4.940000000000000000e+02
-3.899227018436592971e+02,-4.510690204464815452e+02,-2.094685295853205389e+02,-2.594613817689407824e+02,-3.963508426874295765e+02,-4.240692779559431074e+02,-2.184816458630466514e+02,-2.783359158460439176e+02,9.446745872497558594e+00,-7.649186849594116211e-01,2.294756323099136353e-01,4.950000000000000000e+02
-3.781846638892843657e+02,-4.472807716845736650e+02,-2.087831006213914407e+02,-2.570525117813988345e+02,-3.942116564145187567e+02,-4.215576258515307018e+02,-2.159095423859544098e+02,-2.720249945296743590e+02,9.446745872497558594e+00,-7.649186849594116211e-01,2.294756323099136353e-01,4.960000000000000000e+02
-3.663505021647392823e+02,-4.433891692876982233e+02,-2.078547863576781083e+02,-2.544600273546312792e+02,-3.912301347052223264e+02,-4.193314440275357811e+02,-2.138885709207447690e+02,-2.691509274518166421e+02,9.446745872497558594e+00,-7.649186849594116211e-01,2.294756323099136353e-01,4.970000000000000000e+02
-3.562158278909064393e+02,-4.396796320542923695e+02,-2.066690479374744882e+02,-2.517250684803327658e+02,-3.873123405369683496e+02,-4.167893441508761043e+02,-2.125701036434145408e+02,-2.673935992064320999e+02,9.446745872497558594e+00,-7.649186849594116211e-01,2.294756323099136353e-01,4.980000000000000000e+02
-3.483673215442242963e+02,-4.365348387302688025e+02,-2.054327007706954191e+02,-2.491379045715914344e+02,-3.828905744129739332e+02,-4.135576843881513014e+02,-2.117271714732102055e+02,-2.643521480895474269e+02,9.446745872497558594e+00,-7.649186849594116211e-01,2.294756323099136353e-01,4.990000000000000000e+02
-3.419358124759554585e+02,-4.339430567514277755e+02,-2.039450620346399319e+02,-2.465980557118351726e+02,-3.784098634762376605e+02,-4.094446759409274819e+02,-2.105625128818224994e+02,-2.591710810106640110e+02,9.446745872497558594e+00,-7.649186849594116211e-01,2.294756323099136353e-01,5.000000000000000000e+02
-3.355534595033117284e+02,-4.314145924756794557e+02,-2.015617106714305464e+02,-2.434983323241183371e+02,-3.739693577414413994e+02,-4.044734296877402357e+02,-2.082048265822818394e+02,-2.525573595926425696e+02,9.446745872497558594e+00,-7.649186849594116211e-01,2.294756323099136353e-01,5.010000000000000000e+02
-3.285576001453420076e+02,-4.283560856214583055e+02,-1.978110511751251579e+02,-2.392858660946719738e+02,-3.693942926881557014e+02,-3.989693517448366720e+02,-2.044909653389802315e+02,-2.457132454961670192e+02,9.446745872497558594e+00,-7.649186849594116211e-01,2.294756323099136353e-01,5.020000000000000000e+02
-3.212879311686951951e+02,-4.245227635684236702e+02,-1.929957994162657542e+02,-2.341071369373947846e+02,-3.646117579398137423e+02,-3.935094427455139794e+02,-2.002407251372671908e+02,-2.394666947921847395e+02,9.446745872497558594e+00,-7.649186849594116211e-01,2.294756323099136353e-01,5.030000000000000000e+02
-3.142867999860706050e+02,-4.201586602761711902e+02,-1.881225517316165110e+02,-2.288582947144495847e+02,-3.599495995073433505e+02,-3.886796527408049542e+02,-1.966688639176896345e+02,-2.342517035088820876e+02,9.446745872497558594e+00,-7.649186849594116211e-01,2.294756323099136353e-01,5.040000000000000000e+02
-3.073774835932473479e+02,-4.157841268007966278e+02,-1.842042074794572954e+02,-2.245883833941251737e+02,-3.560650685583335076e+02,-3.848401596058015457e+02,-1.944427473966593425e+02,-2.305128940310295320e+02,9.446745872497558594e+00,-7.649186849594116211e-01,2.294756323099136353e-01,5.050000000000000000e+02
-2.997507202513104971e+02,-4.118885404476085341e+02,-1.816097742781705620e+02,-2.218323081636140728e+02,-3.535494258229192610e+02,-3.821045186153273789e+02,-1.932880648802313317e+02,-2.287706845185006159e+02,9.446745872497558594e+00,-7.649186849594116211e-01,2.294756323099136353e-01,5.060000000000000000e+02
-2.910935950151880434e+02,-4.087667500030953533e+02,-1.800374740680473451e+02,-2.204518176370284550e+02,-3.525367946057396580e+02,-3.804766500383067864e+02,-1.924931305931273187e+02,-2.291910343267371104e+02,9.446745872497558594e+00,-7.649186849594116211e-01,2.294756323099136353e-01,5.070000000000000000e+02
-2.825602532989964857e+02,-4.065078935055953480e+02,-1.790027890180658119e+02,-2.199930729467104129e+02,-3.526102072364827222e+02,-3.798845011472906208e+02,-1.917361110279754257e+02,-2.311658413657933124e+02,9.446745872497558594e+00,-7.649186849594116211e-01,2.294756323099136353e-01,5.080000000000000000e+02
-2.763779111702067439e+02,-4.049928123295538853e+02,-1.782510515929238295e+02,-2.200870057802757174e+02,-3.530205502387696015e+02,-3.800007692398452264e+02,-1.913350857864862746e+02,-2.334089597893936343e+02,9.446745872497558594e+00,-7.649186849594116211e-01,2.294756323099136353e-01,5.090000000000000000e+02
-2.741832957661807768e+02,-4.038432150830373075e+02,-1.776776033789800522e+02,-2.204717778782784308e+02,-3.529849068517279420e+02,-3.800755220521181172e+02,-1.916401839174646966e+02,-2.345056948772093506e+02,9.446745872497558594e+00,-7.649186849594116211e-01,2.294756323099136353e-01,5.100000000000000000e+02
-2.755402640917070585e+02,-4.024360297190328311e+02,-1.769600550260019531e+02,-2.207269883008298166e+02,-3.518625398809011813e+02,-3.791179367673310026e+02,-1.922400547221471356e+02,-2.334789657299511418e+02,9.446745872497558594e+00,-7.649186849594116211e-01,2.294756323099136353e-01,5.110000000000000000e+02
-2.780668553162898888e+02,-4.000963933378569664e+02,-1.754663337656346016e+02,-2.201516531963261514e+02,-3.492044553124223967e+02,-3.764230946064926684e+02,-1.918912197358223466e+02,-2.300400759798437775e+02,9.446745872497558594e+00,-7.649186849594116211e-01,2.294756323099136353e-01,5.120000000000000000e+02
-2.791335091040878069e+02,-3.964160777971266043e+02,-1.727028823708886307e+02,-2.180726110458418248e+02,-3.448497261903594335e+02,-3.720424105200552276e+02,-1.893992767309096052e+02,-2.245824633762123312e+02,9.446745872497558594e+00,-7.649186849594116211e-01,2.294756323099136353e-01,5.130000000000000000e+02
-2.776594054137167404e+02,-3.915059389955637243e+02,-1.689383136252096165e+02,-2.144083784871044145e+02,-3.391455880862430377e+02,-3.667909677940713209e+02,-1.847317941141338906e+02,-2.181201395946636694e+02,9.446745872497558594e+00,-7.649186849594116211e-01,2.294756323099136353e-01,5.140000000000000000e+02
-2.744962209631903534e+02,-3.859794875778518417e+02,-1.652876669815308333e+02,-2.099414683127778289e+02,-3.330426925699276808e+02,-3.617468747823768354e+02,-1.792992801469968072e+02,-2.120963009932632986e+02,9.446745872497558594e+00,-7.649186849594116211e-01,2.294756323099136353e-01,5.150000000000000000e+02
-2.712520251500673112e+02,-3.806371142512857659e+02,-1.629628123228050072e+02,-2.059243238038643540e+02,-3.277684591770839688e+02,-3.576311306953107305e+02,-1.750581527964337738e+02,-2.078860449048988812e+02,9.446745872497558594e+00,-7.649186849594116211e-01,2.294756323099136353e-01,5.160000000000000000e+02
-2.687887026104999677e+02,-3.760401693877586240e+02,-1.622376528154153448e+02,-2.032299885135595332e+02,-3.241399995429392220e+02,-3.545271705044731334e+02,-1.731460393260866795e+02,-2.061200617155660666e+02,9.446745872497558594e+00,-7.649186849594116211e-01,2.294756323099136353e-01,5.170000000000000000e+02
-2.666911874971335692e+02,-3.722622758657312261e+02,-1.620905679662768080e+02,-2.017252101371446997e+02,-3.220241947058582355e+02,-3.520695549508870954e+02,-1.731751799173994186e+02,-2.063028764829862212e+02,9.446745872497558594e+00,-7.649186849594116211e-01,2.294756323099136353e-01,5.180000000000000000e+02
-2.638973066859271057e+02,-3.689815347581927654e+02,-1.609722118725696873e+02,-2.004151043674989978e+02,-3.204691586243602615e+02,-3.498455067282773143e+02,-1.737019783985574577e+02,-2.071122225316541972e+02,9.446745872497558594e+00,-7.649186849594116211e-01,2.294756323099136353e-01,5.190000000000000000e+02
-2.596115480183445925e+02,-3.658057884772060788e+02,-1.581030024036638224e+02,-1.982466996004222892e+02,-3.184597941894892301e+02,-3.476256857198463877e+02,-1.733607506053422185e+02,-2.071949585155609839e+02,9.408499717712402344e+00,-7.266727685928344727e-01,2.294756323099136353e-01,5.200000000000000000e+02
-2.536769909763650048e+02,-3.625464209023011790e+02,-1.541411041667051904e+02,-1.948727973558079611e+02,-3.156610732971776088e+02,-3.452674485043658024e+02,-1.716677276054524555e+02,-2.058206934482659562e+02,9.408499717712402344e+00,-7.266727685928344727e-01,2.294756323099136353e-01,5.210000000000000000e+02
-2.463791442459414611e+02,-3.592019164132625519e+02,-1.505769568809946577e+02,-1.907197954280863996e+02,-3.124876666438765369e+02,-3.424710880277052638e+02,-1.689317447351102146e+02,-2.029407632725183248e+02,9.408499717712402344e+00,-7.266727685928344727e-01,2.294756323099136353e-01,5.220000000000000000e+02
-2.382236214713293521e+02,-3.556997323567413787e+02,-1.483929727545105379e+02,-1.863948112391531140e+02,-3.094905790580432949e+02,-3.387343289252230534e+02,-1.656113491887713280e+02,-1.988265556104199732e+02,9.408499717712402344e+00,-7.266727685928344727e-01,2.294756323099136353e-01,5.230000000000000000e+02
-2.299821566362261365e+02,-3.517151653944886220e+02,-1.472350341383121304e+02,-1.821141709207654458e+02,-3.067200871918089433e+02,-3.336715535650700986e+02,-1.618944685399701484e+02,-1.938185965756911173e+02,9.408499717712402344e+00,-7.266727685928344727e-01,2.294756323099136353e-01,5.240000000000000000e+02
-2.227034613172281752e+02,-3.468399196283844503e+02,-1.458592976071206522e+02,-1.777440359980766971e+02,-3.037182448297703559e+02,-3.274670316197348257e+02,-1.578761193905068012e+02,-1.884245815907220276e+02,9.408499717712402344e+00,-7.266727685928344727e-01,2.294756323099136353e-01,5.250000000000000000e+02
-2.172827619880413295e+02,-3.410217902365902773e+02,-1.433747239494548467e+02,-1.733353679532683600e+02,-3.000848101893843705e+02,-3.209910321222896528e+02,-1.539693873461592375e+02,-1.834400727854254001e+02,9.408499717712402344e+00,-7.266727685928344727e-01,2.294756323099136353e-01,5.260000000000000000e+02
-2.137904294861591552e+02,-3.348477192395589555e+02,-1.400305495360416899e+02,-1.694547494760536210e+02,-2.959522988781263848e+02,-3.153333409126898914e+02,-1.509110429099168869e+02,-1.796698627111118185e+02,9.408499717712402344e+00,-7.266727685928344727e-01,2.294756323099136353e-01,5.270000000000000000e+02
-2.112659467599369236e+02,-3.293088036363214997e+02,-1.368056575638433969e+02,-1.668298170807083807e+02,-2.918516856675319104e+02,-3.110718233006759874e+02,-1.492189860807884543e+02,-1.773577106733846449e+02,9.408499717712402344e+00,-7.266727685928344727e-01,2.294756323099136353e-01,5.280000000000000000e+02
-2.083953110010293130e+02,-3.251667037163324494e+02,-1.343071392649508198e+02,-1.656418752143772508e+02,-2.881451549283956410e+02,-3.079362637203412305e+02,-1.486527780396786511e+02,-1.759282316774820174e+02,9.408499717712402344e+00,-7.266727685928344727e-01,2.294756323099136353e-01,5.290000000000000000e+02
-2.045917260908263415e+02,-3.224534704234029050e+02,-1.321462053489253776e+02,-1.652689535458380305e+02,-2.846696616036101659e+02,-3.052258780344700426e+02,-1.483194920602372804e+02,-1.744521041413818239e+02,9.408499717712402344e+00,-7.266727685928344727e-01,2.294756323099136353e-01,5.300000000000000000e+02
-2.004821187875168107e+02,-3.205604382712654115e+02,-1.294256510653026453e+02,-1.648418952922320386e+02,-2.809898379445867249e+02,-3.025931723224907728e+02,-1.474231121476091175e+02,-1.724757023393899544e+02,9.408499717712402344e+00,-7.266727685928344727e-01,2.294756323099136353e-01,5.310000000000000000e+02
-1.973119282472980558e+02,-3.188320063224091427e+02,-1.258061554721371067e+02,-1.640936377175239613e+02,-2.769666592843941544e+02,-3.003860190976602098e+02,-1.459481673524546750e+02,-1.703894643052949505e+02,9.408499717712402344e+00,-7.266727685928344727e-01,2.294756323099136353e-01,5.320000000000000000e+02
-1.958643386250378171e+02,-3.171181391755380901e+02,-1.220380321934567291e+02,-1.636127072641447739e+02,-2.730037115810318937e+02,-2.991542653309834350e+02,-1.445791316221411762e+02,-1.689565140861336658e+02,9.408499717712402344e+00,-7.266727685928344727e-01,2.294756323099136353e-01,5.330000000000000000e+02
-1.959597267828576150e+02,-3.157721507543701591e+02,-1.194237633819716393e+02,-1.642006824227200923e+02,-2.697143051044749882e+02,-2.988074936469183740e+02,-1.439139057097172554e+02,-1.684821152383851768e+02,9.408499717712402344e+00,-7.266727685928344727e-01,2.294756323099136353e-01,5.340000000000000000e+02
-1.969743745741816383e+02,-3.150991702227902351e+02,-1.187417795670648957e+02,-1.659528269356746932e+02,-2.673719557136359981e+02,-2.983319765075129908e+02,-1.437376232455953868e+02,-1.684763886391888263e+02,9.408499717712402344e+00,-7.266727685928344727e-01,2.294756323099136353e-01,5.350000000000000000e+02
-1.987440533463086467e+02,-3.147948004198333365e+02,-1.196450791288298205e+02,-1.679722939992557258e+02,-2.657026345081440013e+02,-2.964514211776750017e+02,-1.430868875946534899e+02,-1.681216482331119551e+02,9.408499717712402344e+00,-7.266727685928344727e-01,2.294756323099136353e-01,5.360000000000000000e+02
-2.018074060294475203e+02,-3.139364414573183240e+02,-1.210174090438968051e+02,-1.690006329831253424e+02,-2.641850692021780560e+02,-2.926462922732671359e+02,-1.410698385293248975e+02,-1.669851859254749797e+02,9.408499717712402344e+00,-7.266727685928344727e-01,2.294756323099136353e-01,5.370000000000000000e+02
-2.066819503219448961e+02,-3.116023172207933385e+02,-1.218695067306498458e+02,-1.683754916483203488e+02,-2.625222256393217322e+02,-2.875775228165712178e+02,-1.376853277336394967e+02,-1.652431801964139595e+02,9.408499717712402344e+00,-7.266727685928344727e-01,2.294756323099136353e-01,5.380000000000000000e+02
-2.129506058803508495e+02,-3.076363981957892975e+02,-1.219752042501622782e+02,-1.664842188736629396e+02,-2.608374414067111502e+02,-2.825545222983437270e+02,-1.338991363639643168e+02,-1.632781084520865988e+02,9.408499717712402344e+00,-7.266727685928344727e-01,2.294756323099136353e-01,5.390000000000000000e+02
-2.191867759827882765e+02,-3.029277560554464799e+02,-1.217863674984382669e+02,-1.643945421156904558e+02,-2.594696795506797571e+02,-2.785869451203025164e+02,-1.309012009086018224e+02,-1.612008508067501680e+02,9.408499717712402344e+00,-7.266727685928344727e-01,2.294756323099136353e-01,5.400000000000000000e+02
-2.238599595386103829e+02,-2.989343055848576114e+02,-1.218445148721575606e+02,-1.630595535022503100e+02,-2.586152605327170022e+02,-2.758584373631420021e+02,-1.291787464254248334e+02,-1.588265083002452229e+02,9.408499717712402344e+00,-7.266727685928344727e-01,2.294756323099136353e-01,5.410000000000000000e+02
-2.263362145650007733e+02,-2.967802964688071370e+02,-1.222679299559977153e+02,-1.627532785844896353e+02,-2.581345841717575240e+02,-2.739291217649861210e+02,-1.281648509587294029e+02,-1.560338758402649546e+02,9.408499717712402344e+00,-7.266727685928344727e-01,2.294756323099136353e-01,5.420000000000000000e+02
-2.270643552188594185e+02,-2.965812368767255975e+02,-1.227176592492633063e+02,-1.630825375015856480e+02,-2.576323145267724612e+02,-2.722739244749809586e+02,-1.267228464650752358e+02,-1.530248877763115161e+02,9.408499717712402344e+00,-7.266727685928344727e-01,2.294756323099136353e-01,5.430000000000000000e+02
-2.269302959179231038e+02,-2.974668398987569162e+02,-1.227896637027834004e+02,-1.634264265280226027e+02,-2.566951430007247836e+02,-2.705929908592534048e+02,-1.240445484092870174e+02,-1.502055099971312302e+02,9.408499717712402344e+00,-7.266727685928344727e-01,2.294756323099136353e-01,5.440000000000000000e+02
-2.266018846202596251e+02,-2.982303993534569599e+02,-1.224305431429838791e+02,-1.634042128597156989e+02,-2.551031562695025059e+02,-2.687461563222595942e+02,-1.202392020307233906e+02,-1.478864317919951645e+02,9.408499717712402344e+00,-7.266727685928344727e-01,2.294756323099136353e-01,5.450000000000000000e+02
-2.265446011624189850e+02,-2.980796728511368201e+02,-1.219897470959613202e+02,-1.630442951317772895e+02,-2.528786358946899782e+02,-2.665718458430446844e+02,-1.161779081873428368e+02,-1.461284769956146192e+02,9.408499717712402344e+00,-7.266727685928344727e-01,2.294756323099136353e-01,5.460000000000000000e+02
-2.274338043217603627e+02,-2.969509655408337494e+02,-1.218273832036293243e+02,-1.625886451454280177e+02,-2.501533096262573963e+02,-2.638497150406255969e+02,-1.127547452075696128e+02,-1.447457501078315545e+02,9.408499717712402344e+00,-7.266727685928344727e-01,2.294756323099136353e-01,5.470000000000000000e+02
-2.301297607316519134e+02,-2.952511589716996241e+02,-1.218137520823656814e+02,-1.621390643856602765e+02,-2.469743303153773013e+02,-2.604001662695027335e+02,-1.101774025786198763e+02,-1.432659403375291731e+02,9.408499717712402344e+00,-7.266727685928344727e-01,2.294756323099136353e-01,5.480000000000000000e+02
-2.349529509268950278e+02,-2.933407627226943077e+02,-1.212273741455992422e+02,-1.614554105320357849e+02,-2.432323392662547121e+02,-2.561736574315709731e+02,-1.078579103413630946e+02,-1.408885046565137600e+02,9.408499717712402344e+00,-7.266727685928344727e-01,2.294756323099136353e-01,5.490000000000000000e+02
-2.410726518294613925e+02,-2.911986770608436927e+02,-1.192709428705848040e+02,-1.601028640262929912e+02,-2.388374468255824468e+02,-2.512766360177702154e+02,-1.049767722040833178e+02,-1.367950491610736208e+02,9.408499717712402344e+00,-7.266727685928344727e-01,2.294756323099136353e-01,5.500000000000000000e+02
-2.470119076771798063e+02,-2.884824027018439665e+02,-1.158798086400629472e+02,-1.578593318659623037e+02,-2.340588410345098964e+02,-2.459967461332562380e+02,-1.012449727651837748e+02,-1.309193707256245034e+02,9.446745872497558594e+00,-8.031646609306335449e-01,2.677215635776519775e-01,5.510000000000000000e+02
-2.521346212995540554e+02,-2.848602231268378091e+02,-1.120943627698434284e+02,-1.550374709443140091e+02,-2.296835461709997617e+02,-2.408276883703547355e+02,-9.722714787268068903e+01,-1.245450321985135815e+02,9.446745872497558594e+00,-8.031646609306335449e-01,2.677215635776519775e-01,5.520000000000000000e+02
-2.577014362880690896e+02,-2.803622631260423077e+02,-1.095375686080287778e+02,-1.524164639416430873e+02,-2.267260971222858643e+02,-2.363967567479048739e+02,-9.399226092878870986e+01,-1.198789237265400516e+02,9.446745872497558594e+00,-8.031646609306335449e-01,2.677215635776519775e-01,5.530000000000000000e+02
-2.661367790299082117e+02,-2.755614538491863641e+02,-1.092931760799920085e+02,-1.508036506512407868e+02,-2.258054686490831955e+02,-2.332378953294428356e+02,-9.241449137476229225e+01,-1.185673083956990013e+02,9.446745872497558594e+00,-8.031646609306335449e-01,2.677215635776519775e-01,5.540000000000000000e+02
-2.788400645524106949e+02,-2.714904485471597582e+02,-1.110662058080588395e+02,-1.505499351954413214e+02,-2.266550633109982300e+02,-2.315257763315439661e+02,-9.266300718916954793e+01,-1.203339939511533885e+02,9.446745872497558594e+00,-8.031646609306335449e-01,2.677215635776519775e-01,5.550000000000000000e+02
-2.945488468633666344e+02,-2.692773637508616957e+02,-1.133585641104436945e+02,-1.513839753250686044e+02,-2.282197495294913097e+02,-2.309901437898661243e+02,-9.419103762190388807e+01,-1.231778304086128628e+02,9.446745872497558594e+00,-8.031646609306335449e-01,2.677215635776519775e-01,5.560000000000000000e+02
-3.100116251344352349e+02,-2.695601077835181059e+02,-1.145551885614013372e+02,-1.526527930669690249e+02,-2.293319044127547386e+02,-2.310969682326212933e+02,-9.609928679293079767e+01,-1.252226742932398338e+02,9.446745872497558594e+00,-8.031646609306335449e-01,2.677215635776519775e-01,5.570000000000000000e+02
-3.226319352653335955e+02,-2.719557354038206540e+02,-1.140374090960067406e+02,-1.537336029520774900e+02,-2.294473725484494935e+02,-2.313508196755319659e+02,-9.753924019606529328e+01,-1.265681178147642640e+02,9.446745872497558594e+00,-8.031646609306335449e-01,2.677215635776519775e-01,5.580000000000000000e+02
-3.327512954085395904e+02,-2.750118054861377459e+02,-1.124270868484500170e+02,-1.543201640537154162e+02,-2.288534535220060206e+02,-2.314918420822596090e+02,-9.796165964042302221e+01,-1.292619288078840327e+02,9.446745872497558594e+00,-8.031646609306335449e-01,2.677215635776519775e-01,5.590000000000000000e+02
-3.433579184582595190e+02,-2.768386664069985272e+02,-1.108464758764694125e+02,-1.544400255198725063e+02,-2.282305547783926158e+02,-2.314813834378765023e+02,-9.722014118877450528e+01,-1.352451846648982610e+02,9.446745872497558594e+00,-8.031646609306335449e-01,2.677215635776519775e-01,5.600000000000000000e+02
-3.573506532554947626e+02,-2.761050473114137276e+02,-1.099263110428310029e+02,-1.542634316833700723e+02,-2.279964328674741409e+02,-2.313454999864261481e+02,-9.557829948726612201e+01,-1.441815983264186798e+02,9.446745872497558594e+00,-8.031646609306335449e-01,2.677215635776519775e-01,5.610000000000000000e+02
-3.747895162639651971e+02,-2.727129039637566166e+02,-1.094226691500662128e+02,-1.538635702078590839e+02,-2.279791311914468679e+02,-2.310081580751593719e+02,-9.356541218613892852e+01,-1.533094286376417585e+02,9.446745872497558594e+00,-8.031646609306335449e-01,2.677215635776519775e-01,5.620000000000000000e+02
-3.925911111589193752e+02,-2.676580223159435263e+02,-1.086924144774293381e+02,-1.530995808755851613e+02,-2.276219257072625624e+02,-2.302284206289568829e+02,-9.166171344339272764e+01,-1.595298074597794766e+02,9.446745872497558594e+00,-8.031646609306335449e-01,2.677215635776519775e-01,5.630000000000000000e+02
-4.068753602063025028e+02,-2.622560156339059176e+02,-1.075042269136974937e+02,-1.517383967103596660e+02,-2.264828962339561258e+02,-2.287057297486444440e+02,-9.000922178281143715e+01,-1.617860339381877566e+02,9.446745872497558594e+00,-8.031646609306335449e-01,2.677215635776519775e-01,5.640000000000000000e+02
-4.157378996333973191e+02,-2.574152204830352275e+02,-1.063851267203754105e+02,-1.497506545878914039e+02,-2.245802120626140095e+02,-2.263134950411349564e+02,-8.841115030151559040e+01,-1.615397811389339040e+02,9.446745872497558594e+00,-8.031646609306335449e-01,2.677215635776519775e-01,5.650000000000000000e+02
-4.200213911240316520e+02,-2.535009492814151599e+02,-1.061729262079879845e+02,-1.475450283549671440e+02,-2.223471485410500463e+02,-2.233141700904616300e+02,-8.667469788727066771e+01,-1.610872299137990922e+02,9.446745872497558594e+00,-8.031646609306335449e-01,2.677215635776519775e-01,5.660000000000000000e+02
-4.216833302537470445e+02,-2.506853175385003851e+02,-1.071569503175669524e+02,-1.458596880063741992e+02,-2.202886080412208685e+02,-2.203496452523995686e+02,-8.495461600314047246e+01,-1.615082562980678631e+02,9.446745872497558594e+00,-8.031646609306335449e-01,2.677215635776519775e-01,5.670000000000000000e+02
-4.215717438715018943e+02,-2.492071608028782066e+02,-1.085650714968269313e+02,-1.452744391791238741e+02,-2.186151071013446199e+02,-2.181287812349291926e+02,-8.366822579263316584e+01,-1.621641365361701901e+02,9.446745872497558594e+00,-8.031646609306335449e-01,2.677215635776519775e-01,5.680000000000000000e+02
-4.187885991071925673e+02,-2.491744067408180854e+02,-1.088952729109551001e+02,-1.456918242132087471e+02,-2.171049791188979725e+02,-2.169865241706011147e+02,-8.297849075755766535e+01,-1.619018461724390363e+02,9.446745872497558594e+00,-8.031646609306335449e-01,2.677215635776519775e-01,5.690000000000000000e+02
-4.120754397511991556e+02,-2.501420887013864558e+02,-1.069166747644994757e+02,-1.462649033807811065e+02,-2.152585467484841502e+02,-2.166248252514978958e+02,-8.237597462914709467e+01,-1.604380599628093478e+02,9.446745872497558594e+00,-8.031646609306335449e-01,2.677215635776519775e-01,5.700000000000000000e+02
-4.016813456006857450e+02,-2.510349998087494896e+02,-1.026214136550679541e+02,-1.459319028840654937e+02,-2.126414425313651009e+02,-2.162497374122212932e+02,-8.093229582129060873e+01,-1.585007876661857154e+02,9.446745872497558594e+00,-8.031646609306335449e-01,2.677215635776519775e-01,5.710000000000000000e+02
-3.898507211678952444e+02,-2.506917061239128088e+02,-9.740759238729151548e+01,-1.441833128494035918e+02,-2.092157415457331808e+02,-2.150235718605290458e+02,-7.816551824469570420e+01,-1.568560364965342160e+02,9.484992027282714844e+00,-7.649186849594116211e-01,2.294756323099136353e-01,5.720000000000000000e+02
-3.795015418364819197e+02,-2.486551326211265405e+02,-9.331210031916634762e+01,-1.414360718901862128e+02,-2.054595819906335237e+02,-2.125368482508056331e+02,-7.472381983365266933e+01,-1.555030741761038371e+02,9.484992027282714844e+00,-7.649186849594116211e-01,2.294756323099136353e-01,5.730000000000000000e+02
-3.723547047167339770e+02,-2.455148137518353906e+02,-9.177750533323705895e+01,-1.387003035328634724e+02,-2.021615762452638592e+02,-2.090219214342978375e+02,-7.208621185854281066e+01,-1.539306274328355357e+02,9.484992027282714844e+00,-7.649186849594116211e-01,2.294756323099136353e-01,5.740000000000000000e+02
-3.681369717537909310e+02,-2.424771836364470801e+02,-9.277954135875552311e+01,-1.368316240578405996e+02,-1.999759706455715786e+02,-2.052167244528100127e+02,-7.135611908893042710e+01,-1.520069438289901882e+02,9.484992027282714844e+00,-7.649186849594116211e-01,2.294756323099136353e-01,5.750000000000000000e+02
-3.653511458707980637e+02,-2.405172284395630413e+02,-9.491031317542001489e+01,-1.359911251677640394e+02,-1.990303850504351431e+02,-2.019853413017845014e+02,-7.219756285390212724e+01,-1.504182548719945771e+02,9.484992027282714844e+00,-7.649186849594116211e-01,2.294756323099136353e-01,5.760000000000000000e+02
-3.626887315736767050e+02,-2.397860601966094691e+02,-9.635034868459479185e+01,-1.357156357163003122e+02,-1.988663867776522238e+02,-1.998897615396999754e+02,-7.299913326707246597e+01,-1.501657352347265260e+02,9.484992027282714844e+00,-7.649186849594116211e-01,2.294756323099136353e-01,5.770000000000000000e+02
-3.597790149449810997e+02,-2.396831520610976440e+02,-9.603896356497716624e+01,-1.354501790952781448e+02,-1.987499412188735732e+02,-1.989283312230109004e+02,-7.225404630752018420e+01,-1.516858871256335988e+02,9.484992027282714844e+00,-7.649186849594116211e-01,2.294756323099136353e-01,5.780000000000000000e+02
-3.568688108010974247e+02,-2.394296466534524370e+02,-9.423510226554572000e+01,-1.350290995271625434e+02,-1.981165020489388553e+02,-1.986005763837783888e+02,-6.993656953538447851e+01,-1.544864915344242036e+02,9.484992027282714844e+00,-7.649186849594116211e-01,2.294756323099136353e-01,5.790000000000000000e+02
-3.540998515101855446e+02,-2.386120263847624301e+02,-9.213400924622874300e+01,-1.346975112622421875e+02,-1.968266110282420414e+02,-1.982717760577943409e+02,-6.755074372682975081e+01,-1.575331204669564613e+02,9.484992027282714844e+00,-7.649186849594116211e-01,2.294756323099136353e-01,5.800000000000000000e+02
-3.512876807398824894e+02,-2.373081475740309543e+02,-9.092371251521581144e+01,-1.347137479418215662e+02,-1.951108694260292395e+02,-1.975959635707113193e+02,-6.673886743381626729e+01,-1.598969144273542042e+02,9.484992027282714844e+00,-7.649186849594116211e-01,2.294756323099136353e-01,5.810000000000000000e+02
-3.483441938525902515e+02,-2.358383366454600036e+02,-9.105186512515865616e+01,-1.349509672702279204e+02,-1.933461549868043221e+02,-1.966817582564399345e+02,-6.775222718314034864e+01,-1.611262729343106912e+02,9.484992027282714844e+00,-7.649186849594116211e-01,2.294756323099136353e-01,5.820000000000000000e+02
-3.456443195652573195e+02,-2.344701774842651503e+02,-9.218724457632742997e+01,-1.349010391831270681e+02,-1.918639212637608580e+02,-1.958807637181780592e+02,-6.924267979988144361e+01,-1.612539579876611242e+02,9.484992027282714844e+00,-7.649186849594116211e-01,2.294756323099136353e-01,5.830000000000000000e+02
-3.436964340165213798e+02,-2.333234029960476619e+02,-9.371074185418547131e+01,-1.340996801276378392e+02,-1.908288603345827141e+02,-1.954081731073019910e+02,-6.953507262033599545e+01,-1.606351753100498172e+02,9.484992027282714844e+00,-7.649186849594116211e-01,2.294756323099136353e-01,5.840000000000000000e+02
-3.423160412412144069e+02,-2.324173757044991362e+02,-9.512654351733181102e+01,-1.325630058155438746e+02,-1.900980316566128749e+02,-1.951188597579457564e+02,-6.806521197414986091e+01,-1.596664593896566657e+02,9.484992027282714844e+00,-7.649186849594116211e-01,2.294756323099136353e-01,5.850000000000000000e+02
-3.402168390567094320e+02,-2.316572531976926257e+02,-9.601963340358634014e+01,-1.307804656290136336e+02,-1.891024144794682798e+02,-1.945884691229075543e+02,-6.556388500695902621e+01,-1.583688305153518741e+02,9.484992027282714844e+00,-7.649186849594116211e-01,2.294756323099136353e-01,5.860000000000000000e+02
-3.356944029104088258e+02,-2.307145875180467556e+02,-9.583115060945237929e+01,-1.292193619350837253e+02,-1.870109312455315376e+02,-1.933681385880736343e+02,-6.294270775204495294e+01,-1.561190079019470431e+02,9.484992027282714844e+00,-7.649186849594116211e-01,2.294756323099136353e-01,5.870000000000000000e+02
-3.279889815409551375e+02,-2.289906006729324872e+02,-9.401253000303040608e+01,-1.278048808450585057e+02,-1.833221306195628131e+02,-1.912002069012451102e+02,-6.023608030339164543e+01,-1.520371568715854664e+02,9.484992027282714844e+00,-7.649186849594116211e-01,2.294756323099136353e-01,5.880000000000000000e+02
-3.181039608389655768e+02,-2.258718448109648307e+02,-9.066656088679883396e+01,-1.259307404186001804e+02,-1.785445424335994176e+02,-1.881227382317665615e+02,-5.683402395178563893e+01,-1.460621110303873138e+02,9.484992027282714844e+00,-7.649186849594116211e-01,2.294756323099136353e-01,5.890000000000000000e+02
-3.082280190534147550e+02,-2.212165891737386119e+02,-8.701954733916863916e+01,-1.230744291619666910e+02,-1.742653383540418872e+02,-1.845054034630775277e+02,-5.272647171267817612e+01,-1.398136553329095477e+02,9.484992027282714844e+00,-7.649186849594116211e-01,2.294756323099136353e-01,5.900000000000000000e+02
-3.001592200830527872e+02,-2.156906490008732362e+02,-8.493566575956720044e+01,-1.194573893512788345e+02,-1.722302225649473257e+02,-1.810125446586425824e+02,-4.923255200767744100e+01,-1.360694140569430601e+02,9.484992027282714844e+00,-7.649186849594116211e-01,2.294756323099136353e-01,5.910000000000000000e+02
-2.940812126090240781e+02,-2.105770947173659806e+02,-8.551517198433066369e+01,-1.160540401701618975e+02,-1.729499140510451980e+02,-1.783773466445964004e+02,-4.812814984706710675e+01,-1.367322862524961238e+02,9.484992027282714844e+00,-7.649186849594116211e-01,2.294756323099136353e-01,5.920000000000000000e+02
-2.887026999439949577e+02,-2.070786473021435086e+02,-8.792640058850156493e+01,-1.138501491468596214e+02,-1.750274135713807482e+02,-1.769912561347991868e+02,-4.986012451342321583e+01,-1.408072125362632505e+02,9.484992027282714844e+00,-7.649186849594116211e-01,2.294756323099136353e-01,5.930000000000000000e+02
-2.825039618643895665e+02,-2.055922829663395532e+02,-8.969946563098710612e+01,-1.130039626422258152e+02,-1.759809272392012645e+02,-1.765796381551881495e+02,-5.270072812614671420e+01,-1.443690203087389818e+02,9.484992027282714844e+00,-7.649186849594116211e-01,2.294756323099136353e-01,5.940000000000000000e+02
-2.749358967789376038e+02,-2.054997254609770607e+02,-8.850213008444916341e+01,-1.127080587276323058e+02,-1.740461215566429019e+02,-1.762981132515960780e+02,-5.389966676489348174e+01,-1.430034790526369761e+02,9.484992027282714844e+00,-7.649186849594116211e-01,2.294756323099136353e-01,5.950000000000000000e+02
-2.666545792885990522e+02,-2.055991557170127635e+02,-8.397708489514843677e+01,-1.118786264588234189e+02,-1.694653940179814526e+02,-1.752557402955389989e+02,-5.188485755367946695e+01,-1.349274922252006945e+02,9.484992027282714844e+00,-7.649186849594116211e-01,2.294756323099136353e-01,5.960000000000000000e+02
-2.589201962327715592e+02,-2.048199171285486955e+02,-7.803537760907784104e+01,-1.100149808351452521e+02,-1.641686956847916008e+02,-1.730725970080238767e+02,-4.746258191951710614e+01,-1.222431572166897240e+02,9.408499717712402344e+00,-7.649186849594116211e-01,2.294756323099136353e-01,5.970000000000000000e+02
-2.529527369434872526e+02,-2.027016410624528362e+02,-7.334492678015521960e+01,-1.074430966523432289e+02,-1.601727517273611738e+02,-1.700158754789190425e+02,-4.291017144388024462e+01,-1.093275083057123993e+02,9.408499717712402344e+00,-7.649186849594116211e-01,2.294756323099136353e-01,5.980000000000000000e+02
-2.497182915286939533e+02,-1.994053708404899226e+02,-7.136515510926255956e+01,-1.048135162447288167e+02,-1.581621982147262315e+02,-1.666648078728794644e+02,-3.992474833262167522e+01,-9.980525542869509081e+01,9.408499717712402344e+00,-7.649186849594116211e-01,2.294756323099136353e-01,5.990000000000000000e+02
-2.498750882810491021e+02,-1.954411708610132337e+02,-7.160748963001242373e+01,-1.024489771692460636e+02,-1.574237609634510591e+02,-1.634742727705561265e+02,-3.843938926962073310e+01,-9.458951928711758228e+01,9.408499717712402344e+00,-7.649186849594116211e-01,2.294756323099136353e-01,6.000000000000000000e+02
-2.534048412699485198e+02,-1.914235268463016837e+02,-7.254406963106885087e+01,-1.001888053178336122e+02,-1.569172889567053062e+02,-1.606085628760811232e+02,-3.729924978245617240e+01,-9.222635543383148615e+01,9.408499717712402344e+00,-7.649186849594116211e-01,2.294756323099136353e-01,6.010000000000000000e+02
-2.590460503495851299e+02,-1.879799856521858601e+02,-7.306865685678712907e+01,-9.777936761529417709e+01,-1.562476454878742516e+02,-1.580512422812862496e+02,-3.588179572614899371e+01,-9.065967006263599615e+01,9.408499717712402344e+00,-7.649186849594116211e-01,2.294756323099136353e-01,6.020000000000000000e+02
-2.642296554883359931e+02,-1.856618769623310072e+02,-7.310027337282372173e+01,-9.529747584940560046e+01,-1.555991249793914903e+02,-1.557315319112749421e+02,-3.488627347970395931e+01,-8.861901639273492037e+01,9.408499717712402344e+00,-7.649186849594116211e-01,2.294756323099136353e-01,6.030000000000000000e+02
-2.660155729745783901e+02,-1.847185989013232756e+02,-7.301881044196488801e+01,-9.316386741159658413e+01,-1.549441551803174661e+02,-1.535380653849024384e+02,-3.553551455702836392e+01,-8.576092469289505971e+01,9.408499717712402344e+00,-7.649186849594116211e-01,2.294756323099136353e-01,6.040000000000000000e+02
-2.625853208733169595e+02,-1.848587098767893622e+02,-7.281894341106453794e+01,-9.179597519570233999e+01,-1.536141061836242443e+02,-1.513408941267589398e+02,-3.812559437502932269e+01,-8.212946255983479205e+01,9.408499717712402344e+00,-7.649186849594116211e-01,2.294756323099136353e-01,6.050000000000000000e+02
-2.541595988962508272e+02,-1.852745759011850168e+02,-7.198234127542673377e+01,-9.128644461214571493e+01,-1.508129542513452179e+02,-1.491401375425266451e+02,-4.145079419792818953e+01,-7.788383370178416953e+01,9.408499717712402344e+00,-7.649186849594116211e-01,2.294756323099136353e-01,6.060000000000000000e+02
-2.426476062582769373e+02,-1.850714799959896482e+02,-7.012041566407424398e+01,-9.138418689442187315e+01,-1.465499205740634352e+02,-1.472099925173970405e+02,-4.365912680677865865e+01,-7.347599763453399646e+01,9.408499717712402344e+00,-7.649186849594116211e-01,2.294756323099136353e-01,6.070000000000000000e+02
-2.304113620159514539e+02,-1.838841117566007597e+02,-6.759051800858651404e+01,-9.171812639040945214e+01,-1.419732595600908098e+02,-1.459882617488910910e+02,-4.369332545393990586e+01,-6.970296463370323181e+01,9.408499717712402344e+00,-7.649186849594116211e-01,2.294756323099136353e-01,6.080000000000000000e+02
-2.191585938081771019e+02,-1.822129447237239219e+02,-6.537041585691622458e+01,-9.202472490398940863e+01,-1.386701960335776675e+02,-1.456946036809167708e+02,-4.200318223342765123e+01,-6.724325779542414239e+01,9.408499717712402344e+00,-7.649186849594116211e-01,2.294756323099136353e-01,6.090000000000000000e+02
-2.096124920161091723e+02,-1.811252215202985099e+02,-6.430422747648117365e+01,-9.224210337190015707e+01,-1.375288829841665574e+02,-1.460074778828275157e+02,-4.000534986557613593e+01,-6.606396188832150074e+01,9.408499717712402344e+00,-7.649186849594116211e-01,2.294756323099136353e-01,6.100000000000000000e+02
-2.017454936853828258e+02,-1.814464148995866708e+02,-6.444724652119111852e+01,-9.249005421945912531e+01,-1.381668806812340335e+02,-1.461599015514002531e+02,-3.890375853163641295e+01,-6.540948785950240563e+01,9.408499717712402344e+00,-7.649186849594116211e-01,2.294756323099136353e-01,6.110000000000000000e+02
-1.950065051932033384e+02,-1.830331426405937236e+02,-6.506961525920996792e+01,-9.297148046592701576e+01,-1.393532920618381468e+02,-1.454444361498754006e+02,-3.888298625586321577e+01,-6.448645122618836467e+01,9.408499717712402344e+00,-7.649186849594116211e-01,2.294756323099136353e-01,6.120000000000000000e+02
