F3,F4,C3,C4,P3,P4,Cz,Pz,Accel_x,Accel_y,Accel_z,Sample
-5.820766091346740723e-11,-9.094947017729282379e-11,-5.456968210637569427e-11,-5.820766091346740723e-11,-6.912159733474254608e-11,-8.913048077374696732e-11,-8.367351256310939789e-11,-8.549250196665525436e-11,9.370253562927246094e+00,7.649187743663787842e-02,9.179025292396545410e-01,2.260000000000000000e+02
-1.956247553498451452e+01,-1.752446399937616661e+01,-1.427746431875311828e+01,-7.327344024204649031e+00,-4.165829671897517983e+01,-3.201092599415278528e+01,-1.336420430708494678e+01,-8.789487789530539885e+00,9.370253562927246094e+00,7.649187743663787842e-02,9.179025292396545410e-01,2.270000000000000000e+02
-3.829853527656996448e+01,-3.655209006142649741e+01,-2.419081572789400525e+01,-1.500975672578169906e+01,-7.141830287868651794e+01,-5.873542691253896919e+01,-2.162920896405012172e+01,-1.764963243917736690e+01,9.370253562927246094e+00,7.649187743663787842e-02,9.179025292396545410e-01,2.280000000000000000e+02
-5.588630711352834624e+01,-5.689700705600262154e+01,-2.928708767484749842e+01,-2.312574504077929305e+01,-8.771152518095004780e+01,-7.928477990066858183e+01,-2.403683134714628977e+01,-2.649459737977667828e+01,9.370253562927246094e+00,7.649187743663787842e-02,9.179025292396545410e-01,2.290000000000000000e+02
-7.270012163511546532e+01,-7.686797692182153696e+01,-3.311731755412256462e+01,-3.145992462740650808e+01,-9.945190579475638515e+01,-9.732771412821239210e+01,-2.440315746002124797e+01,-3.522963328028890828e+01,9.370253562927246094e+00,7.649187743663787842e-02,9.179025292396545410e-01,2.300000000000000000e+02
-8.956113717170683231e+01,-9.510061708818193438e+01,-3.962649360391878872e+01,-3.975933388464545715e+01,-1.164802833961257420e+02,-1.171385649241401552e+02,-2.732388070669549052e+01,-4.406706185195253056e+01,9.370253562927246094e+00,7.649187743663787842e-02,9.179025292396545410e-01,2.310000000000000000e+02
-1.072018959833485496e+02,-1.120049697297399689e+02,-4.961710347833286505e+01,-4.801654900071298471e+01,-1.404979834193673014e+02,-1.397105983680412464e+02,-3.431952973798615858e+01,-5.358237296272091044e+01,9.370253562927246094e+00,7.649187743663787842e-02,9.179025292396545410e-01,2.320000000000000000e+02
-1.258095455670936644e+02,-1.292815551284247704e+02,-6.066110840687906602e+01,-5.649479329929999949e+01,-1.652653454608935135e+02,-1.626307758248804021e+02,-4.345952576761737873e+01,-6.430108061918872409e+01,9.370253562927246094e+00,7.649187743663787842e-02,9.179025292396545410e-01,2.330000000000000000e+02
-1.449825505089193030e+02,-1.481024202716707805e+02,-7.006036759670496394e+01,-6.544291889367013937e+01,-1.845441966613561817e+02,-1.832475083236786304e+02,-5.210893717080398346e+01,-7.614757381779600109e+01,9.370253562927246094e+00,7.649187743663787842e-02,9.179025292396545410e-01,2.340000000000000000e+02
-1.641207959611174374e+02,-1.679550280698249480e+02,-7.748081149815516255e+01,-7.474364244635671639e+01,-1.986297040917688719e+02,-2.014558196718753607e+02,-5.946681628738042491e+01,-8.830243226274615154e+01,9.370253562927246094e+00,7.649187743663787842e-02,9.179025292396545410e-01,2.350000000000000000e+02
-1.829274190191290472e+02,-1.873041686248097903e+02,-8.470522970176716626e+01,-8.384596910297568684e+01,-2.130485783239109878e+02,-2.193824900471499859e+02,-6.647651245661472785e+01,-9.965126678553679085e+01,9.370253562927246094e+00,7.649187743663787842e-02,9.179025292396545410e-01,2.360000000000000000e+02
-2.015825407395268485e+02,-2.052175046027969074e+02,-9.327458791854587616e+01,-9.210916495895526168e+01,-2.320298257650174492e+02,-2.388451604469792073e+02,-7.392670904523765785e+01,-1.094576933225271205e+02,9.370253562927246094e+00,7.649187743663787842e-02,9.179025292396545410e-01,2.370000000000000000e+02
-2.204013725531422097e+02,-2.222017134232510216e+02,-1.028374030444192613e+02,-9.931893289963136340e+01,-2.543670961674833961e+02,-2.595942479662244295e+02,-8.130294346402297379e+01,-1.177353230191674811e+02,9.370253562927246094e+00,7.649187743663787842e-02,9.179025292396545410e-01,2.380000000000000000e+02
-2.392692700869774853e+02,-2.395068738485033464e+02,-1.118444552593900880e+02,-1.059646704312754082e+02,-2.755605268902399985e+02,-2.800032686486065359e+02,-8.759771331255433324e+01,-1.251347854103623831e+02,9.370253562927246094e+00,7.649187743663787842e-02,9.179025292396545410e-01,2.390000000000000000e+02
-2.574230139314895496e+02,-2.577866520960978960e+02,-1.194844268328579346e+02,-1.130182552748192393e+02,-2.929281360280219815e+02,-2.990346892150719214e+02,-9.280913075754688180e+01,-1.325727112764843696e+02,9.370253562927246094e+00,7.649187743663787842e-02,9.179025292396545410e-01,2.400000000000000000e+02
-2.738768937857494166e+02,-2.764988850294957956e+02,-1.265811888671069028e+02,-1.213247363703167139e+02,-3.078789917103858897e+02,-3.172000683616242895e+02,-9.820860442924094968e+01,-1.408891634223746223e+02,9.370253562927246094e+00,7.649187743663787842e-02,9.179025292396545410e-01,2.410000000000000000e+02
-2.881930861952769192e+02,-2.944662664190118448e+02,-1.346060187907605723e+02,-1.310238282130276275e+02,-3.235955819028113183e+02,-3.357186713897608570e+02,-1.050852713634540123e+02,-1.506033817640500274e+02,9.370253562927246094e+00,7.649187743663787842e-02,9.179025292396545410e-01,2.420000000000000000e+02
-3.009359111038884294e+02,-3.108535805980318401e+02,-1.440675065273826476e+02,-1.414268292922079127e+02,-3.415055465407240263e+02,-3.550985900114283140e+02,-1.134267774820400518e+02,-1.617087879527225596e+02,9.370253562927246094e+00,7.649187743663787842e-02,9.179025292396545410e-01,2.430000000000000000e+02
-3.133803929082141622e+02,-3.256289874690237411e+02,-1.540211825572241651e+02,-1.514305848708154372e+02,-3.604273285042663701e+02,-3.746779093810164341e+02,-1.219167274987103156e+02,-1.735478074740130978e+02,9.370253562927246094e+00,7.649187743663787842e-02,9.179025292396545410e-01,2.440000000000000000e+02
-3.266897120378971522e+02,-3.393095050693036683e+02,-1.630498230512494047e+02,-1.601700735775966677e+02,-3.785719033827790554e+02,-3.933457986839512159e+02,-1.291037562028704997e+02,-1.849577518719679574e+02,9.370253562927246094e+00,7.649187743663787842e-02,9.179025292396545410e-01,2.450000000000000000e+02
-3.412225097040009132e+02,-3.524430965432338780e+02,-1.705244319160483428e+02,-1.674391806725643619e+02,-3.955240046654362231e+02,-4.104411939989004168e+02,-1.344783361449945005e+02,-1.947474024570055917e+02,9.370253562927246094e+00,7.649187743663787842e-02,9.179025292396545410e-01,2.460000000000000000e+02
-3.564716435750478922e+02,-3.652827939108274222e+02,-1.768951602629877016e+02,-1.735921617897365650e+02,-4.120636740811232812e+02,-4.259573748207603785e+02,-1.385576613995408479e+02,-2.022574673337448985e+02,9.370253562927246094e+00,7.649187743663787842e-02,9.179025292396545410e-01,2.470000000000000000e+02
-3.715611190470262954e+02,-3.777554393915670516e+02,-1.829507117322955310e+02,-1.790703639743942404e+02,-4.285888356641326027e+02,-4.401637933736201376e+02,-1.422143290644362423e+02,-2.076188383101580257e+02,9.370253562927246094e+00,7.649187743663787842e-02,9.179025292396545410e-01,2.480000000000000000e+02
-3.857884436338345040e+02,-3.896298452563905812e+02,-1.889807998102069178e+02,-1.840139585976112357e+02,-4.442969436473304086e+02,-4.533026052823488499e+02,-1.460450948924190016e+02,-2.115720068743830780e+02,9.370253562927246094e+00,7.649187743663787842e-02,9.179025292396545410e-01,2.490000000000000000e+02
-3.988226463344144577e+02,-4.007845964587431808e+02,-1.946328709441213505e+02,-1.883239408837325755e+02,-4.579679830333670907e+02,-4.656578939815344711e+02,-1.502049492191363242e+02,-2.150464378704882620e+02,9.370253562927246094e+00,7.649187743663787842e-02,9.179025292396545410e-01,2.500000000000000000e+02
-4.106049159987151143e+02,-4.114379778530437761e+02,-1.993996159723419623e+02,-1.920907396033271652e+02,-4.692405166875314535e+02,-4.777141364344852263e+02,-1.545388679169973329e+02,-2.188012247872929947e+02,9.370253562927246094e+00,7.649187743663787842e-02,9.179025292396545410e-01,2.510000000000000000e+02
-4.212406443347081222e+02,-4.221218334859486276e+02,-2.031129197797308734e+02,-1.958903879091049021e+02,-4.789522341079555190e+02,-4.900565569477312238e+02,-1.587148093214109394e+02,-2.232619805779186208e+02,9.370253562927246094e+00,7.649187743663787842e-02,9.179025292396545410e-01,2.520000000000000000e+02
-4.310108602337513730e+02,-4.333003038952101633e+02,-2.060138450341773932e+02,-2.005135935780017462e+02,-4.883742211405478884e+02,-5.030485376254864605e+02,-1.623095089868866125e+02,-2.284734124668530058e+02,9.370253562927246094e+00,7.649187743663787842e-02,9.179025292396545410e-01,2.530000000000000000e+02
-4.403468336175510558e+02,-4.449094162814171796e+02,-2.085151913875379250e+02,-2.062619751185548012e+02,-4.982949130070101091e+02,-5.166100695888972041e+02,-1.649727633815255103e+02,-2.341153259783786780e+02,9.370253562927246094e+00,7.649187743663787842e-02,9.179025292396545410e-01,2.540000000000000000e+02
-4.496012038488697726e+02,-4.562917851421952946e+02,-2.109970068144584729e+02,-2.124570431327892948e+02,-5.087665616184303872e+02,-5.302847956475570754e+02,-1.666535414869140368e+02,-2.396444487234230110e+02,9.370253562927246094e+00,7.649187743663787842e-02,9.179025292396545410e-01,2.550000000000000000e+02
-4.587643789989933794e+02,-4.666689952118740621e+02,-2.137756295954677626e+02,-2.177238856419517106e+02,-5.194738892944023974e+02,-5.434795882897924457e+02,-1.677047865578533674e+02,-2.445822256817255038e+02,9.370253562927246094e+00,7.649187743663787842e-02,9.179025292396545410e-01,2.560000000000000000e+02
-4.674604905901251186e+02,-4.757272004155438481e+02,-2.171218083871262934e+02,-2.209395254600485714e+02,-5.301857781003363925e+02,-5.556716933608622639e+02,-1.687519472393369142e+02,-2.487935911804770512e+02,9.370253562927246094e+00,7.649187743663787842e-02,9.179025292396545410e-01,2.570000000000000000e+02
-4.753444608986428648e+02,-4.837519437833407210e+02,-2.211811427790489688e+02,-2.220804999183565087e+02,-5.409261096361269665e+02,-5.665280617444705058e+02,-1.703992735118299606e+02,-2.525152607620484559e+02,9.370253562927246094e+00,7.649187743663787842e-02,9.179025292396545410e-01,2.580000000000000000e+02
-4.825789687938267889e+02,-4.912643402878939014e+02,-2.258422184617020321e+02,-2.222508734843513594e+02,-5.518532570954830589e+02,-5.759921320135908900e+02,-1.729595098787376628e+02,-2.561078497222470105e+02,9.370253562927246094e+00,7.649187743663787842e-02,9.179025292396545410e-01,2.590000000000000000e+02
-4.899031691652899099e+02,-4.986641961939258181e+02,-2.307332552130346812e+02,-2.228828930373038020e+02,-5.629945459032496728e+02,-5.843428485396361793e+02,-1.763470098366015009e+02,-2.597802640031504779e+02,9.370253562927246094e+00,7.649187743663787842e-02,9.179025292396545410e-01,2.600000000000000000e+02
-4.981460359125640025e+02,-5.062862536605989590e+02,-2.354185819810036264e+02,-2.248003133005204290e+02,-5.740348811165031293e+02,-5.921431954417485031e+02,-1.801694685547754489e+02,-2.635359119451240986e+02,9.370253562927246094e+00,7.649187743663787842e-02,9.179025292396545410e-01,2.610000000000000000e+02
-5.075706088571778309e+02,-5.146327460153152060e+02,-2.396559801770235936e+02,-2.278717709032634957e+02,-5.843663601874022788e+02,-6.000219698592845816e+02,-1.839500810332465335e+02,-2.673371039657295114e+02,9.370253562927246094e+00,7.649187743663787842e-02,9.179025292396545410e-01,2.620000000000000000e+02
-5.176107101569332372e+02,-5.242237666524770248e+02,-2.434896209543385339e+02,-2.314008171879413567e+02,-5.934703848836861653e+02,-6.083890056899699630e+02,-1.873594820737798727e+02,-2.712427606163346354e+02,9.370253562927246094e+00,7.649187743663787842e-02,9.179025292396545410e-01,2.630000000000000000e+02
-5.272383040980730584e+02,-5.349838015993982481e+02,-2.471038534717945367e+02,-2.347947698348871199e+02,-6.013958412555875839e+02,-6.172813697293649966e+02,-1.903394874634923326e+02,-2.753587336635464453e+02,9.370253562927246094e+00,7.649187743663787842e-02,9.179025292396545410e-01,2.640000000000000000e+02
-5.356711032670928034e+02,-5.458741179882454162e+02,-2.506040322883281988e+02,-2.379664952587681910e+02,-6.088858802129425385e+02,-6.264658954269325477e+02,-1.930821248534275583e+02,-2.797211897311308348e+02,9.370253562927246094e+00,7.649187743663787842e-02,9.179025292396545410e-01,2.650000000000000000e+02
-5.428913619059376288e+02,-5.554810387781981262e+02,-2.539575723353973444e+02,-2.412724112701507693e+02,-6.169259303017624916e+02,-6.357277053591596996e+02,-1.959228024624753743e+02,-2.843064363096154921e+02,9.370253562927246094e+00,7.649187743663787842e-02,9.179025292396545410e-01,2.660000000000000000e+02
-5.496552350690844833e+02,-5.632729695193474981e+02,-2.571425786015815902e+02,-2.451543790870900921e+02,-6.260086253818371915e+02,-6.450897920113129658e+02,-1.992169450635028625e+02,-2.891493312470774981e+02,9.370253562927246094e+00,7.649187743663787842e-02,9.179025292396545410e-01,2.670000000000000000e+02
-5.570529479896081284e+02,-5.702977373398575764e+02,-2.603250511251917487e+02,-2.497586307645697161e+02,-6.357400263042645747e+02,-6.547445077396241686e+02,-2.031930793881247155e+02,-2.943480426130190608e+02,9.370253562927246094e+00,7.649187743663787842e-02,9.179025292396545410e-01,2.680000000000000000e+02
-5.659268807761955031e+02,-5.783921820549235235e+02,-2.638644604589526352e+02,-2.547296189885410058e+02,-6.451784082506219420e+02,-6.647407605040725684e+02,-2.077674344644437952e+02,-2.998650020680433954e+02,9.370253562927246094e+00,7.649187743663787842e-02,9.179025292396545410e-01,2.690000000000000000e+02
-5.764632478325988814e+02,-5.884393051069610010e+02,-2.681544695023403619e+02,-2.593123381199911819e+02,-6.536640736963890959e+02,-6.747463820104976548e+02,-2.124577020648657708e+02,-3.053785175892462576e+02,9.370253562927246094e+00,7.649187743663787842e-02,9.179025292396545410e-01,2.700000000000000000e+02
-5.881013578803390374e+02,-5.993163319159725688e+02,-2.734366285174091900e+02,-2.627923788021525979e+02,-6.614309610554018946e+02,-6.841773496605719629e+02,-2.165877609572344227e+02,-3.104697414694301187e+02,9.370253562927246094e+00,7.649187743663787842e-02,9.179025292396545410e-01,2.710000000000000000e+02
-5.997624087196836626e+02,-6.086717284590599775e+02,-2.797147275764255028e+02,-2.650700756215474030e+02,-6.694913590191299591e+02,-6.926622988920744319e+02,-2.197957398263033610e+02,-3.150418887267496757e+02,9.370253562927246094e+00,7.649187743663787842e-02,9.179025292396545410e-01,2.720000000000000000e+02
-6.103067035640287941e+02,-6.149133432639209786e+02,-2.867404328859029192e+02,-2.669024588907786892e+02,-6.788668553750048886e+02,-7.004264827219321887e+02,-2.224590032365913430e+02,-3.194850664785708432e+02,9.370253562927246094e+00,7.649187743663787842e-02,9.179025292396545410e-01,2.730000000000000000e+02
-6.190235617728048965e+02,-6.185747945404600614e+02,-2.939699339118624266e+02,-2.694609809157864220e+02,-6.896910221373482273e+02,-7.081414935852499184e+02,-2.255020078426659893e+02,-3.242879945594340825e+02,9.370253562927246094e+00,7.649187743663787842e-02,9.179025292396545410e-01,2.740000000000000000e+02
-6.259046405407211751e+02,-6.218216149814597884e+02,-3.005596300490187787e+02,-2.734126482062447394e+02,-7.008512043852642819e+02,-7.162807517759702023e+02,-2.295489431332052845e+02,-3.294583282931489521e+02,9.370253562927246094e+00,7.649187743663787842e-02,9.179025292396545410e-01,2.750000000000000000e+02
-6.315485393431945340e+02,-6.266605824889134055e+02,-3.055980114026197043e+02,-2.782697604791815138e+02,-7.105577832009767008e+02,-7.245870519350482937e+02,-2.341212624729287199e+02,-3.344414733199582770e+02,9.370253562927246094e+00,7.649187743663787842e-02,9.179025292396545410e-01,2.760000000000000000e+02
-6.367570169386394809e+02,-6.335869742766212767e+02,-3.085949538577269777e+02,-2.826587166274548508e+02,-7.175667820255166589e+02,-7.322417348878207122e+02,-2.377449438733574425e+02,-3.387379008437455923e+02,9.370253562927246094e+00,7.649187743663787842e-02,9.179025292396545410e-01,2.770000000000000000e+02
-6.420727260540870702e+02,-6.417840728237929397e+02,-3.098846863885300991e+02,-2.853803620931294063e+02,-7.221586146456820643e+02,-7.386456652469660185e+02,-2.390771841408914042e+02,-3.425837064333281887e+02,9.370253562927246094e+00,7.649187743663787842e-02,9.179025292396545410e-01,2.780000000000000000e+02
-6.475378385446842913e+02,-6.503438312219886939e+02,-3.105030462947606793e+02,-2.863708566668747153e+02,-7.259861603597482826e+02,-7.440480140586314519e+02,-2.381277269702422927e+02,-3.468538145617212649e+02,9.370253562927246094e+00,7.649187743663787842e-02,9.179025292396545410e-01,2.790000000000000000e+02
-6.528077195815062623e+02,-6.590604819880040850e+02,-3.115224624118882275e+02,-2.867175486519595324e+02,-7.307832057240320864e+02,-7.493526360526375356e+02,-2.364477255189131029e+02,-3.521360491570276281e+02,9.370253562927246094e+00,7.649187743663787842e-02,9.179025292396545410e-01,2.800000000000000000e+02
-6.575257233165639263e+02,-6.680240528862609608e+02,-3.133972054644445961e+02,-2.877342833428829181e+02,-7.370113900949245362e+02,-7.552676564021903687e+02,-2.360625871538877618e+02,-3.579157873472045139e+02,9.370253562927246094e+00,7.649187743663787842e-02,9.561483860015869141e-01,2.810000000000000000e+02
-6.616853980761916318e+02,-6.766913234593494053e+02,-3.159167000889719930e+02,-2.899409538040426924e+02,-7.436801244353441689e+02,-7.616529321233829251e+02,-2.380593090184975154e+02,-3.628308822990284170e+02,9.370253562927246094e+00,7.649187743663787842e-02,9.561483860015869141e-01,2.820000000000000000e+02
-6.657216881393833319e+02,-6.837148137818417126e+02,-3.187564352135632362e+02,-2.928167589744848556e+02,-7.495023180478797258e+02,-7.677176240430562757e+02,-2.419953862946358640e+02,-3.658687261168515761e+02,9.370253562927246094e+00,7.649187743663787842e-02,9.561483860015869141e-01,2.830000000000000000e+02
-6.702473783711429860e+02,-6.879348862160591125e+02,-3.219693918676184694e+02,-2.954178939322523547e+02,-7.542050964653412848e+02,-7.728376716078046229e+02,-2.464688127901408734e+02,-3.673128720277532011e+02,9.370253562927246094e+00,7.649187743663787842e-02,9.561483860015869141e-01,2.840000000000000000e+02
-6.755973473307726636e+02,-6.895767139987788141e+02,-3.258499592910566207e+02,-2.971972406012887404e+02,-7.586537319199592275e+02,-7.771570284916488163e+02,-2.501954317547833853e+02,-3.684489547009516173e+02,9.370253562927246094e+00,7.649187743663787842e-02,9.561483860015869141e-01,2.850000000000000000e+02
-6.815068254622710811e+02,-6.903604433281443562e+02,-3.303569397366472913e+02,-2.983196172012121679e+02,-7.637314371612833384e+02,-7.814181253001688674e+02,-2.527015958678421157e+02,-3.703315973213034340e+02,9.370253562927246094e+00,7.649187743663787842e-02,9.561483860015869141e-01,2.860000000000000000e+02
-6.871975348073742680e+02,-6.922840372297591784e+02,-3.348415349936599341e+02,-2.993338068889879651e+02,-7.692653166588861495e+02,-7.862743855114340477e+02,-2.542859640277961262e+02,-3.729028003735261336e+02,9.370253562927246094e+00,7.649187743663787842e-02,9.561483860015869141e-01,2.870000000000000000e+02
-6.918724975136633475e+02,-6.961441345975949844e+02,-3.385210967424100090e+02,-3.006476619155837398e+02,-7.742215865987573125e+02,-7.917961772899261632e+02,-2.555672120249637373e+02,-3.753656596070172782e+02,9.370253562927246094e+00,7.649187743663787842e-02,9.561483860015869141e-01,2.880000000000000000e+02
-6.952891384617322501e+02,-7.011030630527900485e+02,-3.412362051861178998e+02,-3.022905953968001995e+02,-7.779300793645830936e+02,-7.975482806261319411e+02,-2.570709807622035896e+02,-3.773153531182567804e+02,9.370253562927246094e+00,7.649187743663787842e-02,9.561483860015869141e-01,2.890000000000000000e+02
-6.979629182340067928e+02,-7.055997543363420164e+02,-3.436092342820720660e+02,-3.040645479477499293e+02,-7.809209133785939230e+02,-8.030020506517626018e+02,-2.590316282249382311e+02,-3.793091300971225337e+02,9.370253562927246094e+00,7.649187743663787842e-02,9.561483860015869141e-01,2.900000000000000000e+02
-7.008040957692784332e+02,-7.086911738268270256e+02,-3.463415947581281671e+02,-3.058381377182051892e+02,-7.843866152234290894e+02,-8.078367461357070169e+02,-2.613673493041537768e+02,-3.822010076733791948e+02,9.370253562927246094e+00,7.649187743663787842e-02,9.561483860015869141e-01,2.910000000000000000e+02
-7.044192257566884336e+02,-7.106722767080125323e+02,-3.493486711925585269e+02,-3.076930491559660368e+02,-7.888090718073749485e+02,-8.119591027014780593e+02,-2.637682400670144034e+02,-3.859543014506707550e+02,9.370253562927246094e+00,7.649187743663787842e-02,9.561483860015869141e-01,2.920000000000000000e+02
-7.086089141145330359e+02,-7.126216704087465814e+02,-3.516901161651852590e+02,-3.098365139323929043e+02,-7.932464660057310084e+02,-8.154115729549146181e+02,-2.658825759134820146e+02,-3.892751765493204630e+02,9.370253562927246094e+00,7.649187743663787842e-02,9.561483860015869141e-01,2.930000000000000000e+02
-7.124749720272203604e+02,-7.154713559040538939e+02,-3.524473366171450834e+02,-3.123920736414627299e+02,-7.960863908250447594e+02,-8.183338283508896893e+02,-2.675165130508389666e+02,-3.905694230377355325e+02,9.370253562927246094e+00,7.649187743663787842e-02,9.561483860015869141e-01,2.940000000000000000e+02
-7.150891370071701658e+02,-7.194067037253385024e+02,-3.517045325398399882e+02,-3.152414744073668089e+02,-7.965514738028597321e+02,-8.209433999204953807e+02,-2.687188609397055643e+02,-3.893575008150841086e+02,9.370253562927246094e+00,7.649187743663787842e-02,9.561483860015869141e-01,2.950000000000000000e+02
-7.162266421965798600e+02,-7.238935730345817774e+02,-3.506525621825546750e+02,-3.180327379709549405e+02,-7.955177430783653563e+02,-8.234408736804334694e+02,-2.697051095885142331e+02,-3.868076684743026590e+02,9.370253562927246094e+00,7.649187743663787842e-02,9.561483860015869141e-01,2.960000000000000000e+02
-7.166022102529984750e+02,-7.280663603890325248e+02,-3.507026891009177234e+02,-3.203457666170904758e+02,-7.949171638928214634e+02,-8.258907591962228025e+02,-2.707173712596948008e+02,-3.849033359738249374e+02,9.370253562927246094e+00,7.649187743663787842e-02,9.561483860015869141e-01,2.970000000000000000e+02
-7.174243541462091116e+02,-7.311145344691011587e+02,-3.524534453102555744e+02,-3.218917539290924879e+02,-7.963262411926493769e+02,-8.282301734564823619e+02,-2.719467633864173877e+02,-3.850355153946800328e+02,9.370253562927246094e+00,7.649187743663787842e-02,9.561483860015869141e-01,2.980000000000000000e+02
-7.195946952354332780e+02,-7.325590914472585382e+02,-3.553895867706906984e+02,-3.225987132097521908e+02,-7.999430527980198349e+02,-8.304061835796784408e+02,-2.734983688619329314e+02,-3.872007274353496769e+02,9.370253562927246094e+00,7.649187743663787842e-02,9.561483860015869141e-01,2.990000000000000000e+02
-7.231229283188355339e+02,-7.324617119559803768e+02,-3.584235355422569000e+02,-3.225492840024878660e+02,-8.046345859215065275e+02,-8.324547419488360447e+02,-2.753222560810523873e+02,-3.902947752799241243e+02,9.370253562927246094e+00,7.649187743663787842e-02,9.561483860015869141e-01,3.000000000000000000e+02
-7.271395326408307938e+02,-7.314909138454886488e+02,-3.606645275777279949e+02,-3.218846386477583792e+02,-8.088037606952136684e+02,-8.344005226145934557e+02,-2.771435339359186401e+02,-3.930152760167472934e+02,9.370253562927246094e+00,7.649187743663787842e-02,9.561483860015869141e-01,3.010000000000000000e+02
-7.304565686709165675e+02,-7.306991687372336628e+02,-3.617896541303905451e+02,-3.208259767810152425e+02,-8.113418331453081009e+02,-8.361187874442359771e+02,-2.785507057478516799e+02,-3.945882578145252637e+02,9.370253562927246094e+00,7.649187743663787842e-02,9.561483860015869141e-01,3.020000000000000000e+02
-7.322681530117604325e+02,-7.310195912716709472e+02,-3.619402977394749996e+02,-3.198010708721136552e+02,-8.120721568254116391e+02,-8.373923872551913519e+02,-2.792940329404053728e+02,-3.949469689868382147e+02,9.370253562927246094e+00,7.649187743663787842e-02,9.561483860015869141e-01,3.030000000000000000e+02
-7.325633148276825750e+02,-7.327973972858393381e+02,-3.614864158976680528e+02,-3.194683764189429667e+02,-8.115541640597364221e+02,-8.381637159668805452e+02,-2.795588472114984597e+02,-3.945127625861102842e+02,9.370253562927246094e+00,7.649187743663787842e-02,9.561483860015869141e-01,3.040000000000000000e+02
-7.320776655154036234e+02,-7.357057047106814025e+02,-3.609141692828483201e+02,-3.204505021877937452e+02,-8.105117168822617941e+02,-8.386848052867753722e+02,-2.798995226657235662e+02,-3.938590073770525350e+02,9.370253562927246094e+00,7.649187743663787842e-02,9.561483860015869141e-01,3.050000000000000000e+02
-7.318734089549087685e+02,-7.390665448480202713e+02,-3.607450930551738111e+02,-3.228756367571735382e+02,-8.093097034979618911e+02,-8.393161362009443565e+02,-2.808055250349694916e+02,-3.933702559048778085e+02,9.370253562927246094e+00,7.649187743663787842e-02,9.561483860015869141e-01,3.060000000000000000e+02
-7.327601387704245326e+02,-7.422395367112986833e+02,-3.613108899749706779e+02,-3.260862017243553055e+02,-8.078282597747515865e+02,-8.401142136021892384e+02,-2.822368577100022549e+02,-3.929612350100596814e+02,9.370253562927246094e+00,7.649187743663787842e-02,9.561483860015869141e-01,3.070000000000000000e+02
-7.348048100310467134e+02,-7.447385042822436390e+02,-3.624676426417316861e+02,-3.288248693374029017e+02,-8.057953979284408206e+02,-8.406473120963212295e+02,-2.835422530415556821e+02,-3.920634507391227999e+02,9.370253562927246094e+00,7.649187743663787842e-02,9.561483860015869141e-01,3.080000000000000000e+02
-7.371715143275814626e+02,-7.461069014876310348e+02,-3.635538924357540509e+02,-3.298473421423702803e+02,-8.032486430676244709e+02,-8.403043625729249015e+02,-2.838341796152665211e+02,-3.900615822176235952e+02,9.370253562927246094e+00,7.649187743663787842e-02,9.561483860015869141e-01,3.090000000000000000e+02
-7.384491072827652260e+02,-7.458698414114739990e+02,-3.637673766917906732e+02,-3.285622428606051244e+02,-8.006832903801123393e+02,-8.388483536565809118e+02,-2.825172956191751155e+02,-3.869710454904862900e+02,9.370253562927246094e+00,7.649187743663787842e-02,9.561483860015869141e-01,3.100000000000000000e+02
-7.374105280485696312e+02,-7.437565255058643743e+02,-3.627297686500461396e+02,-3.252945689196832291e+02,-7.987333744846399668e+02,-8.366802672043122584e+02,-2.796153450080491893e+02,-3.837508216671002401e+02,9.370253562927246094e+00,7.649187743663787842e-02,9.561483860015869141e-01,3.110000000000000000e+02
-7.338265136803692030e+02,-7.400287450243170042e+02,-3.607613366483049049e+02,-3.210627993668231284e+02,-7.976448531069330556e+02,-8.345130918841306311e+02,-2.757586053948359677e+02,-3.817619029415823206e+02,9.370253562927246094e+00,7.649187743663787842e-02,9.561483860015869141e-01,3.120000000000000000e+02
-7.287658338702184437e+02,-7.355370631184907779e+02,-3.586013195243277778e+02,-3.170641749451326632e+02,-7.969963295238937917e+02,-8.327143226257780952e+02,-2.719089091250150432e+02,-3.816188579896954707e+02,9.370253562927246094e+00,7.649187743663787842e-02,9.561483860015869141e-01,3.130000000000000000e+02
-7.240455109815185324e+02,-7.313440756691629758e+02,-3.568028476325961833e+02,-3.141540711273457873e+02,-7.958987637611105583e+02,-8.309066302548000067e+02,-2.689385845116947849e+02,-3.823992519498373213e+02,9.370253562927246094e+00,7.649187743663787842e-02,9.561483860015869141e-01,3.140000000000000000e+02
-7.211156830493102916e+02,-7.281826422345627634e+02,-3.553495503036225500e+02,-3.125234271785669762e+02,-7.935247386289333917e+02,-8.282165309423228337e+02,-2.672071190677122559e+02,-3.820718538878084019e+02,9.370253562927246094e+00,7.649187743663787842e-02,9.561483860015869141e-01,3.150000000000000000e+02
-7.201803472384412999e+02,-7.261892410066232060e+02,-3.538575248795170296e+02,-3.116828587405242388e+02,-7.896233941679392956e+02,-8.240157495260521046e+02,-2.663678690927642947e+02,-3.790080575818636817e+02,9.370253562927246094e+00,7.649187743663787842e-02,9.561483860015869141e-01,3.160000000000000000e+02
-7.202489948952843406e+02,-7.250787481959191609e+02,-3.521741009185667508e+02,-3.107674781380085847e+02,-7.847195152802946723e+02,-8.185611904036627493e+02,-2.656066695200483991e+02,-3.733745482136431519e+02,9.370253562927246094e+00,7.649187743663787842e-02,9.561483860015869141e-01,3.170000000000000000e+02
-7.200689919120004561e+02,-7.245133873812478669e+02,-3.507808917845278529e+02,-3.090621832275793395e+02,-7.798968389371223111e+02,-8.130011126444846923e+02,-2.642544393413307944e+02,-3.671824690694485298e+02,9.370253562927246094e+00,7.649187743663787842e-02,9.561483860015869141e-01,3.180000000000000000e+02
-7.191322515614135682e+02,-7.242993730535481518e+02,-3.505404688850893535e+02,-3.064723582989522015e+02,-7.762590773992842514e+02,-8.086918845174518538e+02,-2.623291373139611551e+02,-3.628645310977379950e+02,9.370253562927246094e+00,7.649187743663787842e-02,9.561483860015869141e-01,3.190000000000000000e+02
-7.179008547845144221e+02,-7.242846138494743400e+02,-3.519379892411320156e+02,-3.036148806544554759e+02,-7.743444684648218299e+02,-8.063188152780957125e+02,-2.605227989099878414e+02,-3.615455453546184117e+02,9.370253562927246094e+00,7.649187743663787842e-02,9.561483860015869141e-01,3.200000000000000000e+02
-7.171158614171602039e+02,-7.242132037820394999e+02,-3.545076178198183925e+02,-3.014262201086073674e+02,-7.738825131490418698e+02,-8.055125830739106050e+02,-2.596113737263194707e+02,-3.624629460986485583e+02,9.370253562927246094e+00,7.649187743663787842e-02,9.561483860015869141e-01,3.210000000000000000e+02
-7.168892749516721778e+02,-7.238407026536704052e+02,-3.570263570018733503e+02,-3.005544811932467724e+02,-7.740921914781833948e+02,-8.052769923474360212e+02,-2.598192512708914137e+02,-3.639651491404365515e+02,9.370253562927246094e+00,7.649187743663787842e-02,9.561483860015869141e-01,3.220000000000000000e+02
-7.164644595971801664e+02,-7.232406227004707944e+02,-3.583795360938338490e+02,-3.009830823625523522e+02,-7.742998226324455118e+02,-8.048756393309522537e+02,-2.607291588262091864e+02,-3.650876027832109685e+02,9.370253562927246094e+00,7.649187743663787842e-02,9.561483860015869141e-01,3.230000000000000000e+02
-7.148734965904852743e+02,-7.229072980202322469e+02,-3.583417226826654201e+02,-3.021324927607784048e+02,-7.743393773728215592e+02,-8.044043302520547059e+02,-2.617668159776513903e+02,-3.662184020774213877e+02,9.370253562927246094e+00,7.649187743663787842e-02,9.561483860015869141e-01,3.240000000000000000e+02
-7.118434719457079609e+02,-7.233687562875443291e+02,-3.575739517461630612e+02,-3.032813322979250188e+02,-7.743895763457928751e+02,-8.045397283957654508e+02,-2.627202898616131961e+02,-3.682824095933411854e+02,9.370253562927246094e+00,7.649187743663787842e-02,9.561483860015869141e-01,3.250000000000000000e+02
-7.080789688079265716e+02,-7.245221310612214438e+02,-3.568612222609655191e+02,-3.039341757118029363e+02,-7.744778137580655084e+02,-8.057072469819897833e+02,-2.637503038554112891e+02,-3.713181034020835796e+02,9.370253562927246094e+00,7.649187743663787842e-02,9.561483860015869141e-01,3.260000000000000000e+02
-7.046684970019990715e+02,-7.253496982783755129e+02,-3.563286655367585354e+02,-3.039025426139847923e+02,-7.742150317449297745e+02,-8.074471548558728955e+02,-2.649204754480033444e+02,-3.739095548332364842e+02,9.370253562927246094e+00,7.649187743663787842e-02,9.561483860015869141e-01,3.270000000000000000e+02
-7.021967135109459832e+02,-7.244793337474544614e+02,-3.553690038845647905e+02,-3.031704887696522519e+02,-7.730316499072461056e+02,-8.085779590050877914e+02,-2.658045085592418673e+02,-3.741098271307843106e+02,9.370253562927246094e+00,7.649187743663787842e-02,9.561483860015869141e-01,3.280000000000000000e+02
-7.003892085408717776e+02,-7.212894566535508147e+02,-3.533088731636605644e+02,-3.017812006918313728e+02,-7.706116243540291180e+02,-8.080221391200079779e+02,-2.656428677521461168e+02,-3.710528732439822761e+02,9.370253562927246094e+00,7.649187743663787842e-02,9.561483860015869141e-01,3.290000000000000000e+02
-6.985613257560753482e+02,-7.166140274407575816e+02,-3.501417050959421431e+02,-2.998306471501356327e+02,-7.670390515778742611e+02,-8.055407628567668326e+02,-2.639332337526564061e+02,-3.657476185785535563e+02,9.370253562927246094e+00,7.649187743663787842e-02,9.561483860015869141e-01,3.300000000000000000e+02
-6.963741741000366119e+02,-7.122841094332000011e+02,-3.466469931786355119e+02,-2.974657054535470024e+02,-7.625902424475416410e+02,-8.017572594934613335e+02,-2.608847293187071728e+02,-3.602996202796249463e+02,9.370253562927246094e+00,7.649187743663787842e-02,9.561483860015869141e-01,3.310000000000000000e+02
-6.941417162802456460e+02,-7.097430181613486866e+02,-3.438529200880084318e+02,-2.947852898563028248e+02,-7.575553286880258383e+02,-7.975463539725196824e+02,-2.572935529342080372e+02,-3.562776456300181280e+02,9.370253562927246094e+00,7.649187743663787842e-02,9.561483860015869141e-01,3.320000000000000000e+02
-6.924135613577086588e+02,-7.088925154419227965e+02,-3.423981389712191685e+02,-2.917307520936079754e+02,-7.523673894275530074e+02,-7.934227276488701364e+02,-2.539650513648520018e+02,-3.537280383255792913e+02,9.408499717712402344e+00,7.649187743663787842e-02,9.561483860015869141e-01,3.330000000000000000e+02
-6.912879497435019402e+02,-7.082239817683386036e+02,-3.423223142629349240e+02,-2.881750077903950569e+02,-7.477821580429612141e+02,-7.894543579503854289e+02,-2.512306837917045641e+02,-3.516738520695539592e+02,9.408499717712402344e+00,7.649187743663787842e-02,9.561483860015869141e-01,3.340000000000000000e+02
-6.901564724604485264e+02,-7.061436584794981854e+02,-3.432929165861428373e+02,-2.842215744639969444e+02,-7.446408178481740379e+02,-7.856280750231599086e+02,-2.489844679267577021e+02,-3.494870313495451910e+02,9.408499717712402344e+00,7.649187743663787842e-02,9.561483860015869141e-01,3.350000000000000000e+02
-6.881449523637883203e+02,-7.022915967370506678e+02,-3.448665154085661015e+02,-2.804110375325651603e+02,-7.432254297125962239e+02,-7.821593707068166168e+02,-2.471394436530125631e+02,-3.477103605593365501e+02,9.408499717712402344e+00,7.649187743663787842e-02,9.561483860015869141e-01,3.360000000000000000e+02
-6.848411869010091095e+02,-6.976711797885792521e+02,-3.465041298646538053e+02,-2.774964828315778504e+02,-7.428231083611755139e+02,-7.793749531445241701e+02,-2.459729744179938962e+02,-3.474948766084446561e+02,9.408499717712402344e+00,7.649187743663787842e-02,9.561483860015869141e-01,3.370000000000000000e+02
-6.806365348724467594e+02,-6.935636912044038809e+02,-3.474702562957941154e+02,-2.758419803394594965e+02,-7.420636378158289972e+02,-7.773112799952222076e+02,-2.459461937632695481e+02,-3.492323180896453323e+02,9.408499717712402344e+00,7.649187743663787842e-02,9.561483860015869141e-01,3.380000000000000000e+02
-6.763790317266227703e+02,-6.903659144121553481e+02,-3.469480290581918780e+02,-2.749644971725897449e+02,-7.398301644322766606e+02,-7.755001639170347971e+02,-2.471094032364866280e+02,-3.517810700866282332e+02,9.408499717712402344e+00,7.649187743663787842e-02,9.561483860015869141e-01,3.390000000000000000e+02
-6.726808171493440796e+02,-6.874826567812891653e+02,-3.444682774083328241e+02,-2.737511662883052850e+02,-7.359414068536543709e+02,-7.732311350786449111e+02,-2.486942278656360941e+02,-3.531185654701888552e+02,9.408499717712402344e+00,7.649187743663787842e-02,9.561483860015869141e-01,3.400000000000000000e+02
-6.695149308436754154e+02,-6.842612541899536609e+02,-3.403419872298134123e+02,-2.713104438246180052e+02,-7.310464361070828545e+02,-7.700905931211758570e+02,-2.494142179321828507e+02,-3.518631067236473200e+02,9.408499717712402344e+00,7.649187743663787842e-02,9.561483860015869141e-01,3.410000000000000000e+02
-6.664357116817017186e+02,-6.809069572677309452e+02,-3.356702294432684539e+02,-2.677649984547767872e+02,-7.259767514915472475e+02,-7.662971410734850224e+02,-2.483440890034324866e+02,-3.482908098547201234e+02,9.408499717712402344e+00,7.649187743663787842e-02,9.561483860015869141e-01,3.420000000000000000e+02
-6.631670979317972296e+02,-6.784077811496109689e+02,-3.318327489383229931e+02,-2.642544082215256367e+02,-7.212524659100889721e+02,-7.625262318882369073e+02,-2.456420060433779327e+02,-3.439966013100324744e+02,9.408499717712402344e+00,7.649187743663787842e-02,9.561483860015869141e-01,3.430000000000000000e+02
-6.599710716939559916e+02,-6.775466387831335169e+02,-3.297723173164041555e+02,-2.620790234739050675e+02,-7.170857403842859412e+02,-7.593754283470422024e+02,-2.424214296444765750e+02,-3.406036447816981081e+02,9.408499717712402344e+00,7.649187743663787842e-02,9.561483860015869141e-01,3.440000000000000000e+02
-6.574410744083725149e+02,-6.780118002891781543e+02,-3.295440310107347841e+02,-2.616961806196810585e+02,-7.136075868591497056e+02,-7.569371716433847723e+02,-2.398300101698890785e+02,-3.387122803956718826e+02,9.408499717712402344e+00,7.649187743663787842e-02,9.561483860015869141e-01,3.450000000000000000e+02
-6.559042707493657645e+02,-6.784618919951280986e+02,-3.303635038807752835e+02,-2.624175355567608676e+02,-7.109064495796179699e+02,-7.548108942018365042e+02,-2.381256524985853957e+02,-3.378563152193739825e+02,9.408499717712402344e+00,7.649187743663787842e-02,9.561483860015869141e-01,3.460000000000000000e+02
-6.549818576518408690e+02,-6.774479015350267446e+02,-3.310538938053327911e+02,-2.630011818979833151e+02,-7.088668798276229381e+02,-7.524691142250860594e+02,-2.365679884200204697e+02,-3.372009625076196926e+02,9.408499717712402344e+00,7.649187743663787842e-02,9.561483860015869141e-01,3.470000000000000000e+02
-6.537479233193248547e+02,-6.743441005387221594e+02,-3.306185670230080405e+02,-2.625374266256975488e+02,-7.071522661325404897e+02,-7.495980821398463831e+02,-2.342027585372422891e+02,-3.361765735900880827e+02,9.408499717712402344e+00,7.649187743663787842e-02,9.561483860015869141e-01,3.480000000000000000e+02
-6.514010154803055457e+02,-6.695846020294318350e+02,-3.286794414829822699e+02,-2.608744653096096044e+02,-7.054850555069886013e+02,-7.461436289600358123e+02,-2.307984385314367728e+02,-3.345877566738276983e+02,9.408499717712402344e+00,7.649187743663787842e-02,9.561483860015869141e-01,3.490000000000000000e+02
-6.479184202952460510e+02,-6.642106779844283437e+02,-3.256231241470652549e+02,-2.583915544388122498e+02,-7.039307415391685936e+02,-7.421539101238167859e+02,-2.271085314352778823e+02,-3.324318609543875027e+02,9.408499717712402344e+00,7.649187743663787842e-02,9.561483860015869141e-01,3.500000000000000000e+02
-6.441348926260724284e+02,-6.592299080025378544e+02,-3.223823104228292777e+02,-2.555399205660896769e+02,-7.027909581006629196e+02,-7.376965058678849800e+02,-2.242904936392304762e+02,-3.298476600163198782e+02,9.408499717712402344e+00,7.649187743663787842e-02,9.561483860015869141e-01,3.510000000000000000e+02
-6.411157335639911707e+02,-6.551956419346187204e+02,-3.198838900992791423e+02,-2.526220064791914410e+02,-7.021110033100414967e+02,-7.329411325918085822e+02,-2.230141535670004487e+02,-3.271936294952299704e+02,9.408499717712402344e+00,7.649187743663787842e-02,9.561483860015869141e-01,3.520000000000000000e+02
-6.392971079565276113e+02,-6.520823874766950894e+02,-3.184402752390240039e+02,-2.498678822306445682e+02,-7.012978119992756092e+02,-7.282137665886189097e+02,-2.229670105220016012e+02,-3.249340448020906251e+02,9.408499717712402344e+00,7.649187743663787842e-02,9.561483860015869141e-01,3.530000000000000000e+02
-6.380877745773525476e+02,-6.493867410813712695e+02,-3.175078771029707241e+02,-2.475212444480705472e+02,-6.993057457840052393e+02,-7.238098982738222276e+02,-2.230486214735924477e+02,-3.232355363911440236e+02,9.408499717712402344e+00,7.649187743663787842e-02,9.561483860015869141e-01,3.540000000000000000e+02
-6.362698193901220520e+02,-6.464273345731346581e+02,-3.160770022319927648e+02,-2.457564467656341094e+02,-6.953343612500202653e+02,-7.196888611775214031e+02,-2.220423326503960197e+02,-3.216862723495460159e+02,9.408499717712402344e+00,7.649187743663787842e-02,9.561483860015869141e-01,3.550000000000000000e+02
-6.329056730601091658e+02,-6.427998997672988253e+02,-3.135136999129304058e+02,-2.445845333775096151e+02,-6.895235855039422859e+02,-7.154630200219623930e+02,-2.193654620315583088e+02,-3.196374205967345006e+02,9.408499717712402344e+00,7.649187743663787842e-02,9.561483860015869141e-01,3.560000000000000000e+02
-6.280363022136482414e+02,-6.387310061298753681e+02,-3.102097168799118663e+02,-2.439500892711072311e+02,-6.830822472152983664e+02,-7.108529580865597381e+02,-2.155211876040868901e+02,-3.170164459938966957e+02,9.408499717712402344e+00,7.649187743663787842e-02,9.561483860015869141e-01,3.570000000000000000e+02
-6.226134584763308339e+02,-6.349721821145988088e+02,-3.074379750177424739e+02,-2.439396461815583734e+02,-6.776879212118471969e+02,-7.061956529029007470e+02,-2.119880267548815027e+02,-3.147929724501996134e+02,9.332008361816406250e+00,7.649187743663787842e-02,8.796565532684326172e-01,3.580000000000000000e+02
-6.177725451224391691e+02,-6.321941972026307894e+02,-3.064376043203274094e+02,-2.447860286367516665e+02,-6.745106118856544981e+02,-7.023663863157930791e+02,-2.104811943803845224e+02,-3.144372415560505942e+02,9.332008361816406250e+00,7.649187743663787842e-02,8.796565532684326172e-01,3.590000000000000000e+02
-6.141141089746266744e+02,-6.303593428860855283e+02,-3.074492606324001827e+02,-2.465654220253441054e+02,-6.735132630506743681e+02,-6.999986935549752616e+02,-2.119117858504057494e+02,-3.166765164343200922e+02,9.332008361816406250e+00,7.649187743663787842e-02,8.796565532684326172e-01,3.600000000000000000e+02
-6.115684232250989680e+02,-6.286906413630497354e+02,-3.095138799020967326e+02,-2.488969064074512971e+02,-6.735311441327248758e+02,-6.987028468222354149e+02,-2.157061530681844488e+02,-3.206679212057574659e+02,9.332008361816406250e+00,7.649187743663787842e-02,8.796565532684326172e-01,3.610000000000000000e+02
-6.098093576396746585e+02,-6.263493074946436536e+02,-3.111837010786243809e+02,-2.510471742875597556e+02,-6.730920874887765422e+02,-6.971499705088017436e+02,-2.200384814458238907e+02,-3.244293485842754308e+02,9.332008361816406250e+00,7.649187743663787842e-02,8.796565532684326172e-01,3.620000000000000000e+02
-6.086601134752318103e+02,-6.232270722249249957e+02,-3.114920269032127180e+02,-2.524453694497467495e+02,-6.713681635624263890e+02,-6.940944968697776858e+02,-2.228956024443914430e+02,-3.262096816415510148e+02,9.332008361816406250e+00,7.649187743663787842e-02,8.796565532684326172e-01,3.630000000000000000e+02
-6.080359826039931477e+02,-6.201088735318824092e+02,-3.103562965210041966e+02,-2.531477322236173677e+02,-6.685146600680486699e+02,-6.894281530697978724e+02,-2.232159567901589980e+02,-3.256166332845064062e+02,9.332008361816406250e+00,7.649187743663787842e-02,8.796565532684326172e-01,3.640000000000000000e+02
-6.075625017538362727e+02,-6.180100123701670327e+02,-3.082397566268421087e+02,-2.538048807336444952e+02,-6.651924154075729803e+02,-6.842497922164109241e+02,-2.213056953609793709e+02,-3.236260116100884261e+02,9.332008361816406250e+00,7.649187743663787842e-02,8.796565532684326172e-01,3.650000000000000000e+02
-6.064489963357523266e+02,-6.172642161987571399e+02,-3.056303556282446152e+02,-2.551821530389565851e+02,-6.618224983936452190e+02,-6.798863802145708632e+02,-2.183867920946677259e+02,-3.216650581450096524e+02,9.332008361816406250e+00,7.649187743663787842e-02,8.796565532684326172e-01,3.660000000000000000e+02
-6.039491272795958139e+02,-6.171705183609301457e+02,-3.029307497891209096e+02,-2.576841571310046675e+02,-6.583276473814307792e+02,-6.768173920304473086e+02,-2.157910786240686321e+02,-3.206954074807881625e+02,9.332008361816406250e+00,7.649187743663787842e-02,8.796565532684326172e-01,3.670000000000000000e+02
-6.000557076133941337e+02,-6.164715178647081757e+02,-3.007195215547230873e+02,-2.612242157159062117e+02,-6.545394957239668656e+02,-6.744880329103939403e+02,-2.144030958784144332e+02,-3.209646729432490702e+02,9.332008361816406250e+00,7.649187743663787842e-02,8.796565532684326172e-01,3.680000000000000000e+02
-5.956986391461578023e+02,-6.142167060527337981e+02,-2.998044978357920627e+02,-2.653547749854201356e+02,-6.506923092792253556e+02,-6.720336251157079914e+02,-2.145013257752937079e+02,-3.222733540728754633e+02,9.332008361816406250e+00,7.649187743663787842e-02,8.796565532684326172e-01,3.690000000000000000e+02
-5.921090706206107370e+02,-6.103014319005294510e+02,-3.007088433836731838e+02,-2.693713173765020201e+02,-6.473484941876945413e+02,-6.690606730617230369e+02,-2.157760112566843418e+02,-3.241806931245207579e+02,9.332008361816406250e+00,7.649187743663787842e-02,8.796565532684326172e-01,3.700000000000000000e+02
-5.898227032401350698e+02,-6.053372645581116558e+02,-3.029855019261108282e+02,-2.723549638304393739e+02,-6.447929135901727022e+02,-6.657369291599552525e+02,-2.173926475616474363e+02,-3.259517881623096400e+02,9.332008361816406250e+00,7.649187743663787842e-02,8.796565532684326172e-01,3.710000000000000000e+02
-5.881848081105315487e+02,-6.001003693799002576e+02,-3.051339603064507173e+02,-2.733997545121155781e+02,-6.425781976167977518e+02,-6.622896200684510859e+02,-2.182255848684776538e+02,-3.265904530250286371e+02,9.332008361816406250e+00,7.649187743663787842e-02,8.796565532684326172e-01,3.720000000000000000e+02
-5.858009741619162014e+02,-5.950472911003871559e+02,-3.054046279289113954e+02,-2.721266798218339318e+02,-6.397621311848920413e+02,-6.585981820866700218e+02,-2.173576387023090319e+02,-3.252797807003516937e+02,9.332008361816406250e+00,7.649187743663787842e-02,8.796565532684326172e-01,3.730000000000000000e+02
-5.815639951123694118e+02,-5.901793840959378485e+02,-3.029058412778244929e+02,-2.691218865581593036e+02,-6.356075500749220737e+02,-6.543100140080923666e+02,-2.145900259917375479e+02,-3.219914958948643289e+02,9.332008361816406250e+00,7.649187743663787842e-02,8.796565532684326172e-01,3.740000000000000000e+02
-5.754286972321938265e+02,-5.851968443711136842e+02,-2.981163059770183281e+02,-2.657688504354664474e+02,-6.300394365045040104e+02,-6.492427821564215265e+02,-2.105503257655514062e+02,-3.176454865103164593e+02,9.332008361816406250e+00,7.649187743663787842e-02,8.796565532684326172e-01,3.750000000000000000e+02
-5.683959961775760803e+02,-5.797565490013075760e+02,-2.924567470584513558e+02,-2.634244539598732899e+02,-6.235060218637652270e+02,-6.435766723208134863e+02,-2.062941263740278828e+02,-3.135588916017404699e+02,9.332008361816406250e+00,7.649187743663787842e-02,8.796565532684326172e-01,3.760000000000000000e+02
-5.618272203686449302e+02,-5.737106890181657946e+02,-2.873796711598733964e+02,-2.625549708359230863e+02,-6.165543984577805077e+02,-6.376893352288134338e+02,-2.027361881597989850e+02,-3.106130003330836189e+02,9.332008361816406250e+00,7.649187743663787842e-02,8.796565532684326172e-01,3.770000000000000000e+02
-5.566467959168608104e+02,-5.672897724609379111e+02,-2.837029410957020445e+02,-2.625998302598229657e+02,-6.096223218999416531e+02,-6.319358384434904110e+02,-2.003582142856307655e+02,-3.088679021905413720e+02,9.332008361816406250e+00,7.649187743663787842e-02,8.796565532684326172e-01,3.780000000000000000e+02
-5.529353510156727225e+02,-5.611446652937306681e+02,-2.814923021029878782e+02,-2.626856624097999884e+02,-6.031143552602766249e+02,-6.266386578225572066e+02,-1.992705418661689691e+02,-3.078925624349276404e+02,9.332008361816406250e+00,7.649187743663787842e-02,8.796565532684326172e-01,3.790000000000000000e+02
-5.500690367437082386e+02,-5.561019306196965317e+02,-2.802857117072735491e+02,-2.624906551848032450e+02,-5.974227284074145246e+02,-6.221518670444650070e+02,-1.993281777046931893e+02,-3.073344745405888716e+02,9.332008361816406250e+00,7.649187743663787842e-02,8.796565532684326172e-01,3.800000000000000000e+02
-5.472463358463096483e+02,-5.526354904275115132e+02,-2.794018626021434102e+02,-2.624180801390889428e+02,-5.927330597928173574e+02,-6.187241054874225483e+02,-2.000842686247367510e+02,-3.070963390170309140e+02,9.332008361816406250e+00,7.649187743663787842e-02,8.796565532684326172e-01,3.810000000000000000e+02
-5.440696982870790634e+02,-5.503824628208894865e+02,-2.782894343573791502e+02,-2.629533245675697799e+02,-5.888917345651316282e+02,-6.161941824940190600e+02,-2.007398220010263685e+02,-3.070436899899118544e+02,9.332008361816406250e+00,7.649187743663787842e-02,8.796565532684326172e-01,3.820000000000000000e+02
-5.408277650598108721e+02,-5.481760829477948391e+02,-2.769000676881257732e+02,-2.639215912103954906e+02,-5.856397808252527284e+02,-6.138941929435395650e+02,-2.003948704962144802e+02,-3.067465065346095798e+02,9.332008361816406250e+00,7.649187743663787842e-02,8.796565532684326172e-01,3.830000000000000000e+02
-5.382382246955951359e+02,-5.447448711348058623e+02,-2.758020252142459867e+02,-2.644507783724916408e+02,-5.829948555349733397e+02,-6.110121854807034651e+02,-1.985714706139688133e+02,-3.056785005992023798e+02,9.332008361816406250e+00,7.649187743663787842e-02,8.796565532684326172e-01,3.840000000000000000e+02
-5.367494308409800396e+02,-5.396281302280426644e+02,-2.757212138737868372e+02,-2.637122463747396068e+02,-5.812446717252771577e+02,-6.071717321384744537e+02,-1.955809668686592886e+02,-3.037011448044165718e+02,9.370253562927246094e+00,3.824593871831893921e-02,8.796565532684326172e-01,3.850000000000000000e+02
-5.359043320011564902e+02,-5.335620193556317190e+02,-2.766861893930486076e+02,-2.617189075266173859e+02,-5.804090374351835635e+02,-6.026828463839001415e+02,-1.923595474385222133e+02,-3.012557877834115061e+02,9.370253562927246094e+00,3.824593871831893921e-02,8.796565532684326172e-01,3.860000000000000000e+02
-5.343649787206113615e+02,-5.279408733654950083e+02,-2.775407743411110459e+02,-2.594020308398503403e+02,-5.797274520382568426e+02,-5.982047141763810032e+02,-1.898608595406651602e+02,-2.989681016839954282e+02,9.370253562927246094e+00,3.824593871831893921e-02,8.796565532684326172e-01,3.870000000000000000e+02
-5.307660149405735410e+02,-5.237528014246909152e+02,-2.765121414022405588e+02,-2.578944250927097528e+02,-5.778878589587325223e+02,-5.941569520900047792e+02,-1.884930946414260688e+02,-2.970639476420201390e+02,9.370253562927246094e+00,3.824593871831893921e-02,8.796565532684326172e-01,3.880000000000000000e+02
-5.248221780724998098e+02,-5.208878215126121631e+02,-2.725942633068066243e+02,-2.577021408042010080e+02,-5.739842373067199333e+02,-5.904663896214706256e+02,-1.880066192134331686e+02,-2.952614203685534449e+02,9.370253562927246094e+00,3.824593871831893921e-02,8.796565532684326172e-01,3.890000000000000000e+02
-5.177548025453006630e+02,-5.183965621375591581e+02,-2.665818008598939741e+02,-2.585105838504487110e+02,-5.683506981415030168e+02,-5.868680727914611452e+02,-1.878116561756905867e+02,-2.932943105232859580e+02,9.370253562927246094e+00,3.824593871831893921e-02,8.796565532684326172e-01,3.900000000000000000e+02
-5.115586555584097823e+02,-5.154055787675338252e+02,-2.607204216116197131e+02,-2.597033680109761917e+02,-5.624480120246003025e+02,-5.833844039690470709e+02,-1.873880491079735293e+02,-2.914816411460601557e+02,9.370253562927246094e+00,3.824593871831893921e-02,8.796565532684326172e-01,3.910000000000000000e+02
-5.075955494592901687e+02,-5.117942905343402344e+02,-2.571193677265687256e+02,-2.609775039308683517e+02,-5.578414530499630928e+02,-5.804243887410548268e+02,-1.864846628295599658e+02,-2.906099746157005939e+02,9.370253562927246094e+00,3.824593871831893921e-02,8.796565532684326172e-01,3.920000000000000000e+02
-5.056088688761517460e+02,-5.080104143142898465e+02,-2.562313336871225147e+02,-2.624200454938854818e+02,-5.551395326084921180e+02,-5.783546912789224734e+02,-1.850824490596523901e+02,-2.911064612508198479e+02,9.370253562927246094e+00,3.824593871831893921e-02,8.796565532684326172e-01,3.930000000000000000e+02
-5.039404843915824586e+02,-5.042877749219792349e+02,-2.566756733203101248e+02,-2.640339801941993301e+02,-5.537304511483266651e+02,-5.769611285237274387e+02,-1.832664219423722898e+02,-2.923036898446503074e+02,9.370253562927246094e+00,3.824593871831893921e-02,8.796565532684326172e-01,3.940000000000000000e+02
-5.007639896643088377e+02,-5.001273703948231741e+02,-2.564838357514113341e+02,-2.653120653421192401e+02,-5.524016124127510921e+02,-5.753768574668883957e+02,-1.811559649219298080e+02,-2.926484335211962389e+02,9.370253562927246094e+00,3.824593871831893921e-02,8.796565532684326172e-01,3.950000000000000000e+02
-4.953633197511790058e+02,-4.946233527979470637e+02,-2.546228737261112656e+02,-2.654082583267245354e+02,-5.502388987499962241e+02,-5.726285659915906763e+02,-1.789339997678443979e+02,-2.908416871798203829e+02,9.370253562927246094e+00,3.824593871831893921e-02,8.796565532684326172e-01,3.960000000000000000e+02
-4.885118132323134432e+02,-4.873568846766320348e+02,-2.515367717009812623e+02,-2.638156532276925645e+02,-5.471308019673747367e+02,-5.683635020793640251e+02,-1.768933169191914203e+02,-2.869534646808456273e+02,9.370253562927246094e+00,3.824593871831893921e-02,8.796565532684326172e-01,3.970000000000000000e+02
-4.817893021207200945e+02,-4.789875844840435093e+02,-2.484505063643441645e+02,-2.608940915609418880e+02,-5.436127342336117181e+02,-5.631246452889695320e+02,-1.753887913205767290e+02,-2.824828375016982136e+02,9.370253562927246094e+00,3.824593871831893921e-02,8.796565532684326172e-01,3.980000000000000000e+02
-4.764833902259108527e+02,-4.709519179965116109e+02,-2.462576248856976235e+02,-2.577046901349231121e+02,-5.402688539412674800e+02,-5.579306680208105718e+02,-1.746521048926592812e+02,-2.792518379770458523e+02,9.370253562927246094e+00,3.824593871831893921e-02,8.796565532684326172e-01,3.990000000000000000e+02
-4.729107181118904464e+02,-4.645130060663987024e+02,-2.449947002880385298e+02,-2.552755465400314279e+02,-5.371693520608091603e+02,-5.535146918013588220e+02,-1.745680946879547264e+02,-2.780506049870982679e+02,9.370253562927246094e+00,3.824593871831893921e-02,8.796565532684326172e-01,4.000000000000000000e+02
-4.705126816033496198e+02,-4.599865251311885004e+02,-2.441765833499407563e+02,-2.539646512906469979e+02,-5.337710215919828443e+02,-5.498657562847588451e+02,-1.746150056133133148e+02,-2.781437249855880509e+02,9.370253562927246094e+00,3.824593871831893921e-02,8.796565532684326172e-01,4.010000000000000000e+02
-4.684421824715682305e+02,-4.567560853652876176e+02,-2.434299503875972732e+02,-2.534392632253930060e+02,-5.293888916210930802e+02,-5.464015462454226508e+02,-1.740889396215852685e+02,-2.779598412960926908e+02,9.370253562927246094e+00,3.824593871831893921e-02,8.796565532684326172e-01,4.020000000000000000e+02
-4.660755249537510281e+02,-4.539448878046127902e+02,-2.427221664866096944e+02,-2.531448857646296347e+02,-5.238899974844393910e+02,-5.425289341530392448e+02,-1.725010174218132306e+02,-2.762885306622747521e+02,9.370253562927246094e+00,3.824593871831893921e-02,8.796565532684326172e-01,4.030000000000000000e+02
-4.631079897360755240e+02,-4.510796189906220661e+02,-2.420543510342345144e+02,-2.527271654081632732e+02,-5.179881822615006968e+02,-5.380692247274628244e+02,-1.698647538621198692e+02,-2.730184244659681099e+02,9.370253562927246094e+00,3.824593871831893921e-02,8.796565532684326172e-01,4.040000000000000000e+02
-4.593637589628986007e+02,-4.482036438498171265e+02,-2.410917428980997101e+02,-2.520610637115610189e+02,-5.128022915536662367e+02,-5.332525123787158918e+02,-1.666695373718080191e+02,-2.689947429376534274e+02,9.370253562927246094e+00,3.824593871831893921e-02,8.796565532684326172e-01,4.050000000000000000e+02
-4.546826037631881263e+02,-4.454841932866274874e+02,-2.392481782618096986e+02,-2.510688394383078048e+02,-5.090183584734722899e+02,-5.284526798409606272e+02,-1.636222712744065575e+02,-2.653396941454539046e+02,9.370253562927246094e+00,3.824593871831893921e-02,8.796565532684326172e-01,4.060000000000000000e+02
-4.490802070054583055e+02,-4.428243251335597961e+02,-2.362184769153464003e+02,-2.497055114403815423e+02,-5.064306987994195879e+02,-5.240047730843589306e+02,-1.613893859094619074e+02,-2.628487143482525425e+02,9.370253562927246094e+00,3.824593871831893921e-02,8.796565532684326172e-01,4.070000000000000000e+02
-4.430257618060816185e+02,-4.399158263248250478e+02,-2.324341145164476075e+02,-2.481668938690418145e+02,-5.043159083729615304e+02,-5.202062064940100754e+02,-1.604613239745203828e+02,-2.617826895194839381e+02,9.370253562927246094e+00,3.824593871831893921e-02,8.796565532684326172e-01,4.080000000000000000e+02
-4.374556004797186688e+02,-4.366409741145862426e+02,-2.289272968586974457e+02,-2.469549700604252394e+02,-5.022332801269080846e+02,-5.173040816953152898e+02,-1.610331223237426457e+02,-2.619364610675156655e+02,9.370253562927246094e+00,3.824593871831893921e-02,8.796565532684326172e-01,4.090000000000000000e+02
-4.333514178349848862e+02,-4.333303034835207654e+02,-2.266421852274925186e+02,-2.465148253957531779e+02,-5.004124728556080299e+02,-5.152958260982491083e+02,-1.628110358222224932e+02,-2.627438533705535519e+02,9.370253562927246094e+00,3.824593871831893921e-02,8.796565532684326172e-01,4.100000000000000000e+02
-4.311334278112667562e+02,-4.305288414542515056e+02,-2.257775532945697705e+02,-2.466947110255541702e+02,-4.993494111141762914e+02,-5.137210479467348705e+02,-1.649192617135054206e+02,-2.633743479919694437e+02,9.370253562927246094e+00,3.824593871831893921e-02,8.796565532684326172e-01,4.110000000000000000e+02
-4.303551093722794576e+02,-4.284386983367635366e+02,-2.257232236342624674e+02,-2.466317091227338096e+02,-4.990942404276729576e+02,-5.117921311880350004e+02,-1.661751787233088180e+02,-2.629467931223316555e+02,9.370253562927246094e+00,3.824593871831893921e-02,8.796565532684326172e-01,4.120000000000000000e+02
-4.299889783497219469e+02,-4.265881265936982345e+02,-2.256122787699691798e+02,-2.453447117902237551e+02,-4.990421605267429186e+02,-5.089110618301729119e+02,-1.657253906849741725e+02,-2.608838019976410578e+02,9.370253562927246094e+00,3.824593871831893921e-02,8.796565532684326172e-01,4.130000000000000000e+02
-4.290884216676108736e+02,-4.241067717048913437e+02,-2.249663751885232159e+02,-2.425753871868182614e+02,-4.984507648708104171e+02,-5.051483039987697339e+02,-1.636008680873828780e+02,-2.572340635718564954e+02,9.370253562927246094e+00,3.824593871831893921e-02,8.796565532684326172e-01,4.140000000000000000e+02
-4.272923834187704415e+02,-4.204156859171380347e+02,-2.238918443955126349e+02,-2.390905259546734669e+02,-4.971112121823121015e+02,-5.012016159114718903e+02,-1.606964951992122224e+02,-2.527424559858823159e+02,9.370253562927246094e+00,3.824593871831893921e-02,8.796565532684326172e-01,4.150000000000000000e+02
-4.248140222513093249e+02,-4.157314737961460196e+02,-2.227777344758128493e+02,-2.361311922729764774e+02,-4.954683786654895812e+02,-4.978317070028265334e+02,-1.581626225469394740e+02,-2.486147392284683519e+02,9.446745872497558594e+00,3.824593871831893921e-02,9.561483860015869141e-01,4.160000000000000000e+02
-4.220218625901352425e+02,-4.109258835779428409e+02,-2.218902863315429386e+02,-2.344918798060980407e+02,-4.940977312129907659e+02,-4.952983797016668177e+02,-1.567189717144287897e+02,-2.460956356381652768e+02,9.446745872497558594e+00,3.824593871831893921e-02,9.561483860015869141e-01,4.170000000000000000e+02
-4.190861593882987108e+02,-4.068765530417958871e+02,-2.212459543996483262e+02,-2.340387128349161685e+02,-4.930939421768243847e+02,-4.932995931685150026e+02,-1.564174100262516731e+02,-2.459913408056554545e+02,9.446745872497558594e+00,3.824593871831893921e-02,9.561483860015869141e-01,4.180000000000000000e+02
-4.160169245409456380e+02,-4.038815899565752261e+02,-2.207574700930390463e+02,-2.339785966993313195e+02,-4.919239688261432093e+02,-4.913696647147357908e+02,-1.568848373671908121e+02,-2.482384630003589336e+02,9.446745872497558594e+00,3.824593871831893921e-02,9.561483860015869141e-01,4.190000000000000000e+02
-4.129584215610084357e+02,-4.015907163583024158e+02,-2.203618197140140182e+02,-2.334732637788010834e+02,-4.898022279356459876e+02,-4.892457905683972967e+02,-1.576488320977864532e+02,-2.516842403204709626e+02,9.446745872497558594e+00,3.824593871831893921e-02,9.561483860015869141e-01,4.200000000000000000e+02
-4.103187183698846638e+02,-3.993965186250816259e+02,-2.199606956421748691e+02,-2.319916282001609034e+02,-4.862126184546750665e+02,-4.868463580555367116e+02,-1.582196946786616536e+02,-2.543208497185000851e+02,9.446745872497558594e+00,3.824593871831893921e-02,9.561483860015869141e-01,4.210000000000000000e+02
-4.084804047584307227e+02,-3.968679413967111032e+02,-2.192925853510023444e+02,-2.292464534368937166e+02,-4.811812013487387958e+02,-4.840099691888531197e+02,-1.580218513994500427e+02,-2.540764023407650711e+02,9.446745872497558594e+00,3.824593871831893921e-02,9.561483860015869141e-01,4.220000000000000000e+02
-4.073137437737032087e+02,-3.939065963303496574e+02,-2.179731675183174957e+02,-2.250777055807870966e+02,-4.751876113805028581e+02,-4.804183469342306125e+02,-1.564950973143318151e+02,-2.498804793282824903e+02,9.446745872497558594e+00,3.824593871831893921e-02,9.561483860015869141e-01,4.230000000000000000e+02
-4.059956362726966290e+02,-3.906557447252375823e+02,-2.157260754851840829e+02,-2.196198302689795128e+02,-4.688429839401692334e+02,-4.758643166076212765e+02,-1.534503983002559835e+02,-2.423609934969290407e+02,9.446745872497558594e+00,3.824593871831893921e-02,9.561483860015869141e-01,4.240000000000000000e+02
-4.034164690802390396e+02,-3.873722740254538621e+02,-2.125787893584824815e+02,-2.135856900410390153e+02,-4.625543327916725502e+02,-4.705661319995069789e+02,-1.493560542773225279e+02,-2.336006952727698263e+02,9.446745872497558594e+00,3.824593871831893921e-02,9.561483860015869141e-01,4.250000000000000000e+02
-3.989242633246813057e+02,-3.843651511617290453e+02,-2.088446396813869796e+02,-2.082001423591405000e+02,-4.564157664286713043e+02,-4.651517713735770485e+02,-1.451947737811151455e+02,-2.260127744229184827e+02,9.446745872497558594e+00,3.824593871831893921e-02,9.561483860015869141e-01,4.260000000000000000e+02
-3.928310839570403914e+02,-3.818840808886889135e+02,-2.049629151044623541e+02,-2.045870148896756291e+02,-4.504312097101537802e+02,-4.602865077649053092e+02,-1.418907403322577920e+02,-2.210705545006035209e+02,9.446745872497558594e+00,3.824593871831893921e-02,9.561483860015869141e-01,4.270000000000000000e+02
-3.862840666232200419e+02,-3.799021249137972518e+02,-2.013912707003501055e+02,-2.030089361716809435e+02,-4.448805001968985380e+02,-4.562858442564001962e+02,-1.397309108412191563e+02,-2.187429298882457260e+02,9.446745872497558594e+00,3.824593871831893921e-02,9.561483860015869141e-01,4.280000000000000000e+02
-3.806205276143018637e+02,-3.779985068830856108e+02,-1.986022816528661679e+02,-2.026520690412226031e+02,-4.404213407102988640e+02,-4.530456810232180942e+02,-1.382431802063429132e+02,-2.179281605795954420e+02,9.446745872497558594e+00,3.824593871831893921e-02,9.561483860015869141e-01,4.290000000000000000e+02
-3.766700259670565174e+02,-3.755653694263883153e+02,-1.970117704782514920e+02,-2.022103083418219285e+02,-4.376704342340390212e+02,-4.502614999161146443e+02,-1.366183777365167771e+02,-2.173868177121985354e+02,9.446745872497558594e+00,3.824593871831893921e-02,9.561483860015869141e-01,4.300000000000000000e+02
-3.744196277951587035e+02,-3.722726650322961177e+02,-1.967208224771502501e+02,-2.008089026312945862e+02,-4.365393663471086256e+02,-4.476664615643107936e+02,-1.343439518710642915e+02,-2.164035824444313221e+02,9.446745872497558594e+00,3.824593871831893921e-02,9.561483860015869141e-01,4.310000000000000000e+02
-3.731247812445731142e+02,-3.683761107740547232e+02,-1.972280619379544078e+02,-1.984888158763469619e+02,-4.359714503691243408e+02,-4.450922117600603087e+02,-1.315555137917740467e+02,-2.147950401992216030e+02,9.446745872497558594e+00,3.824593871831893921e-02,9.561483860015869141e-01,4.320000000000000000e+02
-3.716756132448058452e+02,-3.645295740769511212e+02,-1.974509039738686624e+02,-1.958882654056137653e+02,-4.344691984738706196e+02,-4.423971754293747836e+02,-1.288381551399675118e+02,-2.125166518883779645e+02,9.446745872497558594e+00,3.824593871831893921e-02,9.561483860015869141e-01,4.330000000000000000e+02
-3.690308620490714020e+02,-3.612309577547875961e+02,-1.962123780266392714e+02,-1.934931039290568151e+02,-4.310505308349693223e+02,-4.394171863864530678e+02,-1.266488374186205874e+02,-2.093985605997004313e+02,9.446745872497558594e+00,3.824593871831893921e-02,9.561483860015869141e-01,4.340000000000000000e+02
-3.646434585571701064e+02,-3.584191786606252208e+02,-1.929418700600322154e+02,-1.911879661114044211e+02,-4.258194657692065448e+02,-4.360141477325469168e+02,-1.248650441071467867e+02,-2.052797851512623311e+02,9.446745872497558594e+00,3.824593871831893921e-02,9.561483860015869141e-01,4.350000000000000000e+02
-3.587975700160991437e+02,-3.556103649365777528e+02,-1.880991125880163963e+02,-1.884936991007225515e+02,-4.196959365329184948e+02,-4.321733523401353523e+02,-1.228929736652094107e+02,-2.003438113136785432e+02,9.446745872497558594e+00,3.824593871831893921e-02,9.561483860015869141e-01,4.360000000000000000e+02
-3.526389580297031898e+02,-3.524221418260331120e+02,-1.830067925384059890e+02,-1.851910979563067485e+02,-4.136587080323961345e+02,-4.280586020056775851e+02,-1.202930553957958182e+02,-1.952548762966939648e+02,9.408499717712402344e+00,3.824593871831893921e-02,9.561483860015869141e-01,4.370000000000000000e+02
-3.476810587987015424e+02,-3.489264024844887899e+02,-1.791625179473107892e+02,-1.816691669839324277e+02,-4.082180163545358482e+02,-4.239636430315003963e+02,-1.173472510596670872e+02,-1.908878635975679572e+02,9.408499717712402344e+00,3.824593871831893921e-02,9.561483860015869141e-01,4.380000000000000000e+02
-3.449184243146723929e+02,-3.454709199652138523e+02,-1.774487661982670943e+02,-1.786279802082462993e+02,-4.034583683669443417e+02,-4.201647432344034314e+02,-1.149574913104220286e+02,-1.878433589648975612e+02,9.408499717712402344e+00,3.824593871831893921e-02,9.561483860015869141e-01,4.390000000000000000e+02
-3.441260132405304830e+02,-3.421789500535073785e+02,-1.777177318018543701e+02,-1.764249810035953487e+02,-3.993775605011751395e+02,-4.167588403765194016e+02,-1.138749162309345593e+02,-1.861359877434560985e+02,9.408499717712402344e+00,3.824593871831893921e-02,9.561483860015869141e-01,4.400000000000000000e+02
-3.439352974272042047e+02,-3.386857417481814991e+02,-1.789707267862336266e+02,-1.747145846077942224e+02,-3.960608982250278132e+02,-4.136170810341700417e+02,-1.139583636142865544e+02,-1.852890894219340225e+02,9.408499717712402344e+00,3.824593871831893921e-02,9.561483860015869141e-01,4.410000000000000000e+02
-3.427357238089562088e+02,-3.344408901630768014e+02,-1.799942207493381829e+02,-1.727498538374861710e+02,-3.935611897673720705e+02,-4.105410487277122229e+02,-1.142081256653400487e+02,-1.847375259982331954e+02,9.408499717712402344e+00,3.824593871831893921e-02,9.561483860015869141e-01,4.420000000000000000e+02
-3.397613541660311967e+02,-3.293177723074686583e+02,-1.800448201500321375e+02,-1.700838968671155271e+02,-3.917309875610185372e+02,-4.075305178287685521e+02,-1.136097602750928672e+02,-1.842085113191692471e+02,9.408499717712402344e+00,3.824593871831893921e-02,9.561483860015869141e-01,4.430000000000000000e+02
-3.355128059445128201e+02,-3.239378437710738581e+02,-1.791402111032934954e+02,-1.670202940707349626e+02,-3.902133707584730473e+02,-4.048957004840449372e+02,-1.119855499369450627e+02,-1.837887425597973561e+02,9.408499717712402344e+00,3.824593871831893921e-02,9.561483860015869141e-01,4.440000000000000000e+02
-3.311979832245815487e+02,-3.193655671848496240e+02,-1.777950211047682387e+02,-1.643829816969569038e+02,-3.885472864307316740e+02,-4.030216434243448020e+02,-1.100166355532187481e+02,-1.836492246392331253e+02,9.408499717712402344e+00,3.824593871831893921e-02,9.561483860015869141e-01,4.450000000000000000e+02
-3.277166396753282243e+02,-3.163865657708420258e+02,-1.764516203481448429e+02,-1.628068991657569313e+02,-3.862575742475105471e+02,-4.019196522714059938e+02,-1.084439947454911817e+02,-1.836608621414934532e+02,9.408499717712402344e+00,3.824593871831893921e-02,9.561483860015869141e-01,4.460000000000000000e+02
-3.250587696950528880e+02,-3.149597214084465122e+02,-1.751027908930577723e+02,-1.621848982585443082e+02,-3.829348875140854034e+02,-4.009862493787973108e+02,-1.072833952123305608e+02,-1.832225640501246744e+02,9.408499717712402344e+00,3.824593871831893921e-02,9.561483860015869141e-01,4.470000000000000000e+02
-3.225384590637740985e+02,-3.142865857566939667e+02,-1.734040091641395520e+02,-1.617445123486245393e+02,-3.784001074308816897e+02,-3.992828157861181353e+02,-1.058445261251981719e+02,-1.814928348141456809e+02,9.408499717712402344e+00,3.824593871831893921e-02,9.561483860015869141e-01,4.480000000000000000e+02
-3.195191720776929287e+02,-3.134104592837147720e+02,-1.711291490810881442e+02,-1.606596770048035978e+02,-3.728995542807492711e+02,-3.961777888417441318e+02,-1.034960114972318479e+02,-1.779274096577305500e+02,9.408499717712402344e+00,3.824593871831893921e-02,9.561483860015869141e-01,4.490000000000000000e+02
-3.159347822464596902e+02,-3.118234642939987680e+02,-1.684938183857448166e+02,-1.586397098928582636e+02,-3.671016659069491652e+02,-3.918083388685063255e+02,-1.003713765908332789e+02,-1.727598220067848160e+02,9.408499717712402344e+00,3.824593871831893921e-02,9.561483860015869141e-01,4.500000000000000000e+02
-3.122122895130751203e+02,-3.095987593790669052e+02,-1.660228444300155388e+02,-1.560073685300840225e+02,-3.618034159950757385e+02,-3.869561006625867776e+02,-9.733552709670038894e+01,-1.670560591128637498e+02,9.408499717712402344e+00,3.824593871831893921e-02,9.561483860015869141e-01,4.510000000000000000e+02
-3.088113311559332033e+02,-3.070314128783243177e+02,-1.641181199569991804e+02,-1.532853110140272292e+02,-3.575531988585707950e+02,-3.824732260345535906e+02,-9.531907109355051944e+01,-1.622550179792901872e+02,9.408499717712402344e+00,3.824593871831893921e-02,9.561483860015869141e-01,4.520000000000000000e+02
-3.058674256563372182e+02,-3.042246354890703515e+02,-1.627741858482172574e+02,-1.507430492589087407e+02,-3.545084948457033533e+02,-3.787844830464787265e+02,-9.468543434353341581e+01,-1.594556634254267919e+02,9.408499717712402344e+00,3.824593871831893921e-02,9.561483860015869141e-01,4.530000000000000000e+02
-3.032024039696107138e+02,-3.010623627675968237e+02,-1.617068471267380119e+02,-1.483472968054297780e+02,-3.525915340049841689e+02,-3.758666575526631277e+02,-9.513101396790261788e+01,-1.589092351450508431e+02,9.408499717712402344e+00,3.824593871831893921e-02,9.561483860015869141e-01,4.540000000000000000e+02
-3.005692317796447242e+02,-2.975725974738447803e+02,-1.607311488960613133e+02,-1.461199471841459854e+02,-3.516907642207793288e+02,-3.736058839340371378e+02,-9.604107078920424101e+01,-1.600327775407945410e+02,9.408499717712402344e+00,3.824593871831893921e-02,9.561483860015869141e-01,4.550000000000000000e+02
-2.978532202733968006e+02,-2.942415138561977983e+02,-1.599746873102467362e+02,-1.444694873725416073e+02,-3.516671065093155448e+02,-3.720889082569406128e+02,-9.687714227038622994e+01,-1.618590424783842536e+02,9.408499717712402344e+00,3.824593871831893921e-02,9.561483860015869141e-01,4.560000000000000000e+02
-2.951138538670898015e+02,-2.918182288150651402e+02,-1.597027757619343902e+02,-1.440427435522778978e+02,-3.522029292335550963e+02,-3.715035455002334857e+02,-9.731456167000987989e+01,-1.635217980156799058e+02,9.408499717712402344e+00,3.824593871831893921e-02,9.561483860015869141e-01,4.570000000000000000e+02
-2.925417413738841788e+02,-2.906705924182956551e+02,-1.599472431391604914e+02,-1.451021966267271637e+02,-3.527356489902877001e+02,-3.717665197614578574e+02,-9.719062588975475592e+01,-1.644280598481232119e+02,9.408499717712402344e+00,3.824593871831893921e-02,9.561483860015869141e-01,4.580000000000000000e+02
-2.903911441952677706e+02,-2.902976191332149938e+02,-1.603330604314569428e+02,-1.469852457965721442e+02,-3.526109591210220060e+02,-3.722873705638667161e+02,-9.644880686795158908e+01,-1.641390239854122228e+02,9.408499717712402344e+00,3.824593871831893921e-02,9.561483860015869141e-01,4.590000000000000000e+02
-2.888692028392060820e+02,-2.895531740855017233e+02,-1.602846588390657416e+02,-1.482604826693800533e+02,-3.513613492434178625e+02,-3.721501943452626620e+02,-9.515286640122576500e+01,-1.622897169935308739e+02,9.408499717712402344e+00,3.824593871831893921e-02,9.561483860015869141e-01,4.600000000000000000e+02
-2.879778655552045166e+02,-2.875146985490077896e+02,-1.594446413969249079e+02,-1.476371789982672453e+02,-3.489336106264004229e+02,-3.706194059954432305e+02,-9.351280594876470786e+01,-1.588015843769362618e+02,9.408499717712402344e+00,3.824593871831893921e-02,9.561483860015869141e-01,4.610000000000000000e+02
-2.874251121448137383e+02,-2.842817835392938832e+02,-1.579664878952926301e+02,-1.449696134479436296e+02,-3.457681556162897323e+02,-3.675984288795061730e+02,-9.187368349088774266e+01,-1.542689445355690623e+02,9.408499717712402344e+00,7.649187743663787842e-02,9.943943619728088379e-01,4.620000000000000000e+02
-2.867340302565853563e+02,-2.809570302435413396e+02,-1.564460249982685127e+02,-1.414772571811272428e+02,-3.426955557104138279e+02,-3.636917648976500459e+02,-9.065453489785795682e+01,-1.500669825108966506e+02,9.408499717712402344e+00,7.649187743663787842e-02,9.943943619728088379e-01,4.630000000000000000e+02
-2.855285369861353502e+02,-2.787669911311090800e+02,-1.555462947619685110e+02,-1.388945737348772127e+02,-3.406302991947550254e+02,-3.598362527429289912e+02,-9.021895449192288652e+01,-1.478561387829781779e+02,9.408499717712402344e+00,7.649187743663787842e-02,9.943943619728088379e-01,4.640000000000000000e+02
-2.837841036649970192e+02,-2.780640671618421038e+02,-1.555918619955346003e+02,-1.381955150188359767e+02,-3.401338188482154692e+02,-3.567835598285637388e+02,-9.069205659090766858e+01,-1.486836728197904449e+02,9.408499717712402344e+00,7.649187743663787842e-02,9.943943619728088379e-01,4.650000000000000000e+02
-2.818443158934364874e+02,-2.780820962941838843e+02,-1.564181945529062432e+02,-1.389753895826479493e+02,-3.411045223342857753e+02,-3.547973277118935584e+02,-9.185425115649923100e+01,-1.523356182781221833e+02,9.408499717712402344e+00,7.649187743663787842e-02,9.943943619728088379e-01,4.660000000000000000e+02
-2.802087855522850077e+02,-2.776479694296540401e+02,-1.575523793938318704e+02,-1.400266971710052530e+02,-3.428714643488838192e+02,-3.537102568468258141e+02,-9.326776448003511177e+01,-1.574550473603849241e+02,9.408499717712402344e+00,7.649187743663787842e-02,9.943943619728088379e-01,4.670000000000000000e+02
-2.792798972294240230e+02,-2.761900645461892054e+02,-1.585509917972999574e+02,-1.405662024685361757e+02,-3.446626847829602411e+02,-3.531771000657099648e+02,-9.461100806170452415e+01,-1.623495292090988187e+02,9.408499717712402344e+00,7.649187743663787842e-02,9.943943619728088379e-01,4.680000000000000000e+02
-2.792143223321386358e+02,-2.741584322163344041e+02,-1.592173466161088982e+02,-1.409621302071645914e+02,-3.460333722644168120e+02,-3.528513157328984562e+02,-9.592572511642629252e+01,-1.658716048477895129e+02,9.408499717712402344e+00,7.649187743663787842e-02,9.943943619728088379e-01,4.690000000000000000e+02
-2.798519547223422705e+02,-2.725445209995027653e+02,-1.595355314827324946e+02,-1.422738576137840028e+02,-3.468675719709003715e+02,-3.523769078712925875e+02,-9.747674772260734244e+01,-1.677374256046523442e+02,9.408499717712402344e+00,7.649187743663787842e-02,9.943943619728088379e-01,4.700000000000000000e+02
-2.806736582186345004e+02,-2.719827638604169806e+02,-1.594336362920453212e+02,-1.450326486509216011e+02,-3.470452418839104212e+02,-3.513472893570524320e+02,-9.929468693988610539e+01,-1.681906150100098785e+02,9.408499717712402344e+00,7.649187743663787842e-02,9.943943619728088379e-01,4.710000000000000000e+02
-2.808650506810181469e+02,-2.722371262527881299e+02,-1.586605083998229020e+02,-1.484144372749892682e+02,-3.462619595389019196e+02,-3.494201693880536368e+02,-1.008576759153161220e+02,-1.674871523357714977e+02,9.408499717712402344e+00,7.649187743663787842e-02,9.943943619728088379e-01,4.720000000000000000e+02
-2.796367392600500352e+02,-2.724769294543707474e+02,-1.569715298035516753e+02,-1.506236085123064186e+02,-3.443088035033983942e+02,-3.465504079502065906e+02,-1.013385716482962380e+02,-1.657429097398908198e+02,9.408499717712402344e+00,7.649187743663787842e-02,9.943943619728088379e-01,4.730000000000000000e+02
-2.767456595297126114e+02,-2.720237927458965714e+02,-1.544906357109598503e+02,-1.502163094758557236e+02,-3.414952222984052241e+02,-3.430789574130499204e+02,-1.003000330097543156e+02,-1.632079893351597093e+02,9.408499717712402344e+00,7.649187743663787842e-02,9.943943619728088379e-01,4.740000000000000000e+02
-2.728347224462881968e+02,-2.708756571841900040e+02,-1.518698860886097464e+02,-1.472412563825619145e+02,-3.386374567930974990e+02,-3.394993050531725203e+02,-9.820527036204748583e+01,-1.605316528330195069e+02,9.408499717712402344e+00,7.649187743663787842e-02,9.943943619728088379e-01,4.750000000000000000e+02
-2.691784435398799360e+02,-2.695730177530363108e+02,-1.499790085531462864e+02,-1.432283466414678514e+02,-3.364750459991632852e+02,-3.360717961141713204e+02,-9.620422200045595673e+01,-1.585624756836928100e+02,9.408499717712402344e+00,7.649187743663787842e-02,9.943943619728088379e-01,4.760000000000000000e+02
-2.668659081559517290e+02,-2.685873257184211980e+02,-1.492888083171292237e+02,-1.400410973333177935e+02,-3.350529611262131766e+02,-3.326544441140945310e+02,-9.529985275314129467e+01,-1.577397682749428895e+02,9.408499717712402344e+00,7.649187743663787842e-02,9.943943619728088379e-01,4.770000000000000000e+02
-2.660218635019914473e+02,-2.678089738632211265e+02,-1.494530833540666208e+02,-1.385413262235024376e+02,-3.337042781671748344e+02,-3.289155552710803931e+02,-9.558134644716710682e+01,-1.576309465074791660e+02,9.408499717712402344e+00,7.649187743663787842e-02,9.943943619728088379e-01,4.780000000000000000e+02
-2.657331385313909777e+02,-2.665660968898396277e+02,-1.494996022412278762e+02,-1.381015734843954306e+02,-3.316480739672360869e+02,-3.246905861768068462e+02,-9.617732519149330983e+01,-1.571429727652189285e+02,9.408499717712402344e+00,7.649187743663787842e-02,9.943943619728088379e-01,4.790000000000000000e+02
-2.647726631764653575e+02,-2.641197275184540558e+02,-1.485335663004716480e+02,-1.372633130222379805e+02,-3.285898165632575001e+02,-3.200955757417791574e+02,-9.596070695797152439e+01,-1.553377431423282360e+02,9.408499717712402344e+00,7.649187743663787842e-02,9.943943619728088379e-01,4.800000000000000000e+02
-2.624876795541447336e+02,-2.601958359554996605e+02,-1.463918830194584189e+02,-1.349123865842116174e+02,-3.247704055548042561e+02,-3.152964511850614144e+02,-9.439287457710361195e+01,-1.521528332802599834e+02,9.408499717712402344e+00,7.649187743663787842e-02,9.943943619728088379e-01,4.810000000000000000e+02
-2.590943748212796436e+02,-2.551552497857278468e+02,-1.436881375412958732e+02,-1.310034296423291380e+02,-3.205390482088214412e+02,-3.102314918047118226e+02,-9.181964196882609031e+01,-1.483505514414737263e+02,9.408499717712402344e+00,7.649187743663787842e-02,9.943943619728088379e-01,4.820000000000000000e+02
-2.552318556482175609e+02,-2.497575341463957557e+02,-1.412052220279092580e+02,-1.263600226758189820e+02,-3.159941434126135391e+02,-3.046440765786655902e+02,-8.906110896454720205e+01,-1.447419837101074336e+02,9.408499717712402344e+00,7.649187743663787842e-02,9.943943619728088379e-01,4.830000000000000000e+02
-2.513236479304989643e+02,-2.447779856107054002e+02,-1.391654935226220005e+02,-1.218961166482854424e+02,-3.110363248508160723e+02,-2.984205157992410022e+02,-8.672440927293246204e+01,-1.414420195472303021e+02,9.408499717712402344e+00,7.649187743663787842e-02,9.943943619728088379e-01,4.840000000000000000e+02
-2.473931085125925620e+02,-2.407470837007435875e+02,-1.370432367736266315e+02,-1.180207286322197433e+02,-3.056688743338800123e+02,-2.918769844630310217e+02,-8.484881183222069012e+01,-1.379147297605954918e+02,9.408499717712402344e+00,7.649187743663787842e-02,9.943943619728088379e-01,4.850000000000000000e+02
-2.434024102648738790e+02,-2.378473527299227044e+02,-1.341144532038588295e+02,-1.146926156596671262e+02,-3.001755470404032167e+02,-2.856788371552497665e+02,-8.312623851214448223e+01,-1.337810840114507300e+02,9.408499717712402344e+00,7.649187743663787842e-02,9.943943619728088379e-01,4.860000000000000000e+02
-2.395827993281977797e+02,-2.358818187707220204e+02,-1.302631474686431829e+02,-1.118930952451992198e+02,-2.950320856447337974e+02,-2.804496682982808125e+02,-8.138843708561944368e+01,-1.295512250561173460e+02,9.408499717712402344e+00,7.649187743663787842e-02,9.943943619728088379e-01,4.870000000000000000e+02
-2.362982506795747213e+02,-2.342920239942855005e+02,-1.262906442502253412e+02,-1.098754564517917061e+02,-2.906962606209363003e+02,-2.764118138119379182e+02,-7.983110467009555578e+01,-1.264505698687089534e+02,9.408499717712402344e+00,7.649187743663787842e-02,9.943943619728088379e-01,4.880000000000000000e+02
-2.336127125927055204e+02,-2.323087114640168238e+02,-1.233909747992411212e+02,-1.088369895695611831e+02,-2.874361645215431054e+02,-2.733195222415897661e+02,-7.875055540250559716e+01,-1.253940849886976139e+02,9.332008361816406250e+00,3.824593871831893921e-02,9.179025292396545410e-01,4.890000000000000000e+02
-2.311308198074773372e+02,-2.292889239862361137e+02,-1.222112206066644831e+02,-1.083607917335975799e+02,-2.852228758829137405e+02,-2.706639872170744638e+02,-7.809977192089036180e+01,-1.260629393865701786e+02,9.332008361816406250e+00,3.824593871831893921e-02,9.179025292396545410e-01,4.900000000000000000e+02
-2.283856254691650065e+02,-2.250980997027249941e+02,-1.223128981032136835e+02,-1.073413427818145465e+02,-2.836966851178940487e+02,-2.679562305441831995e+02,-7.738781254313744284e+01,-1.270205631426492801e+02,9.332008361816406250e+00,3.824593871831893921e-02,9.179025292396545410e-01,4.910000000000000000e+02
-2.253719139820871078e+02,-2.202485641260241209e+02,-1.225013716339708481e+02,-1.046713118724017022e+02,-2.822769985913737401e+02,-2.649192049112966743e+02,-7.608015128805095628e+01,-1.268252491290952548e+02,9.332008361816406250e+00,3.824593871831893921e-02,9.179025292396545410e-01,4.920000000000000000e+02
-2.225885173795004448e+02,-2.156304692892103958e+02,-1.217280637760607078e+02,-1.001501224921305493e+02,-2.804460051348355591e+02,-2.615340505739427499e+02,-7.409290246633736388e+01,-1.251309273862136706e+02,9.332008361816406250e+00,3.824593871831893921e-02,9.179025292396545410e-01,4.930000000000000000e+02
-2.204715744557138351e+02,-2.119952628628313960e+02,-1.197856720894592399e+02,-9.472980544643110079e+01,-2.780305547250518430e+02,-2.579439614832394909e+02,-7.183933220651283591e+01,-1.227770805516356631e+02,9.332008361816406250e+00,3.824593871831893921e-02,9.179025292396545410e-01,4.940000000000000000e+02
-2.188182017052322408e+02,-2.095599228497030708e+02,-1.172621539149665750e+02,-8.976534706813299636e+01,-2.752127753309835043e+02,-2.542602684562955346e+02,-6.976595704309761459e+01,-1.208487945803797174e+02,9.332008361816406250e+00,3.824593871831893921e-02,9.179025292396545410e-01,4.950000000000000000e+02
-2.168977749779578517e+02,-2.080088583521287546e+02,-1.149219735058852621e+02,-8.592343770844604478e+01,-2.722561939679824263e+02,-2.503966257342553945e+02,-6.790117041852090551e+01,-1.196549540956968940e+02,9.332008361816406250e+00,3.824593871831893921e-02,9.179025292396545410e-01,4.960000000000000000e+02
-2.142046880706291176e+02,-2.068301261960195916e+02,-1.131251930540822741e+02,-8.277326012775597519e+01,-2.692348028834353499e+02,-2.460845747340290472e+02,-6.592836386143721938e+01,-1.185457966988440148e+02,9.332008361816406250e+00,3.824593871831893921e-02,9.179025292396545410e-01,4.970000000000000000e+02
-2.110563034078020337e+02,-2.056756417188032628e+02,-1.117331696880753498e+02,-7.942455018399641631e+01,-2.660491604232031477e+02,-2.411110108972404760e+02,-6.367377736954153988e+01,-1.166048490439384295e+02,9.332008361816406250e+00,3.824593871831893921e-02,9.179025292396545410e-01,4.980000000000000000e+02
-2.083625388782184018e+02,-2.044860162261056757e+02,-1.104198268411939807e+02,-7.555851139004175820e+01,-2.626734645604597063e+02,-2.356032069532975584e+02,-6.138671456339625365e+01,-1.134477356474953922e+02,9.332008361816406250e+00,3.824593871831893921e-02,9.179025292396545410e-01,4.990000000000000000e+02
-2.067524034580703756e+02,-2.033434648767179169e+02,-1.089868320207260695e+02,-7.182378102991754076e+01,-2.593200265045215929e+02,-2.300922108584882153e+02,-5.943318548929073586e+01,-1.094241483029370556e+02,9.332008361816406250e+00,3.824593871831893921e-02,9.179025292396545410e-01,5.000000000000000000e+02
-2.059361622214220233e+02,-2.022262290332895418e+02,-1.074171691450510480e+02,-6.922635136575240722e+01,-2.563463804692692065e+02,-2.252574636113004090e+02,-5.776182459261303848e+01,-1.052342731360047310e+02,9.332008361816406250e+00,3.824593871831893921e-02,9.179025292396545410e-01,5.010000000000000000e+02
-2.049559596333783702e+02,-2.008952868527167084e+02,-1.057471798432266041e+02,-6.814630664163041729e+01,-2.540359829968956547e+02,-2.215273542833774627e+02,-5.584416926866117592e+01,-1.014830470271243712e+02,9.332008361816406250e+00,3.824593871831893921e-02,9.179025292396545410e-01,5.020000000000000000e+02
-2.030311559495678466e+02,-1.990219910826890555e+02,-1.039972338561267406e+02,-6.795356844360344439e+01,-2.525037496774189094e+02,-2.188462299300923632e+02,-5.329053564497223761e+01,-9.856742197619701074e+01,9.332008361816406250e+00,3.824593871831893921e-02,9.179025292396545410e-01,5.030000000000000000e+02
-2.001278561482671421e+02,-1.964869064617993217e+02,-1.022370473528661705e+02,-6.756605616714728058e+01,-2.517487915977831108e+02,-2.167591025424233067e+02,-5.050256787955083837e+01,-9.676853787247682703e+01,9.332008361816406250e+00,3.824593871831893921e-02,9.179025292396545410e-01,5.040000000000000000e+02
-1.967755522480255763e+02,-1.936269622224556315e+02,-1.006753947377045506e+02,-6.637804156596337180e+01,-2.516821401984525437e+02,-2.147156198275672523e+02,-4.856802802649065143e+01,-9.621729150417797882e+01,9.332008361816406250e+00,3.824593871831893921e-02,9.179025292396545410e-01,5.050000000000000000e+02
-1.935077887148190712e+02,-1.912042875656037495e+02,-9.965214281211399339e+01,-6.470848515705580439e+01,-2.520755437521651174e+02,-2.123871086789408764e+02,-4.839307067963113695e+01,-9.670337048349898623e+01,9.332008361816406250e+00,3.824593871831893921e-02,9.179025292396545410e-01,5.060000000000000000e+02
-1.906130034033371885e+02,-1.900218029405576772e+02,-9.951644372088367163e+01,-6.344724911160756164e+01,-2.525777769684986538e+02,-2.098244794147665289e+02,-4.990963661785104932e+01,-9.763005845939255778e+01,9.332008361816406250e+00,3.824593871831893921e-02,9.179025292396545410e-01,5.070000000000000000e+02
-1.883532972998833088e+02,-1.903927214381040471e+02,-1.004363448844167692e+02,-6.331502492733676490e+01,-2.528889681613711673e+02,-2.073899275551150936e+02,-5.214717682859088654e+01,-9.831216165285172792e+01,9.332008361816406250e+00,3.824593871831893921e-02,9.179025292396545410e-01,5.080000000000000000e+02
-1.871389150475710039e+02,-1.918526022562497246e+02,-1.021968851726583694e+02,-6.436690288143567784e+01,-2.529106660397200130e+02,-2.054855224035914034e+02,-5.404006164582497718e+01,-9.837153190292315230e+01,9.332008361816406250e+00,3.824593871831893921e-02,9.179025292396545410e-01,5.090000000000000000e+02
-1.872187792904211960e+02,-1.933820925776877857e+02,-1.041087880498955087e+02,-6.602442135011534674e+01,-2.526521300889959889e+02,-2.042268462499453676e+02,-5.512820788752473788e+01,-9.783563370003119530e+01,9.332008361816406250e+00,3.824593871831893921e-02,9.179025292396545410e-01,5.100000000000000000e+02
-1.881771331918574504e+02,-1.940031893125591864e+02,-1.051993760196824041e+02,-6.743379521209502059e+01,-2.519794124279988523e+02,-2.033013969680142168e+02,-5.553240669294613951e+01,-9.685707810506525561e+01,9.332008361816406250e+00,3.824593871831893921e-02,9.179025292396545410e-01,5.110000000000000000e+02
-1.889735082516312730e+02,-1.933142798503626523e+02,-1.047389338685571829e+02,-6.782837759295637170e+01,-2.505785197825528030e+02,-2.021651179967351482e+02,-5.545186602138301168e+01,-9.541468915428143305e+01,9.332008361816406250e+00,3.824593871831893921e-02,9.179025292396545410e-01,5.120000000000000000e+02
-1.887703050525706203e+02,-1.915817865270626612e+02,-1.028157546988652484e+02,-6.676890692260235483e+01,-2.483048983210026108e+02,-2.004509360683588284e+02,-5.488519115902204248e+01,-9.338366856710291586e+01,9.332008361816406250e+00,3.824593871831893921e-02,9.179025292396545410e-01,5.130000000000000000e+02
-1.878057761828894172e+02,-1.893773499231892856e+02,-1.004213790893545593e+02,-6.427331766656800482e+01,-2.455483445856366416e+02,-1.982064121785863335e+02,-5.383941436070688269e+01,-9.087338903378463328e+01,9.332008361816406250e+00,3.824593871831893921e-02,9.179025292396545410e-01,5.140000000000000000e+02
-1.873049343855893767e+02,-1.871258386151266677e+02,-9.879213244380161996e+01,-6.083142982916774599e+01,-2.430861164169313042e+02,-1.957162101264534613e+02,-5.261172371611542076e+01,-8.837302195384404513e+01,9.332008361816406250e+00,3.824593871831893921e-02,9.179025292396545410e-01,5.150000000000000000e+02
-1.882983685061606138e+02,-1.849229202231205136e+02,-9.842797713549373384e+01,-5.722129838929743073e+01,-2.414329113927564094e+02,-1.931154091452544890e+02,-5.164098816499995337e+01,-8.644873100368454288e+01,9.332008361816406250e+00,3.824593871831893921e-02,9.179025292396545410e-01,5.160000000000000000e+02
-1.903873119290080922e+02,-1.826586789336261063e+02,-9.862444797205034774e+01,-5.413180574825855729e+01,-2.403445403496587005e+02,-1.902622817460255646e+02,-5.100704300475558739e+01,-8.527847373646511642e+01,9.332008361816406250e+00,3.824593871831893921e-02,9.179025292396545410e-01,5.170000000000000000e+02
-1.917248782339041782e+02,-1.802279110390433061e+02,-9.801071182229384249e+01,-5.182323603188206107e+01,-2.390637816045218642e+02,-1.870735698668363511e+02,-5.019318050585297897e+01,-8.454784012006507510e+01,9.332008361816406250e+00,3.824593871831893921e-02,9.179025292396545410e-01,5.180000000000000000e+02
-1.903846747111374498e+02,-1.776322354422618446e+02,-9.568312468410749716e+01,-5.010787634320513462e+01,-2.370862824820533206e+02,-1.839456121735786382e+02,-4.849434739050002463e+01,-8.384037449235870554e+01,9.332008361816406250e+00,3.824593871831893921e-02,9.179025292396545410e-01,5.190000000000000000e+02
-1.859320181126804528e+02,-1.749773578284812174e+02,-9.194597026212727542e+01,-4.865984192462587998e+01,-2.346094178556113548e+02,-1.816629383757831420e+02,-4.573174877451037901e+01,-8.305742155938378346e+01,9.370253562927246094e+00,3.824593871831893921e-02,9.561483860015869141e-01,5.200000000000000000e+02
-1.797880171669603442e+02,-1.724833268593406501e+02,-8.802700143070478589e+01,-4.732620808160072556e+01,-2.321715488910454042e+02,-1.806951554513118481e+02,-4.254472942750317088e+01,-8.234168718311502744e+01,9.370253562927246094e+00,3.824593871831893921e-02,9.561483860015869141e-01,5.210000000000000000e+02
-1.741055774480228138e+02,-1.705147666494706300e+02,-8.507599679918075708e+01,-4.609811266794417861e+01,-2.299167973368662388e+02,-1.805174844820071485e+02,-3.991320769829349047e+01,-8.156639291787905677e+01,9.370253562927246094e+00,3.824593871831893921e-02,9.561483860015869141e-01,5.220000000000000000e+02
-1.702379417256015586e+02,-1.695044420715439628e+02,-8.337194961612431143e+01,-4.479011536479015376e+01,-2.273646825936484674e+02,-1.797270387005432895e+02,-3.833168542933526624e+01,-8.003111466866039336e+01,9.370253562927246094e+00,3.824593871831893921e-02,9.561483860015869141e-01,5.230000000000000000e+02
-1.681272955759040997e+02,-1.697027992144533073e+02,-8.236020727777940920e+01,-4.286040699988961933e+01,-2.239702750468431987e+02,-1.770154360522701609e+02,-3.739375078072725955e+01,-7.687117821705851384e+01,9.370253562927246094e+00,3.824593871831893921e-02,9.561483860015869141e-01,5.240000000000000000e+02
-1.669372013711097225e+02,-1.709204228239004806e+02,-8.132467811636934130e+01,-3.972528415136525837e+01,-2.198435842276821859e+02,-1.721895911569549753e+02,-3.616097833749427082e+01,-7.194310631615417151e+01,9.370253562927246094e+00,3.824593871831893921e-02,9.561483860015869141e-01,5.250000000000000000e+02
-1.661073326549778812e+02,-1.725257179401237408e+02,-8.000515808347699931e+01,-3.540336557731916400e+01,-2.158156540692425551e+02,-1.663332412847685191e+02,-3.399563320641937025e+01,-6.634151276131888153e+01,9.370253562927246094e+00,3.824593871831893921e-02,9.561483860015869141e-01,5.260000000000000000e+02
-1.657565505140159985e+02,-1.737591377328712952e+02,-7.867681033379903965e+01,-3.084480686394272198e+01,-2.127576406892003433e+02,-1.609782981731050313e+02,-3.115715867444487230e+01,-6.191717617474887447e+01,9.370253562927246094e+00,3.824593871831893921e-02,9.561483860015869141e-01,5.270000000000000000e+02
-1.661688020672390849e+02,-1.741389917027086085e+02,-7.778433741975868543e+01,-2.745581848895244548e+01,-2.108595136763619848e+02,-1.570487694762882711e+02,-2.869130248683177342e+01,-6.007124535406092036e+01,9.370253562927246094e+00,3.824593871831893921e-02,9.561483860015869141e-01,5.280000000000000000e+02
-1.670545935979212118e+02,-1.736624364592162237e+02,-7.754550370260449199e+01,-2.608721067416399819e+01,-2.095595147739750246e+02,-1.544668445745674035e+02,-2.770735337911492024e+01,-6.080264625547215473e+01,9.370253562927246094e+00,3.824593871831893921e-02,9.561483860015869141e-01,5.290000000000000000e+02
-1.674442745431306321e+02,-1.726990329391660453e+02,-7.781536290956046287e+01,-2.635892057642922737e+01,-2.080950951125423671e+02,-1.525989819734140838e+02,-2.859884412232668183e+01,-6.279352570624905638e+01,9.370253562927246094e+00,3.824593871831893921e-02,9.561483860015869141e-01,5.300000000000000000e+02
-1.663703259812273245e+02,-1.717285857889528415e+02,-7.821169813514688940e+01,-2.697864938793418332e+01,-2.060630525988694899e+02,-1.509628612953742959e+02,-3.077159107726038201e+01,-6.440951555308356546e+01,9.370253562927246094e+00,3.824593871831893921e-02,9.561483860015869141e-01,5.310000000000000000e+02
-1.636901884589528891e+02,-1.711337852822739478e+02,-7.834173669329175027e+01,-2.680269165813524523e+01,-2.034962917772709261e+02,-1.495263431795819997e+02,-3.304598483641939310e+01,-6.475048934862297756e+01,9.370253562927246094e+00,3.824593871831893921e-02,9.561483860015869141e-01,5.320000000000000000e+02
-1.602634489941724496e+02,-1.710941648677521698e+02,-7.800766629674490105e+01,-2.565876089353014322e+01,-2.005444134385934376e+02,-1.484656378556310301e+02,-3.441301800638757413e+01,-6.396559056252453956e+01,9.370253562927246094e+00,3.824593871831893921e-02,9.561483860015869141e-01,5.330000000000000000e+02
-1.572976299905544693e+02,-1.715118454317494070e+02,-7.729047526939666568e+01,-2.417607098140297239e+01,-1.971902600500934568e+02,-1.477813325869256005e+02,-3.457661381995239935e+01,-6.276700343180255004e+01,9.370253562927246094e+00,3.824593871831893921e-02,9.561483860015869141e-01,5.340000000000000000e+02
-1.554265051508928082e+02,-1.719752226600662652e+02,-7.646824080515943933e+01,-2.287426647413030878e+01,-1.933060776226184316e+02,-1.472083111998990717e+02,-3.394576420520479587e+01,-6.173188347132690978e+01,9.370253562927246094e+00,3.824593871831893921e-02,9.561483860015869141e-01,5.350000000000000000e+02
-1.543155909858737687e+02,-1.718880420549985502e+02,-7.580124053962754260e+01,-2.149793746051182097e+01,-1.889479915179699674e+02,-1.464519928867475755e+02,-3.318415379002635746e+01,-6.097342891994594538e+01,9.370253562927246094e+00,3.824593871831893921e-02,9.561483860015869141e-01,5.360000000000000000e+02
-1.530969608420355144e+02,-1.708294735924964698e+02,-7.533909690573818807e+01,-1.929758671030049300e+01,-1.845648884625425126e+02,-1.454359835518434920e+02,-3.271994220935448539e+01,-6.026928233395665302e+01,9.370253562927246094e+00,3.824593871831893921e-02,9.561483860015869141e-01,5.370000000000000000e+02
-1.512111472019764733e+02,-1.689330996249072996e+02,-7.491842550501678488e+01,-1.593587762690913223e+01,-1.808770840336837864e+02,-1.442857614025642761e+02,-3.255248559115898388e+01,-5.933294465931885497e+01,9.370253562927246094e+00,3.824593871831893921e-02,9.561483860015869141e-01,5.380000000000000000e+02
-1.488994933713265709e+02,-1.669215709406416863e+02,-7.434134848012308794e+01,-1.202012427662157279e+01,-1.784450424471197039e+02,-1.430936658134742174e+02,-3.236896115129275131e+01,-5.793980499814915675e+01,9.370253562927246094e+00,3.824593871831893921e-02,9.561483860015869141e-01,5.390000000000000000e+02
-1.469400560877602402e+02,-1.656384542465984850e+02,-7.353720910057381843e+01,-8.660460291903291363e+00,-1.772251962791096958e+02,-1.417431559247743280e+02,-3.176910409208176134e+01,-5.593211583577158308e+01,9.370253562927246094e+00,3.824593871831893921e-02,9.561483860015869141e-01,5.400000000000000000e+02
-1.458921665745510836e+02,-1.653770836637650063e+02,-7.253239069644405390e+01,-6.486772940376795304e+00,-1.764921870617517925e+02,-1.399952155919290817e+02,-3.044717827410295286e+01,-5.327832186960040417e+01,9.370253562927246094e+00,0.000000000000000000e+00,9.561483860015869141e-01,5.410000000000000000e+02
-1.455296982286636194e+02,-1.655908967287232372e+02,-7.129061106578592444e+01,-5.124342193766096898e+00,-1.752801040058011495e+02,-1.377636086994125435e+02,-2.832383578618464526e+01,-5.020903471685414843e+01,9.370253562927246094e+00,0.000000000000000000e+00,9.561483860015869141e-01,5.420000000000000000e+02
-1.449453014170539973e+02,-1.652834034120787692e+02,-6.964155035036401387e+01,-3.635674887982531800e+00,-1.730443463683750451e+02,-1.352849693328544163e+02,-2.563969331333737500e+01,-4.722025866820422380e+01,9.370253562927246094e+00,0.000000000000000000e+00,9.561483860015869141e-01,5.430000000000000000e+02
-1.432209078674632110e+02,-1.637765786346481036e+02,-6.740170315279829083e+01,-1.430286145722675428e+00,-1.699629082994842975e+02,-1.329652613885928076e+02,-2.291077948310339707e+01,-4.477854279162238527e+01,9.370253562927246094e+00,0.000000000000000000e+00,9.561483860015869141e-01,5.440000000000000000e+02
-1.401195701155365896e+02,-1.612245443658202930e+02,-6.457400426172534935e+01,1.276152412753617682e+00,-1.665835063533668290e+02,-1.310104433739597880e+02,-2.066681992403755430e+01,-4.291500171275947650e+01,9.370253562927246094e+00,0.000000000000000000e+00,9.561483860015869141e-01,5.450000000000000000e+02
-1.362781527097977232e+02,-1.584627247130229080e+02,-6.140761663980993035e+01,3.829122455169454042e+00,-1.631661630959497415e+02,-1.291931273965401488e+02,-1.910428032425988931e+01,-4.112659870513198257e+01,9.370253562927246094e+00,0.000000000000000000e+00,9.561483860015869141e-01,5.460000000000000000e+02
-1.328058417156826181e+02,-1.563677965660899645e+02,-5.826072934636704304e+01,5.842175829528059694e+00,-1.594149881289804398e+02,-1.270147872004745295e+02,-1.793568780223085923e+01,-3.879817790108336339e+01,9.370253562927246094e+00,0.000000000000000000e+00,9.561483860015869141e-01,5.470000000000000000e+02
-1.306282921804750004e+02,-1.552852796854522239e+02,-5.542271386945685663e+01,7.495706094025990751e+00,-1.549091753676502776e+02,-1.241531168855435681e+02,-1.661049968830229773e+01,-3.584907117595321324e+01,9.370253562927246094e+00,0.000000000000000000e+00,9.561483860015869141e-01,5.480000000000000000e+02
-1.300008242405665442e+02,-1.549216829386605241e+02,-5.304098038185657060e+01,9.228213547642553749e+00,-1.497421405570203206e+02,-1.207848771894314268e+02,-1.474238627551767422e+01,-3.299679447445669211e+01,9.370253562927246094e+00,0.000000000000000000e+00,9.561483860015869141e-01,5.490000000000000000e+02
-1.304092730595566536e+02,-1.546359861063647259e+02,-5.112947176206762379e+01,1.127615518254151539e+01,-1.446106269787160272e+02,-1.174702175681632070e+02,-1.238740722583861498e+01,-3.130624600173723593e+01,9.370253562927246094e+00,0.000000000000000000e+00,9.561483860015869141e-01,5.500000000000000000e+02
-1.308282451509467137e+02,-1.537906960785367119e+02,-4.956651085583325766e+01,1.357784591949348396e+01,-1.402033461068203906e+02,-1.146977355876279034e+02,-9.965389494240298518e+00,-3.133196308563128696e+01,9.370253562927246094e+00,0.000000000000000000e+00,9.561483860015869141e-01,5.510000000000000000e+02
-1.301962332410948875e+02,-1.519552832712743111e+02,-4.809518686629235162e+01,1.604329472159497527e+01,-1.365555784156003938e+02,-1.125135498236759304e+02,-7.934201321024374920e+00,-3.257914346964207652e+01,9.370253562927246094e+00,0.000000000000000000e+00,9.561483860015869141e-01,5.520000000000000000e+02
-1.279269776872670263e+02,-1.490222907417710303e+02,-4.644015556927115540e+01,1.876265557678198093e+01,-1.331147659760408715e+02,-1.105609449539624620e+02,-6.499205902377070743e+00,-3.377598095531357103e+01,9.370253562927246094e+00,0.000000000000000000e+00,9.561483860015869141e-01,5.530000000000000000e+02
-1.242276240446917654e+02,-1.453090915542370567e+02,-4.453413335831282893e+01,2.186231913873416488e+01,-1.294491026911091467e+02,-1.084381640135816269e+02,-5.514586405037334771e+00,-3.373949228822129953e+01,9.370253562927246094e+00,0.000000000000000000e+00,9.561483860015869141e-01,5.540000000000000000e+02
-1.200162104397204530e+02,-1.415442485321482309e+02,-4.264671863050534739e+01,2.518310871761241287e+01,-1.257811966046938323e+02,-1.060195968266216369e+02,-4.571129051661046105e+00,-3.213482026529891300e+01,9.370253562927246094e+00,0.000000000000000000e+00,9.561483860015869141e-01,5.550000000000000000e+02
-1.164293736689278376e+02,-1.385801063531762338e+02,-4.120561031876422931e+01,2.818101030216530489e+01,-1.227249495850483072e+02,-1.034969890223310358e+02,-3.207423090558222611e+00,-2.956700993772392394e+01,9.370253562927246094e+00,0.000000000000000000e+00,9.561483860015869141e-01,5.560000000000000000e+02
-1.141986703035654500e+02,-1.369258911154465750e+02,-4.040728174898504221e+01,3.021462770365906181e+01,-1.205324567997886334e+02,-1.012093932390962436e+02,-1.182586010374507168e+00,-2.704515202965740173e+01,9.370253562927246094e+00,0.000000000000000000e+00,9.561483860015869141e-01,5.570000000000000000e+02
-1.133085320481177405e+02,-1.364813202034220012e+02,-3.999627080673235469e+01,3.095859571627079276e+01,-1.187296170058361895e+02,-9.947459936792620283e+01,1.296997240096970927e+00,-2.533785079090193904e+01,9.370253562927246094e+00,0.000000000000000000e+00,9.561483860015869141e-01,5.580000000000000000e+02
-1.131626895654590044e+02,-1.367505588068634097e+02,-3.947586719343416917e+01,3.058580654838806367e+01,-1.165732116924591537e+02,-9.849640139043185627e+01,3.597962103653117083e+00,-2.468018615319670062e+01,9.370253562927246094e+00,0.000000000000000000e+00,9.561483860015869141e-01,5.590000000000000000e+02
-1.130901532299594692e+02,-1.373207348972009640e+02,-3.857835502441594144e+01,2.963440511201042682e+01,-1.138329301415506052e+02,-9.826408399387037207e+01,5.022020744658220792e+00,-2.486938505573925795e+01,9.370253562927246094e+00,0.000000000000000000e+00,9.561483860015869141e-01,5.600000000000000000e+02
-1.127471762433833646e+02,-1.380582877003707836e+02,-3.750230927084885479e+01,2.876599122102925321e+01,-1.110457955293422856e+02,-9.841734913772597793e+01,5.316774755572623690e+00,-2.546466331759802415e+01,9.370253562927246094e+00,0.000000000000000000e+00,9.561483860015869141e-01,5.610000000000000000e+02
-1.121033629239373113e+02,-1.387775255767755880e+02,-3.662522005445134710e+01,2.861339667243737495e+01,-1.089799322234266583e+02,-9.824680233894468984e+01,4.940741028596676188e+00,-2.589640076033356308e+01,9.370253562927246094e+00,0.000000000000000000e+00,9.561483860015869141e-01,5.620000000000000000e+02
-1.111352946844581311e+02,-1.388073149645642843e+02,-3.597178772763982124e+01,2.967783813243295299e+01,-1.078886468681394035e+02,-9.700228285742559819e+01,4.820680954886483960e+00,-2.558240431840386009e+01,9.370253562927246094e+00,0.000000000000000000e+00,9.561483860015869141e-01,5.630000000000000000e+02
-1.096411754774344445e+02,-1.371387394792764098e+02,-3.503887144832697231e+01,3.213453725512772507e+01,-1.073031645963001210e+02,-9.439901454692881089e+01,5.752752682314167032e+00,-2.420603401348671468e+01,9.370253562927246094e+00,0.000000000000000000e+00,9.561483860015869141e-01,5.640000000000000000e+02
-1.074352096257061930e+02,-1.332528399693965184e+02,-3.325924911173933651e+01,3.560689365374310000e+01,-1.065214113236288540e+02,-9.092728133230957610e+01,7.892369091339787701e+00,-2.204619211616045504e+01,9.370253562927246094e+00,0.000000000000000000e+00,9.561483860015869141e-01,5.650000000000000000e+02
-1.047443476725002256e+02,-1.278730950698536617e+02,-3.072030829599498247e+01,3.918485266988682270e+01,-1.052736870877415640e+02,-8.763761915265786229e+01,1.067008018631531741e+01,-2.000206249463735730e+01,9.370253562927246094e+00,3.824593871831893921e-02,9.943943619728088379e-01,5.660000000000000000e+02
-1.023443739735412237e+02,-1.227510458284759807e+02,-2.841403456711850595e+01,4.186839508314369596e+01,-1.039393864391022362e+02,-8.549672740950518346e+01,1.312149179559673939e+01,-1.910448464188993967e+01,9.370253562927246094e+00,3.824593871831893921e-02,9.943943619728088379e-01,5.670000000000000000e+02
-1.011780938229021558e+02,-1.194896720887063566e+02,-2.766806097377047990e+01,4.320756402463484847e+01,-1.031775420437497814e+02,-8.479034224177667056e+01,1.435584838978320477e+01,-1.980031645766393922e+01,9.370253562927246094e+00,3.824593871831893921e-02,9.943943619728088379e-01,5.680000000000000000e+02
-1.016849454342827812e+02,-1.184319519632845186e+02,-2.914931420926222927e+01,4.361114469008134620e+01,-1.033239899642612727e+02,-8.500645793222793145e+01,1.393336604521755362e+01,-2.160011083179415436e+01,9.370253562927246094e+00,3.824593871831893921e-02,9.943943619728088379e-01,5.690000000000000000e+02
-1.033957015820469678e+02,-1.186593079417471017e+02,-3.226016777424592874e+01,4.396914192741314764e+01,-1.040339692648394703e+02,-8.524077569058499648e+01,1.206299550313269719e+01,-2.343427494934257993e+01,9.370253562927246094e+00,3.824593871831893921e-02,9.943943619728088379e-01,5.700000000000000000e+02
-1.051725407875619567e+02,-1.190535236088562669e+02,-3.543651012646114395e+01,4.484719051715183014e+01,-1.044160799038400000e+02,-8.478151595432791510e+01,9.570819597311128746e+00,-2.441993314068167820e+01,9.370253562927246094e+00,3.824593871831893921e-02,9.943943619728088379e-01,5.710000000000000000e+02
-1.059232785617423360e+02,-1.192697312316904572e+02,-3.710876781495971954e+01,4.597863271110327332e+01,-1.035366152432179661e+02,-8.346130789573362563e+01,7.600878776984245633e+00,-2.435254915140467347e+01,9.370253562927246094e+00,3.824593871831893921e-02,9.943943619728088379e-01,5.720000000000000000e+02
-1.052075941397342831e+02,-1.196078052731354546e+02,-3.658564364365884103e+01,4.656975301245984156e+01,-1.009475231236756372e+02,-8.159657763117502327e+01,7.113609077674482251e+00,-2.353666574934322853e+01,9.370253562927246094e+00,3.824593871831893921e-02,9.943943619728088379e-01,5.730000000000000000e+02
-1.032800988560629776e+02,-1.200389748554825928e+02,-3.425807596584490966e+01,4.617195443577293190e+01,-9.688797985287965275e+01,-7.963785118102532579e+01,8.444466578552237479e+00,-2.224709167363289453e+01,9.370253562927246094e+00,3.824593871831893921e-02,9.943943619728088379e-01,5.740000000000000000e+02
-1.006516957689782430e+02,-1.196381320480468275e+02,-3.112986815987096634e+01,4.526562430519334157e+01,-9.205172108018086874e+01,-7.780934095943666762e+01,1.120683473573808442e+01,-2.046304015036366764e+01,9.370253562927246094e+00,3.824593871831893921e-02,9.943943619728088379e-01,5.750000000000000000e+02
-9.768514104206587945e+01,-1.172624444665252668e+02,-2.816326379143720260e+01,4.490250945297339058e+01,-8.716057521401671693e+01,-7.599095111085625831e+01,1.458135650348049239e+01,-1.815979048209919711e+01,9.370253562927246094e+00,3.824593871831893921e-02,9.943943619728088379e-01,5.760000000000000000e+02
-9.462420424788615492e+01,-1.129005496055160620e+02,-2.591874314222877729e+01,4.565381951630297408e+01,-8.271030498731124680e+01,-7.391103320805632393e+01,1.774251684808405116e+01,-1.576641563791417866e+01,9.370253562927246094e+00,3.824593871831893921e-02,9.943943619728088379e-01,5.770000000000000000e+02
-9.191518714123776590e+01,-1.082328831601917045e+02,-2.458372120286003337e+01,4.684722219741161098e+01,-7.902774088718797429e+01,-7.149532927933250903e+01,2.011657736115012085e+01,-1.416610162754659541e+01,9.370253562927246094e+00,3.824593871831893921e-02,9.943943619728088379e-01,5.780000000000000000e+02
-9.030571381165100320e+01,-1.056159974612473889e+02,-2.414723528633840033e+01,4.688729006934227073e+01,-7.641443980617259513e+01,-6.907965549272921635e+01,2.141731486318894895e+01,-1.409806443616616889e+01,9.370253562927246094e+00,3.824593871831893921e-02,9.943943619728088379e-01,5.790000000000000000e+02
-9.041170118242189346e+01,-1.062746867832211137e+02,-2.447083871812355937e+01,4.447315784935562988e+01,-7.507343605486676097e+01,-6.727408588020989555e+01,2.162665717704294366e+01,-1.551278127876867075e+01,9.370253562927246094e+00,3.824593871831893921e-02,9.943943619728088379e-01,5.800000000000000000e+02
-9.204745527577142639e+01,-1.093356695738475537e+02,-2.523960173713203403e+01,3.968267127100625657e+01,-7.483064958070826833e+01,-6.654019821605470497e+01,2.103494302199032973e+01,-1.754757849692396121e+01,9.370253562927246094e+00,3.824593871831893921e-02,9.943943619728088379e-01,5.810000000000000000e+02
-9.401589307692302100e+01,-1.125910335603548447e+02,-2.596210447789781028e+01,3.399134196618251735e+01,-7.500917506932091783e+01,-6.679932196027220925e+01,2.023853679305830155e+01,-1.918423134531622054e+01,9.370253562927246094e+00,3.824593871831893921e-02,9.943943619728088379e-01,5.820000000000000000e+02
-9.474631251254140807e+01,-1.142431355292901571e+02,-2.612986040806208621e+01,2.923884376003843499e+01,-7.474338566453661770e+01,-6.739130863868558663e+01,1.991003045909019420e+01,-1.996005070405226434e+01,9.370253562927246094e+00,3.824593871831893921e-02,9.943943619728088379e-01,5.830000000000000000e+02
-9.337844637195121322e+01,-1.140447533239785116e+02,-2.547309271764243022e+01,2.644434654107317328e+01,-7.354603046927877585e+01,-6.744488091989478562e+01,2.038926268180512125e+01,-2.008847925516238320e+01,9.370253562927246094e+00,3.824593871831893921e-02,9.943943619728088379e-01,5.840000000000000000e+02
-9.040059434943759697e+01,-1.129435050143074477e+02,-2.413620215232731425e+01,2.539422371262844536e+01,-7.161521930804883596e+01,-6.639723107945246738e+01,2.142519241362970206e+01,-1.999076785595389083e+01,9.370253562927246094e+00,3.824593871831893921e-02,9.943943619728088379e-01,5.850000000000000000e+02
-8.727499300735507859e+01,-1.118125733051347197e+02,-2.266021419841490570e+01,2.513830087075257325e+01,-6.960265659067954402e+01,-6.431566516714156023e+01,2.233645784918553545e+01,-1.984735330326293479e+01,9.370253562927246094e+00,3.824593871831893921e-02,9.943943619728088379e-01,5.860000000000000000e+02
-8.534361378538233112e+01,-1.106291222787149309e+02,-2.175478856610425282e+01,2.478528218692736118e+01,-6.808391543935067602e+01,-6.182920390515209874e+01,2.251071812479494838e+01,-1.966092477774873259e+01,9.370253562927246094e+00,3.824593871831893921e-02,9.943943619728088379e-01,5.870000000000000000e+02
-8.491644287605959107e+01,-1.088174921786303457e+02,-2.191559777341171866e+01,2.394390374208524008e+01,-6.719975073713067104e+01,-5.971980273285589647e+01,2.186665875327526010e+01,-1.962206715302454541e+01,9.370253562927246094e+00,3.824593871831893921e-02,9.943943619728088379e-01,5.880000000000000000e+02
-8.523326515072403708e+01,-1.062248463378782617e+02,-2.304624022882489953e+01,2.267228191099275136e+01,-6.668854353008282487e+01,-5.843006372037416440e+01,2.093517291665557423e+01,-2.016178714951092843e+01,9.370253562927246094e+00,3.824593871831893921e-02,9.943943619728088379e-01,5.890000000000000000e+02
-8.519272970027668634e+01,-1.036075877053881413e+02,-2.432929155533201993e+01,2.122863658618371119e+01,-6.614541919922339730e+01,-5.779585499093082035e+01,2.051728913521947106e+01,-2.145309158808231587e+01,9.370253562927246094e+00,3.824593871831893921e-02,9.943943619728088379e-01,5.900000000000000000e+02
-8.415567577205365524e+01,-1.020956932944318396e+02,-2.456132806122332113e+01,1.987404622099347762e+01,-6.526055214441657881e+01,-5.718687578204480815e+01,2.118025278007189627e+01,-2.288187310706052813e+01,9.370253562927246094e+00,3.824593871831893921e-02,9.943943619728088379e-01,5.910000000000000000e+02
-8.222176731829677010e+01,-1.021897045509576856e+02,-2.287867123142859782e+01,1.873785410200071055e+01,-6.395854893694558996e+01,-5.598237830760263023e+01,2.292907273733362672e+01,-2.323024906209320761e+01,9.370253562927246094e+00,3.824593871831893921e-02,9.943943619728088379e-01,5.920000000000000000e+02
-7.995536647851622547e+01,-1.033064612348280207e+02,-1.943665960718863062e+01,1.769285720510742976e+01,-6.247220871204626746e+01,-5.404662881737749558e+01,2.521891751819566707e+01,-2.165418097423389554e+01,9.446745872497558594e+00,3.824593871831893921e-02,9.179025292396545410e-01,5.930000000000000000e+02
-7.795682471940745017e+01,-1.043019973635819042e+02,-1.548040870903787436e+01,1.633734619081587880e+01,-6.128603550586194615e+01,-5.182568895028816769e+01,2.724998404789585038e+01,-1.862249544452424743e+01,9.446745872497558594e+00,3.824593871831893921e-02,9.179025292396545410e-01,5.940000000000000000e+02
-7.661730575978799607e+01,-1.044228751225964515e+02,-1.263221157923544524e+01,1.423686896498475107e+01,-6.084834215131195378e+01,-4.998444926237061736e+01,2.834013419138500467e+01,-1.583453387042391114e+01,9.446745872497558594e+00,3.824593871831893921e-02,9.179025292396545410e-01,5.950000000000000000e+02
-7.606990040043820045e+01,-1.037674142025171022e+02,-1.185436915642640088e+01,1.132590868038460030e+01,-6.118583429111095029e+01,-4.891044577179127373e+01,2.817479960019409191e+01,-1.502351411339986953e+01,9.446745872497558594e+00,3.824593871831893921e-02,9.179025292396545410e-01,5.960000000000000000e+02
-7.618805360824626405e+01,-1.028997766039829003e+02,-1.286084656176899443e+01,8.083073982888890896e+00,-6.178802001123403898e+01,-4.852612515492728562e+01,2.686794742586062057e+01,-1.663560806290479377e+01,9.446745872497558594e+00,3.824593871831893921e-02,9.179025292396545410e-01,5.970000000000000000e+02
-7.661469604174271808e+01,-1.021332420788094169e+02,-1.442359680167646729e+01,5.198033934535487788e+00,-6.199903839324178989e+01,-4.854604360404118779e+01,2.487640543624365819e+01,-1.955165739375661360e+01,9.446745872497558594e+00,3.824593871831893921e-02,9.179025292396545410e-01,5.980000000000000000e+02
-7.692858680771314539e+01,-1.012908085450399085e+02,-1.528593863203423098e+01,2.953898655607190449e+00,-6.162819418592334841e+01,-4.885279975867888425e+01,2.284775368414921104e+01,-2.207070612499592244e+01,9.446745872497558594e+00,3.824593871831893921e-02,9.179025292396545410e-01,5.990000000000000000e+02
-7.692575692532773246e+01,-1.001589998002818902e+02,-1.494606675660543260e+01,9.244242350650893059e-01,-6.117638056996293017e+01,-4.955925654015663895e+01,2.142287656848930055e+01,-2.324531854187807767e+01,9.446745872497558594e+00,3.824593871831893921e-02,9.179025292396545410e-01,6.000000000000000000e+02
-7.677641955874423729e+01,-9.906190729161608033e+01,-1.378772061263953219e+01,-1.639938132859242614e+00,-6.140815835661487654e+01,-5.071372778587101493e+01,2.097004026544891531e+01,-2.341375214141953620e+01,9.446745872497558594e+00,3.824593871831893921e-02,9.179025292396545410e-01,6.010000000000000000e+02
-7.685021868385956623e+01,-9.882503621573778219e+01,-1.262906353475409560e+01,-5.034689578620600514e+00,-6.264488095002889168e+01,-5.202865937306341948e+01,2.134436124561761972e+01,-2.358931508617388317e+01,9.446745872497558594e+00,3.824593871831893921e-02,9.179025292396545410e-01,6.020000000000000000e+02
-7.731890376335650217e+01,-1.000316731738166709e+02,-1.215982460540908505e+01,-8.677925768595741829e+00,-6.446109029308718164e+01,-5.299639277653477620e+01,2.189670485461101634e+01,-2.441582188089523697e+01,9.446745872497558594e+00,3.824593871831893921e-02,9.179025292396545410e-01,6.030000000000000000e+02
-7.791620012027487974e+01,-1.022581592162241577e+02,-1.261698239900579210e+01,-1.147553231241909089e+01,-6.603476719176251208e+01,-5.328492792981705861e+01,2.188265995397523511e+01,-2.564486625087374705e+01,9.446745872497558594e+00,3.824593871831893921e-02,9.179025292396545410e-01,6.040000000000000000e+02
-7.812214638416844537e+01,-1.040895283110367018e+02,-1.373033783886057790e+01,-1.265271733354529715e+01,-6.675403350883425446e+01,-5.295329311189561849e+01,2.106822035129516735e+01,-2.646414731956247124e+01,9.446745872497558594e+00,3.824593871831893921e-02,9.179025292396545410e-01,6.050000000000000000e+02
-7.759047616615862353e+01,-1.040149501389387297e+02,-1.481335446766752284e+01,-1.229110223518728162e+01,-6.650281156075652689e+01,-5.222214141762378858e+01,2.002899738227642956e+01,-2.619616904865688412e+01,9.446745872497558594e+00,3.824593871831893921e-02,9.179025292396545410e-01,6.060000000000000000e+02
-7.638135384213819634e+01,-1.014914274876791751e+02,-1.497866840301139746e+01,-1.112235074442287441e+01,-6.546208068130363245e+01,-5.106760387439135229e+01,1.980256356186873745e+01,-2.469855650019962923e+01,9.446745872497558594e+00,3.824593871831893921e-02,9.179025292396545410e-01,6.070000000000000000e+02
-7.476880441007233458e+01,-9.731705566256277962e+01,-1.352585925687890267e+01,-9.857890521616354818e+00,-6.376626378898799885e+01,-4.915375281699380139e+01,2.110714650870795595e+01,-2.227715550812354195e+01,9.446745872497558594e+00,3.824593871831893921e-02,9.179025292396545410e-01,6.080000000000000000e+02
-7.287097484351761523e+01,-9.305825010679836851e+01,-1.039525680828955956e+01,-8.739137693479278823e+00,-6.141170060675358400e+01,-4.625908011817227816e+01,2.377858144345373148e+01,-1.943695215934349108e+01,9.446745872497558594e+00,3.824593871831893921e-02,9.179025292396545410e-01,6.090000000000000000e+02
-7.055508176445437130e+01,-9.004228983904977213e+01,-6.368817176517040934e+00,-7.696507436703541316e+00,-5.845627718396281125e+01,-4.277220722359925276e+01,2.689385436109296279e+01,-1.678900402909130207e+01,9.446745872497558594e+00,3.824593871831893921e-02,9.179025292396545410e-01,6.100000000000000000e+02
-6.772681540900521213e+01,-8.866989334614481777e+01,-2.742007206557900645e+00,-6.823494304571795510e+00,-5.522063171361514833e+01,-3.967843951418035431e+01,2.942492787562514422e+01,-1.502507486460672226e+01,9.446745872497558594e+00,3.824593871831893921e-02,9.179025292396545410e-01,6.110000000000000000e+02
-6.466622640655259602e+01,-8.843122296731598908e+01,-5.808079836206161417e-01,-6.559998012377036503e+00,-5.223773480781528633e+01,-3.793247538838477340e+01,3.082624957732332405e+01,-1.467660299668204971e+01,9.446745872497558594e+00,3.824593871831893921e-02,9.179025292396545410e-01,6.120000000000000000e+02
-6.200994222747249296e+01,-8.844043650400635670e+01,-7.268191123876022175e-02,-7.339819579858158249e+00,-4.997075953787862090e+01,-3.772974942541623022e+01,3.114390989959792932e+01,-1.565565079990483355e+01,9.446745872497558594e+00,3.824593871831893921e-02,9.179025292396545410e-01,6.130000000000000000e+02
-6.036365014285911457e+01,-8.801622417995895375e+01,-4.780283427462563850e-01,-9.068095445036306046e+00,-4.853335979132680222e+01,-3.832449575601640390e+01,3.076412636758323060e+01,-1.701461436990211951e+01,9.446745872497558594e+00,3.824593871831893921e-02,9.179025292396545410e-01,6.140000000000000000e+02
