F3,F4,C3,C4,P3,P4,Cz,Pz,Accel_x,Accel_y,Accel_z,Sample
-7.003109203651547432e-11,-4.911271389573812485e-11,-9.458744898438453674e-11,-5.093170329928398132e-11,-8.549250196665525436e-11,-7.821654435247182846e-11,-6.002665031701326370e-11,-6.366462912410497665e-11,9.446745872497558594e+00,3.824593871831893921e-02,9.561483860015869141e-01,2.260000000000000000e+02
-1.729413564781862078e+01,-2.003185302361271170e+01,3.326895388854609337e-01,-7.489302599282382289e+00,-1.336265700265357736e-01,-1.025193893520008714e+01,4.065069439227954717e+00,-9.191849822822405258e+00,9.446745872497558594e+00,3.824593871831893921e-02,9.561483860015869141e-01,2.270000000000000000e+02
-3.616834824528541503e+01,-3.892354488171622506e+01,-3.866987514897118672e+00,-1.470542993238996132e+01,-1.221058893760164210e+01,-2.554590629112681199e+01,2.465301093425296131e+00,-1.721658101196408097e+01,9.446745872497558594e+00,3.824593871831893921e-02,9.561483860015869141e-01,2.280000000000000000e+02
-5.659629444885740668e+01,-5.686566967884118640e+01,-1.312683090274003916e+01,-2.136494821667474753e+01,-3.752621917906435556e+01,-4.671517326397952274e+01,-5.715530744322677492e+00,-2.427576607162700384e+01,9.446745872497558594e+00,3.824593871831893921e-02,9.561483860015869141e-01,2.290000000000000000e+02
-7.691041365593446244e+01,-7.520199666698317742e+01,-2.385099525029363576e+01,-2.743055156283298857e+01,-6.663611394798499532e+01,-7.030374721670887084e+01,-1.647596684311611170e+01,-3.184278551870011142e+01,9.446745872497558594e+00,3.824593871831893921e-02,9.561483860015869141e-01,2.300000000000000000e+02
-9.537284706505488430e+01,-9.499466978367581760e+01,-3.201710075921982934e+01,-3.344346113339815929e+01,-8.933658195154930581e+01,-9.240242347982712090e+01,-2.515066166404358228e+01,-4.121810849705252622e+01,9.446745872497558594e+00,3.824593871831893921e-02,9.561483860015869141e-01,2.310000000000000000e+02
-1.118255669197496900e+02,-1.159744321717362254e+02,-3.686978039302630350e+01,-4.041710227937983291e+01,-1.040791333862998727e+02,-1.122320737874961196e+02,-3.054893037334659311e+01,-5.225408268914543441e+01,9.446745872497558594e+00,3.824593871831893921e-02,9.561483860015869141e-01,2.320000000000000000e+02
-1.278303782716493515e+02,-1.369954984388814410e+02,-4.109632249477544974e+01,-4.913817133292832295e+01,-1.176548313921102817e+02,-1.319785841700359015e+02,-3.504676239484251710e+01,-6.355099164076273155e+01,9.446745872497558594e+00,3.824593871831893921e-02,9.561483860015869141e-01,2.330000000000000000e+02
-1.451893999568928848e+02,-1.573481992414217530e+02,-4.774602690708707087e+01,-5.941686820345057640e+01,-1.367433623695160350e+02,-1.536275526705339871e+02,-4.124222812258449267e+01,-7.386943375957162061e+01,9.446745872497558594e+00,3.824593871831893921e-02,9.561483860015869141e-01,2.340000000000000000e+02
-1.642634351735869132e+02,-1.773323347142149942e+02,-5.727831614667411486e+01,-7.004967843110262038e+01,-1.609588583442418894e+02,-1.765564992315230484e+02,-4.914948286031358293e+01,-8.325451848826560308e+01,9.408499717712402344e+00,3.824593871831893921e-02,9.561483860015869141e-01,2.350000000000000000e+02
-1.836394044179014600e+02,-1.974707415253205909e+02,-6.753122198646451579e+01,-7.966300736658376991e+01,-1.842262840340299590e+02,-1.983377541521331295e+02,-5.670329058390234422e+01,-9.272722409710513602e+01,9.408499717712402344e+00,3.824593871831893921e-02,9.561483860015869141e-01,2.360000000000000000e+02
-2.014062647378386828e+02,-2.174283196790720467e+02,-7.615467973366139631e+01,-8.774947517050077295e+01,-2.018247738762293011e+02,-2.174529814991001331e+02,-6.242901706055090472e+01,-1.029684604192934785e+02,9.408499717712402344e+00,3.824593871831893921e-02,9.561483860015869141e-01,2.370000000000000000e+02
-2.168377431815551972e+02,-2.360330113575528230e+02,-8.276247513950329449e+01,-9.498885966268971970e+01,-2.150397203050270036e+02,-2.347601685785830341e+02,-6.704518289664883923e+01,-1.134653023613427649e+02,9.408499717712402344e+00,3.824593871831893921e-02,9.561483860015869141e-01,2.380000000000000000e+02
-2.309907879363454413e+02,-2.524475156337784938e+02,-8.883141105092727230e+01,-1.025707139856813228e+02,-2.290743994038239180e+02,-2.523049211288453080e+02,-7.242915753537636192e+01,-1.229974131710987422e+02,9.408499717712402344e+00,3.824593871831893921e-02,9.561483860015869141e-01,2.390000000000000000e+02
-2.457689378450213553e+02,-2.671685636906531727e+02,-9.592612740515869518e+01,-1.111371880225788118e+02,-2.474715914270964277e+02,-2.710826765541733039e+02,-7.945304558144562179e+01,-1.308659613580221048e+02,9.408499717712402344e+00,3.824593871831893921e-02,9.561483860015869141e-01,2.400000000000000000e+02
-2.623144843431573463e+02,-2.817109533403336172e+02,-1.042712220517259993e+02,-1.202706758839249233e+02,-2.692132909619285783e+02,-2.902315131291070429e+02,-8.717346711442041851e+01,-1.375209909505874748e+02,9.408499717712402344e+00,3.824593871831893921e-02,9.561483860015869141e-01,2.410000000000000000e+02
-2.800793728847438615e+02,-2.973037889350252954e+02,-1.128622552931992686e+02,-1.289227537146316536e+02,-2.907157197806736804e+02,-3.082456303400831530e+02,-9.400668504403802217e+01,-1.439874715514188210e+02,9.408499717712402344e+00,3.824593871831893921e-02,9.561483860015869141e-01,2.420000000000000000e+02
-2.972619179248331420e+02,-3.139663395444504204e+02,-1.205770391686310177e+02,-1.363494692985423171e+02,-3.096073107304746372e+02,-3.246365295350042288e+02,-9.934324847653442703e+01,-1.508363104867821676e+02,9.408499717712402344e+00,3.824593871831893921e-02,9.561483860015869141e-01,2.430000000000000000e+02
-3.121641997435499434e+02,-3.308019315825749800e+02,-1.270058941561219399e+02,-1.427345283243157610e+02,-3.262181470424802683e+02,-3.403059646653346135e+02,-1.039018845996833988e+02,-1.578691946999724678e+02,9.408499717712402344e+00,3.824593871831893921e-02,9.561483860015869141e-01,2.440000000000000000e+02
-3.243721277958056817e+02,-3.469410346805188965e+02,-1.324190555790100916e+02,-1.489885679760409403e+02,-3.421171649617990624e+02,-3.565083265646480868e+02,-1.087437632152468723e+02,-1.647609290434966169e+02,9.408499717712402344e+00,3.824593871831893921e-02,9.561483860015869141e-01,2.450000000000000000e+02
-3.349208519537796747e+02,-3.620054467993841172e+02,-1.373037918092595646e+02,-1.559201626952499282e+02,-3.581693651618006697e+02,-3.736657384573954914e+02,-1.142105548708350398e+02,-1.717634313672469943e+02,9.408499717712402344e+00,3.824593871831893921e-02,9.561483860015869141e-01,2.460000000000000000e+02
-3.454746659698839721e+02,-3.757977830856843866e+02,-1.421180066786673706e+02,-1.634933700455476355e+02,-3.742201044465818995e+02,-3.911106475252199743e+02,-1.198080524005417828e+02,-1.795497960250004326e+02,9.408499717712402344e+00,3.824593871831893921e-02,9.561483860015869141e-01,2.470000000000000000e+02
-3.572433130954286753e+02,-3.879612979114372138e+02,-1.473685464474228866e+02,-1.707934344574796341e+02,-3.900558276059291529e+02,-4.077171745359592023e+02,-1.248742164160348693e+02,-1.883281729169439132e+02,9.408499717712402344e+00,3.824593871831893921e-02,9.561483860015869141e-01,2.480000000000000000e+02
-3.704081554180047533e+02,-3.983225077935358058e+02,-1.536534283917571884e+02,-1.767443095366197667e+02,-4.059960854723740340e+02,-4.226917322823846916e+02,-1.292028387920590831e+02,-1.973099328164544204e+02,9.408499717712402344e+00,3.824593871831893921e-02,9.561483860015869141e-01,2.490000000000000000e+02
-3.843116338293593799e+02,-4.075877865300853955e+02,-1.613907401947944891e+02,-1.809940561865805648e+02,-4.224459471422860588e+02,-4.359809088335832712e+02,-1.331180973135851673e+02,-2.052722823478006831e+02,9.408499717712402344e+00,3.824593871831893921e-02,9.561483860015869141e-01,2.500000000000000000e+02
-3.980612323514478703e+02,-4.173503217092102204e+02,-1.703756054431687517e+02,-1.842317875055023251e+02,-4.392099502339278843e+02,-4.482314024681973024e+02,-1.371239792994301752e+02,-2.117001163419772638e+02,9.408499717712402344e+00,3.824593871831893921e-02,9.561483860015869141e-01,2.510000000000000000e+02
-4.110118155164391283e+02,-4.290060159611830386e+02,-1.795706254195747533e+02,-1.876742262502921221e+02,-4.554600684510041901e+02,-4.604200928914096949e+02,-1.415000294459978250e+02,-2.172752099238232404e+02,9.408499717712402344e+00,3.824593871831893921e-02,9.561483860015869141e-01,2.520000000000000000e+02
-4.228600316368701897e+02,-4.424671310471467223e+02,-1.874269950358384449e+02,-1.921733410849692518e+02,-4.702966495830769418e+02,-4.733009762759420482e+02,-1.460957219335368791e+02,-2.231334779111912212e+02,9.408499717712402344e+00,3.824593871831893921e-02,9.561483860015869141e-01,2.530000000000000000e+02
-4.335139958322406528e+02,-4.560243624873310182e+02,-1.926883168329713953e+02,-1.977158746904979125e+02,-4.832371285630988496e+02,-4.869468243392284421e+02,-1.504111542805849240e+02,-2.296707517252161779e+02,9.408499717712402344e+00,3.824593871831893921e-02,9.561483860015869141e-01,2.540000000000000000e+02
-4.430479036560318491e+02,-4.677049459010941064e+02,-1.952421062580424405e+02,-2.037089450630674037e+02,-4.943218619316685363e+02,-5.007552727929669345e+02,-1.539634387742171384e+02,-2.362134747977470397e+02,9.408499717712402344e+00,3.824593871831893921e-02,9.561483860015869141e-01,2.550000000000000000e+02
-4.518276811277737579e+02,-4.769677540917027727e+02,-1.964204417839309826e+02,-2.097060790300183726e+02,-5.040784852003971537e+02,-5.140132143029823055e+02,-1.567697492935849368e+02,-2.419478659378219163e+02,9.408499717712402344e+00,3.824593871831893921e-02,9.561483860015869141e-01,2.560000000000000000e+02
-4.605883562411290768e+02,-4.851644686749459652e+02,-1.984038903936707356e+02,-2.158352272152224032e+02,-5.134946353535269736e+02,-5.265714355036880079e+02,-1.595590086077136220e+02,-2.471043150820551091e+02,9.408499717712402344e+00,3.824593871831893921e-02,9.561483860015869141e-01,2.570000000000000000e+02
-4.701892322720914308e+02,-4.943269801241576715e+02,-2.029635254358618113e+02,-2.225252212977011368e+02,-5.237780681895419548e+02,-5.389719860394143325e+02,-1.633915986843749124e+02,-2.530222585303017695e+02,9.408499717712402344e+00,3.824593871831893921e-02,9.561483860015869141e-01,2.580000000000000000e+02
-4.810845780583067608e+02,-5.054148678415367613e+02,-2.103570216498410446e+02,-2.298455053289435455e+02,-5.357339654653396792e+02,-5.518471113888799664e+02,-1.688423306200929801e+02,-2.608582974199398450e+02,9.408499717712402344e+00,3.824593871831893921e-02,9.561483860015869141e-01,2.590000000000000000e+02
-4.929225679302699064e+02,-5.176078904335845436e+02,-2.192058263500975954e+02,-2.371431929216269054e+02,-5.491139649619772172e+02,-5.651404181115649408e+02,-1.753762505139557106e+02,-2.701549625807765551e+02,9.408499717712402344e+00,3.824593871831893921e-02,9.561483860015869141e-01,2.600000000000000000e+02
-5.046863671975679608e+02,-5.291870498276448416e+02,-2.274676897305344028e+02,-2.433587652665582937e+02,-5.625727168718194662e+02,-5.779180689796285151e+02,-1.815061765828522766e+02,-2.787498669934075224e+02,9.408499717712402344e+00,3.824593871831893921e-02,9.561483860015869141e-01,2.610000000000000000e+02
-5.153814862034423641e+02,-5.390738847990114664e+02,-2.337667623167371858e+02,-2.477395500074508163e+02,-5.744171169950886906e+02,-5.889715062150771701e+02,-1.857133225722000134e+02,-2.842670078330356773e+02,9.408499717712402344e+00,3.824593871831893921e-02,9.561483860015869141e-01,2.620000000000000000e+02
-5.247665992950069267e+02,-5.476091032930717120e+02,-2.380922783953910766e+02,-2.503247315906719450e+02,-5.836416080807393882e+02,-5.976884253606804123e+02,-1.874877533388153097e+02,-2.859303880122697592e+02,9.408499717712402344e+00,3.824593871831893921e-02,9.561483860015869141e-01,2.630000000000000000e+02
-5.335019649662417578e+02,-5.560014135452656774e+02,-2.414600842450408891e+02,-2.518567553488519479e+02,-5.904960015243032103e+02,-6.044846281790632929e+02,-1.877306931313632958e+02,-2.851799963121929977e+02,9.408499717712402344e+00,3.824593871831893921e-02,9.561483860015869141e-01,2.640000000000000000e+02
-5.425176792668621601e+02,-5.651246181447431809e+02,-2.449861042072807322e+02,-2.533011992708852631e+02,-5.962574322365908301e+02,-6.105450331910706154e+02,-1.882243425310580278e+02,-2.846757145241572289e+02,9.408499717712402344e+00,3.824593871831893921e-02,9.561483860015869141e-01,2.650000000000000000e+02
-5.520840752715580493e+02,-5.748028966641613806e+02,-2.491658809652690252e+02,-2.554101449512645559e+02,-6.024728307059449435e+02,-6.171873969957632653e+02,-1.905279915104620159e+02,-2.866240068391480236e+02,9.370253562927246094e+00,3.824593871831893921e-02,9.561483860015869141e-01,2.660000000000000000e+02
-5.613951732756036108e+02,-5.841128010805277881e+02,-2.538017630752001423e+02,-2.585671314319770318e+02,-6.101640109771251446e+02,-6.253075642351996066e+02,-1.950192548188106230e+02,-2.917285877702870494e+02,9.370253562927246094e+00,3.824593871831893921e-02,9.561483860015869141e-01,2.670000000000000000e+02
-5.691026506057182814e+02,-5.922422683915374364e+02,-2.584152453682572741e+02,-2.628078305672925126e+02,-6.194036257601692341e+02,-6.351421415313434409e+02,-2.007039734935779052e+02,-2.992771780136836242e+02,9.370253562927246094e+00,3.824593871831893921e-02,9.561483860015869141e-01,2.680000000000000000e+02
-5.744147511003907312e+02,-5.990473393224242500e+02,-2.626774556742830100e+02,-2.678135131020908375e+02,-6.293997457052009850e+02,-6.462886675966519761e+02,-2.059075910851288427e+02,-3.078873703158305943e+02,9.370253562927246094e+00,3.824593871831893921e-02,9.561483860015869141e-01,2.690000000000000000e+02
-5.778410116559148264e+02,-6.048752518249384593e+02,-2.665513588909561804e+02,-2.728802319203332445e+02,-6.390068060250050621e+02,-6.578668075576215415e+02,-2.093670918866519060e+02,-3.161637843353209973e+02,9.370253562927246094e+00,3.824593871831893921e-02,9.561483860015869141e-01,2.700000000000000000e+02
-5.809139287841180703e+02,-6.099769772151444158e+02,-2.701769758695872952e+02,-2.770684321221469872e+02,-6.474119076755514470e+02,-6.688038759773207858e+02,-2.109725678189006430e+02,-3.229861427663854556e+02,9.370253562927246094e+00,3.824593871831893921e-02,9.561483860015869141e-01,2.710000000000000000e+02
-5.850872063242568402e+02,-6.141746597839874084e+02,-2.736724938984234541e+02,-2.796307303483508804e+02,-6.545312017097639909e+02,-6.781835422742487935e+02,-2.116389580891063815e+02,-3.276422464080942518e+02,9.370253562927246094e+00,3.824593871831893921e-02,9.561483860015869141e-01,2.720000000000000000e+02
-5.907177153775405714e+02,-6.171200456819542524e+02,-2.769725796056072795e+02,-2.804856958707341619e+02,-6.607831928852792771e+02,-6.855130579007945926e+02,-2.124554576477512455e+02,-3.299875776644212237e+02,9.370253562927246094e+00,3.824593871831893921e-02,9.561483860015869141e-01,2.730000000000000000e+02
-5.969420847390288145e+02,-6.188752883610527533e+02,-2.797933729373417009e+02,-2.803200255366200508e+02,-6.664756537584880789e+02,-6.908081919970882154e+02,-2.138494254316156002e+02,-3.304928642152681277e+02,9.370253562927246094e+00,3.824593871831893921e-02,9.561483860015869141e-01,2.740000000000000000e+02
-6.024785234734054029e+02,-6.202322593007179421e+02,-2.817677228906668461e+02,-2.801325916844962194e+02,-6.714193865323350110e+02,-6.945160235784169345e+02,-2.154271002691448302e+02,-3.299532045748983364e+02,9.370253562927246094e+00,3.824593871831893921e-02,9.561483860015869141e-01,2.750000000000000000e+02
-6.065974918056899696e+02,-6.224019239450462919e+02,-2.826850065051412457e+02,-2.805252473028494933e+02,-6.751460285429602663e+02,-6.973540569502356448e+02,-2.164787098796805367e+02,-3.289739476828772240e+02,9.370253562927246094e+00,3.824593871831893921e-02,9.561483860015869141e-01,2.760000000000000000e+02
-6.094617265081901678e+02,-6.262488415052921482e+02,-2.826588883345011709e+02,-2.813325479150785213e+02,-6.774925539719879453e+02,-7.001162901353682173e+02,-2.165593966233882384e+02,-3.276981803806083917e+02,9.370253562927246094e+00,3.824593871831893921e-02,9.561483860015869141e-01,2.770000000000000000e+02
-6.117090014159284692e+02,-6.316550038280843182e+02,-2.820761201156328752e+02,-2.819486676081010046e+02,-6.789531245075004335e+02,-7.034679589365723587e+02,-2.156578259021980557e+02,-3.260816052259824573e+02,9.370253562927246094e+00,3.824593871831893921e-02,9.561483860015869141e-01,2.780000000000000000e+02
-6.138478984815046715e+02,-6.375504141596388763e+02,-2.813904518367926357e+02,-2.820839592626375634e+02,-6.804689198089308775e+02,-7.077774097508900013e+02,-2.140444833972715060e+02,-3.244619799086440253e+02,9.370253562927246094e+00,3.824593871831893921e-02,9.561483860015869141e-01,2.790000000000000000e+02
-6.160780024493301426e+02,-6.426633489703540363e+02,-2.809949240311170797e+02,-2.822388565675551035e+02,-6.828913142296632941e+02,-7.130639235840581023e+02,-2.122158370703073160e+02,-3.238015679079226175e+02,9.370253562927246094e+00,3.824593871831893921e-02,9.561483860015869141e-01,2.800000000000000000e+02
-6.185824286620777457e+02,-6.464587249246437750e+02,-2.812941301264618232e+02,-2.834074988323450270e+02,-6.866054049797930929e+02,-7.191022664390029604e+02,-2.110565176933123439e+02,-3.252542022427433039e+02,9.370253562927246094e+00,3.824593871831893921e-02,9.561483860015869141e-01,2.810000000000000000e+02
-6.218263869287088710e+02,-6.495358795233596538e+02,-2.828182221997858505e+02,-2.862308791897535230e+02,-6.915439628124922820e+02,-7.256102625459716364e+02,-2.118205535206061541e+02,-3.293762938950135322e+02,9.370253562927246094e+00,3.824593871831893921e-02,9.561483860015869141e-01,2.820000000000000000e+02
-6.264408384881066922e+02,-6.531471427381852664e+02,-2.861088830716162192e+02,-2.903815257535761702e+02,-6.974438378351560459e+02,-7.323938218221710486e+02,-2.155622469974341584e+02,-3.356791537435292412e+02,9.370253562927246094e+00,3.824593871831893921e-02,9.561483860015869141e-01,2.830000000000000000e+02
-6.327550393940846334e+02,-6.582023005510586700e+02,-2.913103490578778292e+02,-2.947778663687527114e+02,-7.040590530473909894e+02,-7.393690360397631594e+02,-2.222563109600705502e+02,-3.429039938602172697e+02,9.370253562927246094e+00,3.824593871831893921e-02,9.561483860015869141e-01,2.840000000000000000e+02
-6.404407638804277667e+02,-6.645791351227371706e+02,-2.977923045730367448e+02,-2.984497415792188804e+02,-7.111929793051726847e+02,-7.464823900338151361e+02,-2.303864396832768762e+02,-3.497552154037034597e+02,9.370253562927246094e+00,3.824593871831893921e-02,9.561483860015869141e-01,2.850000000000000000e+02
-6.486174017260427718e+02,-6.713143924929545392e+02,-3.042450235120404614e+02,-3.012443768832854403e+02,-7.186099952508911883e+02,-7.536054852825654962e+02,-2.375562736176289036e+02,-3.554693319863349643e+02,9.370253562927246094e+00,3.824593871831893921e-02,9.561483860015869141e-01,2.860000000000000000e+02
-6.563255402013651292e+02,-6.774789410845310158e+02,-3.093332907742233147e+02,-3.037266441007354842e+02,-7.259465870173362418e+02,-7.604672087899361941e+02,-2.418076845533169035e+02,-3.598509256655847821e+02,9.370253562927246094e+00,7.649187743663787842e-02,9.561483860015869141e-01,2.870000000000000000e+02
-6.629764937819022634e+02,-6.829278099528478378e+02,-3.124906917734983836e+02,-3.064456628126554278e+02,-7.327268214134601294e+02,-7.666920821682483620e+02,-2.427080753420241308e+02,-3.629713640054551433e+02,9.370253562927246094e+00,7.649187743663787842e-02,9.561483860015869141e-01,2.880000000000000000e+02
-6.684837047677306145e+02,-6.882679259867852579e+02,-3.142422492211162535e+02,-3.093500853217159374e+02,-7.385318606844713258e+02,-7.719784626503562777e+02,-2.414567716939907314e+02,-3.649679570475999526e+02,9.370253562927246094e+00,7.649187743663787842e-02,9.561483860015869141e-01,2.890000000000000000e+02
-6.731045302188300639e+02,-6.941705462597078622e+02,-3.157963223002800532e+02,-3.119498064742673478e+02,-7.432476811535019579e+02,-7.763528866279851854e+02,-2.400584065775585714e+02,-3.661371546859703585e+02,9.370253562927246094e+00,7.649187743663787842e-02,9.561483860015869141e-01,2.900000000000000000e+02
-6.772085128632943452e+02,-7.007595646506023286e+02,-3.182285729560613845e+02,-3.140285086146488993e+02,-7.471978249774447249e+02,-7.803218101048146309e+02,-2.402582144164532565e+02,-3.671053872494306916e+02,9.370253562927246094e+00,7.649187743663787842e-02,9.561483860015869141e-01,2.910000000000000000e+02
-6.811345511420805678e+02,-7.076295488274868148e+02,-3.218893274283736901e+02,-3.161312165306807174e+02,-7.509946461736037691e+02,-7.847270628086446322e+02,-2.429048158036948735e+02,-3.687558061744255156e+02,9.370253562927246094e+00,7.649187743663787842e-02,9.561483860015869141e-01,2.920000000000000000e+02
-6.851372633897186688e+02,-7.143354577315087681e+02,-3.264337029165341164e+02,-3.192817864295354866e+02,-7.551744232484320491e+02,-7.903043024269885564e+02,-2.479076698011026565e+02,-3.718537242201216486e+02,9.370253562927246094e+00,7.649187743663787842e-02,9.561483860015869141e-01,2.930000000000000000e+02
-6.893395592140362851e+02,-7.207096263492583148e+02,-3.313134340015119506e+02,-3.241300154591758655e+02,-7.599106636841596583e+02,-7.971990855409649157e+02,-2.545175560849256726e+02,-3.766051269498257170e+02,9.370253562927246094e+00,7.649187743663787842e-02,9.561483860015869141e-01,2.940000000000000000e+02
-6.936732450563092698e+02,-7.266597813857051733e+02,-3.362077863555248314e+02,-3.302587059769282405e+02,-7.650223567566246174e+02,-8.047758540627050934e+02,-2.616228700719918834e+02,-3.824386754834746398e+02,9.370253562927246094e+00,7.649187743663787842e-02,9.561483860015869141e-01,2.950000000000000000e+02
-6.978604240018822793e+02,-7.317722445074016377e+02,-3.410042444136199720e+02,-3.362162386079339740e+02,-7.701712443624521711e+02,-8.118490989251290557e+02,-2.679872279674027595e+02,-3.881348547027803306e+02,9.370253562927246094e+00,7.649187743663787842e-02,9.561483860015869141e-01,2.960000000000000000e+02
-7.014938819311058751e+02,-7.353331225962633653e+02,-3.454474825599852466e+02,-3.402367885595557482e+02,-7.749705832993812464e+02,-8.171774829654190171e+02,-2.725297523959454793e+02,-3.922457946542098171e+02,9.370253562927246094e+00,7.649187743663787842e-02,9.561483860015869141e-01,2.970000000000000000e+02
-7.042297448465459411e+02,-7.369226642643984633e+02,-3.489513056290933264e+02,-3.411691217785355548e+02,-7.789513795055738683e+02,-8.199573647167203490e+02,-2.747044871391135530e+02,-3.936934492728743180e+02,9.370253562927246094e+00,7.649187743663787842e-02,9.561483860015869141e-01,2.980000000000000000e+02
-7.060270004654621516e+02,-7.369928382985782491e+02,-3.509120732516003045e+02,-3.390960059534420452e+02,-7.816278621081784195e+02,-8.201318898233622576e+02,-2.748086686192984871e+02,-3.923405533600185890e+02,9.370253562927246094e+00,7.649187743663787842e-02,9.561483860015869141e-01,2.990000000000000000e+02
-7.072759301931560003e+02,-7.367019048122975846e+02,-3.512826057199883962e+02,-3.353373930113386905e+02,-7.828145708744976901e+02,-8.184283799332495164e+02,-2.739032229811053867e+02,-3.891925631291824175e+02,9.370253562927246094e+00,7.649187743663787842e-02,9.561483860015869141e-01,3.000000000000000000e+02
-7.086755697573616999e+02,-7.370131124527624706e+02,-3.508127982433766192e+02,-3.318285870776728643e+02,-7.829516837399919496e+02,-8.161063499594044970e+02,-2.732301306310156406e+02,-3.859856187091827451e+02,9.370253562927246094e+00,7.649187743663787842e-02,9.561483860015869141e-01,3.010000000000000000e+02
-7.108440908847061337e+02,-7.378915530713520639e+02,-3.506050815644285876e+02,-3.301190906352239836e+02,-7.829818679691541092e+02,-8.144591791001453203e+02,-2.734232388019561313e+02,-3.842619144460600182e+02,9.370253562927246094e+00,7.649187743663787842e-02,9.561483860015869141e-01,3.020000000000000000e+02
-7.138523783294980376e+02,-7.384186029933324562e+02,-3.512873824154576141e+02,-3.305094950228354946e+02,-7.837088957200948016e+02,-8.142736917156197478e+02,-2.741076241565652936e+02,-3.845110766161228639e+02,9.370253562927246094e+00,7.649187743663787842e-02,9.561483860015869141e-01,3.030000000000000000e+02
-7.170302889062020313e+02,-7.377670692379973616e+02,-3.525414147251102577e+02,-3.319160459305633140e+02,-7.851860218195731704e+02,-8.155646395836242846e+02,-2.742933264452711910e+02,-3.860463551413549794e+02,9.370253562927246094e+00,7.649187743663787842e-02,9.561483860015869141e-01,3.040000000000000000e+02
-7.192995399800419136e+02,-7.361382821563304333e+02,-3.534442186611681791e+02,-3.327016314889884825e+02,-7.867636946692166475e+02,-8.177728731793112047e+02,-2.733287942075766068e+02,-3.877503729706129434e+02,9.370253562927246094e+00,7.649187743663787842e-02,9.561483860015869141e-01,3.050000000000000000e+02
-7.198861270850904930e+02,-7.347654794357124501e+02,-3.533133522014370556e+02,-3.319825560702744269e+02,-7.877621875868990173e+02,-8.202691180751842239e+02,-2.716258403126993244e+02,-3.890533864022191892e+02,9.370253562927246094e+00,7.649187743663787842e-02,9.561483860015869141e-01,3.060000000000000000e+02
-7.189203548763342724e+02,-7.349513187048635245e+02,-3.522807918000597738e+02,-3.304082920052252348e+02,-7.880710622503737568e+02,-8.227447120544720747e+02,-2.704751827934725270e+02,-3.902726306890365322e+02,9.370253562927246094e+00,7.649187743663787842e-02,9.561483860015869141e-01,3.070000000000000000e+02
-7.174160597632238705e+02,-7.370017632351612065e+02,-3.511006476553361608e+02,-3.296982420948980916e+02,-7.880768880136020016e+02,-8.252043638819980060e+02,-2.710489209215768369e+02,-3.920321103512848140e+02,9.370253562927246094e+00,7.649187743663787842e-02,9.561483860015869141e-01,3.080000000000000000e+02
-7.165696747442112837e+02,-7.399700169161079657e+02,-3.504426304070902916e+02,-3.312147337264735825e+02,-7.880963933483864139e+02,-8.276621555965907646e+02,-2.734373910202436946e+02,-3.943570139490919928e+02,9.370253562927246094e+00,7.649187743663787842e-02,9.561483860015869141e-01,3.090000000000000000e+02
-7.169184321672605620e+02,-7.423642148324809114e+02,-3.503856103759069356e+02,-3.347288279741579800e+02,-7.880462378023296424e+02,-8.299014502038505725e+02,-2.765478658638395473e+02,-3.963738947814582616e+02,9.370253562927246094e+00,7.649187743663787842e-02,9.561483860015869141e-01,3.100000000000000000e+02
-7.180522022368311355e+02,-7.431525011160690610e+02,-3.505303421630934508e+02,-3.384370066514028395e+02,-7.877247239471511193e+02,-8.315264733087421973e+02,-2.789037829562437310e+02,-3.969345501770591227e+02,9.370253562927246094e+00,7.649187743663787842e-02,9.561483860015869141e-01,3.110000000000000000e+02
-7.191050628866790930e+02,-7.422650263862403790e+02,-3.505085361846579417e+02,-3.402512964879067567e+02,-7.872746950384755564e+02,-8.322025163570083350e+02,-2.796235937753305052e+02,-3.955674819752504163e+02,9.370253562927246094e+00,0.000000000000000000e+00,9.943943619728088379e-01,3.120000000000000000e+02
-7.195626171359805312e+02,-7.403312883850660455e+02,-3.503355804991840614e+02,-3.393096417658725841e+02,-7.871607415785181274e+02,-8.318398046605865375e+02,-2.788194289412456328e+02,-3.928550142432349048e+02,9.370253562927246094e+00,0.000000000000000000e+00,9.943943619728088379e-01,3.130000000000000000e+02
-7.196228612499685369e+02,-7.380738833991993033e+02,-3.503124157070150204e+02,-3.364963769331850472e+02,-7.876214397741944140e+02,-8.306167072423211266e+02,-2.772771907688853616e+02,-3.899530570856236409e+02,9.370253562927246094e+00,0.000000000000000000e+00,9.943943619728088379e-01,3.140000000000000000e+02
-7.197557548617735392e+02,-7.359249619919283987e+02,-3.506684397916465628e+02,-3.336375092145872259e+02,-7.882494436819160910e+02,-8.289156552035500454e+02,-2.758496719642230346e+02,-3.877777552988467278e+02,9.370253562927246094e+00,0.000000000000000000e+00,9.943943619728088379e-01,3.150000000000000000e+02
-7.198706334367702766e+02,-7.340227492836918373e+02,-3.513034160029586701e+02,-3.320936654649597131e+02,-7.882402613075037152e+02,-8.272146060806064725e+02,-2.749976800724792838e+02,-3.865513106069162177e+02,9.370253562927246094e+00,0.000000000000000000e+00,9.943943619728088379e-01,3.160000000000000000e+02
-7.189689404977145841e+02,-7.323413360362899311e+02,-3.518070130918306972e+02,-3.318566114687427557e+02,-7.870850421835662019e+02,-8.258836741384989182e+02,-2.745969074477981167e+02,-3.859192965628815841e+02,9.370253562927246094e+00,0.000000000000000000e+00,9.943943619728088379e-01,3.170000000000000000e+02
-7.158032992629075579e+02,-7.306984915480140899e+02,-3.516835702501094829e+02,-3.317355183035627988e+02,-7.849656615040394172e+02,-8.249116084034110372e+02,-2.739708407869657094e+02,-3.852983458929676317e+02,9.370253562927246094e+00,0.000000000000000000e+00,9.943943619728088379e-01,3.180000000000000000e+02
-7.101125984366025250e+02,-7.286928708269131221e+02,-3.506219085562745477e+02,-3.303282936236131491e+02,-7.824492401505217458e+02,-8.237766772607843677e+02,-2.721935158501453316e+02,-3.840653482231537055e+02,9.370253562927246094e+00,0.000000000000000000e+00,9.943943619728088379e-01,3.190000000000000000e+02
-7.033401248818145177e+02,-7.258189686271364280e+02,-3.487138577494308720e+02,-3.269713535131763820e+02,-7.798649256522473934e+02,-8.216911496338758525e+02,-2.686795578575990930e+02,-3.816117409739473487e+02,9.370253562927246094e+00,0.000000000000000000e+00,9.943943619728088379e-01,3.200000000000000000e+02
-6.980062900059811000e+02,-7.218269134474393240e+02,-3.465157861666556869e+02,-3.220428917556680517e+02,-7.770630226564585428e+02,-8.181491377662057403e+02,-2.637805015319446511e+02,-3.775495154411519252e+02,9.370253562927246094e+00,0.000000000000000000e+00,9.943943619728088379e-01,3.210000000000000000e+02
-6.960198645409881237e+02,-7.170391251361251079e+02,-3.448228095109274705e+02,-3.165573611737794408e+02,-7.737649315880491940e+02,-8.133413919792945990e+02,-2.588376794261195073e+02,-3.721046721561439199e+02,9.370253562927246094e+00,0.000000000000000000e+00,9.943943619728088379e-01,3.220000000000000000e+02
-6.972287368677574477e+02,-7.122441826381614192e+02,-3.441803357360676614e+02,-3.114704635902493237e+02,-7.700459878187514278e+02,-8.080372270514374122e+02,-2.554324256341815271e+02,-3.663008927000701078e+02,9.370253562927246094e+00,0.000000000000000000e+00,9.943943619728088379e-01,3.230000000000000000e+02
-6.994515889948080485e+02,-7.081687794438696528e+02,-3.444442078775826985e+02,-3.072116824457846178e+02,-7.663888180986757561e+02,-8.030286620079085651e+02,-2.543011947340704637e+02,-3.615522455897656755e+02,9.370253562927246094e+00,0.000000000000000000e+00,9.943943619728088379e-01,3.240000000000000000e+02
-7.000743529378329413e+02,-7.049966014542280845e+02,-3.448112786705215740e+02,-3.037043769046053967e+02,-7.632682955002270546e+02,-7.986583489244650309e+02,-2.548246313191370973e+02,-3.588267945333720945e+02,9.370253562927246094e+00,0.000000000000000000e+00,9.943943619728088379e-01,3.250000000000000000e+02
-6.979668652122852563e+02,-7.023931120596832898e+02,-3.444100415463884701e+02,-3.007452928991956469e+02,-7.607460055828981922e+02,-7.948534962527425023e+02,-2.555683207653829641e+02,-3.580596657622307930e+02,9.370253562927246094e+00,0.000000000000000000e+00,9.943943619728088379e-01,3.260000000000000000e+02
-6.941649048301558196e+02,-6.999937417756186733e+02,-3.429976064624863739e+02,-2.983659742495523233e+02,-7.584915956286741903e+02,-7.915422137187345015e+02,-2.554028833232583793e+02,-3.583459358313941721e+02,9.370253562927246094e+00,0.000000000000000000e+00,9.943943619728088379e-01,3.270000000000000000e+02
-6.908167116945721773e+02,-6.978141362454464343e+02,-3.411258380948061131e+02,-2.968609177122567644e+02,-7.561779984489375011e+02,-7.889293681445085440e+02,-2.542079017572124258e+02,-3.587170560525078145e+02,9.370253562927246094e+00,0.000000000000000000e+00,9.943943619728088379e-01,3.280000000000000000e+02
-6.893628721971394953e+02,-6.961150265328251407e+02,-3.396090415623738181e+02,-2.964653413906399919e+02,-7.538272418005014970e+02,-7.873051876987515243e+02,-2.526185327121299906e+02,-3.587610921321343085e+02,9.370253562927246094e+00,0.000000000000000000e+00,9.943943619728088379e-01,3.290000000000000000e+02
-6.895095100120086045e+02,-6.949008103528542506e+02,-3.388080942774741970e+02,-2.970044611990039130e+02,-7.517706149304547125e+02,-7.866186519332703710e+02,-2.512343160064237964e+02,-3.585813138020990891e+02,9.370253562927246094e+00,0.000000000000000000e+00,9.943943619728088379e-01,3.300000000000000000e+02
-6.897598954453571878e+02,-6.936967726302548272e+02,-3.384013020567888361e+02,-2.978722972329601362e+02,-7.502709996044420677e+02,-7.863140873978325089e+02,-2.501346582692718812e+02,-3.582848313542133383e+02,9.370253562927246094e+00,0.000000000000000000e+00,9.943943619728088379e-01,3.310000000000000000e+02
-6.888548760530280788e+02,-6.919652975276018196e+02,-3.378042785809140014e+02,-2.983884958154498008e+02,-7.491597552331897987e+02,-7.856421252634256689e+02,-2.490844973723492330e+02,-3.576413334339423500e+02,9.370253562927246094e+00,0.000000000000000000e+00,9.943943619728088379e-01,3.320000000000000000e+02
-6.867738346807564085e+02,-6.897684963308370243e+02,-3.367751887634060495e+02,-2.982415333302374165e+02,-7.478638581106381480e+02,-7.841699528783138931e+02,-2.480512211985487738e+02,-3.563322164601163422e+02,9.370253562927246094e+00,0.000000000000000000e+00,9.943943619728088379e-01,3.330000000000000000e+02
-6.845094944116507349e+02,-6.878825601683419109e+02,-3.355967018614257995e+02,-2.976109319621652958e+02,-7.458442217001136214e+02,-7.820140405904562613e+02,-2.473728519025307833e+02,-3.544808757246964888e+02,9.370253562927246094e+00,0.000000000000000000e+00,9.943943619728088379e-01,3.340000000000000000e+02
-6.830159092437252184e+02,-6.870846168130748310e+02,-3.347283323373172834e+02,-2.968673734263322785e+02,-7.430891758393854616e+02,-7.796184705145952876e+02,-2.473934380468731433e+02,-3.528208257222765951e+02,9.370253562927246094e+00,0.000000000000000000e+00,9.943943619728088379e-01,3.350000000000000000e+02
-6.823874359052265390e+02,-6.872535066739133072e+02,-3.343596807210085444e+02,-2.961513617382308894e+02,-7.402048335808269712e+02,-7.773237204275765180e+02,-2.480029045849132672e+02,-3.522067163732884865e+02,9.370253562927246094e+00,0.000000000000000000e+00,9.943943619728088379e-01,3.360000000000000000e+02
-6.819185826271897213e+02,-6.872227788972777489e+02,-3.343085281455330460e+02,-2.952423531952478015e+02,-7.379526645874138921e+02,-7.751123067704572804e+02,-2.485983876947478848e+02,-3.528670877411012725e+02,9.370253562927246094e+00,0.000000000000000000e+00,9.943943619728088379e-01,3.370000000000000000e+02
-6.807873084114678477e+02,-6.856130251660421209e+02,-3.342591769426021528e+02,-2.938268903895069570e+02,-7.365900315386799093e+02,-7.726997748716805745e+02,-2.485070611959192775e+02,-3.540986324447837887e+02,9.370253562927246094e+00,0.000000000000000000e+00,9.943943619728088379e-01,3.380000000000000000e+02
-6.786198370477530943e+02,-6.819057734599838341e+02,-3.339912979264705655e+02,-2.918644434721047674e+02,-7.355974965907915930e+02,-7.698245980523754497e+02,-2.474481855000125279e+02,-3.547165358110339639e+02,9.370253562927246094e+00,3.824593871831893921e-02,9.561483860015869141e-01,3.390000000000000000e+02
-6.755156943424174187e+02,-6.767900277411824845e+02,-3.333671119144887598e+02,-2.896687435317595600e+02,-7.340528017600214525e+02,-7.664757483169070156e+02,-2.456379596156421030e+02,-3.538979129967875679e+02,9.370253562927246094e+00,3.824593871831893921e-02,9.561483860015869141e-01,3.400000000000000000e+02
-6.717500090859776947e+02,-6.715632554351376484e+02,-3.322048594818019183e+02,-2.876468244021777991e+02,-7.313032128545332853e+02,-7.629119971819096691e+02,-2.435449972028479806e+02,-3.517184907085940040e+02,9.370253562927246094e+00,3.824593871831893921e-02,9.561483860015869141e-01,3.410000000000000000e+02
-6.675976177456714140e+02,-6.672579525457571208e+02,-3.303172350346660551e+02,-2.859972706211858622e+02,-7.273316333144075543e+02,-7.594987442394638038e+02,-2.416012560799764515e+02,-3.489886101336400088e+02,9.370253562927246094e+00,3.824593871831893921e-02,9.561483860015869141e-01,3.420000000000000000e+02
-6.634098936205720065e+02,-6.642493595882638147e+02,-3.277542714436929145e+02,-2.846795517592598799e+02,-7.225772636088802301e+02,-7.564916178878424944e+02,-2.400987042044653208e+02,-3.465908688449369492e+02,9.370253562927246094e+00,3.824593871831893921e-02,9.561483860015869141e-01,3.430000000000000000e+02
-6.596745926319845239e+02,-6.624244986125995638e+02,-3.249713324007191204e+02,-2.836194932849155066e+02,-7.175392745835257529e+02,-7.539021508175540021e+02,-2.392080903662183573e+02,-3.448923482529784224e+02,9.370253562927246094e+00,3.824593871831893921e-02,9.561483860015869141e-01,3.440000000000000000e+02
-6.567857276402052094e+02,-6.614235961526123901e+02,-3.226472496792337097e+02,-2.828335425585510166e+02,-7.126165570520957999e+02,-7.515158575748889689e+02,-2.389331327659078852e+02,-3.436649013061744427e+02,9.370253562927246094e+00,3.824593871831893921e-02,9.561483860015869141e-01,3.450000000000000000e+02
-6.546646258044886508e+02,-6.606215241844009824e+02,-3.212339786214365631e+02,-2.822770378843968047e+02,-7.082179115979652124e+02,-7.490438184763509071e+02,-2.389959976215669712e+02,-3.424625329919467731e+02,9.370253562927246094e+00,3.824593871831893921e-02,9.561483860015869141e-01,3.460000000000000000e+02
-6.526718884886755632e+02,-6.591007037526485419e+02,-3.206392360372448138e+02,-2.816070828560921200e+02,-7.047737238212167767e+02,-7.462989130926218877e+02,-2.388623752241048805e+02,-3.410576307170649670e+02,9.370253562927246094e+00,3.824593871831893921e-02,9.561483860015869141e-01,3.470000000000000000e+02
-6.500323687060493967e+02,-6.560285553958774472e+02,-3.203729412287535752e+02,-2.802484962837537523e+02,-7.024524770288435320e+02,-7.432872078812515610e+02,-2.380526733224454574e+02,-3.395928274082903044e+02,9.370253562927246094e+00,3.824593871831893921e-02,9.561483860015869141e-01,3.480000000000000000e+02
-6.464563725755240284e+02,-6.513142007166517260e+02,-3.200361131890169872e+02,-2.778421940038107323e+02,-7.008898785868298091e+02,-7.401581249166124508e+02,-2.365586249013770157e+02,-3.383999582556441510e+02,9.370253562927246094e+00,3.824593871831893921e-02,9.561483860015869141e-01,3.490000000000000000e+02
-6.423907207126383128e+02,-6.458779661747703358e+02,-3.196870879425339353e+02,-2.746792720962342855e+02,-6.993735352350713583e+02,-7.370545597582238315e+02,-2.349519380533846515e+02,-3.377230996083920900e+02,9.370253562927246094e+00,3.824593871831893921e-02,9.561483860015869141e-01,3.500000000000000000e+02
-6.386604451166235776e+02,-6.411038748462922285e+02,-3.197294776227306556e+02,-2.716469611532677391e+02,-6.974473496366599647e+02,-7.339952583127687831e+02,-2.339800696757317837e+02,-3.376097189172721755e+02,9.370253562927246094e+00,3.824593871831893921e-02,9.561483860015869141e-01,3.510000000000000000e+02
-6.358340066045523145e+02,-6.378625766647421642e+02,-3.204198348266595531e+02,-2.696390407448393489e+02,-6.953229837432004388e+02,-7.308917913099498946e+02,-2.339277574208533679e+02,-3.379891951640752268e+02,9.370253562927246094e+00,3.824593871831893921e-02,9.561483860015869141e-01,3.520000000000000000e+02
-6.338910884468973563e+02,-6.360011691271115524e+02,-3.214696431905674672e+02,-2.689356317774852414e+02,-6.935981640491595499e+02,-7.276945044439448793e+02,-2.343149195197977406e+02,-3.387575109016714805e+02,9.370253562927246094e+00,3.824593871831893921e-02,9.561483860015869141e-01,3.530000000000000000e+02
-6.324323017643972662e+02,-6.347521749357865701e+02,-3.221458372245542705e+02,-2.691108258590998048e+02,-6.925190827301580612e+02,-7.245481005375227141e+02,-2.342568987673421361e+02,-3.397307500067249748e+02,9.370253562927246094e+00,3.824593871831893921e-02,9.561483860015869141e-01,3.540000000000000000e+02
-6.311246778397470507e+02,-6.335748603562440167e+02,-3.218148365425547581e+02,-2.695006640243252605e+02,-6.915615040407367360e+02,-7.217876278130333958e+02,-2.332034571577637507e+02,-3.405388999486247030e+02,9.370253562927246094e+00,3.824593871831893921e-02,9.561483860015869141e-01,3.550000000000000000e+02
-6.298974148473116657e+02,-6.325410122311366194e+02,-3.204529590559964163e+02,-2.697337853828004199e+02,-6.897946896731896231e+02,-7.196981246560183081e+02,-2.314015527147230387e+02,-3.406648728362731617e+02,9.370253562927246094e+00,3.824593871831893921e-02,9.561483860015869141e-01,3.560000000000000000e+02
-6.287444628039069130e+02,-6.319403560181904140e+02,-3.186548309973832147e+02,-2.698174326853486491e+02,-6.866709707001364222e+02,-7.181773249548623426e+02,-2.296824338322287531e+02,-3.397038480862422603e+02,9.370253562927246094e+00,3.824593871831893921e-02,9.561483860015869141e-01,3.570000000000000000e+02
-6.274708411155395424e+02,-6.316824623727941344e+02,-3.171423294528810857e+02,-2.697940673129680818e+02,-6.824724159504262389e+02,-7.166028125152629400e+02,-2.288128027644963822e+02,-3.376606368483567167e+02,9.370253562927246094e+00,3.824593871831893921e-02,9.561483860015869141e-01,3.580000000000000000e+02
-6.257731817501401110e+02,-6.312304931975484124e+02,-3.162263164084245091e+02,-2.694237070387644053e+02,-6.780532004046417569e+02,-7.141146549586346737e+02,-2.290052927289943909e+02,-3.349827963627294594e+02,9.370253562927246094e+00,3.824593871831893921e-02,9.561483860015869141e-01,3.590000000000000000e+02
-6.236078933134170939e+02,-6.300993483118968470e+02,-3.156956619016598324e+02,-2.682584723696381843e+02,-6.742332085181199091e+02,-7.101752095905208080e+02,-2.299375102679157408e+02,-3.322592489669536917e+02,9.370253562927246094e+00,3.824593871831893921e-02,9.561483860015869141e-01,3.600000000000000000e+02
-6.213796479600566727e+02,-6.282671884288998854e+02,-3.151740952457530511e+02,-2.660180505461817120e+02,-6.714302206958395800e+02,-7.049792189147613044e+02,-2.311112209639140929e+02,-3.298589780586999041e+02,9.370253562927246094e+00,3.824593871831893921e-02,9.561483860015869141e-01,3.610000000000000000e+02
-6.196188537051028788e+02,-6.259785868622161615e+02,-3.145437880925123864e+02,-2.628680220675887540e+02,-6.697021015945329054e+02,-6.993522709767403285e+02,-2.321447145166730479e+02,-3.278490716695860101e+02,9.370253562927246094e+00,3.824593871831893921e-02,9.561483860015869141e-01,3.620000000000000000e+02
-6.183897288078102292e+02,-6.232153111270367845e+02,-3.139992244078309795e+02,-2.593474440904008134e+02,-6.689000097417988400e+02,-6.941838970094593151e+02,-2.328142393582306795e+02,-3.262047674552525223e+02,9.370253562927246094e+00,3.824593871831893921e-02,9.561483860015869141e-01,3.630000000000000000e+02
-6.170433744488806269e+02,-6.195634893225540054e+02,-3.136918290104317748e+02,-2.560481516144495799e+02,-6.686518338402929658e+02,-6.898437796267817248e+02,-2.329833679920052418e+02,-3.249630220063863817e+02,9.370253562927246094e+00,3.824593871831893921e-02,9.561483860015869141e-01,3.640000000000000000e+02
-6.146683038686682039e+02,-6.147560413841638365e+02,-3.133544313571533166e+02,-2.533222324150101485e+02,-6.682563691147104237e+02,-6.860347514879319988e+02,-2.325891931362255036e+02,-3.240469112318542102e+02,9.370253562927246094e+00,3.824593871831893921e-02,9.561483860015869141e-01,3.650000000000000000e+02
-6.109020568386868035e+02,-6.093291109966967269e+02,-3.123412570970263005e+02,-2.511773019924892196e+02,-6.667942460958040556e+02,-6.821490391774773343e+02,-2.316529291638785253e+02,-3.229614531633385468e+02,9.370253562927246094e+00,3.824593871831893921e-02,9.561483860015869141e-01,3.660000000000000000e+02
-6.063297131445979176e+02,-6.045474774899651038e+02,-3.101150080694449116e+02,-2.493227117046255898e+02,-6.635456138362274032e+02,-6.777753907743403943e+02,-2.301917306810667014e+02,-3.208523556414711493e+02,9.370253562927246094e+00,3.824593871831893921e-02,9.561483860015869141e-01,3.670000000000000000e+02
-6.020265115190973120e+02,-6.014662994948075720e+02,-3.067549198809679183e+02,-2.472989159474959706e+02,-6.584430533826748615e+02,-6.729483831621391801e+02,-2.280908855490538372e+02,-3.171294002101801652e+02,9.370253562927246094e+00,3.824593871831893921e-02,9.561483860015869141e-01,3.680000000000000000e+02
-5.986211085031670791e+02,-5.999685345109742229e+02,-3.030266874780566013e+02,-2.447030197551666788e+02,-6.522113547265948910e+02,-6.680308213759446971e+02,-2.251729315395971298e+02,-3.121996587088910928e+02,9.370253562927246094e+00,3.824593871831893921e-02,9.561483860015869141e-01,3.690000000000000000e+02
-5.957716488557555294e+02,-5.987822864233876317e+02,-2.999436778373644756e+02,-2.414828808552879309e+02,-6.460851682716963751e+02,-6.634280374171473795e+02,-2.215382767807836899e+02,-3.075315173135459190e+02,9.408499717712402344e+00,3.824593871831893921e-02,9.179025292396545410e-01,3.700000000000000000e+02
-5.925916653516783299e+02,-5.965741398900906916e+02,-2.981875836757537854e+02,-2.381249964915893997e+02,-6.412805412803127183e+02,-6.593903905865636261e+02,-2.178805062434439606e+02,-3.047846139843150013e+02,9.408499717712402344e+00,3.824593871831893921e-02,9.179025292396545410e-01,3.710000000000000000e+02
-5.886398257742769147e+02,-5.931272345319357555e+02,-2.978269497755150041e+02,-2.354952027039853419e+02,-6.384908419036100895e+02,-6.559854120407605933e+02,-2.153418747659022756e+02,-3.046335730944656461e+02,9.408499717712402344e+00,3.824593871831893921e-02,9.179025292396545410e-01,3.720000000000000000e+02
-5.845084023860631532e+02,-5.894794884116374760e+02,-2.984502686586542950e+02,-2.343121030172287647e+02,-6.376106717866234703e+02,-6.531460304926229128e+02,-2.148433484957463406e+02,-3.062678869775315889e+02,9.408499717712402344e+00,3.824593871831893921e-02,9.179025292396545410e-01,3.730000000000000000e+02
-5.813662063070746626e+02,-5.868726914784729161e+02,-2.994508188158106350e+02,-2.345797093921823944e+02,-6.377790473083648521e+02,-6.506924294981847652e+02,-2.163553434151065176e+02,-3.079710468654197939e+02,9.408499717712402344e+00,3.824593871831893921e-02,9.179025292396545410e-01,3.740000000000000000e+02
-5.797987788331051888e+02,-5.854984361445733612e+02,-3.001640736603480946e+02,-2.354401768794114105e+02,-6.377187689870299891e+02,-6.483108461268307110e+02,-2.187129232510455950e+02,-3.082315765990556429e+02,9.408499717712402344e+00,3.824593871831893921e-02,9.179025292396545410e-01,3.750000000000000000e+02
-5.790209666867442593e+02,-5.842059136689906609e+02,-2.998680769709958440e+02,-2.356135301374142728e+02,-6.362425094784707653e+02,-6.455449843333610715e+02,-2.201692985504030275e+02,-3.064507166997086642e+02,9.408499717712402344e+00,3.824593871831893921e-02,9.179025292396545410e-01,3.760000000000000000e+02
-5.772822848767459618e+02,-5.814401507148695600e+02,-2.979180885682683311e+02,-2.341284448626824997e+02,-6.327156475572269301e+02,-6.418793075369026155e+02,-2.193202722520691168e+02,-3.028515348046166764e+02,9.408499717712402344e+00,3.824593871831893921e-02,9.179025292396545410e-01,3.770000000000000000e+02
-5.732517252804609598e+02,-5.765699191565570345e+02,-2.941763695172380721e+02,-2.308570333015754841e+02,-6.273017733039746417e+02,-6.369746995721020539e+02,-2.158362767932615043e+02,-2.980225690740330720e+02,9.408499717712402344e+00,3.824593871831893921e-02,9.179025292396545410e-01,3.780000000000000000e+02
-5.672263774888185708e+02,-5.704503250701711750e+02,-2.894365191235160637e+02,-2.265326197008607778e+02,-6.209072729365841496e+02,-6.309874536829297540e+02,-2.106302773984907617e+02,-2.927077062045909770e+02,9.408499717712402344e+00,3.824593871831893921e-02,9.179025292396545410e-01,3.790000000000000000e+02
-5.610642410568848391e+02,-5.647606381293155664e+02,-2.852737613147510274e+02,-2.222827668930892742e+02,-6.148153013201222166e+02,-6.247120293693353688e+02,-2.054009045039283592e+02,-2.878822539531333859e+02,9.408499717712402344e+00,3.824593871831893921e-02,9.179025292396545410e-01,3.800000000000000000e+02
-5.568089235989812096e+02,-5.607302435507367591e+02,-2.831361852275686033e+02,-2.190107990323310787e+02,-6.101075817267160346e+02,-6.192834776744743976e+02,-2.017637756480403368e+02,-2.846529622424980062e+02,9.408499717712402344e+00,3.824593871831893921e-02,9.179025292396545410e-01,3.810000000000000000e+02
-5.551088946024558481e+02,-5.583309345840109472e+02,-2.832598417999524827e+02,-2.170052100372536188e+02,-6.071160884926730432e+02,-6.154824393937947207e+02,-2.004017472557243309e+02,-2.837191709568619444e+02,9.408499717712402344e+00,3.824593871831893921e-02,9.179025292396545410e-01,3.820000000000000000e+02
-5.547379444052833151e+02,-5.564994759286837507e+02,-2.843573574040474341e+02,-2.159542014837506940e+02,-6.052365879342949029e+02,-6.131013038692512964e+02,-2.007416445672201917e+02,-2.847641815082067751e+02,9.408499717712402344e+00,3.824593871831893921e-02,9.179025292396545410e-01,3.830000000000000000e+02
-5.535935410836948449e+02,-5.540617320235460284e+02,-2.845048852976783564e+02,-2.152686940585581397e+02,-6.033109823284307822e+02,-6.109412539665058830e+02,-2.014263425998719867e+02,-2.864508964745450612e+02,9.408499717712402344e+00,3.824593871831893921e-02,9.179025292396545410e-01,3.840000000000000000e+02
-5.503231642750329229e+02,-5.505543007144938201e+02,-2.826056936630766359e+02,-2.144624333435517656e+02,-6.003822799736935849e+02,-6.075760537943506279e+02,-2.013115899905255901e+02,-2.872296664071081977e+02,9.408499717712402344e+00,3.824593871831893921e-02,9.179025292396545410e-01,3.850000000000000000e+02
-5.452296383684426928e+02,-5.463636362575080057e+02,-2.791733129105464286e+02,-2.133309366931891873e+02,-5.962470710978082025e+02,-6.023188705691609357e+02,-2.002176590511169252e+02,-2.863399031336755343e+02,9.408499717712402344e+00,3.824593871831893921e-02,9.179025292396545410e-01,3.860000000000000000e+02
-5.397845816643284707e+02,-5.422255897869390537e+02,-2.757346858564692411e+02,-2.118737929561946203e+02,-5.913563554229267538e+02,-5.955921204045453123e+02,-1.987979536137872856e+02,-2.841746931360648887e+02,9.408499717712402344e+00,3.824593871831893921e-02,9.179025292396545410e-01,3.870000000000000000e+02
-5.352871986189297786e+02,-5.385950246441072977e+02,-2.734152625048332084e+02,-2.101297555854348502e+02,-5.862127243295358312e+02,-5.884240995005065997e+02,-1.976842869733000043e+02,-2.817683618075257073e+02,9.408499717712402344e+00,3.824593871831893921e-02,9.179025292396545410e-01,3.880000000000000000e+02
-5.318517588786864962e+02,-5.353821163773095577e+02,-2.720193068789826611e+02,-2.081445617909653265e+02,-5.809048064528283248e+02,-5.816018409112266454e+02,-1.967808550546960760e+02,-2.799484792230327912e+02,9.408499717712402344e+00,3.824593871831893921e-02,9.179025292396545410e-01,3.890000000000000000e+02
-5.285241587086143227e+02,-5.321773947111034886e+02,-2.704261421396763581e+02,-2.061161127046543697e+02,-5.752614062848592766e+02,-5.752806246134323374e+02,-1.954404843010033801e+02,-2.788878015514035269e+02,9.408499717712402344e+00,3.824593871831893921e-02,9.179025292396545410e-01,3.900000000000000000e+02
-5.242849749090928526e+02,-5.286828113246665453e+02,-2.678262047811813318e+02,-2.045175606882576176e+02,-5.693990582264909790e+02,-5.693069351364611066e+02,-1.933222107100950780e+02,-2.782638128269798017e+02,9.332008361816406250e+00,0.000000000000000000e+00,9.179025292396545410e-01,3.910000000000000000e+02
-5.189513863125985154e+02,-5.249410333380374141e+02,-2.645154737443153863e+02,-2.039478968692244507e+02,-5.639321414387222831e+02,-5.637338943316121913e+02,-1.909578746429588136e+02,-2.776354936907575848e+02,9.332008361816406250e+00,0.000000000000000000e+00,9.179025292396545410e-01,3.920000000000000000e+02
-5.132272654988164504e+02,-5.211791504276397973e+02,-2.614976819995217738e+02,-2.047208009648556981e+02,-5.594904372769342444e+02,-5.588655195856895261e+02,-1.893458452339427822e+02,-2.766393403556053272e+02,9.332008361816406250e+00,0.000000000000000000e+00,9.179025292396545410e-01,3.930000000000000000e+02
-5.079928397124917865e+02,-5.174471969952612653e+02,-2.593984104577129983e+02,-2.064993782363585524e+02,-5.560163957737945566e+02,-5.547734912196901860e+02,-1.889305835069744717e+02,-2.750180755840469828e+02,9.332008361816406250e+00,0.000000000000000000e+00,9.179025292396545410e-01,3.940000000000000000e+02
-5.035650423120509913e+02,-5.134438092730695189e+02,-2.578594603941219248e+02,-2.083297031453732870e+02,-5.526378961149562201e+02,-5.508860459987918148e+02,-1.890238770615333124e+02,-2.727397753543341423e+02,9.332008361816406250e+00,0.000000000000000000e+00,9.179025292396545410e-01,3.950000000000000000e+02
-4.995835395150866134e+02,-5.087723781292647800e+02,-2.560169032398348463e+02,-2.091544585789054054e+02,-5.483623809340815569e+02,-5.462333441653158843e+02,-1.883301312302814949e+02,-2.702606311015247229e+02,9.332008361816406250e+00,0.000000000000000000e+00,9.179025292396545410e-01,3.960000000000000000e+02
-4.955230294374910045e+02,-5.034422134428912159e+02,-2.535001021767575367e+02,-2.084858207217218933e+02,-5.429699307055743702e+02,-5.402287580731886010e+02,-1.861181172667170358e+02,-2.686012938314643179e+02,9.332008361816406250e+00,0.000000000000000000e+00,9.179025292396545410e-01,3.970000000000000000e+02
-4.912680552856684244e+02,-4.981303298800166885e+02,-2.508823928069377871e+02,-2.067643388923172552e+02,-5.372596715005684018e+02,-5.332707193749611179e+02,-1.829432876467458300e+02,-2.689162129702358470e+02,9.332008361816406250e+00,0.000000000000000000e+00,9.179025292396545410e-01,3.980000000000000000e+02
-4.872192940804384307e+02,-4.938387133336930219e+02,-2.491336548350464000e+02,-2.051275463796841905e+02,-5.324249849626312425e+02,-5.265662757019726996e+02,-1.802566320386513326e+02,-2.716979886022754727e+02,9.332008361816406250e+00,0.000000000000000000e+00,9.179025292396545410e-01,3.990000000000000000e+02
-4.838892799122795623e+02,-4.911117002651853909e+02,-2.486684353409614232e+02,-2.047234693941318255e+02,-5.291376574279365741e+02,-5.212869536486405195e+02,-1.792823789614431007e+02,-2.762274129355305377e+02,9.332008361816406250e+00,0.000000000000000000e+00,9.179025292396545410e-01,4.000000000000000000e+02
-4.814163758524348395e+02,-4.894773118869063637e+02,-2.489626342461460808e+02,-2.060259393513006216e+02,-5.271213274032406844e+02,-5.177675724577775327e+02,-1.801599177764801425e+02,-2.808131592728973374e+02,9.332008361816406250e+00,0.000000000000000000e+00,9.179025292396545410e-01,4.010000000000000000e+02
-4.794270862003311322e+02,-4.876906954567416506e+02,-2.490557640585070658e+02,-2.086027087379297882e+02,-5.254590726302321855e+02,-5.153612824924948654e+02,-1.819931349494436290e+02,-2.837112617870188842e+02,9.332008361816406250e+00,0.000000000000000000e+00,9.179025292396545410e-01,4.020000000000000000e+02
-4.772986473952278175e+02,-4.846655114983811927e+02,-2.483588757860502483e+02,-2.114836825192342076e+02,-5.232541067480301535e+02,-5.129698523314104932e+02,-1.835939748812456855e+02,-2.840364064401346695e+02,9.332008361816406250e+00,0.000000000000000000e+00,9.179025292396545410e-01,4.030000000000000000e+02
-4.745429135435203989e+02,-4.802919541320511598e+02,-2.469603915974130359e+02,-2.138210664401003669e+02,-5.200881318493625258e+02,-5.097444387295181514e+02,-1.841795159382681959e+02,-2.819974925821761644e+02,9.332008361816406250e+00,0.000000000000000000e+00,9.179025292396545410e-01,4.040000000000000000e+02
-4.710014369618511409e+02,-4.754031546318024084e+02,-2.452307132109494887e+02,-2.153341749906262521e+02,-5.160359049369740205e+02,-5.054376443839510102e+02,-1.835165581269343420e+02,-2.784050887430221337e+02,9.332008361816406250e+00,0.000000000000000000e+00,9.179025292396545410e-01,4.050000000000000000e+02
-4.667929943848089351e+02,-4.709323980085491712e+02,-2.432713484936834902e+02,-2.162319432623035027e+02,-5.113776458176007509e+02,-5.002795571367141747e+02,-1.816387269035944882e+02,-2.739900162341159557e+02,9.332008361816406250e+00,0.000000000000000000e+00,9.179025292396545410e-01,4.060000000000000000e+02
-4.621802956374019686e+02,-4.670652474853841341e+02,-2.408396735016349339e+02,-2.167709013942067031e+02,-5.063105876597019233e+02,-4.946400646205074736e+02,-1.786306278189072145e+02,-2.691265429653280989e+02,9.332008361816406250e+00,0.000000000000000000e+00,9.179025292396545410e-01,4.070000000000000000e+02
-4.575064772503976656e+02,-4.631932417347625233e+02,-2.377891094138581138e+02,-2.169295005986564320e+02,-5.008971141454567260e+02,-4.888129129420863137e+02,-1.747752520425747207e+02,-2.640662546496891991e+02,9.332008361816406250e+00,0.000000000000000000e+00,9.179025292396545410e-01,4.080000000000000000e+02
-4.531486638563371798e+02,-4.586495137000711111e+02,-2.344799479128946587e+02,-2.165093468370041592e+02,-4.952623074713528695e+02,-4.830058881426853077e+02,-1.708218994584440225e+02,-2.592519253167238276e+02,9.332008361816406250e+00,0.000000000000000000e+00,9.179025292396545410e-01,4.090000000000000000e+02
-4.493453443498960951e+02,-4.534131820201714618e+02,-2.316262900179367534e+02,-2.154880522910307263e+02,-4.898004058006326886e+02,-4.773821132987600322e+02,-1.678524519345146473e+02,-2.552514403277905330e+02,9.332008361816406250e+00,0.000000000000000000e+00,9.179025292396545410e-01,4.100000000000000000e+02
-4.459294911488254911e+02,-4.480485995744738830e+02,-2.296529597597423162e+02,-2.141533557095522156e+02,-4.850813437261986110e+02,-4.719903615155481020e+02,-1.665783824380146143e+02,-2.523119389426187809e+02,9.332008361816406250e+00,0.000000000000000000e+00,9.179025292396545410e-01,4.110000000000000000e+02
-4.422562104869518862e+02,-4.430126748783732182e+02,-2.281988479583565095e+02,-2.128043204565374253e+02,-4.814094980323225172e+02,-4.666482857255396084e+02,-1.665797334882145151e+02,-2.500207766383146009e+02,9.332008361816406250e+00,0.000000000000000000e+00,9.179025292396545410e-01,4.120000000000000000e+02
-4.375670569305357276e+02,-4.381501929147088958e+02,-2.263348498446775920e+02,-2.113606343096589626e+02,-4.784030799271381511e+02,-4.610093152612689664e+02,-1.663128385343206901e+02,-2.475252486970198333e+02,9.332008361816406250e+00,0.000000000000000000e+00,9.179025292396545410e-01,4.130000000000000000e+02
-4.316363896676225522e+02,-4.329745592637323170e+02,-2.233750604100478085e+02,-2.094040203470708548e+02,-4.750888893498508878e+02,-4.548949063497593670e+02,-1.641596016813391543e+02,-2.441970972423755484e+02,9.332008361816406250e+00,0.000000000000000000e+00,9.179025292396545410e-01,4.140000000000000000e+02
-4.251528873439892777e+02,-4.274352554208271613e+02,-2.195490168325077320e+02,-2.067312515432740838e+02,-4.705765076319630680e+02,-4.486358663989244633e+02,-1.597913075071778621e+02,-2.401290136313709809e+02,9.332008361816406250e+00,0.000000000000000000e+00,9.179025292396545410e-01,4.150000000000000000e+02
-4.193808791194178411e+02,-4.222722393163285233e+02,-2.158997898438692573e+02,-2.038820156601327653e+02,-4.647790509454534913e+02,-4.430359027047511518e+02,-1.546598932945898923e+02,-2.359876736566297950e+02,9.408499717712402344e+00,3.824593871831893921e-02,9.943943619728088379e-01,4.160000000000000000e+02
-4.152591723042201011e+02,-4.184369677578065421e+02,-2.134730793828425703e+02,-2.019942211139559731e+02,-4.585122237190921624e+02,-4.388539616998823476e+02,-1.510402821220091027e+02,-2.323804997221709527e+02,9.408499717712402344e+00,3.824593871831893921e-02,9.943943619728088379e-01,4.170000000000000000e+02
-4.126840430540869420e+02,-4.160920862698922065e+02,-2.125337072040169915e+02,-2.019736446848123705e+02,-4.528826639818280455e+02,-4.362121566804135000e+02,-1.503415822496349392e+02,-2.294008027281834075e+02,9.408499717712402344e+00,3.824593871831893921e-02,9.943943619728088379e-01,4.180000000000000000e+02
-4.106376452562276427e+02,-4.142418512250101230e+02,-2.125123659870964730e+02,-2.036914512852131338e+02,-4.485805672321935162e+02,-4.344980951145566905e+02,-1.521072553694675662e+02,-2.268244685798968021e+02,9.408499717712402344e+00,3.824593871831893921e-02,9.943943619728088379e-01,4.190000000000000000e+02
-4.080630675942552443e+02,-4.114746873149620114e+02,-2.126483732699971370e+02,-2.059696353904496391e+02,-4.457206543311840505e+02,-4.328913723377199858e+02,-1.545068774593960370e+02,-2.246902286999629723e+02,9.408499717712402344e+00,3.824593871831893921e-02,9.943943619728088379e-01,4.200000000000000000e+02
-4.046585749464188666e+02,-4.071696418740866648e+02,-2.126137425532870111e+02,-2.073966094519078069e+02,-4.441871480384138522e+02,-4.310115034664199811e+02,-1.557652423491263107e+02,-2.235002838378391061e+02,9.408499717712402344e+00,3.824593871831893921e-02,9.943943619728088379e-01,4.210000000000000000e+02
-4.008524800764121210e+02,-4.020081318134693902e+02,-2.124886639902015304e+02,-2.072530804976813670e+02,-4.438658479797491054e+02,-4.290365153000493592e+02,-1.552030327683582982e+02,-2.236448800715884317e+02,9.408499717712402344e+00,3.824593871831893921e-02,9.943943619728088379e-01,4.220000000000000000e+02
-3.970709566049822570e+02,-3.973034406800070428e+02,-2.122142617641279685e+02,-2.058032082672070828e+02,-4.444024098877684992e+02,-4.272000348704414137e+02,-1.531388217111939412e+02,-2.245669935801693100e+02,9.408499717712402344e+00,3.824593871831893921e-02,9.943943619728088379e-01,4.230000000000000000e+02
-3.931430986744740039e+02,-3.938226178176287249e+02,-2.112365377105766129e+02,-2.038405969328996434e+02,-4.448526617724905918e+02,-4.252498072346684239e+02,-1.500978878861305930e+02,-2.246288778888097113e+02,9.408499717712402344e+00,3.824593871831893921e-02,9.943943619728088379e-01,4.240000000000000000e+02
-3.885006163767716316e+02,-3.912443180007221599e+02,-2.088451239311639256e+02,-2.020170020739815300e+02,-4.438776653465338313e+02,-4.225068214767547943e+02,-1.463198861232040144e+02,-2.220831795476187835e+02,9.408499717712402344e+00,3.824593871831893921e-02,9.943943619728088379e-01,4.250000000000000000e+02
-3.829303600527309754e+02,-3.886956598255533208e+02,-2.049043486481145919e+02,-2.005070504052891920e+02,-4.405528482874833571e+02,-4.184994643258050928e+02,-1.419732233131730936e+02,-2.164452273000356399e+02,9.408499717712402344e+00,3.824593871831893921e-02,9.943943619728088379e-01,4.260000000000000000e+02
-3.770019373313925826e+02,-3.856927842189606963e+02,-2.001738700159053224e+02,-1.991226664790260656e+02,-4.350761489427391098e+02,-4.135082995981201748e+02,-1.375705576292948535e+02,-2.090410818887294226e+02,9.408499717712402344e+00,3.824593871831893921e-02,9.943943619728088379e-01,4.270000000000000000e+02
-3.716500070987990512e+02,-3.824512463675341678e+02,-1.958128869465581374e+02,-1.976167940902505507e+02,-4.286490908842743011e+02,-4.084489052597914451e+02,-1.338991488244664652e+02,-2.021822978143427463e+02,9.408499717712402344e+00,3.824593871831893921e-02,9.943943619728088379e-01,4.280000000000000000e+02
-3.673402277804848381e+02,-3.793108223914846349e+02,-1.925162582270045277e+02,-1.959093392499289621e+02,-4.226132752075036478e+02,-4.042181383930715128e+02,-1.314543420006984888e+02,-1.976396538730109569e+02,9.408499717712402344e+00,3.824593871831893921e-02,9.943943619728088379e-01,4.290000000000000000e+02
-3.637340022006628715e+02,-3.760438030611367139e+02,-1.901160549127703234e+02,-1.941656213101891808e+02,-4.176357535877104965e+02,-4.011462402879406000e+02,-1.300192984946852448e+02,-1.956661330780866592e+02,9.408499717712402344e+00,3.824593871831893921e-02,9.943943619728088379e-01,4.300000000000000000e+02
-3.602185130779644169e+02,-3.719357382701218739e+02,-1.879803625945401109e+02,-1.927333748059563732e+02,-4.135944459097486288e+02,-3.989933765666241925e+02,-1.288743467833455725e+02,-1.952357453278432331e+02,9.408499717712402344e+00,3.824593871831893921e-02,9.943943619728088379e-01,4.310000000000000000e+02
-3.566755407891992036e+02,-3.666170901634291113e+02,-1.857092422494656603e+02,-1.919170451190379936e+02,-4.100359980306216130e+02,-3.973164408513239323e+02,-1.273959513495960891e+02,-1.950443308357234855e+02,9.408499717712402344e+00,3.824593871831893921e-02,9.943943619728088379e-01,4.320000000000000000e+02
-3.535912091093505296e+02,-3.607088671071533099e+02,-1.833978772378995927e+02,-1.916562193693425797e+02,-4.066062159983271158e+02,-3.957341192626613520e+02,-1.254212522908519531e+02,-1.942910597774362031e+02,9.408499717712402344e+00,3.824593871831893921e-02,9.943943619728088379e-01,4.330000000000000000e+02
-3.513818234617278904e+02,-3.554840077946691963e+02,-1.813138169016747270e+02,-1.913781730525724925e+02,-4.031222035569803666e+02,-3.939073121545975482e+02,-1.231138521516704714e+02,-1.927452153782760433e+02,9.408499717712402344e+00,3.824593871831893921e-02,9.943943619728088379e-01,4.340000000000000000e+02
-3.497307332757950462e+02,-3.517979115474267928e+02,-1.794848706925031365e+02,-1.902953801500430018e+02,-3.994621645738466214e+02,-3.914706713122918700e+02,-1.206461492123653443e+02,-1.904158197630213181e+02,9.408499717712402344e+00,3.824593871831893921e-02,9.943943619728088379e-01,4.350000000000000000e+02
-3.477584879967198503e+02,-3.493839060048635474e+02,-1.777212040415188312e+02,-1.880526822242381968e+02,-3.955793025666366702e+02,-3.881683908619147587e+02,-1.181312620887765661e+02,-1.874113204262848740e+02,9.408499717712402344e+00,3.824593871831893921e-02,9.943943619728088379e-01,4.360000000000000000e+02
-3.449062051992727902e+02,-3.472604187989018101e+02,-1.759967206951182561e+02,-1.851901487321092645e+02,-3.916328799520942994e+02,-3.840982554413899379e+02,-1.158135437341347824e+02,-1.841298494185834898e+02,9.408499717712402344e+00,3.824593871831893921e-02,9.943943619728088379e-01,4.370000000000000000e+02
-3.415468302861977463e+02,-3.448086680894803067e+02,-1.746308501980347501e+02,-1.828896774387867481e+02,-3.879749927295852103e+02,-3.797406949521937349e+02,-1.141373224998692422e+02,-1.813573511938425327e+02,9.408499717712402344e+00,3.824593871831893921e-02,9.943943619728088379e-01,4.380000000000000000e+02
-3.385888299246171300e+02,-3.423618242276625097e+02,-1.739581484571685905e+02,-1.820837642199339825e+02,-3.849220823486675727e+02,-3.756779890191978666e+02,-1.134624722211415246e+02,-1.799115941430063685e+02,9.408499717712402344e+00,3.824593871831893921e-02,9.943943619728088379e-01,4.390000000000000000e+02
-3.364636812418407317e+02,-3.406915414773807242e+02,-1.738309946778413178e+02,-1.826819453965117646e+02,-3.825574164506542729e+02,-3.722817453686266163e+02,-1.136976832625887255e+02,-1.800482732973168822e+02,9.408499717712402344e+00,3.824593871831893921e-02,9.943943619728088379e-01,4.400000000000000000e+02
-3.346171450024135083e+02,-3.399845264248510830e+02,-1.735592919330947552e+02,-1.836439373497223642e+02,-3.807892857822380392e+02,-3.696673952270070913e+02,-1.143046980420222098e+02,-1.812121293621426048e+02,9.408499717712402344e+00,3.824593871831893921e-02,9.943943619728088379e-01,4.410000000000000000e+02
-3.321280780192660131e+02,-3.394725850098175215e+02,-1.724523447868123185e+02,-1.838555048411135431e+02,-3.795448524234980141e+02,-3.678533901737282577e+02,-1.147469357425457019e+02,-1.824245830702279818e+02,9.408499717712402344e+00,3.824593871831893921e-02,9.943943619728088379e-01,4.420000000000000000e+02
-3.288392473789576798e+02,-3.381527673209484419e+02,-1.704656968414187759e+02,-1.829959604179662165e+02,-3.788089864998441954e+02,-3.668113125326790396e+02,-1.149480302817141819e+02,-1.829499399845699372e+02,9.332008361816406250e+00,3.824593871831893921e-02,9.943943619728088379e-01,4.430000000000000000e+02
-3.257546968261149232e+02,-3.358375499577600749e+02,-1.682916218877762731e+02,-1.816052261132754211e+02,-3.784403191712640364e+02,-3.662782908256276642e+02,-1.152712185074160516e+02,-1.826093599622013244e+02,9.332008361816406250e+00,3.824593871831893921e-02,9.943943619728088379e-01,4.440000000000000000e+02
-3.241803149709476202e+02,-3.334281957637367668e+02,-1.667891750563430833e+02,-1.803947408742246807e+02,-3.780354646776659138e+02,-3.656243882180615401e+02,-1.160280237239021517e+02,-1.815520314184996096e+02,9.332008361816406250e+00,3.824593871831893921e-02,9.943943619728088379e-01,4.450000000000000000e+02
-3.244124919949908872e+02,-3.321344860842987146e+02,-1.663042607011202563e+02,-1.795917632894606868e+02,-3.771004564509125885e+02,-3.641294263784034229e+02,-1.170252691039604542e+02,-1.798881064642259844e+02,9.332008361816406250e+00,3.824593871831893921e-02,9.943943619728088379e-01,4.460000000000000000e+02
-3.252913191441384697e+02,-3.324230752008015770e+02,-1.664850507683418073e+02,-1.789745023356849742e+02,-3.754135974272085150e+02,-3.615665930797881629e+02,-1.176262418639926182e+02,-1.776753636926141553e+02,9.332008361816406250e+00,3.824593871831893921e-02,9.943943619728088379e-01,4.470000000000000000e+02
-3.251001596122223418e+02,-3.336656026225305141e+02,-1.666886261301315244e+02,-1.784403766493583134e+02,-3.732282320724089004e+02,-3.585343124265932602e+02,-1.173050997019913666e+02,-1.752756564174956111e+02,9.332008361816406250e+00,3.824593871831893921e-02,9.943943619728088379e-01,4.480000000000000000e+02
-3.229649697796235159e+02,-3.346790124508238478e+02,-1.665186873754196313e+02,-1.783278080974546356e+02,-3.711145102823074922e+02,-3.560829500954891955e+02,-1.161760259945572216e+02,-1.735937835250715580e+02,9.332008361816406250e+00,3.824593871831893921e-02,9.943943619728088379e-01,4.490000000000000000e+02
-3.194544291709639765e+02,-3.345328889343763876e+02,-1.660084885531296095e+02,-1.790316861227111076e+02,-3.695832420666847611e+02,-3.548538380071609026e+02,-1.149849340334681074e+02,-1.737763682728400454e+02,9.332008361816406250e+00,3.824593871831893921e-02,9.943943619728088379e-01,4.500000000000000000e+02
-3.159080082906989446e+02,-3.329383466640483675e+02,-1.653905177578581061e+02,-1.803203760062024230e+02,-3.687710693421818178e+02,-3.544885165659625272e+02,-1.145369654540727424e+02,-1.765255419974237157e+02,9.332008361816406250e+00,3.824593871831893921e-02,9.943943619728088379e-01,4.510000000000000000e+02
-3.132212563281163966e+02,-3.301178067136811478e+02,-1.647878484493526230e+02,-1.811981027168430955e+02,-3.683341369980398667e+02,-3.538734948880805860e+02,-1.150392097921012464e+02,-1.816270326340445536e+02,9.332008361816406250e+00,3.824593871831893921e-02,9.943943619728088379e-01,4.520000000000000000e+02
-3.112219474205021470e+02,-3.265229441102769670e+02,-1.641442235818394693e+02,-1.806319195669902911e+02,-3.675512356144076875e+02,-3.520207425824860366e+02,-1.159208228704619614e+02,-1.881138038773806329e+02,9.332008361816406250e+00,3.824593871831893921e-02,9.943943619728088379e-01,4.530000000000000000e+02
-3.090746619717224348e+02,-3.226535947919796854e+02,-1.633828026354549365e+02,-1.785012520316272457e+02,-3.656225491645654984e+02,-3.488092892749641578e+02,-1.162842683891581146e+02,-1.948897330075028549e+02,9.332008361816406250e+00,3.824593871831893921e-02,9.943943619728088379e-01,4.540000000000000000e+02
-3.061665728948046308e+02,-3.189059116862390511e+02,-1.625674531710365045e+02,-1.758113414042718432e+02,-3.621360305896778300e+02,-3.449747976138728518e+02,-1.156185957795642025e+02,-2.012855145523903957e+02,9.332008361816406250e+00,3.824593871831893921e-02,9.943943619728088379e-01,4.550000000000000000e+02
-3.026392249271302717e+02,-3.153763346913583518e+02,-1.618994615143678857e+02,-1.738968143900779069e+02,-3.574899197292565987e+02,-3.414493757992991050e+02,-1.141979765516680345e+02,-2.071697567540786622e+02,9.332008361816406250e+00,3.824593871831893921e-02,9.943943619728088379e-01,4.560000000000000000e+02
-2.992256443154547014e+02,-3.118130616955709229e+02,-1.615869235026507340e+02,-1.733506967398120651e+02,-3.528905851100125801e+02,-3.387047663966795881e+02,-1.128709766372026024e+02,-2.126739555777853639e+02,9.332008361816406250e+00,3.824593871831893921e-02,9.943943619728088379e-01,4.570000000000000000e+02
-2.966904429872224682e+02,-3.079541926209399207e+02,-1.617142002162922836e+02,-1.736884348882899758e+02,-3.497145198358466587e+02,-3.366392186639468491e+02,-1.124331045627041021e+02,-2.178381443791208767e+02,9.332008361816406250e+00,3.824593871831893921e-02,9.943943619728088379e-01,4.580000000000000000e+02
-2.953542095882321519e+02,-3.040479618289214159e+02,-1.621623147095451714e+02,-1.739851786178542170e+02,-3.485368663586123148e+02,-3.349291953992110393e+02,-1.130571180811521117e+02,-2.223691005837881676e+02,9.332008361816406250e+00,3.824593871831893921e-02,9.943943619728088379e-01,4.590000000000000000e+02
-2.949075129319580810e+02,-3.009435972437868259e+02,-1.625440330507326507e+02,-1.737287712419588388e+02,-3.485423582448861453e+02,-3.333220464804112453e+02,-1.141410081485655610e+02,-2.255284270256020136e+02,9.332008361816406250e+00,3.824593871831893921e-02,9.943943619728088379e-01,4.600000000000000000e+02
-2.944910341573572623e+02,-2.994120712141079821e+02,-1.622015397824675347e+02,-1.729999018976977823e+02,-3.478735085884150067e+02,-3.315452571892533342e+02,-1.146017858823629467e+02,-2.262305226110361218e+02,9.332008361816406250e+00,3.824593871831893921e-02,9.943943619728088379e-01,4.610000000000000000e+02
-2.930086166586243053e+02,-2.991969957948122101e+02,-1.604219431457322571e+02,-1.719271545347924075e+02,-3.447839727073283029e+02,-3.290723217459508305e+02,-1.134153218834476320e+02,-2.235201426312823969e+02,9.332008361816406250e+00,3.824593871831893921e-02,9.943943619728088379e-01,4.620000000000000000e+02
-2.896442214720882475e+02,-2.987885370789044828e+02,-1.568995827322523837e+02,-1.701854189217233397e+02,-3.388228864710749804e+02,-3.252345692642334143e+02,-1.101563320345449029e+02,-2.173549304529178698e+02,9.332008361816406250e+00,3.824593871831893921e-02,9.943943619728088379e-01,4.630000000000000000e+02
-2.843981639621151771e+02,-2.963747932852320446e+02,-1.521741151066157727e+02,-1.672294436353568017e+02,-3.312219959501508129e+02,-3.197928215074412037e+02,-1.053171965923302196e+02,-2.091722132176578270e+02,9.332008361816406250e+00,3.824593871831893921e-02,9.943943619728088379e-01,4.640000000000000000e+02
-2.782479690777645374e+02,-2.912869497447400136e+02,-1.476011774605499340e+02,-1.630625080518011600e+02,-3.242085648246302299e+02,-3.134566424291551812e+02,-1.002128163195229718e+02,-2.015686961591954969e+02,9.332008361816406250e+00,3.824593871831893921e-02,9.943943619728088379e-01,4.650000000000000000e+02
-2.726693997203824438e+02,-2.846542965796415956e+02,-1.446620710117144881e+02,-1.586517497088980235e+02,-3.196905434664049608e+02,-3.076982836359529756e+02,-9.641024354062346902e+01,-1.969704682727760883e+02,9.332008361816406250e+00,3.824593871831893921e-02,9.943943619728088379e-01,4.660000000000000000e+02
-2.687626171231167973e+02,-2.786179024322555051e+02,-1.439963337057183708e+02,-1.554006080095332436e+02,-3.181659272704796422e+02,-3.038062827124508658e+02,-9.490111936177800089e+01,-1.961065664359794027e+02,9.332008361816406250e+00,3.824593871831893921e-02,9.943943619728088379e-01,4.670000000000000000e+02
-2.666366942193558316e+02,-2.747733056449797004e+02,-1.449170301922681574e+02,-1.540927019614296114e+02,-3.185516816995577756e+02,-3.019214504117062461e+02,-9.552239920360170800e+01,-1.975006730058266839e+02,9.332008361816406250e+00,3.824593871831893921e-02,9.943943619728088379e-01,4.680000000000000000e+02
-2.655146222450875939e+02,-2.731760712569748648e+02,-1.458490826756005845e+02,-1.542875862445016537e+02,-3.189881180994452734e+02,-3.009259659361678132e+02,-9.705559148393285795e+01,-1.984814400402910906e+02,9.332008361816406250e+00,3.824593871831893921e-02,9.943943619728088379e-01,4.690000000000000000e+02
-2.644032735238979512e+02,-2.726608812846980072e+02,-1.453863589796710585e+02,-1.547128164687719618e+02,-3.180092651597528857e+02,-2.993149884526369533e+02,-9.795677889794251314e+01,-1.969688835342421953e+02,9.332008361816406250e+00,3.824593871831893921e-02,9.943943619728088379e-01,4.700000000000000000e+02
-2.626988516285196056e+02,-2.719757464813674233e+02,-1.431267594135838408e+02,-1.542303890382427198e+02,-3.152402072443323959e+02,-2.962821914549895155e+02,-9.717881952390644074e+01,-1.926448352445845558e+02,9.332008361816406250e+00,3.824593871831893921e-02,9.943943619728088379e-01,4.710000000000000000e+02
-2.602588479087362430e+02,-2.705895340710371784e+02,-1.396540656208967448e+02,-1.524728392603060456e+02,-3.112051801448087645e+02,-2.920847264950202771e+02,-9.452435678640358674e+01,-1.867061736166392620e+02,9.332008361816406250e+00,3.824593871831893921e-02,9.943943619728088379e-01,4.720000000000000000e+02
-2.570903432856553081e+02,-2.685750793460624664e+02,-1.358450983570432982e+02,-1.497276484593430723e+02,-3.066157858753254004e+02,-2.875133196198803489e+02,-9.046750538632977623e+01,-1.806766088253334601e+02,9.332008361816406250e+00,3.824593871831893921e-02,9.943943619728088379e-01,4.730000000000000000e+02
-2.531644076207944636e+02,-2.659939245157152072e+02,-1.322541920801309061e+02,-1.464436107229216759e+02,-3.018929411182175500e+02,-2.831453855409167772e+02,-8.581542813672149350e+01,-1.754437982844910948e+02,9.370253562927246094e+00,3.824593871831893921e-02,9.943943619728088379e-01,4.740000000000000000e+02
-2.485989975030497590e+02,-2.626268969683255818e+02,-1.290976327462781228e+02,-1.429740003199081002e+02,-2.972882980075041814e+02,-2.791222280411116117e+02,-8.151282154704767891e+01,-1.711989570617715799e+02,9.370253562927246094e+00,3.824593871831893921e-02,9.943943619728088379e-01,4.750000000000000000e+02
-2.439231704156345586e+02,-2.583537266951379934e+02,-1.266265240429897858e+02,-1.397069643295913011e+02,-2.932272302053074782e+02,-2.754870243590748942e+02,-7.849347481010363481e+01,-1.679323806009388136e+02,9.370253562927246094e+00,3.824593871831893921e-02,9.943943619728088379e-01,4.760000000000000000e+02
-2.399663849514222420e+02,-2.536455289458913285e+02,-1.252468504061557724e+02,-1.371706589719387921e+02,-2.902329108804774478e+02,-2.724807669862566399e+02,-7.731695514669399927e+01,-1.656722133254934306e+02,9.370253562927246094e+00,3.824593871831893921e-02,9.943943619728088379e-01,4.770000000000000000e+02
-2.373183202356517540e+02,-2.494683472316910411e+02,-1.251101354871580043e+02,-1.357458574677248180e+02,-2.883409953657551341e+02,-2.703344176206333032e+02,-7.767680525300420413e+01,-1.641781245328975274e+02,9.370253562927246094e+00,3.824593871831893921e-02,9.943943619728088379e-01,4.780000000000000000e+02
-2.358423620698572449e+02,-2.465430507953828965e+02,-1.256293648839800881e+02,-1.351863777931648656e+02,-2.866722692825856029e+02,-2.688069550051309307e+02,-7.829805068776568078e+01,-1.626244407105164100e+02,9.370253562927246094e+00,3.824593871831893921e-02,9.943943619728088379e-01,4.790000000000000000e+02
-2.347672675863027507e+02,-2.446451785644958363e+02,-1.256244697180527510e+02,-1.345305856644567939e+02,-2.838531357114429738e+02,-2.671185375900245162e+02,-7.760180241485340957e+01,-1.599269691284480359e+02,9.370253562927246094e+00,3.824593871831893921e-02,9.943943619728088379e-01,4.800000000000000000e+02
-2.333182037894202949e+02,-2.426782977874800054e+02,-1.242003795713994805e+02,-1.326764803521346039e+02,-2.791187285192545460e+02,-2.645108719672025472e+02,-7.480395815085876166e+01,-1.556228377557322347e+02,9.370253562927246094e+00,3.824593871831893921e-02,9.943943619728088379e-01,4.810000000000000000e+02
-2.313164983325921185e+02,-2.395568579983737436e+02,-1.216237384747350916e+02,-1.292260276296128723e+02,-2.731145521947323687e+02,-2.609394258444426669e+02,-7.057509212523609676e+01,-1.504712203583699193e+02,9.370253562927246094e+00,3.824593871831893921e-02,9.943943619728088379e-01,4.820000000000000000e+02
-2.292144408332992498e+02,-2.351710163516140710e+02,-1.193074944450968360e+02,-1.248783323894917885e+02,-2.675752003994371080e+02,-2.571934997244848091e+02,-6.666012335188997895e+01,-1.460815027065787035e+02,9.370253562927246094e+00,3.824593871831893921e-02,9.943943619728088379e-01,4.830000000000000000e+02
-2.275621924460956507e+02,-2.306034133368518724e+02,-1.187702704921739496e+02,-1.210027894329505216e+02,-2.640974310395467910e+02,-2.542950233665210362e+02,-6.471785023752090638e+01,-1.437791118697105048e+02,9.370253562927246094e+00,3.824593871831893921e-02,9.943943619728088379e-01,4.840000000000000000e+02
-2.264297055294471193e+02,-2.274001013921417780e+02,-1.204025458071605499e+02,-1.187149310505160429e+02,-2.630543238270056463e+02,-2.527330564985941237e+02,-6.527667760803251440e+01,-1.436666785912671003e+02,9.370253562927246094e+00,3.824593871831893921e-02,9.943943619728088379e-01,4.850000000000000000e+02
-2.253302560824756711e+02,-2.264595138251916069e+02,-1.231068709332275830e+02,-1.181689175546130173e+02,-2.635115752575111401e+02,-2.522117150386857247e+02,-6.753380446373739687e+01,-1.446538186758525626e+02,9.370253562927246094e+00,3.824593871831893921e-02,9.943943619728088379e-01,4.860000000000000000e+02
-2.237052727712941760e+02,-2.273702412057650690e+02,-1.251395090949581572e+02,-1.185538123448000078e+02,-2.640520195931949274e+02,-2.520408965150995755e+02,-6.998439506554313994e+01,-1.453317272109784426e+02,9.370253562927246094e+00,3.824593871831893921e-02,9.943943619728088379e-01,4.870000000000000000e+02
-2.214980140136178761e+02,-2.286435338398446220e+02,-1.254155332075793012e+02,-1.186961438465552874e+02,-2.637019653879287944e+02,-2.516946113087669801e+02,-7.130434330726984626e+01,-1.448575444764856002e+02,9.370253562927246094e+00,3.824593871831893921e-02,9.943943619728088379e-01,4.880000000000000000e+02
-2.192596073293557311e+02,-2.286299382820245683e+02,-1.241687805353303702e+02,-1.177614062714928878e+02,-2.622880806995081002e+02,-2.510123372634948282e+02,-7.090747081037943644e+01,-1.431545179554796050e+02,9.370253562927246094e+00,3.824593871831893921e-02,9.943943619728088379e-01,4.890000000000000000e+02
-2.176554848669782132e+02,-2.264664444758122954e+02,-1.225035795254862023e+02,-1.155866386952534413e+02,-2.602044192800731253e+02,-2.499868839847122217e+02,-6.899771180389325309e+01,-1.405082847001060600e+02,9.370253562927246094e+00,3.824593871831893921e-02,9.943943619728088379e-01,4.900000000000000000e+02
-2.168051521012459943e+02,-2.224765675131338867e+02,-1.213535252407714324e+02,-1.125438444429073570e+02,-2.579934977100983815e+02,-2.485016109537264128e+02,-6.627702914183919347e+01,-1.371871948110820085e+02,9.370253562927246094e+00,3.824593871831893921e-02,9.943943619728088379e-01,4.910000000000000000e+02
-2.160620406216439733e+02,-2.178423788570630677e+02,-1.207835493275510999e+02,-1.091617959017455632e+02,-2.560389787588742365e+02,-2.463321540531055689e+02,-6.352609419949521907e+01,-1.334552343094176194e+02,9.370253562927246094e+00,3.824593871831893921e-02,9.943943619728088379e-01,4.920000000000000000e+02
-2.144962120600384878e+02,-2.138396798925834901e+02,-1.201694284064046769e+02,-1.058423441377740346e+02,-2.544236639271907734e+02,-2.434036749701708686e+02,-6.125135886993666645e+01,-1.297843940569368897e+02,9.370253562927246094e+00,3.824593871831893921e-02,9.943943619728088379e-01,4.930000000000000000e+02
-2.117182829150590351e+02,-2.111528196776614550e+02,-1.189360550228129796e+02,-1.028260714267817093e+02,-2.529194771686463810e+02,-2.400010562049542386e+02,-5.953299861801906445e+01,-1.267955801420484931e+02,9.370253562927246094e+00,3.824593871831893921e-02,9.943943619728088379e-01,4.940000000000000000e+02
-2.083138915223462391e+02,-2.096704583714843011e+02,-1.170953271544262861e+02,-1.002985233261742906e+02,-2.511423642488759924e+02,-2.366790508878052606e+02,-5.811348598762060647e+01,-1.248214401226648533e+02,9.408499717712402344e+00,0.000000000000000000e+00,9.561483860015869141e-01,4.950000000000000000e+02
-2.054404535154917539e+02,-2.088123841206727320e+02,-1.151254385379854739e+02,-9.842823417796989816e+01,-2.488341946507632656e+02,-2.339178878655952758e+02,-5.663472249538654069e+01,-1.235272861709834160e+02,9.408499717712402344e+00,0.000000000000000000e+00,9.561483860015869141e-01,4.960000000000000000e+02
-2.038704443361323229e+02,-2.080599296036166379e+02,-1.134364221249188631e+02,-9.725157644347086716e+01,-2.460883681507900747e+02,-2.317989607007993982e+02,-5.484905586629793106e+01,-1.220901864263476000e+02,9.408499717712402344e+00,0.000000000000000000e+00,9.561483860015869141e-01,4.970000000000000000e+02
-2.033361672049172739e+02,-2.072609275986819739e+02,-1.120320227693832749e+02,-9.653663923524527490e+01,-2.432981939288863487e+02,-2.299735358882260243e+02,-5.270706732393250604e+01,-1.198822897860657122e+02,9.408499717712402344e+00,0.000000000000000000e+00,9.561483860015869141e-01,4.980000000000000000e+02
-2.027984349558473696e+02,-2.065184070399761822e+02,-1.106928733169615953e+02,-9.583064651120071176e+01,-2.408386425613070969e+02,-2.279732990860127302e+02,-5.036398495517323681e+01,-1.170421347036037787e+02,9.408499717712402344e+00,0.000000000000000000e+00,9.561483860015869141e-01,4.990000000000000000e+02
-2.014046970508711638e+02,-2.058400642726728620e+02,-1.094032323917192571e+02,-9.473084811395847282e+01,-2.387591388388725591e+02,-2.256243743509792239e+02,-4.817429952252791736e+01,-1.143637145707264153e+02,9.408499717712402344e+00,0.000000000000000000e+00,9.561483860015869141e-01,5.000000000000000000e+02
-1.992203090951004469e+02,-2.049318536700702680e+02,-1.084684451691166487e+02,-9.316171739209119096e+01,-2.367542068860720974e+02,-2.232120128262279195e+02,-4.662299705160694430e+01,-1.125673860172773857e+02,9.408499717712402344e+00,0.000000000000000000e+00,9.561483860015869141e-01,5.010000000000000000e+02
-1.970151188176032520e+02,-2.033557139418189763e+02,-1.081413699646661826e+02,-9.139286444652350383e+01,-2.344213397584113636e+02,-2.212352863750797951e+02,-4.609289244746037184e+01,-1.116358387922044813e+02,9.408499717712402344e+00,0.000000000000000000e+00,9.561483860015869141e-01,5.020000000000000000e+02
-1.953379663474589734e+02,-2.009023287017442954e+02,-1.081621972771911260e+02,-8.976846809015398776e+01,-2.315782189717514257e+02,-2.199457593656752579e+02,-4.654382451531512288e+01,-1.108493186556593173e+02,9.408499717712402344e+00,0.000000000000000000e+00,9.561483860015869141e-01,5.030000000000000000e+02
-1.938595693635065800e+02,-1.978263305240966474e+02,-1.077648758341257462e+02,-8.839169393820645837e+01,-2.284016799935002382e+02,-2.190725800823502141e+02,-4.738966614651747022e+01,-1.094731748262595374e+02,9.408499717712402344e+00,0.000000000000000000e+00,9.561483860015869141e-01,5.040000000000000000e+02
-1.917045897639151235e+02,-1.947246492121518600e+02,-1.062401930087438586e+02,-8.704514061293298255e+01,-2.253129778267668826e+02,-2.179863584115121284e+02,-4.779284322009732477e+01,-1.074203808969527927e+02,9.408499717712402344e+00,0.000000000000000000e+00,9.561483860015869141e-01,5.050000000000000000e+02
-1.884681321754317196e+02,-1.921735915338199447e+02,-1.035478059487686551e+02,-8.539551473745314070e+01,-2.227130809837603920e+02,-2.161553561225516660e+02,-4.722320000385593630e+01,-1.052725189704727313e+02,9.408499717712402344e+00,0.000000000000000000e+00,9.561483860015869141e-01,5.060000000000000000e+02
-1.848639281930879292e+02,-1.904064293473139173e+02,-1.003840525549193785e+02,-8.326931703339715796e+01,-2.207441012128957709e+02,-2.134893045047274995e+02,-4.582532868376108581e+01,-1.036888010742777055e+02,9.408499717712402344e+00,0.000000000000000000e+00,9.561483860015869141e-01,5.070000000000000000e+02
-1.822733284473466142e+02,-1.892252843302042606e+02,-9.763165586573302335e+01,-8.075088341732310937e+01,-2.192119693678714611e+02,-2.102984576208451131e+02,-4.425905000697395053e+01,-1.027900753409476238e+02,9.408499717712402344e+00,0.000000000000000000e+00,9.561483860015869141e-01,5.080000000000000000e+02
-1.815775143658709112e+02,-1.881443265380933099e+02,-9.570631838820222015e+01,-7.807575652878176697e+01,-2.177134549414171829e+02,-2.069692936727775532e+02,-4.314928968285784094e+01,-1.020616890175904246e+02,9.408499717712402344e+00,0.000000000000000000e+00,9.561483860015869141e-01,5.090000000000000000e+02
-1.824155103419398927e+02,-1.866571205607020545e+02,-9.438003194395776063e+01,-7.547720391733304268e+01,-2.158707443707199900e+02,-2.036994018670413880e+02,-4.263436908252252522e+01,-1.007886839749225771e+02,9.408499717712402344e+00,0.000000000000000000e+00,9.561483860015869141e-01,5.100000000000000000e+02
-1.835894126828696358e+02,-1.845237654812230801e+02,-9.314883317454012968e+01,-7.312397924761698675e+01,-2.134948225860692332e+02,-2.005147258796102392e+02,-4.237749292605302287e+01,-9.858665998236918426e+01,9.408499717712402344e+00,0.000000000000000000e+00,9.561483860015869141e-01,5.110000000000000000e+02
-1.841901916798624086e+02,-1.819641461210993612e+02,-9.171713167817989643e+01,-7.112517550983511683e+01,-2.105809789752509005e+02,-1.974795314268193351e+02,-4.195533662048819679e+01,-9.562491424410532659e+01,9.408499717712402344e+00,0.000000000000000000e+00,9.561483860015869141e-01,5.120000000000000000e+02
-1.843135959341846046e+02,-1.796346213963688001e+02,-9.016736119594031607e+01,-6.951729712671118477e+01,-2.072365482926991263e+02,-1.948443343701834465e+02,-4.124021784905164623e+01,-9.249519676727391015e+01,9.408499717712402344e+00,0.000000000000000000e+00,9.561483860015869141e-01,5.130000000000000000e+02
-1.846917927588153816e+02,-1.783029951331644725e+02,-8.876944626441854780e+01,-6.821378426367846259e+01,-2.036920136593735151e+02,-1.929643563376832844e+02,-4.045970557829230074e+01,-8.990756034391620233e+01,9.408499717712402344e+00,0.000000000000000000e+00,9.561483860015869141e-01,5.140000000000000000e+02
-1.856961918569879799e+02,-1.783229415439584500e+02,-8.770109648184813977e+01,-6.698951326778956172e+01,-2.003716146977999415e+02,-1.920476750228099263e+02,-3.993307573792549192e+01,-8.836602694951614012e+01,9.408499717712402344e+00,0.000000000000000000e+00,9.561483860015869141e-01,5.150000000000000000e+02
-1.867744225773460585e+02,-1.792608491898878356e+02,-8.691918427835094008e+01,-6.556125415464293837e+01,-1.978034839808469769e+02,-1.919245156540386006e+02,-3.973531043515254169e+01,-8.788565032627616347e+01,9.408499717712402344e+00,0.000000000000000000e+00,9.561483860015869141e-01,5.160000000000000000e+02
-1.868810911522703009e+02,-1.800180130872189466e+02,-8.619506438248436098e+01,-6.372039934951726536e+01,-1.962718654105724454e+02,-1.920228963665838364e+02,-3.955902925066038733e+01,-8.786503924168482627e+01,9.408499717712402344e+00,0.000000000000000000e+00,9.561483860015869141e-01,5.170000000000000000e+02
-1.854339827960793627e+02,-1.794583108707497558e+02,-8.521258903653597372e+01,-6.142119442047282973e+01,-1.954813095948472892e+02,-1.916265287048795471e+02,-3.889223079508815317e+01,-8.731783646444660008e+01,9.408499717712402344e+00,0.000000000000000000e+00,9.561483860015869141e-01,5.180000000000000000e+02
-1.828363667133853596e+02,-1.771180252895660487e+02,-8.368727738832785690e+01,-5.877369289334365021e+01,-1.946410800616640699e+02,-1.903077488117196481e+02,-3.739289554703100293e+01,-8.547142548067381540e+01,9.408499717712402344e+00,0.000000000000000000e+00,9.561483860015869141e-01,5.190000000000000000e+02
-1.801057650694094718e+02,-1.734950861113197789e+02,-8.152597785071793624e+01,-5.599441686949421637e+01,-1.930272445227183198e+02,-1.882633312625766848e+02,-3.520421772254871939e+01,-8.236860776746561896e+01,9.217270851135253906e+00,7.649187743663787842e-02,8.414105772972106934e-01,5.200000000000000000e+02
-1.780463675821056313e+02,-1.697217111470492910e+02,-7.894412123558504391e+01,-5.336968568868064722e+01,-1.905246895604536803e+02,-1.862434243706795769e+02,-3.295335157734734821e+01,-7.891773610047789589e+01,9.217270851135253906e+00,7.649187743663787842e-02,8.414105772972106934e-01,5.210000000000000000e+02
-1.767582345297500979e+02,-1.668764356131348450e+02,-7.637778036799863912e+01,-5.120784827320267141e+01,-1.875820727224627262e+02,-1.850062435857516903e+02,-3.136631161892955788e+01,-7.620851313694720375e+01,9.217270851135253906e+00,7.649187743663787842e-02,8.414105772972106934e-01,5.220000000000000000e+02
-1.758324380560140980e+02,-1.653939460764247542e+02,-7.417733248864533380e+01,-4.972195598337793854e+01,-1.846270040566387252e+02,-1.846697395256510390e+02,-3.074092601378561085e+01,-7.460046772311011409e+01,9.217270851135253906e+00,7.649187743663787842e-02,8.414105772972106934e-01,5.230000000000000000e+02
-1.748652222782625358e+02,-1.648669516168952214e+02,-7.231654918602544058e+01,-4.883417424547519659e+01,-1.815781958311008566e+02,-1.845147414283765102e+02,-3.066520500294336671e+01,-7.337462668250464048e+01,9.217270851135253906e+00,7.649187743663787842e-02,8.414105772972106934e-01,5.240000000000000000e+02
-1.737111108057615638e+02,-1.642574229821291283e+02,-7.040356394970513065e+01,-4.802004949638831022e+01,-1.779729608562952308e+02,-1.834632853975185753e+02,-3.020512669750632995e+01,-7.127274354362043596e+01,9.217270851135253906e+00,7.649187743663787842e-02,8.414105772972106934e-01,5.250000000000000000e+02
-1.723282463368182107e+02,-1.623911513071225272e+02,-6.801795443601622537e+01,-4.638314507051063629e+01,-1.735113451972160874e+02,-1.808457468173573943e+02,-2.842426623054234369e+01,-6.744650658916316388e+01,9.217270851135253906e+00,7.649187743663787842e-02,8.414105772972106934e-01,5.260000000000000000e+02
-1.705702618571658604e+02,-1.585629425834158610e+02,-6.507865891325582197e+01,-4.305659131369657189e+01,-1.683522018361863957e+02,-1.767926073039434414e+02,-2.488536809103243286e+01,-6.200641998949959088e+01,9.217270851135253906e+00,7.649187743663787842e-02,8.414105772972106934e-01,5.270000000000000000e+02
-1.682632292531143321e+02,-1.530019792138391495e+02,-6.189975619891083625e+01,-3.777848308723605442e+01,-1.628409210154427456e+02,-1.719530359629334271e+02,-1.986397106224740128e+01,-5.579631028095809597e+01,9.217270851135253906e+00,7.649187743663787842e-02,8.414105772972106934e-01,5.280000000000000000e+02
-1.654719144793630221e+02,-1.468772494844706671e+02,-5.890339449417297146e+01,-3.125625745837260183e+01,-1.570765560610834655e+02,-1.668958483310480005e+02,-1.422992980915023509e+01,-4.976206073862249468e+01,9.217270851135253906e+00,7.649187743663787842e-02,8.414105772972106934e-01,5.290000000000000000e+02
-1.625608976823136800e+02,-1.416907510055534658e+02,-5.627494195414374190e+01,-2.495241511120320865e+01,-1.509144068507125667e+02,-1.618073063661154265e+02,-9.099100325001472811e+00,-4.452513746132444794e+01,9.217270851135253906e+00,7.649187743663787842e-02,8.414105772972106934e-01,5.300000000000000000e+02
-1.599032424925744635e+02,-1.383488804546295796e+02,-5.388617759360658965e+01,-2.030566808457251682e+01,-1.444252156158554499e+02,-1.567162443381912453e+02,-5.391298176679811149e+00,-4.040032478485045431e+01,9.217270851135253906e+00,7.649187743663787842e-02,8.414105772972106934e-01,5.310000000000000000e+02
-1.575528349521873679e+02,-1.365847284591964126e+02,-5.154778530182784380e+01,-1.787025908400482876e+01,-1.382317782221930429e+02,-1.518794022992105965e+02,-3.454003775251749175e+00,-3.759983719861293139e+01,9.217270851135253906e+00,7.649187743663787842e-02,8.414105772972106934e-01,5.320000000000000000e+02
-1.553004136263830333e+02,-1.352648734995163977e+02,-4.935319866296686087e+01,-1.703106816054923911e+01,-1.332705932701601341e+02,-1.478379421260733579e+02,-2.959872079452907201e+00,-3.628116913140911493e+01,9.217270851135253906e+00,7.649187743663787842e-02,8.414105772972106934e-01,5.330000000000000000e+02
-1.531043531023838113e+02,-1.334043398191925007e+02,-4.780153373110988468e+01,-1.656418665783530741e+01,-1.302086212430040177e+02,-1.450764077959529459e+02,-3.193149388891470153e+00,-3.641500344123642208e+01,9.217270851135253906e+00,7.649187743663787842e-02,8.414105772972106934e-01,5.340000000000000000e+02
-1.513843472077769547e+02,-1.310284593806854900e+02,-4.755010176132782362e+01,-1.560199838393054961e+01,-1.291207312355836621e+02,-1.436522911819556612e+02,-3.564486524803214706e+00,-3.769981409495812841e+01,9.217270851135253906e+00,7.649187743663787842e-02,8.414105772972106934e-01,5.350000000000000000e+02
-1.507240183395701933e+02,-1.290663833627140775e+02,-4.890882687219345826e+01,-1.416702277653530473e+01,-1.296451729386490115e+02,-1.431346582810838299e+02,-3.934568009233771591e+00,-3.961971673144944361e+01,9.217270851135253906e+00,7.649187743663787842e-02,8.414105772972106934e-01,5.360000000000000000e+02
-1.511958113375885659e+02,-1.283171285580629046e+02,-5.141281747221455589e+01,-1.280617179642467818e+01,-1.312493736268370412e+02,-1.428304328247886588e+02,-4.450437607682943053e+00,-4.152544655596193479e+01,9.217270851135253906e+00,7.649187743663787842e-02,8.414105772972106934e-01,5.370000000000000000e+02
-1.520414297954675931e+02,-1.284529328161333979e+02,-5.386558524988686258e+01,-1.173978900548900128e+01,-1.332556058670352286e+02,-1.420640099461979844e+02,-5.089426436149551591e+00,-4.267621761313148454e+01,9.217270851135253906e+00,7.649187743663787842e-02,8.414105772972106934e-01,5.380000000000000000e+02
-1.521706016258458476e+02,-1.280723702270706781e+02,-5.496612117740187387e+01,-1.042682922433050408e+01,-1.347943699390398251e+02,-1.403771427996889543e+02,-5.429168080042472866e+00,-4.238684787218244310e+01,9.217270851135253906e+00,7.649187743663787842e-02,8.414105772972106934e-01,5.390000000000000000e+02
-1.510991161391448259e+02,-1.258703424833329336e+02,-5.417148288518455956e+01,-8.049910466860637825e+00,-1.350988385462242150e+02,-1.376942042309592580e+02,-4.934788611727526586e+00,-4.041569825636815949e+01,9.217270851135253906e+00,7.649187743663787842e-02,8.414105772972106934e-01,5.400000000000000000e+02
-1.493729120505086030e+02,-1.218933598788862582e+02,-5.210381906848670042e+01,-4.451446038880931155e+00,-1.340826946081542701e+02,-1.344234783766296459e+02,-3.458679205300541071e+00,-3.734619202731119003e+01,9.217270851135253906e+00,7.649187743663787842e-02,8.414105772972106934e-01,5.410000000000000000e+02
-1.479540159363632483e+02,-1.176651701459477408e+02,-5.004054007180275221e+01,-5.025209797213392449e-01,-1.325389569612416381e+02,-1.312976063737623917e+02,-1.364877800402609864e+00,-3.443143091963520419e+01,9.217270851135253906e+00,7.649187743663787842e-02,8.414105772972106934e-01,5.420000000000000000e+02
-1.471124928645185719e+02,-1.149757640373591130e+02,-4.880431421023695293e+01,2.575299677448128932e+00,-1.314938012649063239e+02,-1.288693025344518901e+02,8.806320638341276208e-01,-3.273386605327505094e+01,9.217270851135253906e+00,7.649187743663787842e-02,8.414105772972106934e-01,5.430000000000000000e+02
-1.459645930297829182e+02,-1.143863899036605289e+02,-4.800085196487816575e+01,4.322964103275808156e+00,-1.311657130626399521e+02,-1.269814482273250178e+02,3.188185338735820551e+00,-3.217070070837962703e+01,9.217270851135253906e+00,7.649187743663787842e-02,8.414105772972106934e-01,5.440000000000000000e+02
-1.432475985557985041e+02,-1.148151928432544082e+02,-4.637426755112483079e+01,5.452854698473856843e+00,-1.305830340589900516e+02,-1.247764201083609805e+02,5.804982960180495866e+00,-3.144200820244441275e+01,9.217270851135253906e+00,7.649187743663787842e-02,8.414105772972106934e-01,5.450000000000000000e+02
-1.386642765022916137e+02,-1.146008704715159183e+02,-4.304890162358606176e+01,7.071277345606176823e+00,-1.283826632597865682e+02,-1.214232049519860084e+02,8.762986534303308872e+00,-2.913751526654141344e+01,9.217270851135253906e+00,7.649187743663787842e-02,8.414105772972106934e-01,5.460000000000000000e+02
-1.334698054983209659e+02,-1.130551698834551644e+02,-3.852360542609767435e+01,9.468613770493902848e+00,-1.241004595706435794e+02,-1.169896205512341112e+02,1.145769425747221248e+01,-2.511549782210204285e+01,9.408499717712402344e+00,0.000000000000000000e+00,9.943943619728088379e-01,5.470000000000000000e+02
-1.296227422200345245e+02,-1.110324909279897838e+02,-3.443849401291845425e+01,1.173613525496875809e+01,-1.187012373382676742e+02,-1.125853932292411628e+02,1.292903345864215225e+01,-2.080465689719312650e+01,9.408499717712402344e+00,0.000000000000000000e+00,9.943943619728088379e-01,5.480000000000000000e+02
-1.282014456188990152e+02,-1.099675242220728251e+02,-3.227050907528791868e+01,1.268628931431612727e+01,-1.138215658928129415e+02,-1.094921248466089310e+02,1.268338123041394283e+01,-1.800204590414705308e+01,9.408499717712402344e+00,0.000000000000000000e+00,9.943943619728088379e-01,5.490000000000000000e+02
-1.285432988521442894e+02,-1.103066506366221802e+02,-3.214533759050391382e+01,1.221550738867608743e+01,-1.104713490600133809e+02,-1.079900091084291489e+02,1.127948027240745432e+01,-1.722385434015541250e+01,9.408499717712402344e+00,0.000000000000000000e+00,9.943943619728088379e-01,5.500000000000000000e+02
-1.289160794276594970e+02,-1.108682302981114844e+02,-3.284583953421679325e+01,1.171405436712666415e+01,-1.084143189821479609e+02,-1.069871976688118593e+02,1.007304171204305021e+01,-1.719695607590801956e+01,9.408499717712402344e+00,0.000000000000000000e+00,9.943943619728088379e-01,5.510000000000000000e+02
-1.280754741942300825e+02,-1.097909262507200765e+02,-3.293730871172192565e+01,1.300687193037083489e+01,-1.066899418152188446e+02,-1.048715748950235138e+02,1.029379988517212041e+01,-1.601265999404859031e+01,9.408499717712402344e+00,0.000000000000000000e+00,9.943943619728088379e-01,5.520000000000000000e+02
-1.262190819601828480e+02,-1.062201659173870212e+02,-3.188899694788597117e+01,1.675584561484629376e+01,-1.046072201666374895e+02,-1.008704765002603381e+02,1.221804510337096872e+01,-1.282785071504258667e+01,9.408499717712402344e+00,0.000000000000000000e+00,9.943943619728088379e-01,5.530000000000000000e+02
-1.244705269358000805e+02,-1.011786604192966479e+02,-3.019096384968361235e+01,2.182890242926259816e+01,-1.022072604006971233e+02,-9.569938275184358645e+01,1.508403303351951763e+01,-8.470371376104594674e+00,9.408499717712402344e+00,0.000000000000000000e+00,9.943943619728088379e-01,5.540000000000000000e+02
-1.234668570974909017e+02,-9.680140600847062160e+01,-2.851446063766343286e+01,2.625997037264278333e+01,-9.986253702189605974e+01,-9.091702293615708186e+01,1.775932894188736100e+01,-4.430557936422701459e+00,9.408499717712402344e+00,0.000000000000000000e+00,9.943943619728088379e-01,5.550000000000000000e+02
-1.225065725348349588e+02,-9.462621151512212236e+01,-2.688347448409331264e+01,2.891658422486034397e+01,-9.757782374240923673e+01,-8.758158661915877019e+01,1.960041249787536799e+01,-1.347848008001164999e+00,9.408499717712402344e+00,0.000000000000000000e+00,9.943943619728088379e-01,5.560000000000000000e+02
-1.201496989306888281e+02,-9.445543338890456653e+01,-2.470233686125175154e+01,3.034205383363041619e+01,-9.477883550878505048e+01,-8.541180866530703497e+01,2.087527460334422358e+01,1.453935656565590762e+00,9.408499717712402344e+00,0.000000000000000000e+00,9.943943619728088379e-01,5.570000000000000000e+02
-1.157146262933692924e+02,-9.472813728124856425e+01,-2.154187845718661265e+01,3.204502120329743775e+01,-9.082787358380119258e+01,-8.317998702081240481e+01,2.247553258060906956e+01,4.971890115157293621e+00,9.408499717712402344e+00,0.000000000000000000e+00,9.943943619728088379e-01,5.580000000000000000e+02
-1.102076549311677809e+02,-9.395343341682018945e+01,-1.783115541876395582e+01,3.497349894504259282e+01,-8.579116012631311605e+01,-7.994455477733936277e+01,2.513035229669912951e+01,9.173524761687076534e+00,9.408499717712402344e+00,0.000000000000000000e+00,9.943943619728088379e-01,5.590000000000000000e+02
-1.057083905916588265e+02,-9.185288775196931965e+01,-1.472113235244978569e+01,3.864149646627083712e+01,-8.071648259539688297e+01,-7.598104953805523110e+01,2.869564932889261399e+01,1.273994222203327809e+01,9.408499717712402344e+00,0.000000000000000000e+00,9.943943619728088379e-01,5.600000000000000000e+02
-1.036908610816863074e+02,-8.926687705282893148e+01,-1.320833473489255994e+01,4.168048014688247349e+01,-7.706186963936852408e+01,-7.256973253735850449e+01,3.209323314866742294e+01,1.421791602334087656e+01,9.408499717712402344e+00,0.000000000000000000e+00,9.943943619728088379e-01,5.610000000000000000e+02
-1.038089730786905420e+02,-8.710221822866333241e+01,-1.330520119097673160e+01,4.319451066986948717e+01,-7.563954435469531745e+01,-7.083912383023198345e+01,3.404525090362403716e+01,1.345933651533232478e+01,9.408499717712402344e+00,0.000000000000000000e+00,9.943943619728088379e-01,5.620000000000000000e+02
-1.042763191430931329e+02,-8.543063813749176916e+01,-1.398708130202066968e+01,4.358155275118951977e+01,-7.590696304058292299e+01,-7.071141275865375064e+01,3.409639757162403839e+01,1.195481737044974579e+01,9.408499717712402344e+00,0.000000000000000000e+00,9.943943619728088379e-01,5.630000000000000000e+02
-1.034979828803989221e+02,-8.357130795337980089e+01,-1.395015137783047976e+01,4.408909679225325817e+01,-7.624264718006088515e+01,-7.089685656738947728e+01,3.308597130335147085e+01,1.173977137885594857e+01,9.408499717712402344e+00,0.000000000000000000e+00,9.943943619728088379e-01,5.640000000000000000e+02
-1.014421927119637985e+02,-8.097539022883393045e+01,-1.253993474447270273e+01,4.563624623216674081e+01,-7.508102878610225162e+01,-6.993168520273320610e+01,3.259424544596549822e+01,1.384956480215805641e+01,9.408499717712402344e+00,0.000000000000000000e+00,9.943943619728088379e-01,5.650000000000000000e+02
-9.949681489738941309e+01,-7.796433201532636303e+01,-1.012489924048168177e+01,4.807170536997182353e+01,-7.205144349624242750e+01,-6.733953768664832751e+01,3.374076149203028763e+01,1.762484241564925469e+01,9.408499717712402344e+00,0.000000000000000000e+00,9.943943619728088379e-01,5.660000000000000000e+02
-9.899634518860148091e+01,-7.556692281311188708e+01,-7.685570568639377598e+00,5.051116775898117339e+01,-6.821250402832629334e+01,-6.391927382998983376e+01,3.631767304219829384e+01,2.133118829207705858e+01,9.408499717712402344e+00,0.000000000000000000e+00,9.943943619728088379e-01,5.670000000000000000e+02
-9.985878960394074966e+01,-7.462042975700751413e+01,-6.016962758294539526e+00,5.229069532243192953e+01,-6.519749777891775011e+01,-6.096840861191958538e+01,3.898969118223794794e+01,2.345360267233809282e+01,9.408499717712402344e+00,0.000000000000000000e+00,9.943943619728088379e-01,5.680000000000000000e+02
-1.006697370547772152e+02,-7.500616386184083240e+01,-5.234305822305032052e+00,5.352429333457075700e+01,-6.401165605015739857e+01,-5.920422063227670151e+01,4.035204776025420870e+01,2.360384915187023580e+01,9.408499717712402344e+00,0.000000000000000000e+00,9.943943619728088379e-01,5.690000000000000000e+02
-1.001578311719858903e+02,-7.576915033101067820e+01,-4.966392392798297806e+00,5.475766510468929482e+01,-6.446845510768980603e+01,-5.835113534468837315e+01,3.990293862932958291e+01,2.246735349707887508e+01,9.408499717712402344e+00,0.000000000000000000e+00,9.943943619728088379e-01,5.700000000000000000e+02
-9.861108052549207059e+01,-7.601536982936704590e+01,-4.970932339358114405e+00,5.617720796476169198e+01,-6.558402778867639427e+01,-5.764817848192979000e+01,3.817202304306920269e+01,2.106249044181458885e+01,9.408499717712402344e+00,0.000000000000000000e+00,9.943943619728088379e-01,5.710000000000000000e+02
-9.777258090012401226e+01,-7.571722139075973246e+01,-5.497570419007388409e+00,5.728430280420252529e+01,-6.638921278721318231e+01,-5.665294224413810298e+01,3.610453562342081568e+01,2.005124648951277777e+01,9.408499717712402344e+00,0.000000000000000000e+00,9.943943619728088379e-01,5.720000000000000000e+02
-9.919917741387507704e+01,-7.563671774387330515e+01,-6.978472986997076077e+00,5.741906716136873001e+01,-6.639413325878922478e+01,-5.553698231649104855e+01,3.442687751219636993e+01,1.961051266663525894e+01,9.408499717712402344e+00,0.000000000000000000e+00,9.943943619728088379e-01,5.730000000000000000e+02
-1.025905711965460796e+02,-7.642626854479021858e+01,-9.336324331325158710e+00,5.659920690677245148e+01,-6.550121874260730692e+01,-5.467989626876442344e+01,3.351777295949068503e+01,1.975609289080784947e+01,9.408499717712402344e+00,0.000000000000000000e+00,9.943943619728088379e-01,5.740000000000000000e+02
-1.057233837336516444e+02,-7.779169133765753941e+01,-1.164982270526525099e+01,5.578967693685626728e+01,-6.375250386839252315e+01,-5.409365853743292973e+01,3.363732487665765802e+01,2.063838106464027078e+01,9.408499717712402344e+00,0.000000000000000000e+00,9.943943619728088379e-01,5.750000000000000000e+02
-1.061791348376682436e+02,-7.858947752905078232e+01,-1.265744210881530307e+01,5.624615607936902961e+01,-6.131407642391786794e+01,-5.333392560438369401e+01,3.499864280051406240e+01,2.242279791437977110e+01,9.408499717712402344e+00,0.000000000000000000e+00,9.943943619728088379e-01,5.760000000000000000e+02
-1.034001055232074577e+02,-7.788159957388961629e+01,-1.179027351097465726e+01,5.844668772690056358e+01,-5.864972646233582054e+01,-5.199616589783181553e+01,3.743761802375593106e+01,2.483570302404405084e+01,9.408499717712402344e+00,0.000000000000000000e+00,9.943943619728088379e-01,5.770000000000000000e+02
-9.923592577791532676e+01,-7.599428713991073892e+01,-9.790051228104857728e+00,6.155625179803428182e+01,-5.649813954003548133e+01,-5.024101054110724363e+01,4.006729281675143284e+01,2.693457357936858898e+01,9.370253562927246094e+00,3.824593871831893921e-02,9.179025292396545410e-01,5.780000000000000000e+02
-9.647149903118588554e+01,-7.452005150111108378e+01,-8.234628284750215244e+00,6.394192965806723805e+01,-5.547818877536337823e+01,-4.876653294367861236e+01,4.148811256185581442e+01,2.755730161486280849e+01,9.370253562927246094e+00,3.824593871831893921e-02,9.179025292396545410e-01,5.790000000000000000e+02
-9.661403095429704990e+01,-7.512585739126916451e+01,-8.275155069994070800e+00,6.437544695279939333e+01,-5.561146506793011213e+01,-4.820450127345247893e+01,4.063062311102112290e+01,2.626769926105407649e+01,9.370253562927246094e+00,3.824593871831893921e-02,9.179025292396545410e-01,5.800000000000000000e+02
-9.883379080725899257e+01,-7.812504274278762750e+01,-9.684295690902217757e+00,6.298704698663641466e+01,-5.622229793360020267e+01,-4.849747343622584594e+01,3.763540863662274205e+01,2.398358486720098881e+01,9.370253562927246094e+00,3.824593871831893921e-02,9.179025292396545410e-01,5.810000000000000000e+02
-1.008936857129119744e+02,-8.204426855819110642e+01,-1.110614701207305188e+01,6.121857938335233484e+01,-5.635602991378254956e+01,-4.886381799419541494e+01,3.398125601352876402e+01,2.255607540128039545e+01,9.370253562927246094e+00,3.824593871831893921e-02,9.179025292396545410e-01,5.820000000000000000e+02
-1.011433667380279076e+02,-8.459923731932576629e+01,-1.132870125549743534e+01,6.078283471708709840e+01,-5.543946424685418606e+01,-4.844037030690378742e+01,3.161229659831587924e+01,2.340668433977407403e+01,9.370253562927246094e+00,3.824593871831893921e-02,9.179025292396545410e-01,5.830000000000000000e+02
-9.981242396992092836e+01,-8.430244717832101742e+01,-1.042428770976403030e+01,6.240954959124428569e+01,-5.370204620643562521e+01,-4.707020609148094081e+01,3.164781768045577337e+01,2.627991975032273331e+01,9.370253562927246094e+00,3.824593871831893921e-02,9.179025292396545410e-01,5.840000000000000000e+02
-9.857944874008535407e+01,-8.144045782372631948e+01,-9.688749327127879951e+00,6.533176434923734632e+01,-5.204223077026108513e+01,-4.553555839732507593e+01,3.365556818174809450e+01,2.927006990537483944e+01,9.370253562927246094e+00,3.824593871831893921e-02,9.179025292396545410e-01,5.850000000000000000e+02
-9.894355373758662608e+01,-7.773716074443291291e+01,-1.041252551128127379e+01,6.789688163776736474e+01,-5.139636785874245106e+01,-4.499060180216838489e+01,3.604275617278472055e+01,3.025213508642264060e+01,9.370253562927246094e+00,3.824593871831893921e-02,9.179025292396545410e-01,5.860000000000000000e+02
-1.008862710471512401e+02,-7.509497298143105581e+01,-1.262292877415529802e+01,6.881939394511573482e+01,-5.202177852674140013e+01,-4.602559698976256186e+01,3.722162372505772510e+01,2.856843712677436997e+01,9.370253562927246094e+00,3.824593871831893921e-02,9.179025292396545410e-01,5.870000000000000000e+02
-1.029048051101526653e+02,-7.441914042400094331e+01,-1.497275929350143997e+01,6.809276672745909309e+01,-5.322996695580513915e+01,-4.813417669212503824e+01,3.661459451140763122e+01,2.551575983058864949e+01,9.370253562927246094e+00,3.824593871831893921e-02,9.179025292396545410e-01,5.880000000000000000e+02
-1.032527572907129070e+02,-7.529028141047456302e+01,-1.589713349825979094e+01,6.685938774558599107e+01,-5.386864989937384962e+01,-5.006580207549268380e+01,3.476946119096464827e+01,2.319156580229537212e+01,9.370253562927246094e+00,3.824593871831893921e-02,9.179025292396545410e-01,5.890000000000000000e+02
-1.012820916844466410e+02,-7.652761369858853868e+01,-1.499148877348852693e+01,6.638771317036298569e+01,-5.329152148004141054e+01,-5.081590887108541210e+01,3.265596455267223064e+01,2.271305239253342734e+01,9.370253562927246094e+00,3.824593871831893921e-02,9.179025292396545410e-01,5.900000000000000000e+02
-9.785026121363625862e+01,-7.707654695468227146e+01,-1.336169774723748560e+01,6.704996302568542887e+01,-5.204025692694995087e+01,-5.043633132969625876e+01,3.088460981744719902e+01,2.338530157107379637e+01,9.370253562927246094e+00,3.824593871831893921e-02,9.179025292396545410e-01,5.910000000000000000e+02
-9.460784945982231875e+01,-7.658913851078978041e+01,-1.264619285219669109e+01,6.816115945643468876e+01,-5.154779913738821051e+01,-4.996641226566134719e+01,2.951438887326730764e+01,2.351727268645117874e+01,9.370253562927246094e+00,3.824593871831893921e-02,9.179025292396545410e-01,5.920000000000000000e+02
-9.282361152870726073e+01,-7.542029038324108114e+01,-1.361515910217349301e+01,6.874468623110442422e+01,-5.296066015825272189e+01,-5.052140764346404467e+01,2.844356117648203508e+01,2.209039150476382929e+01,9.370253562927246094e+00,3.824593871831893921e-02,9.179025292396545410e-01,5.930000000000000000e+02
-9.262070055139702163e+01,-7.415959059586020885e+01,-1.556853299009526381e+01,6.849704082638709224e+01,-5.601840862144672428e+01,-5.229913768246478867e+01,2.782619140586029971e+01,1.977499100558998180e+01,9.370253562927246094e+00,3.824593871831893921e-02,9.179025292396545410e-01,5.940000000000000000e+02
-9.305386610187269980e+01,-7.306557462953423965e+01,-1.695808119877983700e+01,6.808778267341403989e+01,-5.899539547861786559e+01,-5.434895398065054906e+01,2.803489362529944628e+01,1.844267232050333405e+01,9.370253562927246094e+00,3.824593871831893921e-02,9.179025292396545410e-01,5.950000000000000000e+02
-9.284518175674020313e+01,-7.180667909498515655e+01,-1.658696355083884555e+01,6.856357927999488311e+01,-5.983935835455122287e+01,-5.530841856198094320e+01,2.926112101092439843e+01,1.965335444157972233e+01,9.370253562927246094e+00,3.824593871831893921e-02,9.179025292396545410e-01,5.960000000000000000e+02
-9.124072144793171901e+01,-6.971915310872645932e+01,-1.436109757007943699e+01,7.040696944712544791e+01,-5.761861792752824840e+01,-5.450130707830612664e+01,3.122523382556028082e+01,2.339415836273110472e+01,9.370253562927246094e+00,3.824593871831893921e-02,9.179025292396545410e-01,5.970000000000000000e+02
-8.845499392465353594e+01,-6.641086514855851419e+01,-1.111652572004459216e+01,7.305107936475906172e+01,-5.314588075262872735e+01,-5.250787142505942029e+01,3.330403075639696908e+01,2.802678582795488182e+01,9.370253562927246094e+00,3.824593871831893921e-02,9.179025292396545410e-01,5.980000000000000000e+02
-8.546375755425469833e+01,-6.224786386760388268e+01,-7.882061101947329007e+00,7.522212687156570610e+01,-4.837067590847800602e+01,-5.076699082724735490e+01,3.492414253423703485e+01,3.137668870110428543e+01,9.332008361816406250e+00,3.824593871831893921e-02,9.561483860015869141e-01,5.990000000000000000e+02
-8.330013978497663629e+01,-5.831490446888710721e+01,-5.281292832471081056e+00,7.578230657867243281e+01,-4.510798492322282982e+01,-5.054261022159334971e+01,3.583843564651397173e+01,3.208361483493717969e+01,9.332008361816406250e+00,3.824593871831893921e-02,9.561483860015869141e-01,6.000000000000000000e+02
-8.232890651211346267e+01,-5.583240501926411525e+01,-3.430893125932925614e+00,7.440469084652067977e+01,-4.405474454663999495e+01,-5.205315555396373384e+01,3.611166317561583128e+01,3.028891391983052017e+01,9.332008361816406250e+00,3.824593871831893921e-02,9.561483860015869141e-01,6.010000000000000000e+02
-8.203253590140593587e+01,-5.545990953201544471e+01,-2.172345524188131094e+00,7.163029486089726561e+01,-4.465723411653380026e+01,-5.438317259679752169e+01,3.595310921832060558e+01,2.731305117643933045e+01,9.332008361816406250e+00,3.824593871831893921e-02,9.561483860015869141e-01,6.020000000000000000e+02
-8.148584337446663994e+01,-5.697298889989906456e+01,-1.306806818618497346e+00,6.837071112056582933e+01,-4.573199297746032244e+01,-5.619403593041351996e+01,3.560247424395856797e+01,2.466303621344195562e+01,9.332008361816406250e+00,3.824593871831893921e-02,9.561483860015869141e-01,6.030000000000000000e+02
-8.014056019335475867e+01,-5.945510527371152421e+01,-6.915894888588809408e-01,6.530916600995260524e+01,-4.632131382000807207e+01,-5.667512479425931815e+01,3.529788984631522908e+01,2.308070257431973005e+01,9.332008361816406250e+00,3.824593871831893921e-02,9.561483860015869141e-01,6.040000000000000000e+02
-7.827596997160071624e+01,-6.174623316866563982e+01,-2.623009213421028107e-01,6.264416068341233768e+01,-4.623526014373783255e+01,-5.602363447867537616e+01,3.523390967176965205e+01,2.224600542869666242e+01,9.332008361816406250e+00,3.824593871831893921e-02,9.561483860015869141e-01,6.050000000000000000e+02
-7.673846935059555108e+01,-6.283186813682914362e+01,-4.459572394262067974e-02,6.027831339339172700e+01,-4.598341089779569302e+01,-5.512069083288224647e+01,3.550736855901777744e+01,2.128150606165945646e+01,9.332008361816406250e+00,3.824593871831893921e-02,9.561483860015869141e-01,6.060000000000000000e+02
-7.622049671068452881e+01,-6.210133435128955171e+01,-1.142503942101029679e-01,5.816867468605778413e+01,-4.619121235336933751e+01,-5.470622298689704621e+01,3.613715604491881095e+01,1.964265856637211982e+01,9.332008361816406250e+00,3.824593871831893921e-02,9.561483860015869141e-01,6.070000000000000000e+02
-7.675253941570554161e+01,-5.956939502555906074e+01,-4.795413320680381730e-01,5.646173791210458148e+01,-4.694977850859140744e+01,-5.474810908267681953e+01,3.715856396869639866e+01,1.767326448933818028e+01,9.332008361816406250e+00,3.824593871831893921e-02,9.561483860015869141e-01,6.080000000000000000e+02
-7.784332749867462553e+01,-5.599276899928736384e+01,-9.783615310079767369e-01,5.530050150800525444e+01,-4.763619133314205101e+01,-5.451597077943733893e+01,3.865093120151868789e+01,1.637078588403164758e+01,9.332008361816406250e+00,3.824593871831893921e-02,9.561483860015869141e-01,6.090000000000000000e+02
-7.903484521841892274e+01,-5.261543740729393903e+01,-1.313825298719166312e+00,5.455474175086783362e+01,-4.738592755155696068e+01,-5.324741558812820585e+01,4.058842190798168303e+01,1.655812423056340776e+01,9.332008361816406250e+00,3.824593871831893921e-02,9.561483860015869141e-01,6.100000000000000000e+02
-8.024800408349256031e+01,-5.044909324715627008e+01,-1.218600018037250265e+00,5.381840143268345855e+01,-4.582818298979691463e+01,-5.078925441866158508e+01,4.264187867620057659e+01,1.817172865992324660e+01,9.332008361816406250e+00,3.824593871831893921e-02,9.561483860015869141e-01,6.110000000000000000e+02
-8.156434889246884268e+01,-4.950276873487018747e+01,-5.976438248399063013e-01,5.274506106181797804e+01,-4.342951059731421992e+01,-4.766501886089827167e+01,4.420771543183946051e+01,2.027690605481620878e+01,9.332008361816406250e+00,3.824593871831893921e-02,9.561483860015869141e-01,6.120000000000000000e+02
-8.274588585399033036e+01,-4.870208204404843855e+01,4.657272112162900157e-01,5.137423530597516219e+01,-4.115243440284393728e+01,-4.460023081021063263e+01,4.474667871758720139e+01,2.176150898537889589e+01,9.332008361816406250e+00,3.824593871831893921e-02,9.561483860015869141e-01,6.130000000000000000e+02
-8.311973152831342304e+01,-4.680809852757010958e+01,1.796454112991341390e+00,5.003456843464664416e+01,-3.978212369935499737e+01,-4.203549192462378414e+01,4.416542232583014993e+01,2.206594470722484402e+01,9.332008361816406250e+00,3.824593871831893921e-02,9.561483860015869141e-01,6.140000000000000000e+02
-8.205367308326822240e+01,-4.370890747271187138e+01,3.200745182701211888e+00,4.883833763450093102e+01,-3.953060942112642806e+01,-4.006585170895414194e+01,4.287812281252990942e+01,2.134153276112192543e+01,9.332008361816406250e+00,3.824593871831893921e-02,9.561483860015869141e-01,6.150000000000000000e+02
