F3,F4,C3,C4,P3,P4,Cz,Pz,Accel_x,Accel_y,Accel_z,Sample
-4.001776687800884247e-11,-5.638867150992155075e-11,-6.730260793119668961e-11,-5.093170329928398132e-11,-5.638867150992155075e-11,-6.912159733474254608e-11,-6.002665031701326370e-11,-8.367351256310939789e-11,9.332008361816406250e+00,7.649187743663787842e-02,9.179025292396545410e-01,2.260000000000000000e+02
-1.952727425491866597e+01,-1.901398428586981026e+01,-1.304512175736817881e+01,-5.872967637713372824e+00,-2.483864460647237138e+01,-2.156228157041732629e+01,-8.999112102792423684e-01,-6.455318027477915166e+00,9.332008361816406250e+00,7.649187743663787842e-02,9.179025292396545410e-01,2.270000000000000000e+02
-3.883957803063458414e+01,-3.686897599431813433e+01,-2.359273630293864699e+01,-1.237019462655734969e+01,-4.876271005351554777e+01,-4.165318940092583944e+01,-3.483248898915917380e+00,-1.274380742588436988e+01,9.332008361816406250e+00,7.649187743663787842e-02,9.179025292396545410e-01,2.280000000000000000e+02
-5.800204035249134904e+01,-5.311589140041905921e+01,-3.087520606039470294e+01,-1.940260711455630371e+01,-7.116825797240198881e+01,-5.997673930424753053e+01,-8.074163073708405136e+00,-1.859458348667794780e+01,9.332008361816406250e+00,7.649187743663787842e-02,9.179025292396545410e-01,2.290000000000000000e+02
-7.723737193712804583e+01,-6.811120903549635841e+01,-3.606607301811709476e+01,-2.636366952758180560e+01,-9.180235172659013188e+01,-7.752781885568401776e+01,-1.354989133908748045e+01,-2.381886049242348236e+01,9.332008361816406250e+00,7.649187743663787842e-02,9.179025292396545410e-01,2.300000000000000000e+02
-9.650158097048642958e+01,-8.255467101046178868e+01,-4.096425722476851661e+01,-3.302713002076416160e+01,-1.106472677656620363e+02,-9.565292499849965679e+01,-1.852824139731637842e+01,-2.867790805159529555e+01,9.332008361816406250e+00,7.649187743663787842e-02,9.179025292396545410e-01,2.310000000000000000e+02
-1.152592071227727502e+02,-9.704508877337957529e+01,-4.653318298289741506e+01,-4.005383859640642186e+01,-1.279495379802792741e+02,-1.150511894885330548e+02,-2.261916608042884036e+01,-3.399955795941605174e+01,9.332008361816406250e+00,7.649187743663787842e-02,9.179025292396545410e-01,2.320000000000000000e+02
-1.327984259363756792e+02,-1.119943502371661452e+02,-5.260741437341312121e+01,-4.843718002589139360e+01,-1.443958672428561840e+02,-1.355921236668418715e+02,-2.657873213788843714e+01,-4.079913068047608249e+01,9.370253562927246094e+00,7.649187743663787842e-02,1.032640218734741211e+00,2.330000000000000000e+02
-1.488517595151970454e+02,-1.276507652920008695e+02,-5.875230777555589157e+01,-5.846819337746092060e+01,-1.610775515489331156e+02,-1.568601761583395273e+02,-3.139633441932346614e+01,-4.967241130469119526e+01,9.370253562927246094e+00,7.649187743663787842e-02,1.032640218734741211e+00,2.340000000000000000e+02
-1.639198662050366693e+02,-1.439185423710305258e+02,-6.511184614200283249e+01,-6.936336375267546828e+01,-1.789903113984219090e+02,-1.786203111799459293e+02,-3.734789283930149395e+01,-6.042704410477927013e+01,9.370253562927246094e+00,7.649187743663787842e-02,1.032640218734741211e+00,2.350000000000000000e+02
-1.789477162488738031e+02,-1.601802404182244572e+02,-7.229596728609067213e+01,-7.993201114077874081e+01,-1.983790168154700950e+02,-2.006789854721846496e+02,-4.388589203035371611e+01,-7.216818370946748473e+01,9.370253562927246094e+00,7.649187743663787842e-02,1.032640218734741211e+00,2.360000000000000000e+02
-1.946318598564866988e+02,-1.757097999966654243e+02,-8.055289581225588336e+01,-8.952424580610204430e+01,-2.185753939416699723e+02,-2.224665463911751431e+02,-5.028427197215933120e+01,-8.368906615125160897e+01,9.370253562927246094e+00,7.649187743663787842e-02,1.032640218734741211e+00,2.370000000000000000e+02
-2.109913492426958328e+02,-1.907098928559571505e+02,-8.925935917805509234e+01,-9.825594321168864553e+01,-2.385424294605982141e+02,-2.430298863667485421e+02,-5.624383252711959358e+01,-9.390213817737276258e+01,9.370253562927246094e+00,7.649187743663787842e-02,1.032640218734741211e+00,2.380000000000000000e+02
-2.275551143414986655e+02,-2.069827942304264070e+02,-9.737061096669094695e+01,-1.064584213853740948e+02,-2.576290184881927416e+02,-2.616342312742526701e+02,-6.193011703861338901e+01,-1.022196844734444312e+02,9.370253562927246094e+00,7.649187743663787842e-02,1.032640218734741211e+00,2.390000000000000000e+02
-2.438991404527350824e+02,-2.270916258084089350e+02,-1.043848620762073551e+02,-1.141977285754464901e+02,-2.758584416978319496e+02,-2.784326068345999374e+02,-6.764022621862568485e+01,-1.088660854490253769e+02,9.370253562927246094e+00,7.649187743663787842e-02,1.032640218734741211e+00,2.400000000000000000e+02
-2.599609831795814898e+02,-2.521813621840829001e+02,-1.108094115111634892e+02,-1.214833472594409614e+02,-2.935874939556324534e+02,-2.944842615925954306e+02,-7.358310184276160726e+01,-1.149223289761266642e+02,9.370253562927246094e+00,7.649187743663787842e-02,1.032640218734741211e+00,2.410000000000000000e+02
-2.758865748416510542e+02,-2.802628039661613002e+02,-1.176456752242993389e+02,-1.287955861135205851e+02,-3.110062849529040250e+02,-3.110198756425907050e+02,-7.992547561142964696e+01,-1.218484528827557369e+02,9.370253562927246094e+00,7.649187743663787842e-02,1.032640218734741211e+00,2.420000000000000000e+02
-2.916923732564691818e+02,-3.068419529254651934e+02,-1.254065845583663759e+02,-1.370440127259817018e+02,-3.279843894750683830e+02,-3.285548947210372717e+02,-8.682122416708989476e+01,-1.305797652677165388e+02,9.370253562927246094e+00,7.649187743663787842e-02,1.032640218734741211e+00,2.430000000000000000e+02
-3.072000395363338612e+02,-3.278641587257479841e+02,-1.336271748775452579e+02,-1.467643552905428805e+02,-3.443149849699684637e+02,-3.465997486437572661e+02,-9.424652148850691447e+01,-1.408438330452572700e+02,9.370253562927246094e+00,7.649187743663787842e-02,1.032640218734741211e+00,2.440000000000000000e+02
-3.223068586937088185e+02,-3.426583273983160325e+02,-1.413115791413874831e+02,-1.573879978008635590e+02,-3.600101076669870963e+02,-3.641765784882209118e+02,-1.018535668097101734e+02,-1.513741608239361085e+02,9.370253562927246094e+00,7.649187743663787842e-02,1.032640218734741211e+00,2.450000000000000000e+02
-3.372131769742200049e+02,-3.543018151015658077e+02,-1.478507687521932894e+02,-1.675102915619036139e+02,-3.753632889442569649e+02,-3.806616054451278615e+02,-1.091449738053433975e+02,-1.609692618689750816e+02,9.370253562927246094e+00,7.649187743663787842e-02,1.032640218734741211e+00,2.460000000000000000e+02
-3.522578116739741745e+02,-3.670222456131268700e+02,-1.535340725755058884e+02,-1.760544375547997333e+02,-3.907925130965177232e+02,-3.962456223697608948e+02,-1.158839567153900134e+02,-1.694718428060159567e+02,9.370253562927246094e+00,7.649187743663787842e-02,1.032640218734741211e+00,2.470000000000000000e+02
-3.674858694934318919e+02,-3.828850218902671259e+02,-1.592157411632406365e+02,-1.831778290912725424e+02,-4.066100628377034809e+02,-4.116521556839206823e+02,-1.222619058411873993e+02,-1.777129425213543072e+02,9.370253562927246094e+00,7.649187743663787842e-02,1.032640218734741211e+00,2.480000000000000000e+02
-3.824526934990499285e+02,-4.005773301745612116e+02,-1.655196205461770660e+02,-1.899897091007869676e+02,-4.228283880524732012e+02,-4.274021178419516218e+02,-1.285659547357217889e+02,-1.864421804751855234e+02,9.370253562927246094e+00,7.649187743663787842e-02,1.032640218734741211e+00,2.490000000000000000e+02
-3.965722736045781858e+02,-4.170630242247343631e+02,-1.723631868487073007e+02,-1.973932379572006539e+02,-4.390964665643614353e+02,-4.432936796019857866e+02,-1.347110696668960372e+02,-1.953156540724094157e+02,9.370253562927246094e+00,7.649187743663787842e-02,1.032640218734741211e+00,2.500000000000000000e+02
-4.097190162529059307e+02,-4.303250062360639276e+02,-1.792109994913625997e+02,-2.052755592128742137e+02,-4.548706913818950852e+02,-4.585645973747205062e+02,-1.402420984211548785e+02,-2.030349531594220025e+02,9.370253562927246094e+00,7.649187743663787842e-02,1.032640218734741211e+00,2.510000000000000000e+02
-4.224457367438881192e+02,-4.407279372086468356e+02,-1.857146300430949850e+02,-2.128505333448729289e+02,-4.697908064517750972e+02,-4.725954475021890175e+02,-1.448896175925010539e+02,-2.085857413705380168e+02,9.370253562927246094e+00,7.649187743663787842e-02,1.032640218734741211e+00,2.520000000000000000e+02
-4.355312111594466842e+02,-4.501392661983190919e+02,-1.920402723011047783e+02,-2.196729993324352108e+02,-4.839624983306575814e+02,-4.854966170790394244e+02,-1.490497737111436436e+02,-2.123713340697240710e+02,9.370253562927246094e+00,7.649187743663787842e-02,1.032640218734741211e+00,2.530000000000000000e+02
-4.492463681192175500e+02,-4.600539534962854304e+02,-1.985592727108369218e+02,-2.261516638998155031e+02,-4.978123168916699797e+02,-4.980197215575608425e+02,-1.535496187642547739e+02,-2.160733964980199744e+02,9.370253562927246094e+00,7.649187743663787842e-02,1.032640218734741211e+00,2.540000000000000000e+02
-4.630482634694726585e+02,-4.705522233284145841e+02,-2.052765956481471221e+02,-2.330025262928129450e+02,-5.115646415255714601e+02,-5.108626036650384776e+02,-1.588325678030632844e+02,-2.212990476658296757e+02,9.370253562927246094e+00,7.649187743663787842e-02,1.032640218734741211e+00,2.550000000000000000e+02
-4.760247372067105971e+02,-4.807487331855272714e+02,-2.116636731078115190e+02,-2.402950232311577565e+02,-5.248676480500116668e+02,-5.240242806970672973e+02,-1.644253419929718802e+02,-2.282697251287390827e+02,9.370253562927246094e+00,7.649187743663787842e-02,1.032640218734741211e+00,2.560000000000000000e+02
-4.876612771084646738e+02,-4.899421779631275058e+02,-2.171299360581069777e+02,-2.472216579511559758e+02,-5.370472181036084294e+02,-5.368298762115964564e+02,-1.693458502663979743e+02,-2.357571145887095554e+02,9.370253562927246094e+00,7.649187743663787842e-02,1.032640218734741211e+00,2.570000000000000000e+02
-4.982013470021211106e+02,-4.982868701233992397e+02,-2.216651698660871261e+02,-2.529155403511040276e+02,-5.478238858860740947e+02,-5.485845446865441772e+02,-1.731132064316243486e+02,-2.422820561866510616e+02,9.370253562927246094e+00,7.649187743663787842e-02,1.032640218734741211e+00,2.580000000000000000e+02
-5.082831768716396255e+02,-5.065784075277424563e+02,-2.259545478458448997e+02,-2.574736551824908020e+02,-5.577660618542813609e+02,-5.592165121099096723e+02,-1.763296037600021009e+02,-2.474269499432375596e+02,9.370253562927246094e+00,7.649187743663787842e-02,1.032640218734741211e+00,2.590000000000000000e+02
-5.182483053428013591e+02,-5.156081562364652200e+02,-2.308099756742431055e+02,-2.620726112900256339e+02,-5.679712256375742072e+02,-5.693403863309486042e+02,-1.802154463797405697e+02,-2.521013227708981503e+02,9.408499717712402344e+00,3.824593871831893921e-02,9.561483860015869141e-01,2.600000000000000000e+02
-5.278093054830096662e+02,-5.256802146582967907e+02,-2.364673139913365958e+02,-2.679619966550308163e+02,-5.792567540641475716e+02,-5.797688389506320163e+02,-1.855288964514484178e+02,-2.576443806853812930e+02,9.408499717712402344e+00,3.824593871831893921e-02,9.561483860015869141e-01,2.610000000000000000e+02
-5.363780185799396349e+02,-5.364925591136161529e+02,-2.424206267616282275e+02,-2.752744007229284762e+02,-5.916359258506236074e+02,-5.909989612308527285e+02,-1.918977117432687010e+02,-2.646761768075966756e+02,9.408499717712402344e+00,3.824593871831893921e-02,9.561483860015869141e-01,2.620000000000000000e+02
-5.437084810258720609e+02,-5.472760437598826684e+02,-2.478960392908447830e+02,-2.827855530228471252e+02,-6.044823894153578294e+02,-6.030675212636479046e+02,-1.981130222904466791e+02,-2.726702950720327863e+02,9.408499717712402344e+00,3.824593871831893921e-02,9.561483860015869141e-01,2.630000000000000000e+02
-5.502428694223926868e+02,-5.570896608524044495e+02,-2.524432536979775250e+02,-2.888719112327889889e+02,-6.170501091075730073e+02,-6.156868142334342338e+02,-2.030026101491621375e+02,-2.804411299797347965e+02,9.408499717712402344e+00,3.824593871831893921e-02,9.561483860015869141e-01,2.640000000000000000e+02
-5.568813786366754357e+02,-5.652411135123493295e+02,-2.561106976614582891e+02,-2.928095105519159915e+02,-6.287746439052898495e+02,-6.283611925956074629e+02,-2.060953692917964872e+02,-2.869727211964127491e+02,9.408499717712402344e+00,3.824593871831893921e-02,9.561483860015869141e-01,2.650000000000000000e+02
-5.643983551901246756e+02,-5.716523624544079212e+02,-2.591832263421774769e+02,-2.952765875084778600e+02,-6.392046646193375636e+02,-6.403966421313161845e+02,-2.076675517741068688e+02,-2.918953688807068829e+02,9.408499717712402344e+00,3.824593871831893921e-02,9.561483860015869141e-01,2.660000000000000000e+02
-5.729710459916323089e+02,-5.768968444130896387e+02,-2.618894752909109229e+02,-2.977102305088228604e+02,-6.479246975082151039e+02,-6.510435897417737579e+02,-2.083999187249710303e+02,-2.954107656716887504e+02,9.408499717712402344e+00,3.824593871831893921e-02,9.561483860015869141e-01,2.670000000000000000e+02
-5.821138138562437234e+02,-5.818488691040938647e+02,-2.643812186838695197e+02,-3.011617709442234627e+02,-6.547508083453358267e+02,-6.599131880190871016e+02,-2.090438127621719104e+02,-2.979722898518612055e+02,9.408499717712402344e+00,3.824593871831893921e-02,9.561483860015869141e-01,2.680000000000000000e+02
-5.909775281316246947e+02,-5.872424683611175169e+02,-2.668640115493662961e+02,-3.056210938050990080e+02,-6.600072076032211044e+02,-6.673745158704705318e+02,-2.102136627529907855e+02,-3.000734468952405223e+02,9.408499717712402344e+00,3.824593871831893921e-02,9.561483860015869141e-01,2.690000000000000000e+02
-5.988127983112594848e+02,-5.935077385886870616e+02,-2.696057902370112060e+02,-3.102763938885555035e+02,-6.645110066277929945e+02,-6.744731480557020404e+02,-2.122190253435246632e+02,-3.022345536360089682e+02,9.408499717712402344e+00,3.824593871831893921e-02,9.561483860015869141e-01,2.700000000000000000e+02
-6.053842592415176114e+02,-6.009107104024501496e+02,-2.727921486242357787e+02,-3.143384531906494885e+02,-6.692155839317701975e+02,-6.822866969006572617e+02,-2.149521197693957220e+02,-3.050525992821103500e+02,9.408499717712402344e+00,3.824593871831893921e-02,9.561483860015869141e-01,2.710000000000000000e+02
-6.111453267499887261e+02,-6.096344881029563112e+02,-2.764474430961690814e+02,-3.176605565600830232e+02,-6.748457453500632255e+02,-6.912151717337819719e+02,-2.179870384363175617e+02,-3.091456837732666827e+02,9.408499717712402344e+00,3.824593871831893921e-02,9.561483860015869141e-01,2.720000000000000000e+02
-6.170276074671578499e+02,-6.195407028666431870e+02,-2.805523716230209175e+02,-3.206866369145054705e+02,-6.817956459160404847e+02,-7.008274953903037385e+02,-2.209185924583298402e+02,-3.149643684489483348e+02,9.408499717712402344e+00,3.824593871831893921e-02,9.561483860015869141e-01,2.730000000000000000e+02
-6.238707093184548285e+02,-6.298492071603072873e+02,-2.851790996156887559e+02,-3.239038680960693455e+02,-6.901756233507448997e+02,-7.103604226460220161e+02,-2.236920148726067055e+02,-3.225622533921132344e+02,9.408499717712402344e+00,3.824593871831893921e-02,9.561483860015869141e-01,2.740000000000000000e+02
-6.318114592901965807e+02,-6.392306843711767215e+02,-2.903774423766208201e+02,-3.273533797256159232e+02,-6.997481170284909240e+02,-7.193378122586236714e+02,-2.266051865235604055e+02,-3.314371936507641294e+02,9.408499717712402344e+00,3.824593871831893921e-02,9.561483860015869141e-01,2.750000000000000000e+02
-6.400893875699098317e+02,-6.464511779451549955e+02,-2.958782256689974020e+02,-3.305913527095954123e+02,-7.097903589604138688e+02,-7.277116239073420729e+02,-2.299601601370222852e+02,-3.405537718718605902e+02,9.408499717712402344e+00,3.824593871831893921e-02,9.561483860015869141e-01,2.760000000000000000e+02
-6.475059284737026246e+02,-6.510952683327104751e+02,-3.010100203610963945e+02,-3.330642019020087901e+02,-7.192054189618093005e+02,-7.354878872705057802e+02,-2.337050490863884988e+02,-3.486378236351556552e+02,9.408499717712402344e+00,3.824593871831893921e-02,9.561483860015869141e-01,2.770000000000000000e+02
-6.532489548694002224e+02,-6.537323107297361275e+02,-3.050607308653425207e+02,-3.345638835633103554e+02,-7.270175918173372338e+02,-7.423678584498275086e+02,-2.374064456658534255e+02,-3.546973541038933035e+02,9.408499717712402344e+00,3.824593871831893921e-02,9.561483860015869141e-01,2.780000000000000000e+02
-6.574402252310160293e+02,-6.554053059558127643e+02,-3.078147896321788721e+02,-3.354350842517942510e+02,-7.329100337289546587e+02,-7.478937822502202835e+02,-2.405515944278376992e+02,-3.585135344794007324e+02,9.408499717712402344e+00,3.824593871831893921e-02,9.561483860015869141e-01,2.790000000000000000e+02
-6.609648067172188348e+02,-6.569662206239950137e+02,-3.097229206764313858e+02,-3.364300574658291225e+02,-7.373181932858433356e+02,-7.519995759671492124e+02,-2.428748681424222013e+02,-3.607592763459474554e+02,9.408499717712402344e+00,3.824593871831893921e-02,9.561483860015869141e-01,2.800000000000000000e+02
-6.647456703521283998e+02,-6.588685693090046698e+02,-3.115005348059949029e+02,-3.383295019992515336e+02,-7.410203980517717355e+02,-7.553750334830911015e+02,-2.444525738502525201e+02,-3.626171965163625828e+02,9.408499717712402344e+00,3.824593871831893921e-02,9.561483860015869141e-01,2.810000000000000000e+02
-6.690935078851794060e+02,-6.614591161017669947e+02,-3.135502541853002185e+02,-3.415313684959960483e+02,-7.446658521720100907e+02,-7.591835249056657631e+02,-2.455861212788367993e+02,-3.651484418511336116e+02,9.408499717712402344e+00,3.824593871831893921e-02,9.561483860015869141e-01,2.820000000000000000e+02
-6.736478770612816334e+02,-6.652376139544576290e+02,-3.157770089064943022e+02,-3.458050117760067224e+02,-7.486473191378349838e+02,-7.642941128160782682e+02,-2.466463285648624151e+02,-3.688514876432850542e+02,9.408499717712402344e+00,3.824593871831893921e-02,9.561483860015869141e-01,2.830000000000000000e+02
-6.778797775508123777e+02,-6.706216640745401492e+02,-3.179276559864229057e+02,-3.503647278209073193e+02,-7.532432765280882450e+02,-7.706876405270631949e+02,-2.479855268304208948e+02,-3.736666818446228717e+02,9.408499717712402344e+00,3.824593871831893921e-02,9.561483860015869141e-01,2.840000000000000000e+02
-6.816265429206459885e+02,-6.773880820707104249e+02,-3.200139875192353429e+02,-3.542852865466270487e+02,-7.586530088248914581e+02,-7.775571687232686600e+02,-2.498706423177782199e+02,-3.792564260040089721e+02,9.408499717712402344e+00,3.824593871831893921e-02,9.561483860015869141e-01,2.850000000000000000e+02
-6.851589503490922652e+02,-6.844303008431629678e+02,-3.222928878324760262e+02,-3.570281279461678423e+02,-7.647578289329862855e+02,-7.839709827779861371e+02,-2.523438379498270479e+02,-3.851603455345270959e+02,9.408499717712402344e+00,3.824593871831893921e-02,9.561483860015869141e-01,2.860000000000000000e+02
-6.887729547289213770e+02,-6.902310219607907129e+02,-3.248159804166966751e+02,-3.586785726803132093e+02,-7.708892831916105024e+02,-7.894588169953035504e+02,-2.550596736477787090e+02,-3.906865298445777626e+02,9.408499717712402344e+00,3.824593871831893921e-02,9.561483860015869141e-01,2.870000000000000000e+02
-6.923511372332736755e+02,-6.937546014249014661e+02,-3.270802757770024982e+02,-3.596603416014295362e+02,-7.759822087475022272e+02,-7.940076466968448585e+02,-2.572688445699200201e+02,-3.948106834619188703e+02,9.408499717712402344e+00,3.824593871831893921e-02,9.561483860015869141e-01,2.880000000000000000e+02
-6.953537703384965880e+02,-6.950387599401767602e+02,-3.282475582790697217e+02,-3.601584563042471245e+02,-7.791141534618634523e+02,-7.976025295931553956e+02,-2.580755134574908425e+02,-3.964746612851024565e+02,9.408499717712402344e+00,3.824593871831893921e-02,9.561483860015869141e-01,2.890000000000000000e+02
-6.972805550811386865e+02,-6.950401832325942451e+02,-3.278123227102847750e+02,-3.598269882015795247e+02,-7.800378423541426400e+02,-7.999334947388688306e+02,-2.569083979167269263e+02,-3.952786047085866130e+02,9.408499717712402344e+00,3.824593871831893921e-02,9.561483860015869141e-01,2.900000000000000000e+02
-6.981917011071668639e+02,-6.949260549471019885e+02,-3.261153243907194792e+02,-3.581559921894991021e+02,-7.793050589576436096e+02,-8.006829566333580033e+02,-2.539531058548420788e+02,-3.920207159426133785e+02,9.370253562927246094e+00,3.824593871831893921e-02,9.561483860015869141e-01,2.910000000000000000e+02
-6.988176703403003103e+02,-6.954070385239739380e+02,-3.242260154758222370e+02,-3.552252068252188337e+02,-7.779400869917875525e+02,-8.001257638749434591e+02,-2.502498530666907754e+02,-3.884889688006725237e+02,9.370253562927246094e+00,3.824593871831893921e-02,9.561483860015869141e-01,2.920000000000000000e+02
-7.001252202703991543e+02,-6.965694126157327446e+02,-3.232952964435783088e+02,-3.520983482667945736e+02,-7.769542788440694494e+02,-7.993451265192807114e+02,-2.473232663436376697e+02,-3.865057839607082997e+02,9.370253562927246094e+00,3.824593871831893921e-02,9.561483860015869141e-01,2.930000000000000000e+02
-7.026621594448120049e+02,-6.981745501460746937e+02,-3.239101371237247804e+02,-3.503447275009773421e+02,-7.769997761710524173e+02,-7.996844695219822370e+02,-2.464940840083710327e+02,-3.869177760912402846e+02,9.370253562927246094e+00,3.824593871831893921e-02,9.561483860015869141e-01,2.940000000000000000e+02
-7.061919384278749021e+02,-7.000340055966294130e+02,-3.259208611381760647e+02,-3.510031166046364888e+02,-7.782818388985767797e+02,-8.018632087026775253e+02,-2.482749165379498208e+02,-3.893141194525991295e+02,9.370253562927246094e+00,3.824593871831893921e-02,9.561483860015869141e-01,2.950000000000000000e+02
-7.099149713489334772e+02,-7.021465058009798668e+02,-3.287605591372056324e+02,-3.538870443268136796e+02,-7.806813292100166564e+02,-8.055794433503417622e+02,-2.521996312406472498e+02,-3.926226390566666851e+02,9.370253562927246094e+00,3.824593871831893921e-02,9.561483860015869141e-01,2.960000000000000000e+02
-7.130910466946913857e+02,-7.045500436016000094e+02,-3.318833954061709619e+02,-3.578267613489117593e+02,-7.839340411630876133e+02,-8.099566647020367327e+02,-2.571201887145018645e+02,-3.959849965210498794e+02,9.370253562927246094e+00,3.824593871831893921e-02,9.561483860015869141e-01,2.970000000000000000e+02
-7.155409024364251991e+02,-7.070908439307572735e+02,-3.349588538397604225e+02,-3.615763245298328457e+02,-7.877151715784309545e+02,-8.143481761423886383e+02,-2.617217299345935544e+02,-3.991573403631188057e+02,9.370253562927246094e+00,3.824593871831893921e-02,9.561483860015869141e-01,2.980000000000000000e+02
-7.176205562616656835e+02,-7.093381302732216227e+02,-3.377854777289351205e+02,-3.645181164510988765e+02,-7.915813508550590996e+02,-8.186615297692721924e+02,-2.649645337417724704e+02,-4.022297340665594447e+02,9.370253562927246094e+00,3.824593871831893921e-02,9.561483860015869141e-01,2.990000000000000000e+02
-7.197260160894624050e+02,-7.107150864359961133e+02,-3.401552451605713259e+02,-3.665925689841076291e+02,-7.949163598866721259e+02,-8.229388317179950718e+02,-2.663594991621475856e+02,-4.051273075844662799e+02,9.370253562927246094e+00,3.824593871831893921e-02,9.561483860015869141e-01,3.000000000000000000e+02
-7.218222725343030106e+02,-7.107877209703264043e+02,-3.418860875724108155e+02,-3.677513867570593220e+02,-7.971142937792114935e+02,-8.267809826906230910e+02,-2.661279834287776112e+02,-4.074878191689713276e+02,9.370253562927246094e+00,3.824593871831893921e-02,9.561483860015869141e-01,3.010000000000000000e+02
-7.234658920636808261e+02,-7.095622210191680779e+02,-3.429921929518269508e+02,-3.677030743567149784e+02,-7.979932640965748760e+02,-8.293665778882354971e+02,-2.651990069323360331e+02,-4.090007706261654903e+02,9.370253562927246094e+00,3.824593871831893921e-02,9.561483860015869141e-01,3.020000000000000000e+02
-7.243272584307733268e+02,-7.076028038412238175e+02,-3.437814217493005344e+02,-3.663223541783244173e+02,-7.980873341237361274e+02,-8.301428562039025110e+02,-2.648620106912894698e+02,-4.097658448642391704e+02,9.370253562927246094e+00,3.824593871831893921e-02,9.561483860015869141e-01,3.030000000000000000e+02
-7.246943670006349976e+02,-7.058440089246900015e+02,-3.447190158867664422e+02,-3.642485373721179940e+02,-7.984001578475845236e+02,-8.294730252759965197e+02,-2.660445791816080146e+02,-4.102200026839449265e+02,9.370253562927246094e+00,3.824593871831893921e-02,9.561483860015869141e-01,3.040000000000000000e+02
-7.254109065229520183e+02,-7.051439229972204430e+02,-3.461125715441831971e+02,-3.628624457503947269e+02,-7.996622267839389906e+02,-8.285230768854041798e+02,-2.686148876293810872e+02,-4.106781818812448819e+02,9.370253562927246094e+00,3.824593871831893921e-02,9.561483860015869141e-01,3.050000000000000000e+02
-7.272198818783916749e+02,-7.058176316061754960e+02,-3.478680682619875597e+02,-3.634189975462688835e+02,-8.016895778308876288e+02,-8.284340411338432659e+02,-2.713217554577875035e+02,-4.109787559693107823e+02,9.370253562927246094e+00,3.824593871831893921e-02,9.561483860015869141e-01,3.060000000000000000e+02
-7.300667969911968385e+02,-7.074642768705372191e+02,-3.495195072211499792e+02,-3.660130581639106140e+02,-8.034628026014015632e+02,-8.295296387630614845e+02,-2.725880429785815977e+02,-4.106510944698147796e+02,9.370253562927246094e+00,3.824593871831893921e-02,9.561483860015869141e-01,3.070000000000000000e+02
-7.330111966546633084e+02,-7.092484883958886712e+02,-3.505290864559860893e+02,-3.693610962182465300e+02,-8.039412490698878173e+02,-8.312413882935853735e+02,-2.716453615816137699e+02,-4.095082406058739934e+02,9.370253562927246094e+00,3.824593871831893921e-02,9.561483860015869141e-01,3.080000000000000000e+02
-7.348794756086135749e+02,-7.104407998923375089e+02,-3.506440656159287528e+02,-3.716869228712482709e+02,-8.029231719885087841e+02,-8.327078294960272160e+02,-2.691072794188673925e+02,-4.081006571994245178e+02,9.370253562927246094e+00,3.824593871831893921e-02,9.561483860015869141e-01,3.090000000000000000e+02
-7.351272586739883081e+02,-7.108210517715934884e+02,-3.500623352829275063e+02,-3.719892204131886047e+02,-8.012136397772287637e+02,-8.334267294322517046e+02,-2.665098439759308349e+02,-4.075234886979644671e+02,9.370253562927246094e+00,3.824593871831893921e-02,9.561483860015869141e-01,3.100000000000000000e+02
-7.342102457356959349e+02,-7.106809872689416352e+02,-3.493294015938534471e+02,-3.706282430619165780e+02,-8.000221716729449781e+02,-8.334467444083509235e+02,-2.652319675231397014e+02,-4.086383633930519181e+02,9.370253562927246094e+00,3.824593871831893921e-02,9.561483860015869141e-01,3.110000000000000000e+02
-7.332095053166557364e+02,-7.105109657067235958e+02,-3.490607342239791819e+02,-3.687988728675227890e+02,-8.001755438344116556e+02,-8.331224429742835582e+02,-2.656805545494275975e+02,-4.113146819419604299e+02,9.446745872497558594e+00,3.824593871831893921e-02,9.561483860015869141e-01,3.120000000000000000e+02
-7.330799244728652866e+02,-7.106696468420732344e+02,-3.496437637216580470e+02,-3.674585645761155206e+02,-8.017473283919779306e+02,-8.327899261102165838e+02,-2.672828651883036173e+02,-4.143315880300963272e+02,9.446745872497558594e+00,3.824593871831893921e-02,9.561483860015869141e-01,3.130000000000000000e+02
-7.341214927475382410e+02,-7.112449323796772660e+02,-3.510606773055697545e+02,-3.666877462114354671e+02,-8.042069612614062635e+02,-8.326111754559892688e+02,-2.690825896802158468e+02,-4.160794601439405369e+02,9.446745872497558594e+00,3.824593871831893921e-02,9.561483860015869141e-01,3.140000000000000000e+02
-7.359482084817720988e+02,-7.120895657728358401e+02,-3.529015853394625992e+02,-3.659731429104799645e+02,-8.067918893867405359e+02,-8.325804694149197758e+02,-2.703423725232281640e+02,-4.155869241602536022e+02,9.446745872497558594e+00,3.824593871831893921e-02,9.561483860015869141e-01,3.150000000000000000e+02
-7.377864933428622862e+02,-7.129046790095441111e+02,-3.545633299552092694e+02,-3.650132308841062354e+02,-8.088186839770798997e+02,-8.326028501447735835e+02,-2.707828731468766819e+02,-4.131393591966257759e+02,9.446745872497558594e+00,3.824593871831893921e-02,9.561483860015869141e-01,3.160000000000000000e+02
-7.388044546415816285e+02,-7.133397710678674457e+02,-3.555522413980127112e+02,-3.641936080689778237e+02,-8.098705868404290413e+02,-8.326151546538635557e+02,-2.705196951788026354e+02,-4.100689560815053483e+02,9.446745872497558594e+00,3.824593871831893921e-02,9.561483860015869141e-01,3.170000000000000000e+02
-7.383804230492784200e+02,-7.131760765611818442e+02,-3.557311047206696912e+02,-3.642649807877859303e+02,-8.098941642413441286e+02,-8.327280168566521752e+02,-2.699291205954953057e+02,-4.079060885027586210e+02,9.446745872497558594e+00,3.824593871831893921e-02,9.561483860015869141e-01,3.180000000000000000e+02
-7.364007796841898426e+02,-7.125506067141377571e+02,-3.553694347842185266e+02,-3.655518670232618206e+02,-8.091657731066545693e+02,-8.332552252952445997e+02,-2.695209705641730125e+02,-4.075005258286666958e+02,9.446745872497558594e+00,3.824593871831893921e-02,9.561483860015869141e-01,3.190000000000000000e+02
-7.335033899935165209e+02,-7.119662343173117733e+02,-3.549525397094307664e+02,-3.674437365935017397e+02,-8.080863263513307402e+02,-8.344666983111649188e+02,-2.697293102670771532e+02,-4.086357307855048475e+02,9.446745872497558594e+00,3.824593871831893921e-02,9.561483860015869141e-01,3.200000000000000000e+02
-7.309590431647704918e+02,-7.119147082702838816e+02,-3.548650623571327287e+02,-3.686396405631426205e+02,-8.069093733803326813e+02,-8.361461540270207706e+02,-2.706148499817566062e+02,-4.102278916454490627e+02,9.446745872497558594e+00,3.824593871831893921e-02,9.561483860015869141e-01,3.210000000000000000e+02
-7.299913681113409893e+02,-7.123338806757412840e+02,-3.551469850497729794e+02,-3.679312067805772699e+02,-8.056021027814360878e+02,-8.373343079693208892e+02,-2.716701456438430569e+02,-4.108331444559419197e+02,9.446745872497558594e+00,3.824593871831893921e-02,9.561483860015869141e-01,3.220000000000000000e+02
-7.308520718719526030e+02,-7.124256444285049383e+02,-3.554695527890054905e+02,-3.649024690809800404e+02,-8.039300523303716091e+02,-8.366450272392296483e+02,-2.719684000048200687e+02,-4.091909790754579035e+02,9.446745872497558594e+00,3.824593871831893921e-02,9.561483860015869141e-01,3.230000000000000000e+02
-7.323907980969734126e+02,-7.111245511758930888e+02,-3.553375174400923697e+02,-3.600806228198090366e+02,-8.016458912658114286e+02,-8.330978285163953387e+02,-2.706723826938375623e+02,-4.047155811424596550e+02,9.446745872497558594e+00,3.824593871831893921e-02,9.561483860015869141e-01,3.240000000000000000e+02
-7.326369641843625686e+02,-7.078841113829703318e+02,-3.543844593923134880e+02,-3.545529953099650129e+02,-7.986217618856369427e+02,-8.269116044499780855e+02,-2.676162431330307072e+02,-3.978791244611887805e+02,9.446745872497558594e+00,3.824593871831893921e-02,9.561483860015869141e-01,3.250000000000000000e+02
-7.301086381182709601e+02,-7.030763948796688965e+02,-3.525955492538646467e+02,-3.494270897060600305e+02,-7.949068326286230786e+02,-8.196220760754590628e+02,-2.635590121040902432e+02,-3.902940361364351247e+02,9.446745872497558594e+00,3.824593871831893921e-02,9.561483860015869141e-01,3.260000000000000000e+02
-7.248653992196390163e+02,-6.976525261936708375e+02,-3.503287661362903691e+02,-3.454629142394464338e+02,-7.907615423849857734e+02,-8.133258611284461495e+02,-2.598635456381734912e+02,-3.842000731209191144e+02,9.446745872497558594e+00,3.824593871831893921e-02,9.561483860015869141e-01,3.270000000000000000e+02
-7.184682672022236147e+02,-6.924586568301633633e+02,-3.481182122062923554e+02,-3.429591717882107105e+02,-7.866251973929469159e+02,-8.095094210701524844e+02,-2.577290248780602724e+02,-3.813610918150149018e+02,9.446745872497558594e+00,3.824593871831893921e-02,9.561483860015869141e-01,3.280000000000000000e+02
-7.128921182489490320e+02,-6.879088763708377883e+02,-3.463819232902581007e+02,-3.417938063704539218e+02,-7.829172459525428849e+02,-8.082367121887996291e+02,-2.574502428961376381e+02,-3.819576486814344207e+02,9.446745872497558594e+00,3.824593871831893921e-02,9.561483860015869141e-01,3.290000000000000000e+02
-7.092794605095984934e+02,-6.842323487963717525e+02,-3.452255945902217036e+02,-3.415197321728803672e+02,-7.797524629311581066e+02,-8.082187062331295238e+02,-2.582452984627982460e+02,-3.843353775385737663e+02,9.446745872497558594e+00,3.824593871831893921e-02,9.561483860015869141e-01,3.300000000000000000e+02
-7.074501057612947079e+02,-6.817874795839853732e+02,-3.444725124183471507e+02,-3.414985749963760782e+02,-7.768526325899633775e+02,-8.076826400439416602e+02,-2.588251574026979824e+02,-3.859909590087956985e+02,9.446745872497558594e+00,3.824593871831893921e-02,9.561483860015869141e-01,3.310000000000000000e+02
-7.063486802044244541e+02,-6.808700901828425458e+02,-3.438783287042126631e+02,-3.410898265592195457e+02,-7.738294206135597051e+02,-8.054459980066566231e+02,-2.583092774822522415e+02,-3.852334454640689501e+02,9.446745872497558594e+00,3.824593871831893921e-02,9.561483860015869141e-01,3.320000000000000000e+02
-7.048597250011029018e+02,-6.811142151220370806e+02,-3.433148208124302982e+02,-3.398527458717866239e+02,-7.706089526664771938e+02,-8.015096443313406098e+02,-2.567628465601948164e+02,-3.822924621943831198e+02,9.446745872497558594e+00,3.824593871831893921e-02,9.561483860015869141e-01,3.330000000000000000e+02
-7.023305486731544534e+02,-6.812632917914080508e+02,-3.427634597916406847e+02,-3.376760153193707765e+02,-7.675427214417368305e+02,-7.968643429580362181e+02,-2.549296012412692107e+02,-3.789959031200794470e+02,9.446745872497558594e+00,3.824593871831893921e-02,9.561483860015869141e-01,3.340000000000000000e+02
-6.986366424545046812e+02,-6.798630858885667294e+02,-3.421830284928921628e+02,-3.347915468929210192e+02,-7.650485976919940185e+02,-7.927558608134470433e+02,-2.534492281661229072e+02,-3.772784623828745225e+02,9.446745872497558594e+00,3.824593871831893921e-02,9.561483860015869141e-01,3.350000000000000000e+02
-6.940685842183391969e+02,-6.764207303490552476e+02,-3.414462060505592262e+02,-3.316607230014967627e+02,-7.631549500073831496e+02,-7.899372457819481497e+02,-2.522971999423278930e+02,-3.777038696734593941e+02,9.446745872497558594e+00,3.824593871831893921e-02,9.561483860015869141e-01,3.360000000000000000e+02
-6.892758218529573924e+02,-6.719047524296631764e+02,-3.404533211481361832e+02,-3.287633691688909039e+02,-7.614534758440890982e+02,-7.883296272195786969e+02,-2.509407749825577412e+02,-3.791307962274853480e+02,9.293763160705566406e+00,7.649187743663787842e-02,9.943943619728088379e-01,3.370000000000000000e+02
-6.851524109223804544e+02,-6.679617099713275366e+02,-3.392910155874801603e+02,-3.263656529354600480e+02,-7.595073578994213221e+02,-7.871819479814612350e+02,-2.489772981299422554e+02,-3.796681997000514457e+02,9.293763160705566406e+00,7.649187743663787842e-02,9.943943619728088379e-01,3.380000000000000000e+02
-6.824727570726309978e+02,-6.654821829689433343e+02,-3.382249789198478993e+02,-3.243919817796759162e+02,-7.572363362608639363e+02,-7.855287217934400132e+02,-2.465761625922019675e+02,-3.780729429205002816e+02,9.293763160705566406e+00,7.649187743663787842e-02,9.943943619728088379e-01,3.390000000000000000e+02
-6.813842833442008668e+02,-6.638596811767008603e+02,-3.375029100116593099e+02,-3.225234050992312405e+02,-7.548695030245128237e+02,-7.826908081504707297e+02,-2.443448936831603078e+02,-3.745351071158146397e+02,9.293763160705566406e+00,7.649187743663787842e-02,9.943943619728088379e-01,3.400000000000000000e+02
-6.811795650788901639e+02,-6.616610113798319617e+02,-3.371788784118115245e+02,-3.204945688962742452e+02,-7.526039137609807312e+02,-7.786297280159267302e+02,-2.428614318756849570e+02,-3.704027053428967520e+02,9.293763160705566406e+00,7.649187743663787842e-02,9.943943619728088379e-01,3.410000000000000000e+02
-6.806646110837097012e+02,-6.580729149916501228e+02,-3.371390908926912289e+02,-3.183714057209654129e+02,-7.504395014982228531e+02,-7.740070694025197326e+02,-2.423756113193765032e+02,-3.672222910130183209e+02,9.293763160705566406e+00,7.649187743663787842e-02,9.943943619728088379e-01,3.420000000000000000e+02
-6.789245404839239200e+02,-6.537403905421754189e+02,-3.372701115225056583e+02,-3.165727572060548027e+02,-7.483726306585956536e+02,-7.698732586525974284e+02,-2.428570336039662152e+02,-3.658463894821101121e+02,9.293763160705566406e+00,7.649187743663787842e-02,9.943943619728088379e-01,3.430000000000000000e+02
-6.758967619073060860e+02,-6.502023708926968766e+02,-3.375325251804938489e+02,-3.155782458039781204e+02,-7.466027317578823386e+02,-7.670726236092980344e+02,-2.441172293642096065e+02,-3.661078878695388994e+02,9.293763160705566406e+00,7.649187743663787842e-02,9.943943619728088379e-01,3.440000000000000000e+02
-6.722986594867224994e+02,-6.484758316305526478e+02,-3.378334545043901471e+02,-3.155398991016322725e+02,-7.453666155789678669e+02,-7.656965207417246120e+02,-2.457532193808168586e+02,-3.670832738603500047e+02,9.293763160705566406e+00,7.649187743663787842e-02,9.943943619728088379e-01,3.450000000000000000e+02
-6.690188470333087025e+02,-6.481039308824525733e+02,-3.378801793352907907e+02,-3.161005937713057392e+02,-7.445344429573790421e+02,-7.649953149015830149e+02,-2.470450908870566309e+02,-3.676407297135170893e+02,9.293763160705566406e+00,7.649187743663787842e-02,9.943943619728088379e-01,3.460000000000000000e+02
-6.664877377240385385e+02,-6.474882406559368064e+02,-3.372612297688734770e+02,-3.165452522758087071e+02,-7.434749757084708790e+02,-7.638525783468614918e+02,-2.471442068494409341e+02,-3.669357528135471966e+02,9.293763160705566406e+00,7.649187743663787842e-02,9.943943619728088379e-01,3.470000000000000000e+02
-6.644794604570572574e+02,-6.451748186176216677e+02,-3.357425488283411141e+02,-3.161701698291153662e+02,-7.414582189528222216e+02,-7.614864792883934115e+02,-2.455968470466868894e+02,-3.646790214131087851e+02,9.293763160705566406e+00,7.649187743663787842e-02,9.943943619728088379e-01,3.480000000000000000e+02
-6.623931001790292612e+02,-6.409882535035262663e+02,-3.334940681559235145e+02,-3.146308418241085292e+02,-7.382503872949343986e+02,-7.578417661036685331e+02,-2.427728301770973758e+02,-3.611448909548103074e+02,9.293763160705566406e+00,7.649187743663787842e-02,9.943943619728088379e-01,3.490000000000000000e+02
-6.597031985251094284e+02,-6.361042447236045518e+02,-3.310024602830353615e+02,-3.120979578196297552e+02,-7.343102725336759704e+02,-7.534134199821539823e+02,-2.397330378645644942e+02,-3.569651242037248267e+02,9.293763160705566406e+00,7.649187743663787842e-02,9.943943619728088379e-01,3.500000000000000000e+02
-6.562460642563868305e+02,-6.320812292948045297e+02,-3.287420095622321696e+02,-3.091548723330397479e+02,-7.304010373852315752e+02,-7.487506856471745778e+02,-2.375597367488785494e+02,-3.528160311123898509e+02,9.293763160705566406e+00,7.649187743663787842e-02,9.943943619728088379e-01,3.510000000000000000e+02
-6.522123401294429641e+02,-6.296840436687415377e+02,-3.269168177140024909e+02,-3.064576355113105137e+02,-7.270053796845716079e+02,-7.440965415034841044e+02,-2.366702465267342177e+02,-3.491503414680211108e+02,9.293763160705566406e+00,7.649187743663787842e-02,9.943943619728088379e-01,3.520000000000000000e+02
-6.479258801188092320e+02,-6.283944779703358563e+02,-3.254635612472486628e+02,-3.043126324167129724e+02,-7.240576117324810639e+02,-7.393948646553180879e+02,-2.366447646370129405e+02,-3.460894318939152754e+02,9.293763160705566406e+00,7.649187743663787842e-02,9.943943619728088379e-01,3.530000000000000000e+02
-6.436036901179511460e+02,-6.268970603839285332e+02,-3.242118905304246255e+02,-3.024511807717136662e+02,-7.211228360731622615e+02,-7.345269080029495399e+02,-2.366244983944989144e+02,-3.435145394067255893e+02,9.293763160705566406e+00,7.649187743663787842e-02,9.943943619728088379e-01,3.540000000000000000e+02
-6.392766229715425652e+02,-6.240809947335371817e+02,-3.229851532352072354e+02,-3.002439932347288050e+02,-7.177576896562188722e+02,-7.295007918592652914e+02,-2.358970215293484216e+02,-3.412634060598338692e+02,9.293763160705566406e+00,7.649187743663787842e-02,9.943943619728088379e-01,3.550000000000000000e+02
-6.349094595155013394e+02,-6.197615482395310664e+02,-3.215849869116641457e+02,-2.972787001158761768e+02,-7.137711050995590085e+02,-7.244777201046817936e+02,-2.342370889389876538e+02,-3.392687368035558393e+02,9.293763160705566406e+00,7.649187743663787842e-02,9.943943619728088379e-01,3.560000000000000000e+02
-6.306052312054247295e+02,-6.146224348939514357e+02,-3.198150359595106238e+02,-2.938361071689914752e+02,-7.093062725713148211e+02,-7.196993528138968941e+02,-2.318685056901063035e+02,-3.375459672237559516e+02,9.293763160705566406e+00,7.649187743663787842e-02,9.943943619728088379e-01,3.570000000000000000e+02
-6.266657915386018658e+02,-6.095330787937512014e+02,-3.176247258137775589e+02,-2.907630203058124607e+02,-7.047577575915092893e+02,-7.153821683367727928e+02,-2.291963222685837991e+02,-3.360529221410488390e+02,9.293763160705566406e+00,7.649187743663787842e-02,9.943943619728088379e-01,3.580000000000000000e+02
-6.233785373317367657e+02,-6.048743361197700779e+02,-3.152261772517742884e+02,-2.887333841632134863e+02,-7.005346639307613259e+02,-7.115709013732816857e+02,-2.265279787382910399e+02,-3.345643138726077268e+02,9.293763160705566406e+00,7.649187743663787842e-02,9.943943619728088379e-01,3.590000000000000000e+02
-6.207009872049649175e+02,-6.004464232972653690e+02,-3.129965766115715269e+02,-2.875453425774869629e+02,-6.967687615648401334e+02,-7.080112317337438981e+02,-2.239561668168948927e+02,-3.327191156514909380e+02,9.293763160705566406e+00,7.649187743663787842e-02,9.943943619728088379e-01,3.600000000000000000e+02
-6.181857155139457518e+02,-5.959521410291247321e+02,-3.111968349830474381e+02,-2.861881878595131639e+02,-6.931985449097153378e+02,-7.042007926087833312e+02,-2.214587620984370915e+02,-3.302491389108142812e+02,9.293763160705566406e+00,7.649187743663787842e-02,9.943943619728088379e-01,3.610000000000000000e+02
-6.152976794465249668e+02,-5.914962506615761413e+02,-3.097656593365322806e+02,-2.837062793388415685e+02,-6.893946046101002594e+02,-6.996923046416973193e+02,-2.190979392912809089e+02,-3.272044186035368512e+02,9.293763160705566406e+00,7.649187743663787842e-02,9.943943619728088379e-01,3.620000000000000000e+02
-6.118604550635187707e+02,-5.875484294784043868e+02,-3.084029446175286466e+02,-2.800646606019181490e+02,-6.851749076262958624e+02,-6.944513373147135553e+02,-2.170982942884686508e+02,-3.239495658006749181e+02,9.293763160705566406e+00,7.649187743663787842e-02,9.943943619728088379e-01,3.630000000000000000e+02
-6.081675036608238543e+02,-5.843860748742492888e+02,-3.068409480171785617e+02,-2.761460357885400754e+02,-6.807726252123477479e+02,-6.888991161420874505e+02,-2.156489654284732751e+02,-3.208683642126552513e+02,9.332008361816406250e+00,3.824593871831893921e-02,9.943943619728088379e-01,3.640000000000000000e+02
-6.045988521199452634e+02,-5.816202653968925915e+02,-3.050100045656861312e+02,-2.728495911219984009e+02,-6.765256661231453563e+02,-6.835282021715700012e+02,-2.145754587018432176e+02,-3.179981930153167013e+02,9.332008361816406250e+00,3.824593871831893921e-02,9.943943619728088379e-01,3.650000000000000000e+02
-6.011233256427021843e+02,-5.783798520535553962e+02,-3.029571579547443889e+02,-2.701853477402069075e+02,-6.723899882544801585e+02,-6.784353904715962926e+02,-2.132494415024245882e+02,-3.149300933642675773e+02,9.332008361816406250e+00,3.824593871831893921e-02,9.943943619728088379e-01,3.660000000000000000e+02
-5.972501208670332744e+02,-5.740751303092504259e+02,-3.006779788109329274e+02,-2.672849225748516346e+02,-6.678241505695600608e+02,-6.732704386235361653e+02,-2.109642869814358619e+02,-3.111265394626152556e+02,9.332008361816406250e+00,3.824593871831893921e-02,9.943943619728088379e-01,3.670000000000000000e+02
-5.925484752092679628e+02,-5.690201265211142072e+02,-2.981163036238581299e+02,-2.633427618618084125e+02,-6.622405640914573723e+02,-6.677078504337644063e+02,-2.075605465461835593e+02,-3.064546425561225078e+02,9.332008361816406250e+00,3.824593871831893921e-02,9.943943619728088379e-01,3.680000000000000000e+02
-5.872019300430094972e+02,-5.642508223997933783e+02,-2.953401070756819990e+02,-2.585543829866330725e+02,-6.556000083584331151e+02,-6.619566683357197689e+02,-2.037299553063039639e+02,-3.014792539467960069e+02,9.332008361816406250e+00,3.824593871831893921e-02,9.943943619728088379e-01,3.690000000000000000e+02
-5.819622939122957632e+02,-5.606267794000150388e+02,-2.926384875988742351e+02,-2.541101761560391878e+02,-6.485508695480225470e+02,-6.567288315139894621e+02,-2.006295075737689331e+02,-2.972005518508751720e+02,9.332008361816406250e+00,3.824593871831893921e-02,9.943943619728088379e-01,3.700000000000000000e+02
-5.774776175300974046e+02,-5.580218350979982915e+02,-2.903415373856355473e+02,-2.512324122569507381e+02,-6.419707401044668131e+02,-6.526184078038397729e+02,-1.990590446218182024e+02,-2.943587976139856437e+02,9.332008361816406250e+00,3.824593871831893921e-02,9.943943619728088379e-01,3.710000000000000000e+02
-5.736692261964756199e+02,-5.553671440224679827e+02,-2.884919661901867585e+02,-2.501526652507870949e+02,-6.363335606915381959e+02,-6.494607437778313397e+02,-1.988645827973314226e+02,-2.928213566496992826e+02,9.332008361816406250e+00,3.824593871831893921e-02,9.943943619728088379e-01,3.720000000000000000e+02
-5.698370833753645002e+02,-5.515485249093446782e+02,-2.867351314597008241e+02,-2.499502477904443367e+02,-6.314574780841569464e+02,-6.463298655955295544e+02,-1.990625398764771035e+02,-2.916062953789464700e+02,9.332008361816406250e+00,3.824593871831893921e-02,9.943943619728088379e-01,3.730000000000000000e+02
-5.654317795503161506e+02,-5.463831270736166061e+02,-2.846239262097856226e+02,-2.493314059681711115e+02,-6.267854578902231424e+02,-6.422372653987354170e+02,-1.985659972126502453e+02,-2.896363231003067540e+02,9.332008361816406250e+00,3.824593871831893921e-02,9.943943619728088379e-01,3.740000000000000000e+02
-5.607111655189132762e+02,-5.408272250927543610e+02,-2.821172823648748818e+02,-2.476153799804496884e+02,-6.219126306581811150e+02,-6.369503173070763751e+02,-1.969360211547948438e+02,-2.867039266472588679e+02,9.332008361816406250e+00,3.824593871831893921e-02,9.943943619728088379e-01,3.750000000000000000e+02
-5.565812449657062189e+02,-5.362655042971387047e+02,-2.797978787723263849e+02,-2.451172281813471727e+02,-6.169706773028310636e+02,-6.312434448128972235e+02,-1.946345692155764482e+02,-2.838481934991232265e+02,9.332008361816406250e+00,3.824593871831893921e-02,9.943943619728088379e-01,3.760000000000000000e+02
-5.537442701253935411e+02,-5.335041194309008006e+02,-2.785216411835776853e+02,-2.427104868938549771e+02,-6.126159275937395705e+02,-6.263633702127399374e+02,-1.926602256658973147e+02,-2.826995138542263248e+02,9.332008361816406250e+00,3.824593871831893921e-02,9.943943619728088379e-01,3.770000000000000000e+02
-5.520085622452070311e+02,-5.322670579209868720e+02,-2.787329785863139477e+02,-2.410501117987480484e+02,-6.096232556650440984e+02,-6.231431836841252334e+02,-1.918812407844395693e+02,-2.841849090229206922e+02,9.332008361816406250e+00,3.824593871831893921e-02,9.943943619728088379e-01,3.780000000000000000e+02
-5.504464541429063047e+02,-5.315078704781526540e+02,-2.800325765061315906e+02,-2.401209264828496543e+02,-6.083047254118714591e+02,-6.214354884598342323e+02,-1.925144229121542594e+02,-2.876136905745329386e+02,9.332008361816406250e+00,3.824593871831893921e-02,9.943943619728088379e-01,3.790000000000000000e+02
-5.482281410442708420e+02,-5.301853579696667111e+02,-2.814091738287179396e+02,-2.393934101645227202e+02,-6.081522457230532837e+02,-6.202507781391468598e+02,-1.940362051583822449e+02,-2.909760958480831050e+02,9.332008361816406250e+00,3.824593871831893921e-02,9.943943619728088379e-01,3.800000000000000000e+02
-5.453169404090003809e+02,-5.278944007108705136e+02,-2.819759526734678730e+02,-2.383479049843174380e+02,-6.080668437676381473e+02,-6.184665931437432391e+02,-1.955428756655514917e+02,-2.923432520772767020e+02,9.332008361816406250e+00,3.824593871831893921e-02,9.943943619728088379e-01,3.810000000000000000e+02
-5.423855640247295469e+02,-5.249885808446663304e+02,-2.815932050903900290e+02,-2.368906693036362867e+02,-6.071247481242676258e+02,-6.155665211027492205e+02,-1.962987422457779303e+02,-2.912675160647586381e+02,9.332008361816406250e+00,3.824593871831893921e-02,9.943943619728088379e-01,3.820000000000000000e+02
-5.401075916793204215e+02,-5.222226584961317712e+02,-2.808490184827201119e+02,-2.353517693212027098e+02,-6.052898014148222501e+02,-6.118832090050468651e+02,-1.961032253161290555e+02,-2.889965357911833053e+02,9.332008361816406250e+00,3.824593871831893921e-02,9.943943619728088379e-01,3.830000000000000000e+02
-5.385624665932430162e+02,-5.201996207547385893e+02,-2.804399882733532650e+02,-2.341225074847120595e+02,-6.033838463006156871e+02,-6.082034220970235765e+02,-1.952543531787098345e+02,-2.872995361172247613e+02,9.332008361816406250e+00,3.824593871831893921e-02,9.943943619728088379e-01,3.840000000000000000e+02
-5.372779558036395429e+02,-5.189551932647057129e+02,-2.805302397063273929e+02,-2.332734436346108851e+02,-6.022503335763713039e+02,-6.050726726657971994e+02,-1.942097139297015929e+02,-2.869110805706191059e+02,9.332008361816406250e+00,3.824593871831893921e-02,9.943943619728088379e-01,3.850000000000000000e+02
-5.357374767404357954e+02,-5.179066890222443362e+02,-2.806458416182244946e+02,-2.324681617398823619e+02,-6.018492195993455880e+02,-6.023515964659259225e+02,-1.932515649137344553e+02,-2.869259550064102768e+02,9.332008361816406250e+00,3.824593871831893921e-02,9.943943619728088379e-01,3.860000000000000000e+02
-5.337666795366587849e+02,-5.162147995890509264e+02,-2.801256765832408746e+02,-2.312049234702533340e+02,-6.011532689527089133e+02,-5.993360544562651739e+02,-1.923804921975906836e+02,-2.856146999345196491e+02,9.332008361816406250e+00,3.824593871831893921e-02,9.943943619728088379e-01,3.870000000000000000e+02
-5.314426624685809202e+02,-5.133466937048976888e+02,-2.786238362652138676e+02,-2.291351031827271072e+02,-5.989584515398660187e+02,-5.952815684122115272e+02,-1.914159889260486125e+02,-2.818703625714683767e+02,9.332008361816406250e+00,3.824593871831893921e-02,9.943943619728088379e-01,3.880000000000000000e+02
-5.287339420956150207e+02,-5.094383536035868474e+02,-2.761871424818864398e+02,-2.261747352271936506e+02,-5.948113111450502402e+02,-5.898720821352535495e+02,-1.901187641260289638e+02,-2.760122985456982860e+02,9.332008361816406250e+00,3.824593871831893921e-02,9.943943619728088379e-01,3.890000000000000000e+02
-5.253314234736828894e+02,-5.051320826099363330e+02,-2.729458051298970531e+02,-2.223834954463441136e+02,-5.891899446488191643e+02,-5.833092958756324151e+02,-1.882361205099791732e+02,-2.693634433113861633e+02,9.332008361816406250e+00,3.824593871831893921e-02,9.943943619728088379e-01,3.900000000000000000e+02
-5.208652441894139429e+02,-5.009996074600730935e+02,-2.688822157077324846e+02,-2.178516990500306747e+02,-5.828935361683961673e+02,-5.760893609772765558e+02,-1.855632780695800648e+02,-2.631612996705275691e+02,9.332008361816406250e+00,3.824593871831893921e-02,9.943943619728088379e-01,3.910000000000000000e+02
-5.152720763580186940e+02,-4.970765013330969850e+02,-2.639962151843415086e+02,-2.127688911700392964e+02,-5.763779376631136984e+02,-5.687529779547021462e+02,-1.820850847170086126e+02,-2.578338355844325633e+02,9.332008361816406250e+00,3.824593871831893921e-02,9.943943619728088379e-01,3.920000000000000000e+02
-5.089507883071141805e+02,-4.929528155068601336e+02,-2.586503644884187452e+02,-2.075675831296280194e+02,-5.696950227182578601e+02,-5.617733821887654813e+02,-1.780859289806267043e+02,-2.531375785782327057e+02,9.332008361816406250e+00,3.824593871831893921e-02,9.943943619728088379e-01,3.930000000000000000e+02
-5.025892687231767013e+02,-4.883178567233785543e+02,-2.536006675662292764e+02,-2.028583586802687933e+02,-5.629109245302593081e+02,-5.554963743759658428e+02,-1.740537767237683511e+02,-2.487821786397421420e+02,9.332008361816406250e+00,3.824593871831893921e-02,9.943943619728088379e-01,3.940000000000000000e+02
-4.968403677482936018e+02,-4.833526086679205491e+02,-2.495425204430439408e+02,-1.990616467720903984e+02,-5.563757783464684508e+02,-5.500284488509682888e+02,-1.704119804087672492e+02,-2.448245808622480126e+02,9.332008361816406250e+00,1.147378161549568176e-01,9.179025292396545410e-01,3.950000000000000000e+02
-4.920726253483153414e+02,-4.785028411278688054e+02,-2.465830216841841320e+02,-1.960411445312997785e+02,-5.505027593992181210e+02,-5.451605753647777419e+02,-1.673390494884365580e+02,-2.415322565863925774e+02,9.332008361816406250e+00,1.147378161549568176e-01,9.179025292396545410e-01,3.960000000000000000e+02
-4.882519402836392146e+02,-4.738722096626343046e+02,-2.442012500288383308e+02,-1.931569843281511112e+02,-5.453414064832504664e+02,-5.404839414293355730e+02,-1.648438821879549323e+02,-2.389991461480385624e+02,9.332008361816406250e+00,1.147378161549568176e-01,9.179025292396545410e-01,3.970000000000000000e+02
-4.849091919434108604e+02,-4.689544712003271343e+02,-2.417592744631515416e+02,-1.897910863931808763e+02,-5.404697724288857899e+02,-5.356754236722117639e+02,-1.629290712795354921e+02,-2.369423681346502235e+02,9.332008361816406250e+00,1.147378161549568176e-01,9.179025292396545410e-01,3.980000000000000000e+02
-4.812545773457311498e+02,-4.631131991372551511e+02,-2.390500652784044178e+02,-1.859003749227258595e+02,-5.353462773966584791e+02,-5.306966831309973713e+02,-1.615513767174693385e+02,-2.348269620424798632e+02,9.332008361816406250e+00,1.147378161549568176e-01,9.179025292396545410e-01,3.990000000000000000e+02
-4.765685522022579335e+02,-4.563770303376056745e+02,-2.363609973650659413e+02,-1.820712284130745502e+02,-5.297564635309245205e+02,-5.256969474278939742e+02,-1.603899544845639866e+02,-2.321400055821204660e+02,9.332008361816406250e+00,1.147378161549568176e-01,9.179025292396545410e-01,4.000000000000000000e+02
-4.707643351204571900e+02,-4.496762857081955644e+02,-2.340551072172979730e+02,-1.789956408198786448e+02,-5.239343430534040635e+02,-5.207242746778210858e+02,-1.587876655871259572e+02,-2.286048546064971561e+02,9.332008361816406250e+00,1.147378161549568176e-01,9.179025292396545410e-01,4.010000000000000000e+02
-4.646863162704155457e+02,-4.441670899827408903e+02,-2.321600261635726383e+02,-1.768483594684198579e+02,-5.182844767806427626e+02,-5.155736819048838697e+02,-1.561301982358609166e+02,-2.242744592590520369e+02,9.332008361816406250e+00,1.147378161549568176e-01,9.179025292396545410e-01,4.020000000000000000e+02
-4.597130776397680165e+02,-4.402806490137338642e+02,-2.303726500777947876e+02,-1.751487523688169858e+02,-5.129977861650895647e+02,-5.099629683794846642e+02,-1.524198207001400078e+02,-2.195111337102930520e+02,9.332008361816406250e+00,1.147378161549568176e-01,9.179025292396545410e-01,4.030000000000000000e+02
-4.567598667757217754e+02,-4.374911394747318809e+02,-2.283768232021357107e+02,-1.732018831025775398e+02,-5.078810707488814842e+02,-5.038607293539453167e+02,-1.484297363651558044e+02,-2.148319901328109154e+02,9.332008361816406250e+00,1.147378161549568176e-01,9.179025292396545410e-01,4.040000000000000000e+02
-4.554407966959122405e+02,-4.350711782988953473e+02,-2.260818653691503641e+02,-1.706715152938254505e+02,-5.025215703374155964e+02,-4.976274112155711009e+02,-1.451613263820181601e+02,-2.106355153809568037e+02,9.332008361816406250e+00,1.147378161549568176e-01,9.179025292396545410e-01,4.050000000000000000e+02
-4.541925119333050134e+02,-4.330422576185217167e+02,-2.235802121415845249e+02,-1.677695407335750133e+02,-4.966656393446332913e+02,-4.918338418968833139e+02,-1.430608089382617436e+02,-2.069852132464234273e+02,9.332008361816406250e+00,1.147378161549568176e-01,9.179025292396545410e-01,4.060000000000000000e+02
-4.514020552746635531e+02,-4.322779075518888021e+02,-2.209939268429538970e+02,-1.649638262774983559e+02,-4.905161220796244379e+02,-4.869269336180700520e+02,-1.417459446312177533e+02,-2.036756094649776969e+02,9.332008361816406250e+00,1.147378161549568176e-01,9.179025292396545410e-01,4.070000000000000000e+02
-4.466343253628774619e+02,-4.336009485707136264e+02,-2.184562416646886049e+02,-1.625673313320667148e+02,-4.846796996998850773e+02,-4.830077018436045364e+02,-1.405018654585428521e+02,-2.005633040570978665e+02,9.332008361816406250e+00,1.147378161549568176e-01,9.179025292396545410e-01,4.080000000000000000e+02
-4.408741967145563194e+02,-4.367837377171663320e+02,-2.161899458362495352e+02,-1.605946249579010328e+02,-4.797228829843284075e+02,-4.798239089751045867e+02,-1.390020904250827698e+02,-1.978187788807445031e+02,9.332008361816406250e+00,1.147378161549568176e-01,9.179025292396545410e-01,4.090000000000000000e+02
-4.355754880095462340e+02,-4.404985110973598239e+02,-2.144611970199707685e+02,-1.589393434311086821e+02,-4.756703719509405346e+02,-4.769043846852796378e+02,-1.375276905176269793e+02,-1.957776320735124500e+02,9.332008361816406250e+00,1.147378161549568176e-01,9.179025292396545410e-01,4.100000000000000000e+02
-4.314099119432748921e+02,-4.432963098095406167e+02,-2.133459993464944091e+02,-1.575810705390003932e+02,-4.719432620111897450e+02,-4.737480171037382206e+02,-1.365236058057389528e+02,-1.944788518234590811e+02,9.332008361816406250e+00,1.147378161549568176e-01,9.179025292396545410e-01,4.110000000000000000e+02
-4.278963172231108274e+02,-4.446639626153764766e+02,-2.125637071598657712e+02,-1.565549832427304864e+02,-4.678877750280134933e+02,-4.700284666908546569e+02,-1.360298040367679278e+02,-1.934020231803797287e+02,9.332008361816406250e+00,1.147378161549568176e-01,9.179025292396545410e-01,4.120000000000000000e+02
-4.242000203917355066e+02,-4.451844211687630377e+02,-2.116511541352206223e+02,-1.557419584341091650e+02,-4.634461956876043587e+02,-4.657465713318879352e+02,-1.355988755867260807e+02,-1.918143509521719352e+02,9.332008361816406250e+00,1.147378161549568176e-01,9.179025292396545410e-01,4.130000000000000000e+02
-4.202231150910474753e+02,-4.457619799877470541e+02,-2.103745640140450632e+02,-1.547744259081109703e+02,-4.592769463941613139e+02,-4.612004728928595796e+02,-1.347301617534931211e+02,-1.895265222390921735e+02,9.332008361816406250e+00,1.147378161549568176e-01,9.179025292396545410e-01,4.140000000000000000e+02
-4.168272678544149130e+02,-4.467762895823070721e+02,-2.089761027216623006e+02,-1.532724300458021389e+02,-4.561270671384540947e+02,-4.567586026552908152e+02,-1.333290851975107216e+02,-1.873696595812643864e+02,9.332008361816406250e+00,1.147378161549568176e-01,9.179025292396545410e-01,4.150000000000000000e+02
-4.149420428451658154e+02,-4.479773904398043669e+02,-2.079660618077205072e+02,-1.512713844832569521e+02,-4.540484811645078480e+02,-4.526207133713292023e+02,-1.317631904716154168e+02,-1.868672247384629372e+02,9.293763160705566406e+00,3.824593871831893921e-02,9.943943619728088379e-01,4.160000000000000000e+02
-4.144687283522976031e+02,-4.490508128403635055e+02,-2.076205565326363285e+02,-1.494298556500020823e+02,-4.522511469398978079e+02,-4.487803842994653678e+02,-1.305364785574242887e+02,-1.892639231119815122e+02,9.293763160705566406e+00,3.824593871831893921e-02,9.943943619728088379e-01,4.170000000000000000e+02
-4.141255419146928034e+02,-4.501036381134836120e+02,-2.076710376289411215e+02,-1.487332998731671978e+02,-4.497658272636085712e+02,-4.451998210860760992e+02,-1.299528568074947543e+02,-1.946673185486902184e+02,9.293763160705566406e+00,3.824593871831893921e-02,9.943943619728088379e-01,4.180000000000000000e+02
-4.124612007647319842e+02,-4.515021836780747435e+02,-2.074961850624363251e+02,-1.498254639590491024e+02,-4.462707025233967215e+02,-4.419401023949717455e+02,-1.300181784516830703e+02,-2.019565553238389839e+02,9.293763160705566406e+00,3.824593871831893921e-02,9.943943619728088379e-01,4.190000000000000000e+02
-4.091040101359681103e+02,-4.532591942553581248e+02,-2.066437996431286592e+02,-1.524645950172816811e+02,-4.423127735465641308e+02,-4.390350323454567842e+02,-1.305468342738249703e+02,-2.094677541541718711e+02,9.293763160705566406e+00,3.824593871831893921e-02,9.943943619728088379e-01,4.200000000000000000e+02
-4.050729972799608731e+02,-4.546592470451514600e+02,-2.052179227127076047e+02,-1.555762205785094920e+02,-4.388175911403272949e+02,-4.362501524478634565e+02,-1.313006835487863100e+02,-2.159033998504064584e+02,9.293763160705566406e+00,3.824593871831893921e-02,9.943943619728088379e-01,4.210000000000000000e+02
-4.018752067513623842e+02,-4.545884510552336906e+02,-2.038181802279032127e+02,-1.579375568697364542e+02,-4.364425177863749923e+02,-4.330975069941346192e+02,-1.320629613074333975e+02,-2.208750846034217830e+02,9.293763160705566406e+00,3.824593871831893921e-02,9.943943619728088379e-01,4.220000000000000000e+02
-4.002456907883429267e+02,-4.523260366837989750e+02,-2.031097306644664968e+02,-1.590155396650052353e+02,-4.353139016375912433e+02,-4.292425462359433368e+02,-1.326646848958048395e+02,-2.248535944445279711e+02,9.293763160705566406e+00,3.824593871831893921e-02,9.943943619728088379e-01,4.230000000000000000e+02
-3.996432354291064257e+02,-4.480740086557025279e+02,-2.033573117746313983e+02,-1.592997207916964726e+02,-4.351489163303021996e+02,-4.249386050589405386e+02,-1.329833776338032294e+02,-2.286695671962502274e+02,9.293763160705566406e+00,3.824593871831893921e-02,9.943943619728088379e-01,4.240000000000000000e+02
-3.988413893680785804e+02,-4.427483279180305544e+02,-2.042327387260929754e+02,-1.598390915836184831e+02,-4.354335554148524352e+02,-4.209675097858880690e+02,-1.329139689587118482e+02,-2.328618008963439934e+02,9.293763160705566406e+00,3.824593871831893921e-02,9.943943619728088379e-01,4.250000000000000000e+02
-3.969493144196781031e+02,-4.372412983181511663e+02,-2.049843736430466379e+02,-1.613338364024666589e+02,-4.355179273158528304e+02,-4.180168432297527943e+02,-1.323611143135071870e+02,-2.372189385805454549e+02,9.293763160705566406e+00,3.824593871831893921e-02,9.943943619728088379e-01,4.260000000000000000e+02
-3.939523590043363583e+02,-4.318307975543671091e+02,-2.048584389272382396e+02,-1.635264591304703572e+02,-4.347889554028506609e+02,-4.160464843512891093e+02,-1.313147231713255678e+02,-2.408318731533208847e+02,9.293763160705566406e+00,3.824593871831893921e-02,9.943943619728088379e-01,4.270000000000000000e+02
-3.904572309403288273e+02,-4.262498997766879256e+02,-2.035349952834071701e+02,-1.654296575690859754e+02,-4.329970142841407323e+02,-4.142953247020550407e+02,-1.299797285584863857e+02,-2.427420383452249553e+02,9.293763160705566406e+00,3.824593871831893921e-02,9.943943619728088379e-01,4.280000000000000000e+02
-3.870828030971320004e+02,-4.202984648955625744e+02,-2.013203074828165882e+02,-1.662161754384328560e+02,-4.304513735216487476e+02,-4.119736932847445132e+02,-1.287956037946673860e+02,-2.428061303520921683e+02,9.293763160705566406e+00,3.824593871831893921e-02,9.943943619728088379e-01,4.290000000000000000e+02
-3.841264133913532532e+02,-4.143642110841446993e+02,-1.989657510468005057e+02,-1.660102754530216771e+02,-4.277691824639236984e+02,-4.089873296416535595e+02,-1.282187460102659315e+02,-2.420512165893924248e+02,9.293763160705566406e+00,3.824593871831893921e-02,9.943943619728088379e-01,4.300000000000000000e+02
-3.816680301743022028e+02,-4.092993566542891131e+02,-1.972030029243942408e+02,-1.658685877923712724e+02,-4.253050308671340645e+02,-4.059772625580121712e+02,-1.283684594125320473e+02,-2.420407399620826254e+02,9.293763160705566406e+00,3.824593871831893921e-02,9.943943619728088379e-01,4.310000000000000000e+02
-3.797773551847189992e+02,-4.056930503871840301e+02,-1.962845507072861437e+02,-1.669133366161586309e+02,-4.228093021426684572e+02,-4.036136688733317897e+02,-1.288295061747280670e+02,-2.436099805516537344e+02,9.293763160705566406e+00,3.824593871831893921e-02,9.943943619728088379e-01,4.320000000000000000e+02
-3.784723903322210390e+02,-4.031770337309967545e+02,-1.958663519047331647e+02,-1.693572005781320513e+02,-4.197134176695831229e+02,-4.018371729190034785e+02,-1.288502593763855657e+02,-2.460517447499087211e+02,9.293763160705566406e+00,3.824593871831893921e-02,9.943943619728088379e-01,4.330000000000000000e+02
-3.774918051943927821e+02,-4.004495783433476390e+02,-1.953231674485546137e+02,-1.722859166791126881e+02,-4.157734624467370850e+02,-3.998007289384900105e+02,-1.278473744446209821e+02,-2.476122962062709121e+02,9.293763160705566406e+00,3.824593871831893921e-02,9.943943619728088379e-01,4.340000000000000000e+02
-3.762455476097193241e+02,-3.961358880956340727e+02,-1.942462753958525354e+02,-1.744086708084200836e+02,-4.114108706284359869e+02,-3.965908859133355691e+02,-1.258451776715619417e+02,-2.470127453065060763e+02,9.293763160705566406e+00,3.824593871831893921e-02,9.943943619728088379e-01,4.350000000000000000e+02
-3.741283891665784722e+02,-3.898643900198640040e+02,-1.927292118006616874e+02,-1.751209349287332770e+02,-4.074024645546332977e+02,-3.920586160604580073e+02,-1.235001219316932293e+02,-2.446629183544841908e+02,9.293763160705566406e+00,3.824593871831893921e-02,9.943943619728088379e-01,4.360000000000000000e+02
-3.709641689572622454e+02,-3.826721603897012756e+02,-1.912094252744655023e+02,-1.749280820361573205e+02,-4.042353956952410954e+02,-3.869888252593455036e+02,-1.216783275691227573e+02,-2.423956772471442491e+02,9.293763160705566406e+00,3.824593871831893921e-02,9.943943619728088379e-01,4.370000000000000000e+02
-3.671697386813593766e+02,-3.763522583034618947e+02,-1.900202171091004857e+02,-1.748658289828322268e+02,-4.017625044883784540e+02,-3.824662953925258080e+02,-1.208995628837424192e+02,-2.419045153292813666e+02,9.293763160705566406e+00,3.824593871831893921e-02,9.943943619728088379e-01,4.380000000000000000e+02
-3.634672792666083296e+02,-3.722185593942881496e+02,-1.890601786655788601e+02,-1.754900719346087499e+02,-3.994334833468587931e+02,-3.790289260751737856e+02,-1.210467470944731758e+02,-2.433146492024138752e+02,9.293763160705566406e+00,3.824593871831893921e-02,9.943943619728088379e-01,4.390000000000000000e+02
-3.603844467039684787e+02,-3.702435366072777470e+02,-1.878723095953509983e+02,-1.763920928213583466e+02,-3.968069234188583323e+02,-3.763647910575514288e+02,-1.215103502991146343e+02,-2.451978899005102903e+02,9.293763160705566406e+00,3.824593871831893921e-02,9.943943619728088379e-01,4.400000000000000000e+02
-3.579725815136735037e+02,-3.692282548064690673e+02,-1.860676248908507660e+02,-1.766693364903576366e+02,-3.938491558192167759e+02,-3.737703023769358879e+02,-1.216257340910037783e+02,-2.459512550482045299e+02,9.370253562927246094e+00,3.824593871831893921e-02,9.561483860015869141e-01,4.410000000000000000e+02
-3.559211808389600264e+02,-3.678255580005506999e+02,-1.837011087629252870e+02,-1.758453681363707801e+02,-3.907965958779655011e+02,-3.708561341898571300e+02,-1.210461590903914839e+02,-2.451554305580934852e+02,9.370253562927246094e+00,3.824593871831893921e-02,9.561483860015869141e-01,4.420000000000000000e+02
-3.538808917666424350e+02,-3.655675835522847592e+02,-1.812419008945066707e+02,-1.743379632005153326e+02,-3.878067075889161970e+02,-3.678062779919760032e+02,-1.197996600189007950e+02,-2.436555475182813097e+02,9.370253562927246094e+00,3.824593871831893921e-02,9.561483860015869141e-01,4.430000000000000000e+02
-3.516964401941390861e+02,-3.630825694976956584e+02,-1.791710776458025975e+02,-1.730621809826793651e+02,-3.847668139955735569e+02,-3.649921016818952921e+02,-1.180923435108584272e+02,-2.424723809390966380e+02,9.370253562927246094e+00,3.824593871831893921e-02,9.561483860015869141e-01,4.440000000000000000e+02
-3.494003092246566666e+02,-3.613713038808182318e+02,-1.776060761807657400e+02,-1.726125148669966620e+02,-3.814390824448387320e+02,-3.624117380822726773e+02,-1.161451178981124031e+02,-2.418004745794569317e+02,9.370253562927246094e+00,3.824593871831893921e-02,9.561483860015869141e-01,4.450000000000000000e+02
-3.470535447122742880e+02,-3.607870762648781238e+02,-1.763223054627137572e+02,-1.728305944133917365e+02,-3.778060856854094709e+02,-3.596003450013895417e+02,-1.142495617594454416e+02,-2.411206382491163822e+02,9.370253562927246094e+00,3.824593871831893921e-02,9.561483860015869141e-01,4.460000000000000000e+02
-3.446043887713649383e+02,-3.605872797568090391e+02,-1.751359409108954424e+02,-1.731023857479558501e+02,-3.742759263710404412e+02,-3.561410432526986369e+02,-1.128997693309993338e+02,-2.401753718179588759e+02,9.370253562927246094e+00,3.824593871831893921e-02,9.561483860015869141e-01,4.470000000000000000e+02
-3.418677519615134770e+02,-3.594350099204489197e+02,-1.742165910082549090e+02,-1.729932805379730780e+02,-3.715118467593379137e+02,-3.522461027640151769e+02,-1.126814436963568369e+02,-2.396091096850200302e+02,9.370253562927246094e+00,3.824593871831893921e-02,9.561483860015869141e-01,4.480000000000000000e+02
-3.386491461757232173e+02,-3.564370330439810459e+02,-1.739540421753563351e+02,-1.725701550803942155e+02,-3.699713036039597682e+02,-3.487618859637091191e+02,-1.138348607890825406e+02,-2.404905668221354063e+02,9.370253562927246094e+00,3.824593871831893921e-02,9.561483860015869141e-01,4.490000000000000000e+02
-3.349684787903761389e+02,-3.518586846014200091e+02,-1.744907804940835376e+02,-1.721867459483564744e+02,-3.695584286883536151e+02,-3.465312304638400747e+02,-1.158506201825766766e+02,-2.431965785676188716e+02,9.370253562927246094e+00,3.824593871831893921e-02,9.561483860015869141e-01,4.500000000000000000e+02
-3.312381116951783042e+02,-3.469447000740237854e+02,-1.754217507236776328e+02,-1.720728859938844835e+02,-3.697455865924139289e+02,-3.457024914627395447e+02,-1.175927319789952890e+02,-2.468397786685090978e+02,9.370253562927246094e+00,3.824593871831893921e-02,9.561483860015869141e-01,4.510000000000000000e+02
-3.282008955390983829e+02,-3.430230569028685750e+02,-1.760275274358587012e+02,-1.721805153733362204e+02,-3.700564454508266863e+02,-3.456140726334301689e+02,-1.180113354395084571e+02,-2.498426747609264567e+02,9.370253562927246094e+00,3.824593871831893921e-02,9.561483860015869141e-01,4.520000000000000000e+02
-3.265347557471577602e+02,-3.406369797788352116e+02,-1.758468922083761754e+02,-1.723568603700232416e+02,-3.703895450384834476e+02,-3.453066178039825900e+02,-1.168948274440167552e+02,-2.510560914456150385e+02,9.370253562927246094e+00,3.824593871831893921e-02,9.561483860015869141e-01,4.530000000000000000e+02
-3.262958062751786201e+02,-3.393724133527275626e+02,-1.750078123662992766e+02,-1.725517083652825931e+02,-3.707701504160700097e+02,-3.441321900400944287e+02,-1.149844323218594582e+02,-2.503277288624963148e+02,9.370253562927246094e+00,3.824593871831893921e-02,9.561483860015869141e-01,4.540000000000000000e+02
-3.266224083435467946e+02,-3.383831009556261051e+02,-1.739511052689881581e+02,-1.727984157000605592e+02,-3.707611466213761560e+02,-3.419308249144310139e+02,-1.133226150013592815e+02,-2.480771591894294943e+02,9.370253562927246094e+00,3.824593871831893921e-02,9.561483860015869141e-01,4.550000000000000000e+02
-3.260460328194621979e+02,-3.370333620190031070e+02,-1.728191115106096731e+02,-1.730299767575056649e+02,-3.692703785557109768e+02,-3.387681300913031919e+02,-1.124066918238881954e+02,-2.444942307391502254e+02,9.370253562927246094e+00,3.824593871831893921e-02,9.561483860015869141e-01,4.560000000000000000e+02
-3.233187504886936949e+02,-3.351036894057356221e+02,-1.711572044778508825e+02,-1.729867163181256728e+02,-3.651882219307349260e+02,-3.346546941310239163e+02,-1.118666845871925943e+02,-2.393090158870345476e+02,9.370253562927246094e+00,3.824593871831893921e-02,9.561483860015869141e-01,4.570000000000000000e+02
-3.182000374938638743e+02,-3.325413489420507176e+02,-1.682771429284803162e+02,-1.723492830153131763e+02,-3.584023334948942647e+02,-3.295824358746281177e+02,-1.108636175533101778e+02,-2.323574641232380600e+02,9.370253562927246094e+00,3.824593871831893921e-02,9.561483860015869141e-01,4.580000000000000000e+02
-3.116056932857691208e+02,-3.292001907667586238e+02,-1.639751873468107988e+02,-1.709721356878380902e+02,-3.502047550807792504e+02,-3.237806190466553744e+02,-1.087838265687623789e+02,-2.242692657996421985e+02,9.370253562927246094e+00,3.824593871831893921e-02,9.561483860015869141e-01,4.590000000000000000e+02
-3.049977849383867579e+02,-3.249390532496349806e+02,-1.589162418392470499e+02,-1.689987354787945151e+02,-3.425927816750977399e+02,-3.178412705661639848e+02,-1.056665961007938677e+02,-2.164611136967450875e+02,9.370253562927246094e+00,3.824593871831893921e-02,9.561483860015869141e-01,4.600000000000000000e+02
-2.994865608028044335e+02,-3.199425159622783212e+02,-1.543053892612210802e+02,-1.667769710174825377e+02,-3.370353075415227977e+02,-3.125304761600036727e+02,-1.021567177459414779e+02,-2.103548377663582869e+02,9.370253562927246094e+00,3.824593871831893921e-02,9.561483860015869141e-01,4.610000000000000000e+02
-2.953050217537206663e+02,-3.148241889640530644e+02,-1.511208393466467896e+02,-1.646706916187445131e+02,-3.337758430551402853e+02,-3.084298453835281180e+02,-9.915076983505059616e+01,-2.065243114455270188e+02,9.370253562927246094e+00,3.824593871831893921e-02,9.561483860015869141e-01,4.620000000000000000e+02
-2.919292193992437205e+02,-3.102806316417681955e+02,-1.495362578922931789e+02,-1.628834416730674093e+02,-3.321424488275010845e+02,-3.056838061019034285e+02,-9.737916398348579605e+01,-2.044821110778684670e+02,9.370253562927246094e+00,3.824593871831893921e-02,9.561483860015869141e-01,4.630000000000000000e+02
-2.885946602902672566e+02,-3.065666346252364747e+02,-1.489310515111860695e+02,-1.613405552977624211e+02,-3.313239305978886478e+02,-3.039732453618080399e+02,-9.705252554583512392e+01,-2.031473047509102798e+02,9.370253562927246094e+00,3.824593871831893921e-02,9.561483860015869141e-01,4.640000000000000000e+02
-2.847705892107533145e+02,-3.033227299618038160e+02,-1.483722485562529982e+02,-1.596834281742139865e+02,-3.307725468711400936e+02,-3.026604182536980261e+02,-9.767547996155781220e+01,-2.014688736981597685e+02,9.370253562927246094e+00,3.824593871831893921e-02,9.561483860015869141e-01,4.650000000000000000e+02
-2.803464839803700670e+02,-2.999660127375132106e+02,-1.471437606894369310e+02,-1.574478057835872278e+02,-3.300316336273149318e+02,-3.010212937530213821e+02,-9.818427994563307948e+01,-1.987278983211904233e+02,9.370253562927246094e+00,3.824593871831893921e-02,9.561483860015869141e-01,4.660000000000000000e+02
-2.755808507422730145e+02,-2.962894218576670937e+02,-1.449877422291074254e+02,-1.543939429224496962e+02,-3.284888822626489855e+02,-2.985105735967376859e+02,-9.744977390913800264e+01,-1.945220665667770845e+02,9.370253562927246094e+00,3.824593871831893921e-02,9.561483860015869141e-01,4.670000000000000000e+02
-2.709518270104645126e+02,-2.926928445159082912e+02,-1.420260299084143298e+02,-1.507772518780452629e+02,-3.255434120064792296e+02,-2.949777129096246426e+02,-9.488804670241188433e+01,-1.887385043863828287e+02,9.370253562927246094e+00,3.824593871831893921e-02,9.179025292396545410e-01,4.680000000000000000e+02
-2.669487783299773582e+02,-2.898024069038456219e+02,-1.385459044762287704e+02,-1.472805095145622545e+02,-3.210368915866279167e+02,-2.906885538479987190e+02,-9.074817209867978818e+01,-1.816498230541146768e+02,9.370253562927246094e+00,3.824593871831893921e-02,9.179025292396545410e-01,4.690000000000000000e+02
-2.638059378332586675e+02,-2.878243581503379573e+02,-1.348422461865156947e+02,-1.445767356688388645e+02,-3.154085992846562476e+02,-2.861038108166767415e+02,-8.587952604950714885e+01,-1.739339010074363614e+02,9.370253562927246094e+00,3.824593871831893921e-02,9.179025292396545410e-01,4.700000000000000000e+02
-2.613026712002024396e+02,-2.862361935525527770e+02,-1.311887273022830414e+02,-1.428410576230621700e+02,-3.093674300076090731e+02,-2.815779755457065221e+02,-8.122787978594351443e+01,-1.664182400453073569e+02,9.370253562927246094e+00,3.824593871831893921e-02,9.179025292396545410e-01,4.710000000000000000e+02
-2.588533888912188559e+02,-2.841281661052835261e+02,-1.278933036648595589e+02,-1.416378209285135199e+02,-3.034426539992628022e+02,-2.772416432095683376e+02,-7.748910796030622805e+01,-1.596941904714099110e+02,9.370253562927246094e+00,3.824593871831893921e-02,9.179025292396545410e-01,4.720000000000000000e+02
-2.559293000819584449e+02,-2.809312537101313865e+02,-1.253190462641814520e+02,-1.403125887362907633e+02,-2.978693338889816005e+02,-2.731519823315411486e+02,-7.506300500007228038e+01,-1.539519248464634984e+02,9.370253562927246094e+00,3.824593871831893921e-02,9.179025292396545410e-01,4.730000000000000000e+02
-2.525133452414920612e+02,-2.768985678727585764e+02,-1.237637011957549475e+02,-1.385424521838485816e+02,-2.928017387596969456e+02,-2.694881417365186280e+02,-7.407135614532899126e+01,-1.491796218904423768e+02,9.370253562927246094e+00,3.824593871831893921e-02,9.179025292396545410e-01,4.740000000000000000e+02
-2.491686861466928349e+02,-2.729175764559204254e+02,-1.232387218522017065e+02,-1.365544292441786638e+02,-2.884714510517951567e+02,-2.665096777198846212e+02,-7.424110897669515907e+01,-1.454546752119340454e+02,9.370253562927246094e+00,3.824593871831893921e-02,9.179025292396545410e-01,4.750000000000000000e+02
-2.465923270545954438e+02,-2.697959755358065195e+02,-1.233261205810281353e+02,-1.348273682902722612e+02,-2.850582803973684349e+02,-2.642761670062077428e+02,-7.479119348108133636e+01,-1.429340440667128860e+02,9.370253562927246094e+00,3.824593871831893921e-02,9.179025292396545410e-01,4.760000000000000000e+02
-2.450019317989776937e+02,-2.676231569949413824e+02,-1.233022439727819801e+02,-1.335902798326123957e+02,-2.824655402022449380e+02,-2.624417116371896554e+02,-7.465775839703792371e+01,-1.415115087331832910e+02,9.370253562927246094e+00,3.824593871831893921e-02,9.179025292396545410e-01,4.770000000000000000e+02
-2.438987233033512894e+02,-2.657664250415818969e+02,-1.225390414022331242e+02,-1.326077063156590157e+02,-2.803354389472301591e+02,-2.604186910849193737e+02,-7.310439160787609580e+01,-1.405623937719533387e+02,9.370253562927246094e+00,3.824593871831893921e-02,9.179025292396545410e-01,4.780000000000000000e+02
-2.424388375946368797e+02,-2.635040181666213357e+02,-1.209267595071864889e+02,-1.314238500725082304e+02,-2.783331340878926312e+02,-2.578245138577422040e+02,-7.027405394170591535e+01,-1.391838324462623859e+02,9.370253562927246094e+00,3.824593871831893921e-02,9.179025292396545410e-01,4.790000000000000000e+02
-2.401019841224533593e+02,-2.607177113698521680e+02,-1.189808587962484125e+02,-1.297975373073813898e+02,-2.763971786135671209e+02,-2.548049380306592866e+02,-6.716180037584535967e+01,-1.368244597178581898e+02,9.370253562927246094e+00,3.824593871831893921e-02,9.179025292396545410e-01,4.800000000000000000e+02
-2.370790796297358156e+02,-2.579736442309413178e+02,-1.174959009690242056e+02,-1.278806204972506748e+02,-2.746860971706937562e+02,-2.518933183911376545e+02,-6.493916909717063390e+01,-1.336969403782095469e+02,9.370253562927246094e+00,3.824593871831893921e-02,9.179025292396545410e-01,4.810000000000000000e+02
-2.340715472773356396e+02,-2.558830640471228435e+02,-1.169649066796105217e+02,-1.259676727605888118e+02,-2.732914925799327648e+02,-2.494944383697907142e+02,-6.414560081651916335e+01,-1.305223984017629846e+02,9.370253562927246094e+00,3.824593871831893921e-02,9.179025292396545410e-01,4.820000000000000000e+02
-2.317294627416642925e+02,-2.543470557092402942e+02,-1.172014934839376110e+02,-1.240973971090979830e+02,-2.720258385530532905e+02,-2.474570499862079487e+02,-6.439696491084623631e+01,-1.278245771988831621e+02,9.370253562927246094e+00,3.824593871831893921e-02,9.179025292396545410e-01,4.830000000000000000e+02
-2.302238576499851206e+02,-2.524661276901535985e+02,-1.174523003634344605e+02,-1.219424649910706648e+02,-2.704669233081808670e+02,-2.451309726308099926e+02,-6.477894987244189906e+01,-1.254463976646520678e+02,9.370253562927246094e+00,3.824593871831893921e-02,9.179025292396545410e-01,4.840000000000000000e+02
-2.292400123703437202e+02,-2.493139562604674211e+02,-1.168894782765896707e+02,-1.191330649712151626e+02,-2.681941664458481682e+02,-2.418768989208851963e+02,-6.452472323557958589e+01,-1.227371164135570325e+02,9.370253562927246094e+00,3.824593871831893921e-02,9.179025292396545410e-01,4.850000000000000000e+02
-2.282718768271395220e+02,-2.449041221285519896e+02,-1.150866112822900504e+02,-1.157042803390302197e+02,-2.650249760759074888e+02,-2.375858586671970443e+02,-6.341848545078846655e+01,-1.191649591386576503e+02,9.370253562927246094e+00,3.824593871831893921e-02,9.179025292396545410e-01,4.860000000000000000e+02
-2.269081420150155282e+02,-2.404005293085992889e+02,-1.121624237912878925e+02,-1.122136274701431375e+02,-2.611201830844893266e+02,-2.327680522816995108e+02,-6.169770657844901507e+01,-1.147416024758167623e+02,9.370253562927246094e+00,3.824593871831893921e-02,9.179025292396545410e-01,4.870000000000000000e+02
-2.249319587835366292e+02,-2.372569854699363532e+02,-1.085809441268429509e+02,-1.093641090061487375e+02,-2.569301213130997894e+02,-2.281599842221603467e+02,-5.966742820787840174e+01,-1.099218566936783645e+02,9.370253562927246094e+00,3.824593871831893921e-02,9.179025292396545410e-01,4.880000000000000000e+02
-2.223116947800260732e+02,-2.359863761756494114e+02,-1.048757328090468945e+02,-1.074623822233450028e+02,-2.530180431050416701e+02,-2.242203133378352504e+02,-5.742060108203168056e+01,-1.052396300549064563e+02,9.370253562927246094e+00,3.824593871831893921e-02,9.179025292396545410e-01,4.890000000000000000e+02
-2.192172432210606985e+02,-2.356772075908072566e+02,-1.015443900577665772e+02,-1.062301352250308355e+02,-2.498541645058567156e+02,-2.209654844354254237e+02,-5.488601963850351240e+01,-1.011401038986193726e+02,9.370253562927246094e+00,3.824593871831893921e-02,9.179025292396545410e-01,4.900000000000000000e+02
-2.160418840891652508e+02,-2.347338373281825170e+02,-9.908475860742828445e+01,-1.051448401040092904e+02,-2.476971552057807457e+02,-2.182406153513566096e+02,-5.208029625109861627e+01,-9.806906278313840630e+01,9.370253562927246094e+00,3.824593871831893921e-02,9.179025292396545410e-01,4.910000000000000000e+02
-2.132760232372147584e+02,-2.321811066648717770e+02,-9.793553032795739455e+01,-1.039503594668030928e+02,-2.465967563315014104e+02,-2.160628184152474205e+02,-4.924860780784410963e+01,-9.644134374149530231e+01,9.370253562927246094e+00,3.824593871831893921e-02,9.179025292396545410e-01,4.920000000000000000e+02
-2.112159165973646395e+02,-2.283622750061074385e+02,-9.820853322373363881e+01,-1.028086036697973213e+02,-2.464325417161776386e+02,-2.146086957522934426e+02,-4.671583848230375224e+01,-9.624470293546460198e+01,9.370253562927246094e+00,3.824593871831893921e-02,9.179025292396545410e-01,4.930000000000000000e+02
-2.097256402030036497e+02,-2.244448133139967467e+02,-9.941662739760863587e+01,-1.019480181843455284e+02,-2.468797985555331707e+02,-2.138227911175581539e+02,-4.459550992296681216e+01,-9.662574882699800582e+01,9.370253562927246094e+00,3.824593871831893921e-02,9.179025292396545410e-01,4.940000000000000000e+02
-2.083049555008524294e+02,-2.212684045073167454e+02,-1.005536187124930620e+02,-1.012191532017320696e+02,-2.473539141359719906e+02,-2.131107244229256139e+02,-4.269455721154145067e+01,-9.607714304402952621e+01,9.370253562927246094e+00,3.824593871831893921e-02,9.179025292396545410e-01,4.950000000000000000e+02
-2.064551873628674912e+02,-2.186575767691899728e+02,-1.006315811545714496e+02,-1.000917017694157494e+02,-2.471239924929736844e+02,-2.115916331938253734e+02,-4.078461535498013291e+01,-9.335783379110011992e+01,9.370253562927246094e+00,3.824593871831893921e-02,9.179025292396545410e-01,4.960000000000000000e+02
-2.040072411901919622e+02,-2.157906522928817594e+02,-9.929276768088720928e+01,-9.814788275429577880e+01,-2.456464705100852370e+02,-2.088027562174754621e+02,-3.898131903298849466e+01,-8.845177157280863867e+01,9.370253562927246094e+00,3.824593871831893921e-02,9.179025292396545410e-01,4.970000000000000000e+02
-2.011080860662427767e+02,-2.121734851394494399e+02,-9.695485853185482483e+01,-9.557560467798612081e+01,-2.428917958478289165e+02,-2.051983834896905137e+02,-3.778533647275435214e+01,-8.266431059835645101e+01,9.370253562927246094e+00,3.824593871831893921e-02,9.179025292396545410e-01,4.980000000000000000e+02
-1.979292835459061735e+02,-2.082233332775231247e+02,-9.435446895645463883e+01,-9.311131416724856535e+01,-2.393479020107440647e+02,-2.018768904916730662e+02,-3.763094995138499144e+01,-7.769129990555643417e+01,9.332008361816406250e+00,3.824593871831893921e-02,9.179025292396545410e-01,4.990000000000000000e+02
-1.944965824463855597e+02,-2.049308838624459668e+02,-9.194599521135455689e+01,-9.144112652580440681e+01,-2.356860434929178609e+02,-1.997068372264127447e+02,-3.835687464147349601e+01,-7.448055104225659306e+01,9.332008361816406250e+00,3.824593871831893921e-02,9.179025292396545410e-01,5.000000000000000000e+02
-1.909102133890007735e+02,-2.030175114719764906e+02,-8.976988645875871953e+01,-9.065492678539305871e+01,-2.324361807867046537e+02,-1.986643445077925207e+02,-3.920704965613094828e+01,-7.289620403304843421e+01,9.332008361816406250e+00,3.824593871831893921e-02,9.179025292396545410e-01,5.010000000000000000e+02
-1.876980933830170670e+02,-2.024649564277328864e+02,-8.786876778717260095e+01,-9.029519282805370040e+01,-2.299494215028096278e+02,-1.980099374952740163e+02,-3.946579558278290278e+01,-7.233978981899815608e+01,9.332008361816406250e+00,3.824593871831893921e-02,9.179025292396545410e-01,5.020000000000000000e+02
-1.857579340564975610e+02,-2.028281664932184185e+02,-8.667807707539850526e+01,-8.993069423353426828e+01,-2.285125262964992316e+02,-1.970981860574681832e+02,-3.913342963305717603e+01,-7.251687569947750944e+01,9.332008361816406250e+00,3.824593871831893921e-02,9.179025292396545410e-01,5.030000000000000000e+02
-1.856990797980948855e+02,-2.038431105560887318e+02,-8.680384752554550687e+01,-8.962655849815087095e+01,-2.282456263877065794e+02,-1.959689115522410248e+02,-3.893403483856138791e+01,-7.348716129707588607e+01,9.332008361816406250e+00,3.824593871831893921e-02,9.179025292396545410e-01,5.040000000000000000e+02
-1.870910246160071893e+02,-2.055430929263604867e+02,-8.831850936393379925e+01,-8.980154376194718679e+01,-2.287524289362522723e+02,-1.951434085951332236e+02,-3.960630686988372418e+01,-7.503229386817213253e+01,9.332008361816406250e+00,3.824593871831893921e-02,9.179025292396545410e-01,5.050000000000000000e+02
-1.884404516968568259e+02,-2.077239708779702596e+02,-9.037598787442573212e+01,-9.063023838158403578e+01,-2.290033176633846779e+02,-1.949187685664376204e+02,-4.119585167806951631e+01,-7.621924993866974773e+01,9.332008361816406250e+00,3.824593871831893921e-02,9.179025292396545410e-01,5.060000000000000000e+02
-1.881773002034901765e+02,-2.094398813421036039e+02,-9.173490706897524660e+01,-9.164412525989894220e+01,-2.278715902479121951e+02,-1.949592769321816945e+02,-4.306372672234130050e+01,-7.586191342178256036e+01,9.332008361816406250e+00,3.824593871831893921e-02,9.179025292396545410e-01,5.070000000000000000e+02
-1.859327911146057204e+02,-2.093191049908737682e+02,-9.182069662647074892e+01,-9.200260992080279721e+01,-2.250516343238734862e+02,-1.946207348966391919e+02,-4.455750220669858663e+01,-7.357047802060623098e+01,9.332008361816406250e+00,3.824593871831893921e-02,9.179025292396545410e-01,5.080000000000000000e+02
-1.829547030323799106e+02,-2.066450356307066727e+02,-9.127768345151201856e+01,-9.121225467455298030e+01,-2.214916563025697656e+02,-1.936158689088096594e+02,-4.558260933231576928e+01,-7.032131940510777213e+01,9.332008361816406250e+00,3.824593871831893921e-02,9.179025292396545410e-01,5.090000000000000000e+02
-1.811609463621850864e+02,-2.022241518287451072e+02,-9.137490814396821293e+01,-8.960339841695004282e+01,-2.187988470941925812e+02,-1.922927486866583990e+02,-4.649176344050499665e+01,-6.786121668462492096e+01,9.332008361816406250e+00,3.824593871831893921e-02,9.179025292396545410e-01,5.100000000000000000e+02
-1.815717317367126213e+02,-1.980781508879248349e+02,-9.279382087060037065e+01,-8.810567125401337307e+01,-2.180715853551832311e+02,-1.912690016924258316e+02,-4.751492806678642467e+01,-6.738741447535200280e+01,9.332008361816406250e+00,3.824593871831893921e-02,9.179025292396545410e-01,5.110000000000000000e+02
-1.834508343870030274e+02,-1.960357405895636020e+02,-9.497256343958872549e+01,-8.750982991128609001e+01,-2.191786615933307303e+02,-1.908448896919597928e+02,-4.842918709470751537e+01,-6.865434843400504406e+01,9.332008361816406250e+00,3.824593871831893921e-02,9.179025292396545410e-01,5.120000000000000000e+02
-1.848855360724334105e+02,-1.963760614655407153e+02,-9.662255972066827781e+01,-8.784957127289203527e+01,-2.210451067440123438e+02,-1.907898428805821709e+02,-4.881730614132987967e+01,-7.025341436676029616e+01,9.332008361816406250e+00,3.824593871831893921e-02,9.179025292396545410e-01,5.130000000000000000e+02
-1.842933096176215031e+02,-1.977256589101593818e+02,-9.687476352415569636e+01,-8.841141571683783695e+01,-2.225258703336737653e+02,-1.906374580048558300e+02,-4.855715497472795050e+01,-7.074964735944564609e+01,9.332008361816406250e+00,3.824593871831893921e-02,9.179025292396545410e-01,5.140000000000000000e+02
-1.815737845134243571e+02,-1.982891902060730445e+02,-9.591878650246906091e+01,-8.831884482993393704e+01,-2.230084586703865170e+02,-1.901065360652594336e+02,-4.795168565277231210e+01,-6.965627648661984495e+01,9.332008361816406250e+00,3.824593871831893921e-02,9.179025292396545410e-01,5.150000000000000000e+02
-1.780247103666649764e+02,-1.972786768880926047e+02,-9.460228315186805048e+01,-8.717160467084488573e+01,-2.223813472352521785e+02,-1.892301712501605380e+02,-4.739153618543423363e+01,-6.750609821652778919e+01,9.332008361816406250e+00,3.824593871831893921e-02,9.179025292396545410e-01,5.160000000000000000e+02
-1.752356339731687740e+02,-1.952929513133840373e+02,-9.353895076316939594e+01,-8.523371063005424730e+01,-2.207109664525037260e+02,-1.881546371655144867e+02,-4.697582228714099983e+01,-6.513286347622715766e+01,9.332008361816406250e+00,3.824593871831893921e-02,9.179025292396545410e-01,5.170000000000000000e+02
-1.739566683445848412e+02,-1.934461760154540571e+02,-9.267148356219036032e+01,-8.308020670820224041e+01,-2.181129646753747693e+02,-1.868924110045425095e+02,-4.649757192178913101e+01,-6.287620846869754132e+01,9.332008361816406250e+00,3.824593871831893921e-02,9.179025292396545410e-01,5.180000000000000000e+02
-1.737909688363286023e+02,-1.922184236698867608e+02,-9.162537624295509886e+01,-8.105334645847028696e+01,-2.148497240139870428e+02,-1.852726226983054403e+02,-4.571467979802423542e+01,-6.033644655555008285e+01,9.332008361816406250e+00,3.824593871831893921e-02,9.179025292396545410e-01,5.190000000000000000e+02
-1.737631671623410057e+02,-1.911418931649375281e+02,-9.032798470025136339e+01,-7.901226330938470710e+01,-2.113487368827909449e+02,-1.830964747501432157e+02,-4.453971268422606045e+01,-5.677679126126713527e+01,9.408499717712402344e+00,3.824593871831893921e-02,9.943943619728088379e-01,5.200000000000000000e+02
-1.731591708559813014e+02,-1.895076075628751369e+02,-8.918835827228508606e+01,-7.658090924696989532e+01,-2.080272612089945596e+02,-1.803480507839703932e+02,-4.300134320355368800e+01,-5.180194539045623969e+01,9.408499717712402344e+00,3.824593871831893921e-02,9.943943619728088379e-01,5.210000000000000000e+02
-1.719831962582763936e+02,-1.872616618864858538e+02,-8.872045604121899487e+01,-7.365370905805502844e+01,-2.051435865374814966e+02,-1.773171306877361530e+02,-4.118049848332975671e+01,-4.584058887157539175e+01,9.408499717712402344e+00,3.824593871831893921e-02,9.943943619728088379e-01,5.220000000000000000e+02
-1.707824111893939971e+02,-1.851465173092258283e+02,-8.907775263810799515e+01,-7.069096564161145579e+01,-2.028606993103066998e+02,-1.745720847919501466e+02,-3.929605199807315330e+01,-4.012217468220183036e+01,9.408499717712402344e+00,3.824593871831893921e-02,9.943943619728088379e-01,5.230000000000000000e+02
-1.700841031456720884e+02,-1.839499239444003251e+02,-8.995776603447893649e+01,-6.849331962502196802e+01,-2.013636037272444810e+02,-1.727681798294670443e+02,-3.777735403177257467e+01,-3.612824034980098986e+01,9.408499717712402344e+00,3.824593871831893921e-02,9.943943619728088379e-01,5.240000000000000000e+02
-1.699144956474801802e+02,-1.836204672180974740e+02,-9.086447805398893252e+01,-6.760091795244375135e+01,-2.007540608603726469e+02,-1.723435908450578609e+02,-3.705195599075250357e+01,-3.480830035590815896e+01,9.408499717712402344e+00,3.824593871831893921e-02,9.943943619728088379e-01,5.250000000000000000e+02
-1.697322607867099578e+02,-1.831378641725018497e+02,-9.137155654107800729e+01,-6.782049038783270589e+01,-2.007746628671457074e+02,-1.732516633618729429e+02,-3.710946970757868257e+01,-3.603078637656517458e+01,9.408499717712402344e+00,3.824593871831893921e-02,9.943943619728088379e-01,5.260000000000000000e+02
-1.688209307460019772e+02,-1.813010685872659451e+02,-9.118365348298766548e+01,-6.831117468286629446e+01,-2.007539977808005460e+02,-1.749220313376235936e+02,-3.730872264056597487e+01,-3.866260756960537037e+01,9.408499717712402344e+00,3.824593871831893921e-02,9.943943619728088379e-01,5.270000000000000000e+02
-1.668637436096846614e+02,-1.777535474768965287e+02,-9.013626469068776714e+01,-6.818632673432239244e+01,-2.000113025543014373e+02,-1.765238856254586608e+02,-3.679684361579893448e+01,-4.126070419137431600e+01,9.408499717712402344e+00,3.824593871831893921e-02,9.943943619728088379e-01,5.280000000000000000e+02
-1.642698983240170492e+02,-1.733566719239934173e+02,-8.831262706996631096e+01,-6.712743505780463238e+01,-1.984103642362665596e+02,-1.773763633722519444e+02,-3.528455356877702798e+01,-4.287760326889883800e+01,9.408499717712402344e+00,3.824593871831893921e-02,9.943943619728088379e-01,5.290000000000000000e+02
-1.619776655934897462e+02,-1.696047236214353688e+02,-8.618428127754805246e+01,-6.549762854027949288e+01,-1.964837332391675773e+02,-1.772491551626326327e+02,-3.345764737434319613e+01,-4.338773357027457678e+01,9.408499717712402344e+00,3.824593871831893921e-02,9.943943619728088379e-01,5.300000000000000000e+02
-1.608444924756727232e+02,-1.675976784989347834e+02,-8.451040034035304416e+01,-6.390366238439946756e+01,-1.949436296123458305e+02,-1.763841541724982562e+02,-3.256090804481755185e+01,-4.318900485569702141e+01,9.408499717712402344e+00,3.824593871831893921e-02,9.943943619728088379e-01,5.310000000000000000e+02
-1.610789646658263337e+02,-1.674256124040921350e+02,-8.392861073358653812e+01,-6.266280297820367196e+01,-1.940352182873316451e+02,-1.752646833557664650e+02,-3.345521411368918052e+01,-4.271059787333706481e+01,9.408499717712402344e+00,3.824593871831893921e-02,9.943943619728088379e-01,5.320000000000000000e+02
-1.621277068043887084e+02,-1.683845077182595560e+02,-8.452084124103294016e+01,-6.166952552794691655e+01,-1.933428919594152831e+02,-1.742820282609136484e+02,-3.594434878187212234e+01,-4.225321661608177237e+01,9.408499717712402344e+00,3.824593871831893921e-02,9.943943619728088379e-01,5.330000000000000000e+02
-1.630479153643118480e+02,-1.696977333050108427e+02,-8.574209334564875462e+01,-6.072319588363006915e+01,-1.921876655871383264e+02,-1.734811764358255459e+02,-3.891267229809545825e+01,-4.222689375733170891e+01,9.408499717712402344e+00,3.824593871831893921e-02,9.943943619728088379e-01,5.340000000000000000e+02
-1.630059650306297954e+02,-1.710271729530286393e+02,-8.677865117161400121e+01,-5.989718538312899909e+01,-1.901786699335661979e+02,-1.725365198171066368e+02,-4.109257716661340964e+01,-4.331575067427002068e+01,9.408499717712402344e+00,3.824593871831893921e-02,9.943943619728088379e-01,5.350000000000000000e+02
-1.615358100884768646e+02,-1.723308877432273221e+02,-8.700220279359746200e+01,-5.949017667060616077e+01,-1.874162055862834677e+02,-1.710105952044241349e+02,-4.178295695478755079e+01,-4.613107590933941538e+01,9.408499717712402344e+00,3.824593871831893921e-02,9.943943619728088379e-01,5.360000000000000000e+02
-1.585379294073118217e+02,-1.733481818461286821e+02,-8.617450714671576861e+01,-5.957040011033495830e+01,-1.842666686245811434e+02,-1.687622096545674140e+02,-4.101006677837267489e+01,-5.057107576731687004e+01,9.408499717712402344e+00,3.824593871831893921e-02,9.943943619728088379e-01,5.370000000000000000e+02
-1.542541503949792059e+02,-1.734035747441375861e+02,-8.436765382482371933e+01,-5.961541035122536414e+01,-1.810221897483825160e+02,-1.661813075688405661e+02,-3.920651825289860426e+01,-5.559635238052942441e+01,9.408499717712402344e+00,3.824593871831893921e-02,9.943943619728088379e-01,5.380000000000000000e+02
-1.493425740211514494e+02,-1.718567235546252050e+02,-8.183084861337101756e+01,-5.869737313095356512e+01,-1.777502442384948154e+02,-1.639523806495071767e+02,-3.683656459993108001e+01,-5.982174690508782078e+01,9.408499717712402344e+00,3.824593871831893921e-02,9.943943619728088379e-01,5.390000000000000000e+02
-1.448555868864405056e+02,-1.687854720321947752e+02,-7.898388896813958127e+01,-5.613956329740813089e+01,-1.743842579510819633e+02,-1.624429339568077921e+02,-3.429069141686886724e+01,-6.251371905075575341e+01,9.408499717712402344e+00,3.824593871831893921e-02,9.943943619728088379e-01,5.400000000000000000e+02
-1.418485032733105982e+02,-1.651204206126167264e+02,-7.641031384921370773e+01,-5.206292776399004651e+01,-1.709067534442729084e+02,-1.612438524469962431e+02,-3.198010377510217950e+01,-6.408395660381574999e+01,9.408499717712402344e+00,3.824593871831893921e-02,9.943943619728088379e-01,5.410000000000000000e+02
-1.407157723277041441e+02,-1.619518110486233127e+02,-7.462524660538565513e+01,-4.729457123933025287e+01,-1.674352478674663871e+02,-1.593726013395535119e+02,-3.032622771567366726e+01,-6.559283364096063451e+01,9.408499717712402344e+00,3.824593871831893921e-02,9.943943619728088379e-01,5.420000000000000000e+02
-1.408065993072241326e+02,-1.596329508845765304e+02,-7.368459587591132731e+01,-4.273012411381751008e+01,-1.641491794955645673e+02,-1.560983210958438576e+02,-2.952022006662718923e+01,-6.775797112096097408e+01,9.408499717712402344e+00,3.824593871831893921e-02,9.943943619728088379e-01,5.430000000000000000e+02
-1.408108854692254681e+02,-1.576060244877426157e+02,-7.302772930284390895e+01,-3.876718831312336988e+01,-1.611332020492700394e+02,-1.517089977734740387e+02,-2.927906127002916037e+01,-7.044186973022351594e+01,9.408499717712402344e+00,3.824593871831893921e-02,9.943943619728088379e-01,5.440000000000000000e+02
-1.397410878321406926e+02,-1.551818997646159914e+02,-7.187110853513513575e+01,-3.533377801140886731e+01,-1.583077803821133784e+02,-1.474946942107962968e+02,-2.894721353412205644e+01,-7.305186174814571132e+01,9.370253562927246094e+00,3.824593871831893921e-02,9.561483860015869141e-01,5.450000000000000000e+02
-1.377015817121355212e+02,-1.524751674923772953e+02,-6.992140704623579950e+01,-3.238196748535210645e+01,-1.555655504336000376e+02,-1.448814325141411246e+02,-2.799290298534833710e+01,-7.529109499816513562e+01,9.370253562927246094e+00,3.824593871831893921e-02,9.561483860015869141e-01,5.460000000000000000e+02
-1.357182959921719885e+02,-1.504512752883047142e+02,-6.773970823123272567e+01,-3.022272554513165232e+01,-1.530252555967081207e+02,-1.444247985331658128e+02,-2.650072617524801899e+01,-7.737951998012158583e+01,9.370253562927246094e+00,3.824593871831893921e-02,9.561483860015869141e-01,5.470000000000000000e+02
-1.347324960594050935e+02,-1.499486475928097207e+02,-6.630605585957709991e+01,-2.928767382641308359e+01,-1.511223360297935869e+02,-1.455022983025592112e+02,-2.516966105372466700e+01,-7.954777242176987784e+01,9.370253562927246094e+00,3.824593871831893921e-02,9.561483860015869141e-01,5.480000000000000000e+02
-1.346779966900830914e+02,-1.506729658200929407e+02,-6.611780938809533836e+01,-2.957269438953426288e+01,-1.503209265814402897e+02,-1.468924848333899718e+02,-2.473987954152107704e+01,-8.151171938171046349e+01,9.370253562927246094e+00,3.824593871831893921e-02,9.561483860015869141e-01,5.490000000000000000e+02
-1.345189765889081173e+02,-1.512807493390837408e+02,-6.670100518632352760e+01,-3.041246811447308573e+01,-1.506148116233471228e+02,-1.476718100355192291e+02,-2.533870555730391061e+01,-8.267018234171518998e+01,9.370253562927246094e+00,3.824593871831893921e-02,9.561483860015869141e-01,5.500000000000000000e+02
-1.332306561124705695e+02,-1.505884597031081285e+02,-6.707552437065896811e+01,-3.090468055590645235e+01,-1.513173483660812053e+02,-1.476779971952946653e+02,-2.635325130614364753e+01,-8.287716532395370450e+01,9.370253562927246094e+00,3.824593871831893921e-02,9.561483860015869141e-01,5.510000000000000000e+02
-1.308147167815104694e+02,-1.487424748433631976e+02,-6.675644237795313529e+01,-3.058207113565367763e+01,-1.514655857527723128e+02,-1.472779883074908867e+02,-2.694559579185988696e+01,-8.286822820968882297e+01,9.370253562927246094e+00,3.824593871831893921e-02,9.561483860015869141e-01,5.520000000000000000e+02
-1.283907150135992197e+02,-1.471365672186875599e+02,-6.626019500356960634e+01,-2.964490944210228918e+01,-1.505717756030571763e+02,-1.468107433768436749e+02,-2.671532859686703887e+01,-8.369765658665346564e+01,9.370253562927246094e+00,3.824593871831893921e-02,9.561483860015869141e-01,5.530000000000000000e+02
-1.272669603007479964e+02,-1.470774831283115418e+02,-6.654719165923779656e+01,-2.853498587435387890e+01,-1.490251351792394416e+02,-1.462491452559297613e+02,-2.589854466665929067e+01,-8.564732840841861616e+01,9.370253562927246094e+00,3.824593871831893921e-02,9.561483860015869141e-01,5.540000000000000000e+02
-1.278320545278947975e+02,-1.484614308509053444e+02,-6.795125835085309518e+01,-2.735269395810246351e+01,-1.477306944518277305e+02,-1.453067544103214459e+02,-2.500219623376870004e+01,-8.778829569269692001e+01,9.370253562927246094e+00,3.824593871831893921e-02,9.561483860015869141e-01,5.550000000000000000e+02
-1.292510162971120735e+02,-1.497562100158320391e+02,-6.973603558685317694e+01,-2.579317632737911481e+01,-1.473239546068016352e+02,-1.437907708597558667e+02,-2.433770676801213995e+01,-8.879443286099922261e+01,9.370253562927246094e+00,3.824593871831893921e-02,9.561483860015869141e-01,5.560000000000000000e+02
-1.301989344700250513e+02,-1.493266682256598870e+02,-7.079101995697783423e+01,-2.366414546841951960e+01,-1.476951784328994108e+02,-1.418403698956499284e+02,-2.391629608311632182e+01,-8.827479377895906509e+01,9.370253562927246094e+00,3.824593871831893921e-02,9.561483860015869141e-01,5.570000000000000000e+02
-1.299609353396845108e+02,-1.468691022389048157e+02,-7.077436629547628399e+01,-2.137434549780300586e+01,-1.482082493957677798e+02,-1.398734616318924964e+02,-2.368892799871900934e+01,-8.725475344598271477e+01,9.370253562927246094e+00,3.824593871831893921e-02,9.561483860015869141e-01,5.580000000000000000e+02
-1.289578165536349843e+02,-1.436788006878487067e+02,-7.049371137902198825e+01,-1.977664092688792152e+01,-1.482811848195160565e+02,-1.383204964327305788e+02,-2.371889471409667749e+01,-8.722605635627769516e+01,9.370253562927246094e+00,3.824593871831893921e-02,9.561483860015869141e-01,5.590000000000000000e+02
-1.282996563422730105e+02,-1.415837328437246470e+02,-7.108647603331883147e+01,-1.946297203702852130e+01,-1.477317921016347100e+02,-1.373793331296110409e+02,-2.404081590261012025e+01,-8.864913088759203674e+01,9.370253562927246094e+00,3.824593871831893921e-02,9.561483860015869141e-01,5.600000000000000000e+02
-1.287917415095525939e+02,-1.415365552040966577e+02,-7.282198536945543310e+01,-2.021803422465018230e+01,-1.466749847375758691e+02,-1.369590987734009104e+02,-2.441963183188272524e+01,-9.037339177163994464e+01,9.370253562927246094e+00,3.824593871831893921e-02,9.561483860015869141e-01,5.610000000000000000e+02
-1.302346671734649135e+02,-1.430140012961419416e+02,-7.474183598953095498e+01,-2.117839477926645486e+01,-1.452537736596477771e+02,-1.368025828924401139e+02,-2.437988119783767615e+01,-9.054805844905422418e+01,9.370253562927246094e+00,3.824593871831893921e-02,9.561483860015869141e-01,5.620000000000000000e+02
-1.315895546776082483e+02,-1.445532716887773859e+02,-7.549823848447340424e+01,-2.152615377094662108e+01,-1.435596393065261509e+02,-1.366786111159199208e+02,-2.356890542594919680e+01,-8.816842698938307876e+01,9.370253562927246094e+00,3.824593871831893921e-02,9.561483860015869141e-01,5.630000000000000000e+02
-1.318589373814429564e+02,-1.448308233214920620e+02,-7.452720936696096032e+01,-2.103200779241342389e+01,-1.417205250441365934e+02,-1.364905133209886117e+02,-2.208161928664958396e+01,-8.383381545950760483e+01,9.370253562927246094e+00,3.824593871831893921e-02,9.561483860015869141e-01,5.640000000000000000e+02
-1.309476063121546758e+02,-1.434626352429113467e+02,-7.241982248512613296e+01,-1.999813598129367165e+01,-1.399114741544381104e+02,-1.362504197218459012e+02,-2.039785123508045217e+01,-7.913577180072024930e+01,9.370253562927246094e+00,3.824593871831893921e-02,9.561483860015869141e-01,5.650000000000000000e+02
-1.297841568343428662e+02,-1.411176813515558024e+02,-7.024411262281682866e+01,-1.880087106268911157e+01,-1.382160085290997813e+02,-1.359741706171880651e+02,-1.900959328638600709e+01,-7.539531322648508649e+01,9.370253562927246094e+00,3.824593871831893921e-02,9.561483860015869141e-01,5.660000000000000000e+02
-1.295645559200092976e+02,-1.390435263802828558e+02,-6.859984377816181222e+01,-1.755372264089965029e+01,-1.365120687972503219e+02,-1.355618865809228737e+02,-1.810848220664047403e+01,-7.288810441965142672e+01,9.370253562927246094e+00,3.824593871831893921e-02,9.561483860015869141e-01,5.670000000000000000e+02
-1.307068978945208073e+02,-1.383365038820866175e+02,-6.731684210816820269e+01,-1.615714735237270361e+01,-1.345620781301677198e+02,-1.347446616389406699e+02,-1.759041770206204092e+01,-7.101916600397453294e+01,9.370253562927246094e+00,3.824593871831893921e-02,9.561483860015869141e-01,5.680000000000000000e+02
-1.324042076996156538e+02,-1.392856487168137392e+02,-6.590977659566851798e+01,-1.451832230462787265e+01,-1.322139545296540746e+02,-1.331474715780823317e+02,-1.725681580752461741e+01,-6.899152637828592560e+01,9.370253562927246094e+00,3.824593871831893921e-02,9.561483860015869141e-01,5.690000000000000000e+02
-1.332072056130091369e+02,-1.410922220384090906e+02,-6.415550538892603072e+01,-1.262304259153097519e+01,-1.294778998709771258e+02,-1.304860228579527757e+02,-1.694145991452933231e+01,-6.626622627717551950e+01,9.370253562927246094e+00,3.824593871831893921e-02,9.561483860015869141e-01,5.700000000000000000e+02
-1.321963883355838334e+02,-1.422159690814260102e+02,-6.220121215604194731e+01,-1.043350507574905350e+01,-1.264194113970206672e+02,-1.268250588561095356e+02,-1.646607282414333895e+01,-6.260494640432625602e+01,9.370253562927246094e+00,3.824593871831893921e-02,9.561483860015869141e-01,5.710000000000000000e+02
-1.297464790180911223e+02,-1.412830067599188624e+02,-6.024244056557654403e+01,-7.848374234736184007e+00,-1.230605217755619378e+02,-1.227123409923733561e+02,-1.557655701484145538e+01,-5.799434265251329634e+01,9.370253562927246094e+00,3.824593871831893921e-02,9.943943619728088379e-01,5.720000000000000000e+02
-1.272013017209628742e+02,-1.380267221090725798e+02,-5.827264265162011725e+01,-4.871489099270547740e+00,-1.194532343440259865e+02,-1.190126976654537430e+02,-1.402578746340623184e+01,-5.271751904562734126e+01,9.370253562927246094e+00,3.824593871831893921e-02,9.943943619728088379e-01,5.730000000000000000e+02
-1.257488136919419048e+02,-1.335394250729059422e+02,-5.620443707589583937e+01,-1.821210451524166274e+00,-1.158392773831728846e+02,-1.164590911268896889e+02,-1.177277718896220904e+01,-4.745319438479600649e+01,9.370253562927246094e+00,3.824593871831893921e-02,9.943943619728088379e-01,5.740000000000000000e+02
-1.255046726996552025e+02,-1.295409193391806184e+02,-5.415524778308463283e+01,7.004769558316183975e-01,-1.126781983451292035e+02,-1.152233224505507678e+02,-9.122646849958982784e+00,-4.312124720175597758e+01,9.370253562927246094e+00,3.824593871831893921e-02,9.943943619728088379e-01,5.750000000000000000e+02
-1.256051240901815618e+02,-1.271972024424812844e+02,-5.250800638198779779e+01,2.125244744005613029e+00,-1.104636295248456008e+02,-1.148732774703930772e+02,-6.680267885200009914e+00,-4.046431025244964985e+01,9.370253562927246094e+00,3.824593871831893921e-02,9.943943619728088379e-01,5.760000000000000000e+02
-1.251592799560712592e+02,-1.264813004682091560e+02,-5.164974207060731715e+01,2.258481851182295941e+00,-1.094694687676528702e+02,-1.147942005690456426e+02,-5.124633951469149906e+00,-3.970655865369189996e+01,9.370253562927246094e+00,3.824593871831893921e-02,9.943943619728088379e-01,5.770000000000000000e+02
-1.240996246010236064e+02,-1.265819618149289454e+02,-5.164890591916264384e+01,1.362673233934401651e+00,-1.095999026755343948e+02,-1.147148262495611561e+02,-4.891853113284014398e+00,-4.055507856580516091e+01,9.370253562927246094e+00,3.824593871831893921e-02,9.943943619728088379e-01,5.780000000000000000e+02
-1.231251975728755497e+02,-1.268663832550791994e+02,-5.216793080485876999e+01,-3.476673425211629365e-02,-1.103887381630338496e+02,-1.148399094633714412e+02,-5.894533846789272502e+00,-4.242799301189006655e+01,9.370253562927246094e+00,3.824593871831893921e-02,9.943943619728088379e-01,5.790000000000000000e+02
-1.228788781112834840e+02,-1.273677512242484227e+02,-5.264097175933420658e+01,-1.386753189595765434e+00,-1.111326997825417493e+02,-1.154666755902107980e+02,-7.448903432828956284e+00,-4.459875806343188742e+01,9.370253562927246094e+00,3.824593871831893921e-02,9.943943619728088379e-01,5.800000000000000000e+02
-1.232591807282078662e+02,-1.283084963037745183e+02,-5.255439509366260609e+01,-2.237248238739994122e+00,-1.111656826789403567e+02,-1.164873997337854235e+02,-8.563431643677176908e+00,-4.618393004576500971e+01,9.370253562927246094e+00,3.824593871831893921e-02,9.943943619728088379e-01,5.810000000000000000e+02
-1.235572498565943533e+02,-1.292686764991813106e+02,-5.167711422755019157e+01,-2.223949025934416568e+00,-1.102237841860223853e+02,-1.173017819436354330e+02,-8.521090070098580327e+00,-4.624964381449171924e+01,9.370253562927246094e+00,3.824593871831893921e-02,9.943943619728088379e-01,5.820000000000000000e+02
-1.232064069472562551e+02,-1.290746106674050679e+02,-5.017456845318884007e+01,-1.101561564966687001e+00,-1.086609458858220023e+02,-1.172461537507479079e+02,-7.370534583085827762e+00,-4.424748968480707845e+01,9.370253562927246094e+00,3.824593871831893921e-02,9.943943619728088379e-01,5.830000000000000000e+02
-1.223016996198039124e+02,-1.267413366500913980e+02,-4.856083755152212689e+01,1.170626616105437279e+00,-1.072351240392017644e+02,-1.161058135459243204e+02,-5.891240354838373605e+00,-4.053325860861150431e+01,9.370253562927246094e+00,3.824593871831893921e-02,9.943943619728088379e-01,5.840000000000000000e+02
-1.213344651247680304e+02,-1.225862417639691557e+02,-4.743724960873441887e+01,4.376038605500070844e+00,-1.065118877307686489e+02,-1.142034559073363198e+02,-4.981961611207225360e+00,-3.638857012236985611e+01,9.370253562927246094e+00,3.824593871831893921e-02,9.943943619728088379e-01,5.850000000000000000e+02
-1.204857208156317938e+02,-1.182903260351304198e+02,-4.710205657102051191e+01,8.112389245736267185e+00,-1.063743717814031697e+02,-1.120234190872761246e+02,-4.958987356265424751e+00,-3.327944874584864010e+01,9.370253562927246094e+00,3.824593871831893921e-02,9.943943619728088379e-01,5.860000000000000000e+02
-1.193428733889086288e+02,-1.156662849294443731e+02,-4.731116850717444322e+01,1.193389964029120165e+01,-1.061477405241239467e+02,-1.098035932805178163e+02,-5.366486466955393553e+00,-3.183331752147205407e+01,9.370253562927246094e+00,3.824593871831893921e-02,9.943943619728088379e-01,5.870000000000000000e+02
-1.174268964380862599e+02,-1.152221547584776999e+02,-4.744125834789156215e+01,1.544415393755480181e+01,-1.052640300777129596e+02,-1.075038508579709742e+02,-5.434247687739116373e+00,-3.139957058194704587e+01,9.370253562927246094e+00,3.824593871831893921e-02,9.943943619728088379e-01,5.880000000000000000e+02
-1.149643465758308594e+02,-1.158911433523207961e+02,-4.697220998962075100e+01,1.831394057709258050e+01,-1.037911187045137922e+02,-1.050885851873499632e+02,-4.717421882534836186e+00,-3.061304777783880127e+01,9.370253562927246094e+00,3.824593871831893921e-02,9.943943619728088379e-01,5.890000000000000000e+02
-1.129729347107568174e+02,-1.161532236555904092e+02,-4.587465875732596032e+01,2.032637762698141159e+01,-1.022680243450959097e+02,-1.027263736322529439e+02,-3.338033579140756046e+00,-2.848702794428027119e+01,9.370253562927246094e+00,3.824593871831893921e-02,9.943943619728088379e-01,5.900000000000000000e+02
-1.124004425907914992e+02,-1.153948545186358388e+02,-4.453278906657578773e+01,2.152572438302013325e+01,-1.010348966856290645e+02,-1.006445149077881069e+02,-1.699546316162013682e+00,-2.508404782081925077e+01,9.370253562927246094e+00,3.824593871831893921e-02,9.943943619728088379e-01,5.910000000000000000e+02
-1.130811784910947608e+02,-1.141717367192504753e+02,-4.328186827955141780e+01,2.237476553146188962e+01,-9.980732594020082615e+01,-9.880368340281711426e+01,-5.090757930884137750e-02,-2.123458645965365577e+01,9.370253562927246094e+00,3.824593871831893921e-02,9.943943619728088379e-01,5.920000000000000000e+02
-1.135999598816524667e+02,-1.132503276722054579e+02,-4.206513636855379445e+01,2.367378351623119670e+01,-9.799371335772593739e+01,-9.679931003363526543e+01,1.659698324856435647e+00,-1.769346704203053378e+01,9.370253562927246094e+00,3.824593871831893921e-02,9.943943619728088379e-01,5.930000000000000000e+02
-1.123573412674668361e+02,-1.125695235642924672e+02,-4.059816264410619624e+01,2.612582266882600379e+01,-9.543293558992081671e+01,-9.417821632652703556e+01,3.579425912546867039e+00,-1.459598557709250599e+01,9.370253562927246094e+00,3.824593871831893921e-02,9.943943619728088379e-01,5.940000000000000000e+02
-1.089458508421957958e+02,-1.112653402249852661e+02,-3.886456644062127452e+01,2.977676018971033045e+01,-9.275310553945018910e+01,-9.091852059719894896e+01,5.690291085429635132e+00,-1.164975679179406143e+01,9.370253562927246094e+00,3.824593871831893921e-02,9.943943619728088379e-01,5.950000000000000000e+02
-1.045592898558643355e+02,-1.086711047179232992e+02,-3.733895977411157219e+01,3.381805778375928639e+01,-9.092517227702774107e+01,-8.760390644846120267e+01,7.790411277092061937e+00,-8.676730409206356853e+00,9.370253562927246094e+00,3.824593871831893921e-02,9.943943619728088379e-01,5.960000000000000000e+02
-1.010189944826088322e+02,-1.051292662268569984e+02,-3.657128664529591333e+01,3.706645932659375831e+01,-9.039850591856156825e+01,-8.504978037424370996e+01,9.721145806252025068e+00,-5.811333383029705146e+00,9.370253562927246094e+00,3.824593871831893921e-02,9.943943619728088379e-01,5.970000000000000000e+02
-9.926822823707334464e+01,-1.017104051776404958e+02,-3.646483456781788846e+01,3.887486524230916984e+01,-9.061123196484913933e+01,-8.362584712992247660e+01,1.158386697619062033e+01,-3.144508976180077298e+00,9.370253562927246094e+00,3.824593871831893921e-02,9.943943619728088379e-01,5.980000000000000000e+02
-9.869027184602964553e+01,-9.915862679028941784e+01,-3.603639062175352592e+01,3.975131238242101972e+01,-9.031466385762541904e+01,-8.282626615188564756e+01,1.370423729494723375e+01,-3.342317825590725988e-01,9.370253562927246094e+00,3.824593871831893921e-02,9.943943619728088379e-01,5.990000000000000000e+02
-9.783592950645106612e+01,-9.722171286576849525e+01,-3.408793189257266931e+01,4.107122557609909563e+01,-8.845739500739364303e+01,-8.151444661826099036e+01,1.631698258460164652e+01,3.197139340572903166e+00,9.370253562927246094e+00,3.824593871831893921e-02,9.943943619728088379e-01,6.000000000000000000e+02
-9.582890308995774831e+01,-9.507193657344396343e+01,-3.031089801835696562e+01,4.399081729977115174e+01,-8.495163153714020154e+01,-7.874214033817406744e+01,1.919907595407494227e+01,7.554374429953895742e+00,9.370253562927246094e+00,3.824593871831893921e-02,9.943943619728088379e-01,6.010000000000000000e+02
-9.314034548039489891e+01,-9.232442884284682805e+01,-2.579796538049413357e+01,4.842078704792947974e+01,-8.077386266451139818e+01,-7.453879905292706098e+01,2.158338175886456156e+01,1.191567668141215108e+01,9.370253562927246094e+00,3.824593871831893921e-02,9.943943619728088379e-01,6.020000000000000000e+02
-9.108049365749684512e+01,-8.954751535817922559e+01,-2.236184880704240641e+01,5.296381834392013843e+01,-7.732834595695749158e+01,-7.002346061306889169e+01,2.254690878957626410e+01,1.496347591029552859e+01,9.408499717712402344e+00,7.649187743663787842e-02,9.561483860015869141e-01,6.030000000000000000e+02
-9.058532026097600465e+01,-8.774685847898581414e+01,-2.114410764149215538e+01,5.593529324677729164e+01,-7.549189162248148932e+01,-6.668437778417865047e+01,2.170304645350915962e+01,1.595531669645060902e+01,9.408499717712402344e+00,7.649187743663787842e-02,9.561483860015869141e-01,6.040000000000000000e+02
-9.146707032131598680e+01,-8.740330667051966884e+01,-2.172248042701903614e+01,5.663657382409292040e+01,-7.500504272217949620e+01,-6.535092278852971504e+01,1.967899445394141367e+01,1.545363991114209057e+01,9.408499717712402344e+00,7.649187743663787842e-02,9.561483860015869141e-01,6.050000000000000000e+02
-9.273566310366732068e+01,-8.806602775157807628e+01,-2.252824079377751332e+01,5.581811109753834899e+01,-7.467588578329014126e+01,-6.565351440048834775e+01,1.788777049482087023e+01,1.495459865285374690e+01,9.408499717712402344e+00,7.649187743663787842e-02,9.561483860015869141e-01,6.060000000000000000e+02
-9.351818667824409204e+01,-8.885552088249460212e+01,-2.218859508010064019e+01,5.500503800239675911e+01,-7.327951173364999704e+01,-6.635216195825341856e+01,1.763704004600731423e+01,1.572154532034619479e+01,9.408499717712402344e+00,7.649187743663787842e-02,9.561483860015869141e-01,6.070000000000000000e+02
-9.362366206308070105e+01,-8.926744898275501328e+01,-2.057740999598172493e+01,5.534680466564168455e+01,-7.047417286752897780e+01,-6.619622874166816473e+01,1.921710703440476209e+01,1.791095224376113038e+01,9.408499717712402344e+00,7.649187743663787842e-02,9.561483860015869141e-01,6.080000000000000000e+02
-9.332060181700580870e+01,-8.945300274804321816e+01,-1.868207311505102552e+01,5.698763449619582389e+01,-6.700280288862995803e+01,-6.460150368903850904e+01,2.172677875767840305e+01,2.075842263477534289e+01,9.408499717712402344e+00,7.649187743663787842e-02,9.561483860015869141e-01,6.090000000000000000e+02
-9.276374306387151591e+01,-8.978638882603627280e+01,-1.754074519810092170e+01,5.935762738449193421e+01,-6.405515297000965802e+01,-6.172154053473059321e+01,2.380498140288545983e+01,2.351735040199491777e+01,9.408499717712402344e+00,7.649187743663787842e-02,9.561483860015869141e-01,6.100000000000000000e+02
-9.179833082266850397e+01,-9.027199049181945156e+01,-1.734292294688202674e+01,6.190177805813800660e+01,-6.240887445088446839e+01,-5.809912428232928505e+01,2.463739653465745505e+01,2.610843099244084442e+01,9.408499717712402344e+00,7.649187743663787842e-02,9.561483860015869141e-01,6.110000000000000000e+02
-9.031523053835917381e+01,-9.042878811212358414e+01,-1.749772511421906529e+01,6.448429939818015555e+01,-6.209412032999534858e+01,-5.434835056040174095e+01,2.440729379823460476e+01,2.883645215265278239e+01,9.408499717712402344e+00,7.649187743663787842e-02,9.561483860015869141e-01,6.120000000000000000e+02
-8.862998081955083762e+01,-8.971595810072903987e+01,-1.741305506157368654e+01,6.718696546545834281e+01,-6.270683033284876728e+01,-5.105950587519328110e+01,2.392085063442937098e+01,3.162467535466566915e+01,9.408499717712402344e+00,7.649187743663787842e-02,9.561483860015869141e-01,6.130000000000000000e+02
-8.731932494950160617e+01,-8.803502316989397514e+01,-1.704649067430727882e+01,6.987877664304323844e+01,-6.381630806905013742e+01,-4.873515073316229973e+01,2.388751130999298766e+01,3.378184596461505862e+01,9.408499717712402344e+00,7.649187743663787842e-02,9.561483860015869141e-01,6.140000000000000000e+02
