F3,F4,C3,C4,P3,P4,Cz,Pz,Accel_x,Accel_y,Accel_z,Sample
-6.912159733474254608e-11,-5.820766091346740723e-11,-4.365574568510055542e-11,-6.002665031701326370e-11,-6.366462912410497665e-11,-6.912159733474254608e-11,-5.275069270282983780e-11,-3.819877747446298599e-11,9.484992027282714844e+00,-3.824593871831893921e-02,4.971971809864044189e-01,2.260000000000000000e+02
-2.535540920994026237e+01,-1.296537271829765814e+01,-1.632699188521837641e+01,-1.438888554898403527e+01,-4.804701472457782074e+01,-3.464168520010935026e+01,-2.511078610735603434e+01,-1.756344566395273432e+01,9.484992027282714844e+00,-3.824593871831893921e-02,4.971971809864044189e-01,2.270000000000000000e+02
-4.635916082765652391e+01,-2.742214859559862816e+01,-2.924067537176961196e+01,-2.500438844664313365e+01,-8.034851814479588938e+01,-6.255874421062435431e+01,-4.025253379461173608e+01,-3.037730390450815321e+01,9.484992027282714844e+00,-3.824593871831893921e-02,4.971971809864044189e-01,2.280000000000000000e+02
-6.220410616252775071e+01,-4.346367635643946414e+01,-3.789894229054880270e+01,-3.127062842507439200e+01,-9.431841183432516118e+01,-8.250059997513380949e+01,-4.375049606708307692e+01,-3.747131814811473305e+01,9.484992027282714844e+00,-3.824593871831893921e-02,4.971971809864044189e-01,2.290000000000000000e+02
-7.572767955850122235e+01,-5.970048292131286871e+01,-4.418568023165789782e+01,-3.592076125182393298e+01,-1.010472991846945661e+02,-9.892663303711742628e+01,-4.244481367625121493e+01,-4.183076156125571288e+01,9.484992027282714844e+00,-3.824593871831893921e-02,4.971971809864044189e-01,2.300000000000000000e+02
-9.023146108121090947e+01,-7.452110678221833950e+01,-5.054814569478912745e+01,-4.209753301214186649e+01,-1.135287984353526554e+02,-1.171487011983153934e+02,-4.418312440583395073e+01,-4.706738306133047445e+01,9.484992027282714844e+00,-3.824593871831893921e-02,4.971971809864044189e-01,2.310000000000000000e+02
-1.064459163860428816e+02,-8.744744929012449575e+01,-5.786569997804508603e+01,-5.045230581771465950e+01,-1.349819717161990411e+02,-1.384907156722365471e+02,-5.061134083587967325e+01,-5.410307917621685192e+01,9.484992027282714844e+00,-3.824593871831893921e-02,4.971971809864044189e-01,2.320000000000000000e+02
-1.225882173808313382e+02,-9.937023382617371681e+01,-6.535748797052656300e+01,-5.901317056391962979e+01,-1.583501646606218856e+02,-1.600566351755096548e+02,-5.724355697243299801e+01,-6.105208006153770839e+01,9.408499717712402344e+00,-3.824593871831893921e-02,5.354431271553039551e-01,2.330000000000000000e+02
-1.369816656360762863e+02,-1.116299826984059109e+02,-7.215857642839546315e+01,-6.558623381205870828e+01,-1.756755578439733654e+02,-1.786045494109002902e+02,-5.964841906662513793e+01,-6.595460135133362201e+01,9.408499717712402344e+00,-3.824593871831893921e-02,5.354431271553039551e-01,2.340000000000000000e+02
-1.501275352792608828e+02,-1.249516937061189310e+02,-7.852349157195749285e+01,-6.999676109387473844e+01,-1.864172113712738792e+02,-1.940124796848558617e+02,-5.852167220891715260e+01,-6.916854842555221694e+01,9.408499717712402344e+00,-3.824593871831893921e-02,5.354431271553039551e-01,2.350000000000000000e+02
-1.640919513623166495e+02,-1.391661163233893603e+02,-8.538514181343089149e+01,-7.400320378970718593e+01,-1.965720819723737804e+02,-2.089323826052095683e+02,-5.857099698513229669e+01,-7.296385980005288729e+01,9.408499717712402344e+00,-3.824593871831893921e-02,5.354431271553039551e-01,2.360000000000000000e+02
-1.801652000149824744e+02,-1.537019711405300768e+02,-9.304339334696669539e+01,-7.932872450948980259e+01,-2.111946112865498435e+02,-2.256461435356868606e+02,-6.328091051682167745e+01,-7.905177750585426111e+01,9.408499717712402344e+00,-3.824593871831893921e-02,5.354431271553039551e-01,2.370000000000000000e+02
-1.974637862379686339e+02,-1.681395077013748960e+02,-1.006815424524538685e+02,-8.606445922243619862e+01,-2.293292956561144820e+02,-2.438482409850475960e+02,-7.163027066014183220e+01,-8.685868101852793188e+01,9.408499717712402344e+00,-3.824593871831893921e-02,5.354431271553039551e-01,2.380000000000000000e+02
-2.138196234006036320e+02,-1.822973817967285868e+02,-1.072836856330377486e+02,-9.297665853613762010e+01,-2.462845651886818814e+02,-2.614827706126488920e+02,-7.985441501378409157e+01,-9.429650926640351827e+01,9.408499717712402344e+00,-3.824593871831893921e-02,5.354431271553039551e-01,2.390000000000000000e+02
-2.277772673656645566e+02,-1.960069186659429761e+02,-1.128382295088667888e+02,-9.908482183966134471e+01,-2.595045732244288956e+02,-2.772161976465904445e+02,-8.556397001467303198e+01,-1.000197868035083957e+02,9.408499717712402344e+00,-3.824593871831893921e-02,5.354431271553039551e-01,2.400000000000000000e+02
-2.396128778716029046e+02,-2.090504566918707496e+02,-1.184311043157013046e+02,-1.047132625154627021e+02,-2.710633294046820083e+02,-2.916914059980645106e+02,-8.955809893473815464e+01,-1.047476135748147499e+02,9.408499717712402344e+00,-3.824593871831893921e-02,5.354431271553039551e-01,2.410000000000000000e+02
-2.506255609118643406e+02,-2.213909611540429978e+02,-1.251350490780496330e+02,-1.110234516725395224e+02,-2.846166423524755373e+02,-3.065120104473407991e+02,-9.397486856548312062e+01,-1.104145574935682816e+02,9.408499717712402344e+00,-3.824593871831893921e-02,5.354431271553039551e-01,2.420000000000000000e+02
-2.618048445765034558e+02,-2.333581028662265453e+02,-1.329300430544190021e+02,-1.186960043634435351e+02,-3.010531329630011896e+02,-3.224708334551050939e+02,-9.958126377809094265e+01,-1.181965021110936505e+02,9.408499717712402344e+00,-3.824593871831893921e-02,5.354431271553039551e-01,2.430000000000000000e+02
-2.733067262505155668e+02,-2.454496860161516452e+02,-1.407657282640993799e+02,-1.271527408512629336e+02,-3.178215971264617110e+02,-3.389829032063262275e+02,-1.053215500581773085e+02,-1.274060441704750701e+02,9.408499717712402344e+00,-3.824593871831893921e-02,5.354431271553039551e-01,2.440000000000000000e+02
-2.849666553875558748e+02,-2.578643309363696972e+02,-1.476063690200880956e+02,-1.349883057190081672e+02,-3.320945930462894466e+02,-3.549793052684017312e+02,-1.100892755561089871e+02,-1.361590300921852759e+02,9.408499717712402344e+00,-3.824593871831893921e-02,5.354431271553039551e-01,2.450000000000000000e+02
-2.969525671402443550e+02,-2.702373074788984013e+02,-1.533535558309686166e+02,-1.411021561492589171e+02,-3.437493689858529251e+02,-3.699689114076354599e+02,-1.142099013492679660e+02,-1.429776310070938052e+02,9.408499717712402344e+00,-3.824593871831893921e-02,5.354431271553039551e-01,2.460000000000000000e+02
-3.097345755396618188e+02,-2.818941971219046536e+02,-1.588136485162976896e+02,-1.455112941223169400e+02,-3.550392787619393857e+02,-3.841874709146268287e+02,-1.189242432255887252e+02,-1.478219718179134361e+02,9.408499717712402344e+00,-3.824593871831893921e-02,5.354431271553039551e-01,2.470000000000000000e+02
-3.234766368560958654e+02,-2.924308863534743068e+02,-1.648787208886406006e+02,-1.492570230382270893e+02,-3.679208967816784934e+02,-3.980477681871334426e+02,-1.247842647833394949e+02,-1.518096767606675712e+02,9.408499717712402344e+00,-3.824593871831893921e-02,5.354431271553039551e-01,2.480000000000000000e+02
-3.375612369911732458e+02,-3.020961269541667207e+02,-1.717296663044398883e+02,-1.535953689949192267e+02,-3.822459206522753448e+02,-4.117442830435675205e+02,-1.309805258186452193e+02,-1.561002880154064769e+02,9.408499717712402344e+00,-3.824593871831893921e-02,5.354431271553039551e-01,2.490000000000000000e+02
-3.507418817052885061e+02,-3.116331915179653151e+02,-1.786617726410440810e+02,-1.591257581515847050e+02,-3.963954108523739706e+02,-4.253210253655943234e+02,-1.362238122740382096e+02,-1.609627835404326106e+02,9.408499717712402344e+00,-3.824593871831893921e-02,5.354431271553039551e-01,2.500000000000000000e+02
-3.618173098166298587e+02,-3.217282142577587365e+02,-1.845614048706156609e+02,-1.654614710052364899e+02,-4.090528418468848031e+02,-4.387916585399661926e+02,-1.399625651247442875e+02,-1.657087876471259733e+02,9.408499717712402344e+00,-3.824593871831893921e-02,5.354431271553039551e-01,2.510000000000000000e+02
-3.703334740824193432e+02,-3.325156451095244847e+02,-1.886361704865175852e+02,-1.716068317118788400e+02,-4.200431522366516219e+02,-4.519732459117140024e+02,-1.425615414592839443e+02,-1.693878667153267088e+02,9.408499717712402344e+00,-3.824593871831893921e-02,5.354431271553039551e-01,2.520000000000000000e+02
-3.768689717465085778e+02,-3.435018733706101557e+02,-1.909475451590969897e+02,-1.767182786664325249e+02,-4.298263384112797212e+02,-4.643273063317365086e+02,-1.445300201014442791e+02,-1.716236982398813780e+02,9.408499717712402344e+00,-3.824593871831893921e-02,5.354431271553039551e-01,2.530000000000000000e+02
-3.827157988402314004e+02,-3.539478099848865895e+02,-1.924528393236787451e+02,-1.806615126793194577e+02,-4.388157361230942115e+02,-4.752676185413993153e+02,-1.459430513677889394e+02,-1.729621209661481771e+02,9.408499717712402344e+00,-3.824593871831893921e-02,5.354431271553039551e-01,2.540000000000000000e+02
-3.891291422802705711e+02,-3.634169634752543061e+02,-1.944979452513198339e+02,-1.839495693447915983e+02,-4.473950755693913379e+02,-4.847834707306165001e+02,-1.467155853692720484e+02,-1.745045830504641344e+02,9.408499717712402344e+00,-3.824593871831893921e-02,5.354431271553039551e-01,2.550000000000000000e+02
-3.966179692112045814e+02,-3.720799665171298329e+02,-1.980214365169958910e+02,-1.871740289570343521e+02,-4.562276321284780352e+02,-4.936754993341901354e+02,-1.472164278416121306e+02,-1.771288920966662772e+02,9.408499717712402344e+00,-3.824593871831893921e-02,5.354431271553039551e-01,2.560000000000000000e+02
-4.047862405069654415e+02,-3.805303086400390384e+02,-2.029743257852442184e+02,-1.904765663183288780e+02,-4.660281547035947369e+02,-5.029823826285255564e+02,-1.482984818570557763e+02,-1.808761853834448630e+02,9.408499717712402344e+00,-3.824593871831893921e-02,5.354431271553039551e-01,2.570000000000000000e+02
-4.128524922719507231e+02,-3.892062603477697849e+02,-2.083914896728656458e+02,-1.935360928006011818e+02,-4.768567127048963812e+02,-5.130515562067575956e+02,-1.506060430405277657e+02,-1.849403890121275253e+02,9.408499717712402344e+00,-3.824593871831893921e-02,5.354431271553039551e-01,2.580000000000000000e+02
-4.203841166461470493e+02,-3.978591939950001688e+02,-2.130846373465356010e+02,-1.960168685427970559e+02,-4.878134241292436855e+02,-5.231802629833464380e+02,-1.539041476588754449e+02,-1.882404398432818198e+02,9.408499717712402344e+00,-3.824593871831893921e-02,5.354431271553039551e-01,2.590000000000000000e+02
-4.275638345750476219e+02,-4.055536502633422060e+02,-2.164091146952287090e+02,-1.979466186473709968e+02,-4.976565810067122584e+02,-5.322181299503154150e+02,-1.571478812024106446e+02,-1.901260023132945207e+02,9.446745872497558594e+00,-3.824593871831893921e-02,5.354431271553039551e-01,2.600000000000000000e+02
-4.347898955147757079e+02,-4.113290499063332391e+02,-2.185439153015213378e+02,-1.996204642910588518e+02,-5.058341822045158551e+02,-5.395785379683520659e+02,-1.592446315968081763e+02,-1.907396523622446693e+02,9.446745872497558594e+00,-3.824593871831893921e-02,5.354431271553039551e-01,2.610000000000000000e+02
-4.421235751800959406e+02,-4.151037354969648732e+02,-2.202009997848126659e+02,-2.012061917012324557e+02,-5.129327002842683214e+02,-5.457465488952457235e+02,-1.598268112103596650e+02,-1.908806945876076497e+02,9.446745872497558594e+00,-3.824593871831893921e-02,5.354431271553039551e-01,2.620000000000000000e+02
-4.492517484455229351e+02,-4.180803143156954320e+02,-2.221323341671031812e+02,-2.025733305353096512e+02,-5.201596617691166102e+02,-5.518911583542430890e+02,-1.594380603105510090e+02,-1.915458441535920429e+02,9.446745872497558594e+00,-3.824593871831893921e-02,5.354431271553039551e-01,2.630000000000000000e+02
-4.559773540966161818e+02,-4.221907625059211568e+02,-2.248104248451418243e+02,-2.035931878868186686e+02,-5.283863878842266786e+02,-5.590100160057891117e+02,-1.590861972930315460e+02,-1.934225380513753407e+02,9.446745872497558594e+00,-3.824593871831893921e-02,5.354431271553039551e-01,2.640000000000000000e+02
-4.625803645540281650e+02,-4.288733198516129050e+02,-2.283348640901667750e+02,-2.045879627153235560e+02,-5.375483021760928750e+02,-5.673543523000134883e+02,-1.595735844896507842e+02,-1.965549016406948795e+02,9.446745872497558594e+00,-3.824593871831893921e-02,5.354431271553039551e-01,2.650000000000000000e+02
-4.695191164558691526e+02,-4.380828818257832609e+02,-2.324233280468552039e+02,-2.063760585388081381e+02,-5.467459203868975237e+02,-5.764771701334548197e+02,-1.610797160050633465e+02,-2.003120365866652719e+02,9.446745872497558594e+00,-3.824593871831893921e-02,5.354431271553039551e-01,2.660000000000000000e+02
-4.767686352425635050e+02,-4.483320280490606820e+02,-2.364523703581517111e+02,-2.097253856743527649e+02,-5.548128514134059515e+02,-5.856684840266243555e+02,-1.632095652229972984e+02,-2.036944257733548511e+02,9.446745872497558594e+00,-3.824593871831893921e-02,5.354431271553039551e-01,2.670000000000000000e+02
-4.836416320304942928e+02,-4.577587859878740346e+02,-2.396945761279157523e+02,-2.146556049186083328e+02,-5.609652930460115385e+02,-5.943423917407035333e+02,-1.654141062610397057e+02,-2.058884250783012249e+02,9.446745872497558594e+00,-3.824593871831893921e-02,5.354431271553039551e-01,2.680000000000000000e+02
-4.894634342035669761e+02,-4.653894283976114821e+02,-2.417800366385854431e+02,-2.202373142925562206e+02,-5.652583744487283184e+02,-6.021719355633813393e+02,-1.674641119997968417e+02,-2.067840559797496098e+02,9.446745872497558594e+00,-3.824593871831893921e-02,5.354431271553039551e-01,2.690000000000000000e+02
-4.944413551871189156e+02,-4.716278743035454681e+02,-2.430646848677415619e+02,-2.251019076410757407e+02,-5.686385273375881297e+02,-6.090568638962258774e+02,-1.696078355994504818e+02,-2.070986635719036713e+02,9.446745872497558594e+00,-3.824593871831893921e-02,5.354431271553039551e-01,2.700000000000000000e+02
-4.997030937066983824e+02,-4.776754864925123911e+02,-2.445027019028275390e+02,-2.282599390933955874e+02,-5.724642795697991460e+02,-6.150772485945635708e+02,-1.722609860777220092e+02,-2.079726552418578649e+02,9.446745872497558594e+00,-3.824593871831893921e-02,5.354431271553039551e-01,2.710000000000000000e+02
-5.063267572041636413e+02,-4.844444146862761045e+02,-2.470379220485147016e+02,-2.296284071788213623e+02,-5.777490163251059130e+02,-6.205115677301610049e+02,-1.755276501765802095e+02,-2.103285547408722778e+02,9.446745872497558594e+00,-3.824593871831893921e-02,5.354431271553039551e-01,2.720000000000000000e+02
-5.143267668568314548e+02,-4.918679935656405178e+02,-2.510093256106893023e+02,-2.299683873082794889e+02,-5.846859297815644823e+02,-6.258603463285717226e+02,-1.790410472509147439e+02,-2.144495076066941692e+02,9.446745872497558594e+00,-3.824593871831893921e-02,5.354431271553039551e-01,2.730000000000000000e+02
-5.226607762970152180e+02,-4.990968624530091802e+02,-2.560558937303476341e+02,-2.303855220137238575e+02,-5.927866711866336118e+02,-6.317408567235679584e+02,-1.822753407872478419e+02,-2.199835040012521858e+02,9.446745872497558594e+00,-3.824593871831893921e-02,5.354431271553039551e-01,2.740000000000000000e+02
-5.302435501028385261e+02,-5.053119177921535083e+02,-2.615044225281362742e+02,-2.317609775663422624e+02,-6.013953702540220547e+02,-6.385993581708116835e+02,-1.849798516129685595e+02,-2.261924932313004319e+02,9.446745872497558594e+00,-3.824593871831893921e-02,5.354431271553039551e-01,2.750000000000000000e+02
-5.368790180176415561e+02,-5.104342077371647974e+02,-2.667812403304496911e+02,-2.344039414414683051e+02,-6.100370077145180403e+02,-6.463867300801230158e+02,-1.872840161369085763e+02,-2.321737392772756721e+02,9.446745872497558594e+00,-3.824593871831893921e-02,5.354431271553039551e-01,2.760000000000000000e+02
-5.431504920187994685e+02,-5.151869886410422623e+02,-2.714961418534403492e+02,-2.380183407214071849e+02,-6.183632532119481766e+02,-6.544674737402729079e+02,-1.894182539261946658e+02,-2.370162777597561217e+02,9.446745872497558594e+00,-3.824593871831893921e-02,5.354431271553039551e-01,2.770000000000000000e+02
-5.494649163483036318e+02,-5.205090842569056804e+02,-2.752882844050636777e+02,-2.418968219751250217e+02,-6.259499964571459714e+02,-6.619004816829674382e+02,-1.914014237809660699e+02,-2.400264495477576929e+02,9.446745872497558594e+00,-3.824593871831893921e-02,5.354431271553039551e-01,2.780000000000000000e+02
-5.553648435235299985e+02,-5.268182532997543603e+02,-2.778025476603297648e+02,-2.452224343468415100e+02,-6.323506355950303259e+02,-6.679498033929121448e+02,-1.930431139994316254e+02,-2.410529284641816048e+02,9.446745872497558594e+00,-3.824593871831893921e-02,5.354431271553039551e-01,2.790000000000000000e+02
-5.598806734214999778e+02,-5.336614602109607404e+02,-2.789132985183396158e+02,-2.473631123311179181e+02,-6.374020658925037424e+02,-6.724631213318625669e+02,-1.941839704557569348e+02,-2.406509557976060023e+02,9.446745872497558594e+00,-3.824593871831893921e-02,5.354431271553039551e-01,2.800000000000000000e+02
-5.625342384158557252e+02,-5.399726587822719921e+02,-2.789240897314557515e+02,-2.480640873640099926e+02,-6.413901323977379434e+02,-6.758489916997814362e+02,-1.948287567361694528e+02,-2.398094649477507119e+02,9.446745872497558594e+00,-3.824593871831893921e-02,5.354431271553039551e-01,2.810000000000000000e+02
-5.639135421545024656e+02,-5.447482254495253073e+02,-2.784648107471384719e+02,-2.474860402880162837e+02,-6.448234419042073569e+02,-6.787256635914427534e+02,-1.950220220806322686e+02,-2.393598742118092559e+02,9.446745872497558594e+00,-3.824593871831893921e-02,5.354431271553039551e-01,2.820000000000000000e+02
-5.652357830468431530e+02,-5.477003876313624460e+02,-2.781745599642545130e+02,-2.460995166381067065e+02,-6.480413136564638990e+02,-6.815790865678900445e+02,-1.947035489376603437e+02,-2.395647324942001433e+02,9.446745872497558594e+00,-3.824593871831893921e-02,5.354431271553039551e-01,2.830000000000000000e+02
-5.673774594324413556e+02,-5.494791507435870699e+02,-2.785037502434697672e+02,-2.445078261158378155e+02,-6.511178282269529518e+02,-6.846945896967381486e+02,-1.938518278252122400e+02,-2.402825497004942008e+02,9.446745872497558594e+00,-3.824593871831893921e-02,5.354431271553039551e-01,2.840000000000000000e+02
-5.703002084816107526e+02,-5.513042865228094342e+02,-2.797578740181406829e+02,-2.432702802097505810e+02,-6.541364143327609781e+02,-6.882917395870490509e+02,-1.928214527482632548e+02,-2.414868973824040950e+02,9.446745872497558594e+00,-3.824593871831893921e-02,5.354431271553039551e-01,2.850000000000000000e+02
-5.732923209887117082e+02,-5.542122209093545280e+02,-2.821330150428048000e+02,-2.427893777727508677e+02,-6.574133965555788564e+02,-6.925870106357951954e+02,-1.924211589018386803e+02,-2.435057382711875107e+02,9.446745872497558594e+00,-3.824593871831893921e-02,5.354431271553039551e-01,2.860000000000000000e+02
-5.756236523816933186e+02,-5.583945030063514423e+02,-2.854835522803196000e+02,-2.432813218680107639e+02,-6.612904923008677542e+02,-6.976473716085802153e+02,-1.934481574380470192e+02,-2.466222366929214331e+02,9.446745872497558594e+00,-3.824593871831893921e-02,5.354431271553039551e-01,2.870000000000000000e+02
-5.769652660176570862e+02,-5.631028451021593355e+02,-2.890014496060734928e+02,-2.447758911514397369e+02,-6.656448511709104423e+02,-7.031792991950010219e+02,-1.959536925213024006e+02,-2.504107503420900684e+02,9.446745872497558594e+00,-3.824593871831893921e-02,5.354431271553039551e-01,2.880000000000000000e+02
-5.773962034403784855e+02,-5.672308622944447052e+02,-2.913398027792427456e+02,-2.471012966737787337e+02,-6.697000104137561038e+02,-7.085273534608948012e+02,-1.989271879218665617e+02,-2.536095134736058299e+02,9.446745872497558594e+00,-3.824593871831893921e-02,5.354431271553039551e-01,2.890000000000000000e+02
-5.772859719520782846e+02,-5.701632041476484574e+02,-2.913973538331376858e+02,-2.498701559057726627e+02,-6.724798800768332967e+02,-7.129735685056012926e+02,-2.008137683628876857e+02,-2.548803921549010738e+02,9.446745872497558594e+00,-3.824593871831893921e-02,5.354431271553039551e-01,2.900000000000000000e+02
-5.772650185889572185e+02,-5.722435256903206664e+02,-2.892378801542358815e+02,-2.525525801018229686e+02,-6.735917595541206992e+02,-7.161486771792094714e+02,-2.005640641566635622e+02,-2.539043807633215692e+02,9.446745872497558594e+00,-3.824593871831893921e-02,5.736890435218811035e-01,2.910000000000000000e+02
-5.781502621561254500e+02,-5.744928261700838448e+02,-2.862801245332880171e+02,-2.547008571813694289e+02,-6.736441615703348589e+02,-7.182662398006648345e+02,-1.984214847347495834e+02,-2.518044450887957737e+02,9.446745872497558594e+00,-3.824593871831893921e-02,5.736890435218811035e-01,2.920000000000000000e+02
-5.805946542866659001e+02,-5.777944605062036771e+02,-2.844292957741040482e+02,-2.562212225869814120e+02,-6.738884949437027672e+02,-7.200191098407484560e+02,-1.958039759091630003e+02,-2.504138935589212451e+02,9.446745872497558594e+00,-3.824593871831893921e-02,5.736890435218811035e-01,2.930000000000000000e+02
-5.845771330124227916e+02,-5.822076696245420635e+02,-2.847975530500868899e+02,-2.574418165444826627e+02,-6.753582573789374237e+02,-7.222062745801183610e+02,-1.943587811132958905e+02,-2.509614050493103150e+02,9.446745872497558594e+00,-3.824593871831893921e-02,5.736890435218811035e-01,2.940000000000000000e+02
-5.892143857600610772e+02,-5.869609348012919554e+02,-2.870939693204145442e+02,-2.588210207684321631e+02,-6.781976216770478914e+02,-7.253025913879632753e+02,-1.949101334190222587e+02,-2.532875416513220443e+02,9.446745872497558594e+00,-3.824593871831893921e-02,5.736890435218811035e-01,2.950000000000000000e+02
-5.932333805561926283e+02,-5.910790504437626396e+02,-2.901621860808800193e+02,-2.604820532462908886e+02,-6.816872062650959379e+02,-7.292118361814015088e+02,-1.970799394292178022e+02,-2.562250552306304598e+02,9.446745872497558594e+00,-3.824593871831893921e-02,5.736890435218811035e-01,2.960000000000000000e+02
-5.958219176315831191e+02,-5.940843929814313924e+02,-2.930850196043493270e+02,-2.620103259613310911e+02,-6.848991956289671634e+02,-7.333630184831870338e+02,-1.998115293075532009e+02,-2.587194049453828484e+02,9.446745872497558594e+00,-3.824593871831893921e-02,5.736890435218811035e-01,2.970000000000000000e+02
-5.971400063400906220e+02,-5.962204445100948078e+02,-2.958001600236650575e+02,-2.627728174763817606e+02,-6.874171165320674390e+02,-7.370871873678850079e+02,-2.022714233896240330e+02,-2.606211646299861968e+02,9.446745872497558594e+00,-3.824593871831893921e-02,5.736890435218811035e-01,2.980000000000000000e+02
-5.980436077386079887e+02,-5.981328216980090247e+02,-2.987386548419249266e+02,-2.625381166898771426e+02,-6.895413268506957820e+02,-7.400120903350067465e+02,-2.043323057945133314e+02,-2.624706645215210301e+02,9.446745872497558594e+00,-3.824593871831893921e-02,5.736890435218811035e-01,2.990000000000000000e+02
-5.992775337910442204e+02,-6.003713285767075831e+02,-3.019683765236613908e+02,-2.618206853354861323e+02,-6.918318819429448467e+02,-7.421725686803791859e+02,-2.062629294142202525e+02,-2.645904226137104160e+02,9.446745872497558594e+00,-3.824593871831893921e-02,5.736890435218811035e-01,3.000000000000000000e+02
-6.008683348139811642e+02,-6.030868529556801150e+02,-3.047626433178497791e+02,-2.615578489063288998e+02,-6.944055292131313308e+02,-7.437650332953027146e+02,-2.080131475068044438e+02,-2.664425362018523629e+02,9.446745872497558594e+00,-3.824593871831893921e-02,5.736890435218811035e-01,3.010000000000000000e+02
-6.022335091460834064e+02,-6.060139399171341665e+02,-3.060475110473869336e+02,-2.623651998023351553e+02,-6.966571193901040715e+02,-7.448424170164003044e+02,-2.089113409286514980e+02,-2.669300927369129113e+02,9.446745872497558594e+00,-3.824593871831893921e-02,5.736890435218811035e-01,3.020000000000000000e+02
-6.028276185680808794e+02,-6.085976650505126599e+02,-3.052968044443450708e+02,-2.640368686161757523e+02,-6.977058802803855997e+02,-7.453057088778372190e+02,-2.081779527513592711e+02,-2.653793829978258145e+02,9.446745872497558594e+00,-3.824593871831893921e-02,5.736890435218811035e-01,3.030000000000000000e+02
-6.026904429897952014e+02,-6.101834592008575555e+02,-3.030486988907000523e+02,-2.657470065836175763e+02,-6.972106622911989007e+02,-7.452172227432453155e+02,-2.058002470418664416e+02,-2.622725088891938867e+02,9.446745872497558594e+00,-3.824593871831893921e-02,5.736890435218811035e-01,3.040000000000000000e+02
-6.024332887185545360e+02,-6.103224938032564069e+02,-3.005982366047346659e+02,-2.667402947498549111e+02,-6.957958290979095182e+02,-7.450472530173932455e+02,-2.028602601822447014e+02,-2.590281207974127256e+02,9.446745872497558594e+00,-3.824593871831893921e-02,5.736890435218811035e-01,3.050000000000000000e+02
-6.027424352096920757e+02,-6.091463554803281113e+02,-2.991617310902363442e+02,-2.668646905203354436e+02,-6.946464211558421766e+02,-7.454605583057707463e+02,-2.008761237578767123e+02,-2.570168435292531512e+02,9.446745872497558594e+00,-3.824593871831893921e-02,5.736890435218811035e-01,3.060000000000000000e+02
-6.038621465878258050e+02,-6.075168531649965189e+02,-2.991877604719043120e+02,-2.665049991253629287e+02,-6.946223357454355209e+02,-7.467467804671910017e+02,-2.006911714585119171e+02,-2.566681180985713127e+02,9.446745872497558594e+00,-3.824593871831893921e-02,5.736890435218811035e-01,3.070000000000000000e+02
-6.054346428091131429e+02,-6.066432406920646372e+02,-3.002579787645124725e+02,-2.660706878841147045e+02,-6.956883469119374013e+02,-7.484595186001337197e+02,-2.019018283026987319e+02,-2.573925825646756493e+02,9.446745872497558594e+00,-3.824593871831893921e-02,5.736890435218811035e-01,3.080000000000000000e+02
-6.067212976375042217e+02,-6.072675945552497296e+02,-3.014978665229389208e+02,-2.655725575706728705e+02,-6.971304591634806229e+02,-7.496862535320749430e+02,-2.033005648576558997e+02,-2.582493146931932415e+02,9.446745872497558594e+00,-3.824593871831893921e-02,5.736890435218811035e-01,3.090000000000000000e+02
-6.069841999915180395e+02,-6.090396671192245321e+02,-3.021034427679646797e+02,-2.646430635078304476e+02,-6.982408380592930826e+02,-7.497276375503003010e+02,-2.038301270026547627e+02,-2.586438196229788673e+02,9.446745872497558594e+00,-3.824593871831893921e-02,5.736890435218811035e-01,3.100000000000000000e+02
-6.058288267428379186e+02,-6.107176582940765002e+02,-3.016781850789625423e+02,-2.628823797882598683e+02,-6.987693649078529461e+02,-7.485326633722830820e+02,-2.031492261449868693e+02,-2.584584899669779361e+02,9.446745872497558594e+00,-3.824593871831893921e-02,5.736890435218811035e-01,3.110000000000000000e+02
-6.034281794509759038e+02,-6.111611164875646409e+02,-3.003234566779970010e+02,-2.601739286968989973e+02,-6.988192710149282902e+02,-7.465178255777178720e+02,-2.014694294262060339e+02,-2.576981149843767298e+02,9.446745872497558594e+00,-3.824593871831893921e-02,5.354431271553039551e-01,3.120000000000000000e+02
-6.005384388573172600e+02,-6.102866504563196486e+02,-2.985584062383743458e+02,-2.567591695880200859e+02,-6.984982499367296214e+02,-7.440761220951468431e+02,-1.991161047087880434e+02,-2.562374383623773610e+02,9.446745872497558594e+00,-3.824593871831893921e-02,5.354431271553039551e-01,3.130000000000000000e+02
-5.982034344983896972e+02,-6.091002202391912306e+02,-2.971067338885220579e+02,-2.531569860622059878e+02,-6.978345041005975418e+02,-7.414088297709313338e+02,-1.964264667442794234e+02,-2.540748675761885806e+02,9.446745872497558594e+00,-3.824593871831893921e-02,5.354431271553039551e-01,3.140000000000000000e+02
-5.972020381473214456e+02,-6.087351744310866479e+02,-2.965646976708833336e+02,-2.500654552711297356e+02,-6.970181787100301563e+02,-7.388537089780948008e+02,-1.939942096556959541e+02,-2.518084014095054499e+02,9.446745872497558594e+00,-3.824593871831893921e-02,5.354431271553039551e-01,3.150000000000000000e+02
-5.975633178300635109e+02,-6.093845728715853056e+02,-2.970718142539500377e+02,-2.482217765756111021e+02,-6.965525204897035110e+02,-7.371753421448808012e+02,-1.927088708163207684e+02,-2.506460935135810359e+02,9.446745872497558594e+00,-3.824593871831893921e-02,5.354431271553039551e-01,3.160000000000000000e+02
-5.985637837191695780e+02,-6.101621101129716180e+02,-2.981952576174364822e+02,-2.481226057837135386e+02,-6.969782931418885710e+02,-7.372309242839726267e+02,-1.932478465218159727e+02,-2.516527998398255477e+02,9.446745872497558594e+00,-3.824593871831893921e-02,5.354431271553039551e-01,3.170000000000000000e+02
-5.992609410105153529e+02,-6.100213980284333957e+02,-2.991477886394314964e+02,-2.496560257013751425e+02,-6.983334522808011116e+02,-7.391245197565581293e+02,-1.953911998943823392e+02,-2.547475597718967038e+02,9.446745872497558594e+00,-3.824593871831893921e-02,5.354431271553039551e-01,3.180000000000000000e+02
-5.991287896959029240e+02,-6.088234895605281736e+02,-2.992286321667988886e+02,-2.519447904265931584e+02,-6.998899657892939103e+02,-7.416944711587888150e+02,-1.979350643520014046e+02,-2.584037153607919208e+02,9.446745872497558594e+00,-3.824593871831893921e-02,5.354431271553039551e-01,3.190000000000000000e+02
-5.982373026949029509e+02,-6.074650034162204975e+02,-2.981945167352962471e+02,-2.536575773394550879e+02,-7.005095645154697195e+02,-7.430405231163580311e+02,-1.994753118681262549e+02,-2.605128387783420294e+02,9.446745872497558594e+00,-3.824593871831893921e-02,5.354431271553039551e-01,3.200000000000000000e+02
-5.968576857020060515e+02,-6.069150200639556942e+02,-2.963307130751561544e+02,-2.536937441453477504e+02,-6.993945731839329483e+02,-7.418165321896882460e+02,-1.994369231575639105e+02,-2.598381544749162231e+02,9.446745872497558594e+00,-3.824593871831893921e-02,5.354431271553039551e-01,3.210000000000000000e+02
-5.950188059596204084e+02,-6.071365670236275491e+02,-2.942570513411685624e+02,-2.518002578860460972e+02,-6.966765156575460196e+02,-7.382005982671657875e+02,-1.984218638735403601e+02,-2.568936710482309991e+02,9.446745872497558594e+00,-3.824593871831893921e-02,5.354431271553039551e-01,3.220000000000000000e+02
-5.925921293110128545e+02,-6.070236651397153764e+02,-2.926549311148261268e+02,-2.486610057721828753e+02,-6.934037577171620796e+02,-7.336614383830141151e+02,-1.975604816592704083e+02,-2.535130392157168444e+02,9.446745872497558594e+00,-3.824593871831893921e-02,5.354431271553039551e-01,3.230000000000000000e+02
-5.898670387666371653e+02,-6.054834012055609946e+02,-2.920456360414899564e+02,-2.454010239917389526e+02,-6.909285992768936921e+02,-7.297441467297630879e+02,-1.974917789118145492e+02,-2.514724919908105676e+02,9.446745872497558594e+00,-3.824593871831893921e-02,5.354431271553039551e-01,3.240000000000000000e+02
-5.878925203570172471e+02,-6.026027898249847112e+02,-2.925925484216541008e+02,-2.428854343537417435e+02,-6.900747374008062707e+02,-7.269923561746486484e+02,-1.978878817698007424e+02,-2.513042647237498386e+02,9.446745872497558594e+00,-3.824593871831893921e-02,5.354431271553039551e-01,3.250000000000000000e+02
-5.879340978560944677e+02,-5.996977234657877034e+02,-2.939297305310880120e+02,-2.413184043080643733e+02,-6.906098583518171381e+02,-7.249344986357189100e+02,-1.978704859843771828e+02,-2.522093012708015749e+02,9.446745872497558594e+00,-3.824593871831893921e-02,5.354431271553039551e-01,3.260000000000000000e+02
-5.903264888205256966e+02,-5.981173633371467986e+02,-2.951814509343635109e+02,-2.403616849994464246e+02,-6.914153463324651057e+02,-7.229886758794639263e+02,-1.968390876430798926e+02,-2.529870855798078537e+02,9.446745872497558594e+00,-3.824593871831893921e-02,5.354431271553039551e-01,3.270000000000000000e+02
-5.938226003054764988e+02,-5.979284614100577073e+02,-2.953553483110274556e+02,-2.395692719937576385e+02,-6.912967992041199068e+02,-7.212659197564440774e+02,-1.949322707553584451e+02,-2.530704107867045423e+02,9.446745872497558594e+00,-3.824593871831893921e-02,5.354431271553039551e-01,3.280000000000000000e+02
-5.963044563082705736e+02,-5.977827878946120563e+02,-2.940100081247863955e+02,-2.387543319882668129e+02,-6.898843926410626182e+02,-7.204415515303834354e+02,-1.928175382124651378e+02,-2.528123851861253115e+02,9.446745872497558594e+00,-3.824593871831893921e-02,5.354431271553039551e-01,3.290000000000000000e+02
-5.964837224086181777e+02,-5.961447237164531998e+02,-2.917134599765602161e+02,-2.380410234719249729e+02,-6.878950662382377459e+02,-7.208644977335130761e+02,-1.911582289233527945e+02,-2.529448062032092821e+02,9.446745872497558594e+00,-3.824593871831893921e-02,5.354431271553039551e-01,3.300000000000000000e+02
-5.951323153756367219e+02,-5.927291234770056008e+02,-2.897958484146829505e+02,-2.376337653533331604e+02,-6.864757739517633581e+02,-7.218693246210793859e+02,-1.902971920035739686e+02,-2.538448506711625896e+02,9.446745872497558594e+00,-3.824593871831893921e-02,5.354431271553039551e-01,3.310000000000000000e+02
-5.945970411398704982e+02,-5.887801921848305255e+02,-2.894209575053091612e+02,-2.375439461451233001e+02,-6.861450232410710441e+02,-7.220578101698587261e+02,-1.903249077823550124e+02,-2.552643619356074396e+02,9.446745872497558594e+00,-3.824593871831893921e-02,5.354431271553039551e-01,3.320000000000000000e+02
-5.968135051543240479e+02,-5.859386874775085516e+02,-2.906297241841043615e+02,-2.374866029044892457e+02,-6.862405267469591763e+02,-7.203256943204281697e+02,-1.912263275352609071e+02,-2.565920289971438706e+02,9.446745872497558594e+00,-3.824593871831893921e-02,5.354431271553039551e-01,3.330000000000000000e+02
-6.014624336542341325e+02,-5.848067137387479306e+02,-2.921462861522923049e+02,-2.370068139578689852e+02,-6.853655819816165149e+02,-7.166740675992244860e+02,-1.927805112252131039e+02,-2.572466449263555432e+02,9.446745872497558594e+00,-3.824593871831893921e-02,5.354431271553039551e-01,3.340000000000000000e+02
-6.059306176242788524e+02,-5.845707414437442822e+02,-2.922012359872969682e+02,-2.357433130289434757e+02,-6.824440320737230650e+02,-7.120735893904920886e+02,-1.943100689452045344e+02,-2.568574305667848421e+02,9.446745872497558594e+00,-3.824593871831893921e-02,5.354431271553039551e-01,3.350000000000000000e+02
-6.072159883803922185e+02,-5.839563094649804498e+02,-2.897949945548002688e+02,-2.336688853016167968e+02,-6.774898333811690918e+02,-7.075787794072575707e+02,-1.947304937964966030e+02,-2.552633596177061008e+02,9.446745872497558594e+00,-3.824593871831893921e-02,5.354431271553039551e-01,3.360000000000000000e+02
-6.042099856847208912e+02,-5.824875026555555451e+02,-2.854435167075316713e+02,-2.311685965140754888e+02,-6.715441711698446170e+02,-7.035816921277742040e+02,-1.931465371583138904e+02,-2.525722448089388763e+02,9.446745872497558594e+00,-7.649187743663787842e-02,5.354431271553039551e-01,3.370000000000000000e+02
-5.984507816811720886e+02,-5.808101317552263936e+02,-2.808498852889705404e+02,-2.288889442434128796e+02,-6.659854300624376719e+02,-6.998523512910425097e+02,-1.896050356694429411e+02,-2.492992112906447346e+02,9.446745872497558594e+00,-7.649187743663787842e-02,5.354431271553039551e-01,3.380000000000000000e+02
-5.927721689361316066e+02,-5.798530480019160223e+02,-2.777693814349039485e+02,-2.274098391189036192e+02,-6.618272344828666292e+02,-6.961670204993597508e+02,-1.852721791261237740e+02,-2.463246071777042516e+02,9.446745872497558594e+00,-7.649187743663787842e-02,5.354431271553039551e-01,3.390000000000000000e+02
-5.890658434398459349e+02,-5.797702856579043100e+02,-2.769032122544595040e+02,-2.269043773208679795e+02,-6.593945582078792995e+02,-6.927631461173812113e+02,-1.816966770521953549e+02,-2.444714756420449930e+02,9.446745872497558594e+00,-7.649187743663787842e-02,5.354431271553039551e-01,3.400000000000000000e+02
-5.870701454404307924e+02,-5.797350797076168192e+02,-2.775876931815246280e+02,-2.270166853555028865e+02,-6.583457533255551652e+02,-6.901387963098247837e+02,-1.796920773943688801e+02,-2.439450823986813930e+02,9.446745872497558594e+00,-7.649187743663787842e-02,5.354431271553039551e-01,3.410000000000000000e+02
-5.850875842494511971e+02,-5.787240741565833559e+02,-2.784271820098383614e+02,-2.270759221076091308e+02,-6.578817357674802224e+02,-6.884766842447122599e+02,-1.788409322084330597e+02,-2.441565495545900148e+02,9.446745872497558594e+00,-7.649187743663787842e-02,5.354431271553039551e-01,3.420000000000000000e+02
-5.818020266176715722e+02,-5.764396313027441465e+02,-2.783170345552651952e+02,-2.265104328346569673e+02,-6.570753606239483133e+02,-6.873521607733584915e+02,-1.780860747493755980e+02,-2.441704952980436474e+02,9.446745872497558594e+00,-7.649187743663787842e-02,5.354431271553039551e-01,3.430000000000000000e+02
-5.774914236589365828e+02,-5.734697256730328263e+02,-2.770829398410520525e+02,-2.251590911289090400e+02,-6.552848699037215283e+02,-6.860421210011868425e+02,-1.768276046303972180e+02,-2.434147142059323414e+02,9.446745872497558594e+00,-7.649187743663787842e-02,5.354431271553039551e-01,3.440000000000000000e+02
-5.736233616143059635e+02,-5.706508230352153532e+02,-2.753413935970739885e+02,-2.232564664193994304e+02,-6.524408421336665924e+02,-6.840971885498058782e+02,-1.754423654955493248e+02,-2.420330905466944387e+02,9.446745872497558594e+00,-7.649187743663787842e-02,5.354431271553039551e-01,3.450000000000000000e+02
-5.713665930649481197e+02,-5.683853091501324570e+02,-2.738126742185991134e+02,-2.211559699928652662e+02,-6.489456203690082248e+02,-6.816079132675736219e+02,-1.747534703685963677e+02,-2.406219192130996589e+02,9.446745872497558594e+00,-7.649187743663787842e-02,5.354431271553039551e-01,3.460000000000000000e+02
-5.704690323506011964e+02,-5.665511141017691443e+02,-2.727061585079497945e+02,-2.190732504980538806e+02,-6.452369909842949482e+02,-6.789644512391845410e+02,-1.750665128644116066e+02,-2.396769767701371165e+02,9.446745872497558594e+00,-7.649187743663787842e-02,5.354431271553039551e-01,3.470000000000000000e+02
-5.694860108392588245e+02,-5.649246838792334984e+02,-2.716589068225047185e+02,-2.170817736508250846e+02,-6.414307879549714926e+02,-6.764295453578891966e+02,-1.758022545768421878e+02,-2.392964004485672831e+02,9.446745872497558594e+00,-7.649187743663787842e-02,5.354431271553039551e-01,3.480000000000000000e+02
-5.670443936191215926e+02,-5.635078195077754799e+02,-2.701850589081818725e+02,-2.153008755133296290e+02,-6.374136823908701217e+02,-6.739434174263162731e+02,-1.760733620117985083e+02,-2.393023252150748021e+02,9.446745872497558594e+00,-7.649187743663787842e-02,5.354431271553039551e-01,3.490000000000000000e+02
-5.629433748102633217e+02,-5.623708398142366605e+02,-2.681521208567437498e+02,-2.139726569612788580e+02,-6.332501167403813724e+02,-6.712238707484279985e+02,-1.755275708751444199e+02,-2.394507036491593226e+02,9.446745872497558594e+00,-7.649187743663787842e-02,5.354431271553039551e-01,3.500000000000000000e+02
-5.581979766467424042e+02,-5.612939754594050328e+02,-2.658671257529905461e+02,-2.132474051732158387e+02,-6.293963807563500268e+02,-6.679559897413826093e+02,-1.745582193922180068e+02,-2.394282014870351531e+02,9.446745872497558594e+00,-7.649187743663787842e-02,5.354431271553039551e-01,3.510000000000000000e+02
-5.541541328661213583e+02,-5.597287303428254290e+02,-2.637740161146364244e+02,-2.128695901490083315e+02,-6.264139148045596812e+02,-6.639136158637202243e+02,-1.737347134005601674e+02,-2.387497161325609341e+02,9.446745872497558594e+00,-7.649187743663787842e-02,5.354431271553039551e-01,3.520000000000000000e+02
-5.515162632602482518e+02,-5.572185440284914648e+02,-2.621061619549618626e+02,-2.121517700510830764e+02,-6.244189219296758893e+02,-6.590600086439344523e+02,-1.731452324844235591e+02,-2.369000729985191356e+02,9.446745872497558594e+00,-7.649187743663787842e-02,5.354431271553039551e-01,3.530000000000000000e+02
-5.500059681005850507e+02,-5.538625527240168367e+02,-2.607981162202183896e+02,-2.104146881200927055e+02,-6.228359511407923037e+02,-6.537006444013004511e+02,-1.723623415095371456e+02,-2.337905219899621443e+02,9.446745872497558594e+00,-7.649187743663787842e-02,5.354431271553039551e-01,3.540000000000000000e+02
-5.487197833918369270e+02,-5.503168243828779396e+02,-2.596514208526832590e+02,-2.076055790292654137e+02,-6.207333888424507222e+02,-6.485554675290322848e+02,-1.709910846728062097e+02,-2.301170840128502277e+02,9.446745872497558594e+00,-7.649187743663787842e-02,5.354431271553039551e-01,3.550000000000000000e+02
-5.467656625933764190e+02,-5.472831200064468931e+02,-2.584941780371389086e+02,-2.045156861515190485e+02,-6.174412285288369731e+02,-6.445081061176081221e+02,-1.691209623030138118e+02,-2.271005752879536885e+02,9.446745872497558594e+00,-7.649187743663787842e-02,5.354431271553039551e-01,3.560000000000000000e+02
-5.437552830224392437e+02,-5.449613671575734770e+02,-2.571667401096735830e+02,-2.022823890470594961e+02,-6.129217434202548702e+02,-6.420436135067247960e+02,-1.671965064552587137e+02,-2.256375573721254568e+02,9.446745872497558594e+00,-7.649187743663787842e-02,5.354431271553039551e-01,3.570000000000000000e+02
-5.399749459203109154e+02,-5.429667378221511171e+02,-2.554361036717482420e+02,-2.014808782095781226e+02,-6.076470908707958642e+02,-6.407734338708739870e+02,-1.655213308069205596e+02,-2.255495525091871514e+02,9.446745872497558594e+00,-7.649187743663787842e-02,5.354431271553039551e-01,3.580000000000000000e+02
-5.362017403185110425e+02,-5.407311352048425306e+02,-2.530391443270855234e+02,-2.015421100796643259e+02,-6.021868357609187115e+02,-6.395158179348945851e+02,-1.639862112258801972e+02,-2.256418787018221792e+02,9.446745872497558594e+00,-7.649187743663787842e-02,5.354431271553039551e-01,3.590000000000000000e+02
-5.332084921023209745e+02,-5.379627703010792175e+02,-2.498952031700612224e+02,-2.010479172466637010e+02,-5.968867649794931367e+02,-6.369853353206490283e+02,-1.622835905575998368e+02,-2.246098449537130364e+02,9.446745872497558594e+00,-7.649187743663787842e-02,5.354431271553039551e-01,3.600000000000000000e+02
-5.311851930365958196e+02,-5.347551305926058376e+02,-2.463052836852134533e+02,-1.987497534783715309e+02,-5.918512955199371390e+02,-6.326121963571563356e+02,-1.603016055939281159e+02,-2.220628691996878388e+02,9.446745872497558594e+00,-7.649187743663787842e-02,5.354431271553039551e-01,3.610000000000000000e+02
-5.295006038543388058e+02,-5.313312213552974299e+02,-2.429365254555925731e+02,-1.945330404968831317e+02,-5.871621729478672478e+02,-6.268865764381268946e+02,-1.582485425948625561e+02,-2.188335031310402883e+02,9.446745872497558594e+00,-7.649187743663787842e-02,5.354431271553039551e-01,3.620000000000000000e+02
-5.271238945303052787e+02,-5.277713070615068318e+02,-2.405673821080697508e+02,-1.895560775323094731e+02,-5.830963897264728075e+02,-6.210047167262221137e+02,-1.564157952828941234e+02,-2.163725822945004893e+02,9.446745872497558594e+00,-7.649187743663787842e-02,5.354431271553039551e-01,3.630000000000000000e+02
-5.235100451464714979e+02,-5.240167957973765169e+02,-2.397420801966329691e+02,-1.854629780269128787e+02,-5.801279832273708053e+02,-6.161204425688210904e+02,-1.549012580580510985e+02,-2.157630584997032201e+02,9.370253562927246094e+00,-3.824593871831893921e-02,5.354431271553039551e-01,3.640000000000000000e+02
-5.192195192439166931e+02,-5.201149886152750241e+02,-2.405143550303334905e+02,-1.833038175623094048e+02,-5.786378459698844381e+02,-6.127238334772584949e+02,-1.535919967821764658e+02,-2.170851535435326696e+02,9.370253562927246094e+00,-3.824593871831893921e-02,5.354431271553039551e-01,3.650000000000000000e+02
-5.156268627531126185e+02,-5.163957044833737200e+02,-2.423867371281628493e+02,-1.829927256106664117e+02,-5.784949138705037512e+02,-6.104906230675564984e+02,-1.523683516051125935e+02,-2.194750850164036819e+02,9.370253562927246094e+00,-3.824593871831893921e-02,5.354431271553039551e-01,3.660000000000000000e+02
-5.138442568332316114e+02,-5.133503729351705260e+02,-2.444642588302015156e+02,-1.836449966795310047e+02,-5.788743605096269675e+02,-6.086059861012604415e+02,-1.512743686970613908e+02,-2.217052598012469389e+02,9.370253562927246094e+00,-3.824593871831893921e-02,5.354431271553039551e-01,3.670000000000000000e+02
-5.137333710970833636e+02,-5.112955576592912621e+02,-2.457805521691727790e+02,-1.843922773319941371e+02,-5.785584306565067436e+02,-6.062960904489968925e+02,-1.504768311542434276e+02,-2.228466883724340732e+02,9.370253562927246094e+00,-3.824593871831893921e-02,5.354431271553039551e-01,3.680000000000000000e+02
-5.138885974997365338e+02,-5.101080544431706585e+02,-2.456775634855152930e+02,-1.849586114213111614e+02,-5.765796749779442507e+02,-6.032521167986030832e+02,-1.500870757602515368e+02,-2.226594685417603614e+02,9.370253562927246094e+00,-3.824593871831893921e-02,5.354431271553039551e-01,3.690000000000000000e+02
-5.126322249473735155e+02,-5.092550345120250768e+02,-2.440316249116699510e+02,-1.856046300998423249e+02,-5.727098052259407268e+02,-5.997231527801241100e+02,-1.500072811212216948e+02,-2.215659849167223001e+02,9.370253562927246094e+00,-3.824593871831893921e-02,5.354431271553039551e-01,3.700000000000000000e+02
-5.091968594625805054e+02,-5.080905975090263382e+02,-2.411828289781451531e+02,-1.866558515566534879e+02,-5.674083845452587411e+02,-5.962608017155498601e+02,-1.499005999986848110e+02,-2.202667426664920640e+02,9.370253562927246094e+00,-3.824593871831893921e-02,5.354431271553039551e-01,3.710000000000000000e+02
-5.041668435354440589e+02,-5.061775542914456310e+02,-2.376424543057180472e+02,-1.881361150549059857e+02,-5.613493464531659356e+02,-5.932950741239942545e+02,-1.493082527695717090e+02,-2.192218579671944099e+02,9.370253562927246094e+00,-3.824593871831893921e-02,5.354431271553039551e-01,3.720000000000000000e+02
-4.989339704855028685e+02,-5.034239787408725988e+02,-2.338423459142522915e+02,-1.897966534825450253e+02,-5.550115138575740730e+02,-5.908180592918645289e+02,-1.478818690455643718e+02,-2.183246990729085155e+02,9.370253562927246094e+00,-3.824593871831893921e-02,5.354431271553039551e-01,3.730000000000000000e+02
-4.947333372886009784e+02,-5.000143673652903544e+02,-2.301235188100317828e+02,-1.913835044211252807e+02,-5.486766200787556045e+02,-5.883780839749974803e+02,-1.456461245212865379e+02,-2.170341227878288919e+02,9.370253562927246094e+00,-3.824593871831893921e-02,5.354431271553039551e-01,3.740000000000000000e+02
-4.920201300272024127e+02,-4.962684470728038377e+02,-2.268734812446791693e+02,-1.927928419079780724e+02,-5.426533429487351441e+02,-5.853509403419745922e+02,-1.431151575589606182e+02,-2.149004400982694278e+02,9.370253562927246094e+00,-3.824593871831893921e-02,5.354431271553039551e-01,3.750000000000000000e+02
-4.904898605684161339e+02,-4.925470129699729114e+02,-2.245510220240305443e+02,-1.939934987380624989e+02,-5.373131792612396112e+02,-5.812787835337267097e+02,-1.411064160900348270e+02,-2.120724358593997749e+02,9.370253562927246094e+00,-3.824593871831893921e-02,5.354431271553039551e-01,3.760000000000000000e+02
-4.894877983293147281e+02,-4.891722496351540030e+02,-2.234401902193390015e+02,-1.948927598984830638e+02,-5.328311047468023389e+02,-5.760640862967561588e+02,-1.402824835482842900e+02,-2.093138484196124409e+02,9.370253562927246094e+00,-3.824593871831893921e-02,5.354431271553039551e-01,3.770000000000000000e+02
-4.883817192694352798e+02,-4.863041126776361125e+02,-2.233154139096086510e+02,-1.953410015491458580e+02,-5.289624393738017716e+02,-5.699310225878598430e+02,-1.406857643612938773e+02,-2.074406645909209601e+02,9.370253562927246094e+00,-3.824593871831893921e-02,5.354431271553039551e-01,3.780000000000000000e+02
-4.867249498600435800e+02,-4.838236175621784696e+02,-2.233982750664308696e+02,-1.952679167554324522e+02,-5.252222727546882197e+02,-5.632418687812714779e+02,-1.416259017478009810e+02,-2.066473579672451706e+02,9.370253562927246094e+00,-3.824593871831893921e-02,5.354431271553039551e-01,3.790000000000000000e+02
-4.842769092601170087e+02,-4.813657852790993275e+02,-2.227600558419148911e+02,-1.947677973340137214e+02,-5.213517368978109516e+02,-5.563278716851164063e+02,-1.420456131153114256e+02,-2.063524638092389978e+02,9.370253562927246094e+00,-3.824593871831893921e-02,5.354431271553039551e-01,3.800000000000000000e+02
-4.809834154412276348e+02,-4.785558483194649853e+02,-2.209053416723436385e+02,-1.940190524673262189e+02,-5.175554054628969425e+02,-5.494371721103593700e+02,-1.411414041148120759e+02,-2.057437414166420240e+02,9.370253562927246094e+00,-3.824593871831893921e-02,5.354431271553039551e-01,3.810000000000000000e+02
-4.769238580659612126e+02,-4.752871083626828295e+02,-2.180507564179720248e+02,-1.931349521010129138e+02,-5.141937418503825938e+02,-5.427823510132168394e+02,-1.388285823734283895e+02,-2.045067674977683509e+02,9.370253562927246094e+00,-3.824593871831893921e-02,5.354431271553039551e-01,3.820000000000000000e+02
-4.722168676575311110e+02,-4.718019818052198389e+02,-2.148759886069783533e+02,-1.921360475783651509e+02,-5.112171465583328427e+02,-5.365947611303067788e+02,-1.357504250262436472e+02,-2.030268875565641338e+02,9.370253562927246094e+00,-3.824593871831893921e-02,5.354431271553039551e-01,3.830000000000000000e+02
-4.669797212442970249e+02,-4.684705287671740734e+02,-2.119921092554309325e+02,-1.910679799640868168e+02,-5.079637551991193050e+02,-5.310820722357073009e+02,-1.328610436236033365e+02,-2.018654227110539523e+02,9.370253562927246094e+00,-3.824593871831893921e-02,5.354431271553039551e-01,3.840000000000000000e+02
-4.614257970170874614e+02,-4.654549513277315782e+02,-2.095975078666465379e+02,-1.900952831876945766e+02,-5.036111024731878842e+02,-5.262853257123977073e+02,-1.308820347874900563e+02,-2.010627054745168607e+02,9.370253562927246094e+00,-3.824593871831893921e-02,5.354431271553039551e-01,3.850000000000000000e+02
-4.560243167831267783e+02,-4.626013599366915514e+02,-2.075874755025256491e+02,-1.894550002437486000e+02,-4.979333158888921389e+02,-5.220060487366863526e+02,-1.300057320771188643e+02,-2.000716237336232552e+02,9.370253562927246094e+00,-3.824593871831893921e-02,5.354431271553039551e-01,3.860000000000000000e+02
-4.514856484785161683e+02,-4.596622595162205016e+02,-2.059207328955699268e+02,-1.893273426609000580e+02,-4.916908127657970908e+02,-5.179634346356897368e+02,-1.299927744150099898e+02,-1.984608294152096732e+02,9.370253562927246094e+00,-3.824593871831893921e-02,5.354431271553039551e-01,3.870000000000000000e+02
-4.483942876686112413e+02,-4.565975758975403096e+02,-2.047849414726765644e+02,-1.897560400649040275e+02,-4.862331911291676079e+02,-5.140951092004202110e+02,-1.304658545427669196e+02,-1.966303886821913238e+02,9.370253562927246094e+00,-3.824593871831893921e-02,5.354431271553039551e-01,3.880000000000000000e+02
-4.466864008583038412e+02,-4.536170087411035183e+02,-2.043476616977022786e+02,-1.906676791236025110e+02,-4.825625500711439599e+02,-5.106949527651636345e+02,-1.310774522358783543e+02,-1.956668681899577678e+02,9.370253562927246094e+00,-3.824593871831893921e-02,5.354431271553039551e-01,3.890000000000000000e+02
-4.454698764309227954e+02,-4.509062852283095708e+02,-2.043576567645286559e+02,-1.919067330693364966e+02,-4.805590842278338641e+02,-5.081345642039827908e+02,-1.314206019740713600e+02,-1.963071020195916390e+02,9.370253562927246094e+00,-3.824593871831893921e-02,5.354431271553039551e-01,3.900000000000000000e+02
-4.435147374661298727e+02,-4.483365533346004668e+02,-2.040733772771100121e+02,-1.932079983475068730e+02,-4.789900988075987698e+02,-5.063366042407842542e+02,-1.308988988230294126e+02,-1.979847846069642401e+02,9.370253562927246094e+00,-3.824593871831893921e-02,5.354431271553039551e-01,3.910000000000000000e+02
-4.401476814089091931e+02,-4.454897761330787489e+02,-2.027140878662862633e+02,-1.941759291553798903e+02,-4.763851115154575382e+02,-5.045455771034321515e+02,-1.289060207970733245e+02,-1.990225133975250174e+02,9.370253562927246094e+00,-3.824593871831893921e-02,5.354431271553039551e-01,3.920000000000000000e+02
-4.358058562877345139e+02,-4.420030276812874490e+02,-2.000761065865608543e+02,-1.944034988619969226e+02,-4.721540831726370016e+02,-5.017560734690628124e+02,-1.253361528306963919e+02,-1.979477885132082520e+02,9.370253562927246094e+00,-3.824593871831893921e-02,5.354431271553039551e-01,3.930000000000000000e+02
-4.316860225439688747e+02,-4.378987321608299226e+02,-1.967327744640965648e+02,-1.937316243000659597e+02,-4.670665907317265919e+02,-4.975398774914870046e+02,-1.209818694993527970e+02,-1.947639012624640600e+02,9.370253562927246094e+00,-3.824593871831893921e-02,5.354431271553039551e-01,3.940000000000000000e+02
-4.287092552738592985e+02,-4.335863058058689603e+02,-1.935905740206376322e+02,-1.924437031342927185e+02,-4.626394794141378952e+02,-4.925030630875135103e+02,-1.172981011089109415e+02,-1.909630594277696218e+02,9.446745872497558594e+00,-3.824593871831893921e-02,4.971971809864044189e-01,3.950000000000000000e+02
-4.267139264357201682e+02,-4.295577569467739067e+02,-1.911893214393730887e+02,-1.911649638087824314e+02,-4.598672497116217528e+02,-4.878448244239311862e+02,-1.155323350019402824e+02,-1.882455339001471657e+02,9.446745872497558594e+00,-3.824593871831893921e-02,4.971971809864044189e-01,3.960000000000000000e+02
-4.246408030376210263e+02,-4.260839412434183942e+02,-1.894070513370415938e+02,-1.904728999632043269e+02,-4.583821141538974189e+02,-4.843519801342636129e+02,-1.158815070911646217e+02,-1.871567507092322558e+02,9.446745872497558594e+00,-3.824593871831893921e-02,4.971971809864044189e-01,3.970000000000000000e+02
-4.215525394059479822e+02,-4.231494073112442038e+02,-1.878108176316586651e+02,-1.904763578574631993e+02,-4.567954882440658366e+02,-4.817470086058319794e+02,-1.173849894329096060e+02,-1.868707496416782305e+02,9.446745872497558594e+00,-3.824593871831893921e-02,4.971971809864044189e-01,3.980000000000000000e+02
-4.175052069098676384e+02,-4.205537420940704578e+02,-1.862283701465066770e+02,-1.906728118179876219e+02,-4.539158779578265239e+02,-4.789976965369510253e+02,-1.186285906285756937e+02,-1.861748853108933872e+02,9.446745872497558594e+00,-3.824593871831893921e-02,4.971971809864044189e-01,3.990000000000000000e+02
-4.134368002999167402e+02,-4.179769326752020788e+02,-1.849038193297565158e+02,-1.901986129411388902e+02,-4.497031925214155308e+02,-4.752574284869451731e+02,-1.186099781401371729e+02,-1.845617685653860462e+02,9.446745872497558594e+00,-3.824593871831893921e-02,4.971971809864044189e-01,4.000000000000000000e+02
-4.102166955361562941e+02,-4.149780894761513537e+02,-1.840714076400809063e+02,-1.883284851251546570e+02,-4.450761107537928183e+02,-4.705197117926536521e+02,-1.170693387283117772e+02,-1.823823178967722924e+02,9.446745872497558594e+00,-3.824593871831893921e-02,4.971971809864044189e-01,4.010000000000000000e+02
-4.078330662811733873e+02,-4.111206249603992546e+02,-1.834659281268982340e+02,-1.849485228722287502e+02,-4.408633592257679084e+02,-4.654195443126754981e+02,-1.142451733149337088e+02,-1.801217870754562682e+02,9.446745872497558594e+00,-3.824593871831893921e-02,4.971971809864044189e-01,4.020000000000000000e+02
-4.055364691317563484e+02,-4.063354927665609466e+02,-1.824114366092944692e+02,-1.807328604195176922e+02,-4.370295704578334153e+02,-4.605118609101409675e+02,-1.105867778044453189e+02,-1.777867033517318305e+02,9.446745872497558594e+00,-3.824593871831893921e-02,4.971971809864044189e-01,4.030000000000000000e+02
-4.027216094237178368e+02,-4.012374278027918990e+02,-1.804882064148946483e+02,-1.768773452843543055e+02,-4.329523335698509072e+02,-4.558217752782084062e+02,-1.068021875740323594e+02,-1.751209682185954080e+02,9.446745872497558594e+00,-3.824593871831893921e-02,4.971971809864044189e-01,4.040000000000000000e+02
-3.995470914601739878e+02,-3.969251649270854614e+02,-1.780664669886000411e+02,-1.744674344368941092e+02,-4.283386478697293569e+02,-4.510585755537331352e+02,-1.039691337268923235e+02,-1.723062371936534873e+02,9.446745872497558594e+00,-3.824593871831893921e-02,4.971971809864044189e-01,4.050000000000000000e+02
-3.966212357220324520e+02,-3.941815542776193979e+02,-1.760569840406451476e+02,-1.738208357757512204e+02,-4.237083214014814985e+02,-4.461435269199473623e+02,-1.031905663530355923e+02,-1.702112599677375329e+02,9.446745872497558594e+00,-3.824593871831893921e-02,4.971971809864044189e-01,4.060000000000000000e+02
-3.941424060195361108e+02,-3.926824631379586208e+02,-1.750548699073797252e+02,-1.742778759230350261e+02,-4.199323125370437992e+02,-4.414337192618877452e+02,-1.048116287350503626e+02,-1.697592035371162638e+02,9.446745872497558594e+00,-3.824593871831893921e-02,4.971971809864044189e-01,4.070000000000000000e+02
-3.915189807533138264e+02,-3.910358141153124052e+02,-1.747491199589380813e+02,-1.746670973372447406e+02,-4.173784387183545732e+02,-4.374276397715061648e+02,-1.078893245985887006e+02,-1.709973186322831680e+02,9.446745872497558594e+00,-3.824593871831893921e-02,4.971971809864044189e-01,4.080000000000000000e+02
-3.879721159616178738e+02,-3.878285101391820717e+02,-1.742349851011440478e+02,-1.741565805483382974e+02,-4.156029465760557287e+02,-4.343052358373465722e+02,-1.105961771945312648e+02,-1.728410001887546059e+02,9.446745872497558594e+00,-3.824593871831893921e-02,4.971971809864044189e-01,4.090000000000000000e+02
-3.835109670679867122e+02,-3.828606833459593872e+02,-1.729269611262598119e+02,-1.728249960458824717e+02,-4.138393903843129920e+02,-4.317542439893686606e+02,-1.113940472200101794e+02,-1.737973354305868270e+02,9.446745872497558594e+00,-3.824593871831893921e-02,4.971971809864044189e-01,4.100000000000000000e+02
-3.791815075705208073e+02,-3.773932696673632563e+02,-1.711107716319052088e+02,-1.714435946904218326e+02,-4.116509367158460009e+02,-4.291686452381900381e+02,-1.100008758653989389e+02,-1.729857285883108489e+02,9.446745872497558594e+00,-3.824593871831893921e-02,4.971971809864044189e-01,4.110000000000000000e+02
-3.762091773706392814e+02,-3.730643293770540367e+02,-1.695478823651101266e+02,-1.706523740934640045e+02,-4.090509277138926336e+02,-4.259743319970430093e+02,-1.073231132518340019e+02,-1.705419259066752602e+02,9.446745872497558594e+00,-3.824593871831893921e-02,4.971971809864044189e-01,4.120000000000000000e+02
-3.748342067502817372e+02,-3.704261899721996087e+02,-1.685559738844222011e+02,-1.702838905860471641e+02,-4.060979120446263551e+02,-4.218450394910651085e+02,-1.044902668443005496e+02,-1.671742694526265041e+02,9.446745872497558594e+00,-3.824593871831893921e-02,4.971971809864044189e-01,4.130000000000000000e+02
-3.740177520842994454e+02,-3.685108134626766514e+02,-1.675600924636555646e+02,-1.694798948751486023e+02,-4.025834426284359324e+02,-4.167840417913457713e+02,-1.019635739297527834e+02,-1.634646957524378195e+02,9.446745872497558594e+00,-3.824593871831893921e-02,4.971971809864044189e-01,4.140000000000000000e+02
-3.723482787291186469e+02,-3.658839632048702697e+02,-1.656133314450471516e+02,-1.675004681966584030e+02,-3.982188417200095500e+02,-4.111369048459428086e+02,-9.952130588222416918e+01,-1.596160676552362929e+02,9.446745872497558594e+00,-3.824593871831893921e-02,4.971971809864044189e-01,4.150000000000000000e+02
-3.692785889750507522e+02,-3.621449725190846038e+02,-1.623600005044863792e+02,-1.644414756566607139e+02,-3.930460995582861869e+02,-4.054929227509219345e+02,-9.695567189414941822e+01,-1.557242530992039065e+02,9.408499717712402344e+00,0.000000000000000000e+00,5.354431271553039551e-01,4.160000000000000000e+02
-3.655008560144756302e+02,-3.583163357208018169e+02,-1.584398793160435162e+02,-1.611383090907220321e+02,-3.875150176892343552e+02,-4.003977758324062961e+02,-9.460367390396231713e+01,-1.520617322933294417e+02,9.408499717712402344e+00,0.000000000000000000e+00,5.354431271553039551e-01,4.170000000000000000e+02
-3.621372289367268422e+02,-3.556779321035701287e+02,-1.549202431147227799e+02,-1.583442572303010820e+02,-3.820828177171720199e+02,-3.959914336147080576e+02,-9.307841132799512707e+01,-1.489555336747421279e+02,9.408499717712402344e+00,0.000000000000000000e+00,5.354431271553039551e-01,4.180000000000000000e+02
-3.595847667840116628e+02,-3.542438562105044184e+02,-1.523535456786139548e+02,-1.560283044575116946e+02,-3.768067701494760513e+02,-3.918963686854767730e+02,-9.250724467149348129e+01,-1.464195163747599508e+02,9.408499717712402344e+00,0.000000000000000000e+00,5.354431271553039551e-01,4.190000000000000000e+02
-3.571275600318645047e+02,-3.525615399729904311e+02,-1.504122058872198977e+02,-1.535633741476385694e+02,-3.714295564111980639e+02,-3.875793229610994786e+02,-9.218040818538793246e+01,-1.440665341690951209e+02,9.408499717712402344e+00,0.000000000000000000e+00,5.354431271553039551e-01,4.200000000000000000e+02
-3.536250484807401335e+02,-3.492063085748031881e+02,-1.484313528665456943e+02,-1.506863580180765894e+02,-3.659063485399510682e+02,-3.829790085249724143e+02,-9.111925271795462322e+01,-1.415477331813035562e+02,9.408499717712402344e+00,0.000000000000000000e+00,5.354431271553039551e-01,4.210000000000000000e+02
-3.485533813889869634e+02,-3.445059871257490158e+02,-1.462590472285369287e+02,-1.482463840064651777e+02,-3.608112847797374343e+02,-3.788334145302951583e+02,-8.910379699194936620e+01,-1.391308315992937423e+02,9.408499717712402344e+00,0.000000000000000000e+00,5.354431271553039551e-01,4.220000000000000000e+02
-3.424321811637851170e+02,-3.406184177972495490e+02,-1.445182025413050724e+02,-1.478198680375166987e+02,-3.571156538604045636e+02,-3.762761467654108856e+02,-8.710384207913193677e+01,-1.377390859667621044e+02,9.408499717712402344e+00,0.000000000000000000e+00,5.354431271553039551e-01,4.230000000000000000e+02
-3.363585500774761385e+02,-3.396436988139280402e+02,-1.439982660410323660e+02,-1.503104126799707956e+02,-3.554390185381630545e+02,-3.758946532017366735e+02,-8.653190206296130782e+01,-1.382254794408104317e+02,9.408499717712402344e+00,0.000000000000000000e+00,5.354431271553039551e-01,4.240000000000000000e+02
-3.312101180328900227e+02,-3.414877722707346948e+02,-1.447810103142237494e+02,-1.547300057505922268e+02,-3.553887835145214922e+02,-3.769982524648930848e+02,-8.786985999801618163e+01,-1.404317301972896530e+02,9.408499717712402344e+00,0.000000000000000000e+00,5.354431271553039551e-01,4.250000000000000000e+02
-3.272682847271489663e+02,-3.436168129224683980e+02,-1.459754894201405477e+02,-1.584088864142768216e+02,-3.555914668717014138e+02,-3.777820428729223750e+02,-8.994011972466933003e+01,-1.429045177274847447e+02,9.408499717712402344e+00,0.000000000000000000e+00,5.354431271553039551e-01,4.260000000000000000e+02
-3.244367227745574382e+02,-3.430948632686991004e+02,-1.463377719369591432e+02,-1.587217645546593303e+02,-3.544832009148408360e+02,-3.763965247442083637e+02,-9.063282582876263405e+01,-1.436737538374827636e+02,9.408499717712402344e+00,0.000000000000000000e+00,5.354431271553039551e-01,4.270000000000000000e+02
-3.225800265196489818e+02,-3.390795740473499791e+02,-1.452005981604979752e+02,-1.550120337741082039e+02,-3.512894820471601633e+02,-3.721567130018383978e+02,-8.856805428457619200e+01,-1.415790599669680887e+02,9.408499717712402344e+00,0.000000000000000000e+00,5.354431271553039551e-01,4.280000000000000000e+02
-3.214892324804445707e+02,-3.334610004119017503e+02,-1.428623852691493994e+02,-1.490778705680932035e+02,-3.464450520248528846e+02,-3.659522544724227373e+02,-8.424553893502570645e+01,-1.371072561453952403e+02,9.408499717712402344e+00,0.000000000000000000e+00,5.354431271553039551e-01,4.290000000000000000e+02
-3.205746316437462156e+02,-3.290896834103737092e+02,-1.401338555232150611e+02,-1.437554437445178337e+02,-3.411342276220420899e+02,-3.595445672172845661e+02,-7.964094262420348969e+01,-1.320611650609816934e+02,9.408499717712402344e+00,0.000000000000000000e+00,5.354431271553039551e-01,4.300000000000000000e+02
-3.188490668773542893e+02,-3.273035835237337778e+02,-1.375630282952420202e+02,-1.407992461959611319e+02,-3.363594357535343988e+02,-3.543405991092722616e+02,-7.662362722085663336e+01,-1.283380466216885907e+02,9.408499717712402344e+00,0.000000000000000000e+00,5.354431271553039551e-01,4.310000000000000000e+02
-3.155235964870480529e+02,-3.270270167449680230e+02,-1.351260927955736406e+02,-1.398605511022537939e+02,-3.323443964365092143e+02,-3.506373034493008163e+02,-7.564559994070259563e+01,-1.267942971508514347e+02,9.408499717712402344e+00,0.000000000000000000e+00,5.354431271553039551e-01,4.320000000000000000e+02
-3.107732632627348721e+02,-3.260808691747856756e+02,-1.326305748447853148e+02,-1.393273083265817149e+02,-3.287345917280781578e+02,-3.478554276371337437e+02,-7.580311736950034174e+01,-1.270135572980157121e+02,9.408499717712402344e+00,0.000000000000000000e+00,5.354431271553039551e-01,4.330000000000000000e+02
-3.058432326642018779e+02,-3.232425261046164451e+02,-1.303128543607067513e+02,-1.380801994913631461e+02,-3.253032321222417522e+02,-3.453953134562925698e+02,-7.600603155243470610e+01,-1.279876001700968118e+02,9.408499717712402344e+00,0.000000000000000000e+00,5.354431271553039551e-01,4.340000000000000000e+02
-3.021518466718102900e+02,-3.190741152799719202e+02,-1.289001385267729347e+02,-1.364660628880715194e+02,-3.223834585275872087e+02,-3.432504420970517458e+02,-7.596240577655544257e+01,-1.290039655178288740e+02,9.408499717712402344e+00,0.000000000000000000e+00,5.354431271553039551e-01,4.350000000000000000e+02
-3.000600323903217941e+02,-3.149509104766921155e+02,-1.289864717373920939e+02,-1.356622655085880069e+02,-3.205629702389160229e+02,-3.418420949804863085e+02,-7.604615788856426661e+01,-1.299859837346680251e+02,9.408499717712402344e+00,0.000000000000000000e+00,5.354431271553039551e-01,4.360000000000000000e+02
-2.984799543029080269e+02,-3.115505245187328001e+02,-1.303456909475426073e+02,-1.362291224255359339e+02,-3.199809619497159474e+02,-3.413533452706360549e+02,-7.640952132666916441e+01,-1.311409621307975613e+02,9.408499717712402344e+00,0.000000000000000000e+00,5.354431271553039551e-01,4.370000000000000000e+02
-2.958184271388618072e+02,-3.083990735783536365e+02,-1.319224179546508822e+02,-1.373749723013679613e+02,-3.199768393706253846e+02,-3.412882876659937210e+02,-7.647132337090033616e+01,-1.323923771529885016e+02,9.408499717712402344e+00,0.000000000000000000e+00,5.354431271553039551e-01,4.380000000000000000e+02
-2.914752595041172754e+02,-3.047656815148516216e+02,-1.325781643860973418e+02,-1.376364996314573546e+02,-3.194604992145432334e+02,-3.406904414180289677e+02,-7.539727313142884668e+01,-1.331683099662950553e+02,9.408499717712402344e+00,0.000000000000000000e+00,5.354431271553039551e-01,4.390000000000000000e+02
-2.864862065209154025e+02,-3.007506948747186470e+02,-1.318742552771900591e+02,-1.362165419165703497e+02,-3.176012555385896121e+02,-3.387602058060451782e+02,-7.299867162751115757e+01,-1.326982929520650032e+02,9.408499717712402344e+00,0.000000000000000000e+00,5.354431271553039551e-01,4.400000000000000000e+02
-2.826540415480576485e+02,-2.973321588658786823e+02,-1.301568086018351096e+02,-1.336356366104837434e+02,-3.141823259714383312e+02,-3.352856442789761786e+02,-7.002336278514121659e+01,-1.305318000466459125e+02,9.484992027282714844e+00,-3.824593871831893921e-02,4.971971809864044189e-01,4.410000000000000000e+02
-2.809538254941253399e+02,-2.953628025048851669e+02,-1.279532550076305597e+02,-1.311325643146874427e+02,-3.094473193482244824e+02,-3.305984607235955082e+02,-6.751716366812615888e+01,-1.268787350683369368e+02,9.484992027282714844e+00,-3.824593871831893921e-02,4.971971809864044189e-01,4.420000000000000000e+02
-2.806919425547930587e+02,-2.946392555262045789e+02,-1.253929980064012852e+02,-1.295142151682371150e+02,-3.038170083577233527e+02,-3.252546004478808754e+02,-6.594038140094198752e+01,-1.225652431117791821e+02,9.484992027282714844e+00,-3.824593871831893921e-02,4.971971809864044189e-01,4.430000000000000000e+02
-2.801728654681924127e+02,-2.940373500024224995e+02,-1.222853623039964077e+02,-1.286001103077624066e+02,-2.978636316117886054e+02,-3.198115554945397889e+02,-6.495289263623408260e+01,-1.186711045899355668e+02,9.484992027282714844e+00,-3.824593871831893921e-02,4.971971809864044189e-01,4.440000000000000000e+02
-2.781660039383777985e+02,-2.925349988029461201e+02,-1.186944063638493390e+02,-1.276615332289952676e+02,-2.924029132398104593e+02,-3.147852271470655978e+02,-6.397690184897373911e+01,-1.160347922430159997e+02,9.484992027282714844e+00,-3.824593871831893921e-02,4.971971809864044189e-01,4.450000000000000000e+02
-2.747676180841926907e+02,-2.900452968198678718e+02,-1.152729172261474559e+02,-1.262340171066371113e+02,-2.882738262426792062e+02,-3.105854327371625914e+02,-6.280866935969334008e+01,-1.148419835523377515e+02,9.484992027282714844e+00,-3.824593871831893921e-02,4.971971809864044189e-01,4.460000000000000000e+02
-2.709787607638631926e+02,-2.872776396994195238e+02,-1.128904623136540977e+02,-1.244578623917373079e+02,-2.857851022854401890e+02,-3.073368324092034527e+02,-6.162663806057616966e+01,-1.145362447384941333e+02,9.484992027282714844e+00,-3.824593871831893921e-02,4.971971809864044189e-01,4.470000000000000000e+02
-2.676304216606963564e+02,-2.849056983057980688e+02,-1.118969555425401268e+02,-1.227444704147637822e+02,-2.843535829927373015e+02,-3.047590700274827213e+02,-6.051393596749767312e+01,-1.141674797528835370e+02,9.484992027282714844e+00,-3.824593871831893921e-02,4.971971809864044189e-01,4.480000000000000000e+02
-2.648228439552399323e+02,-2.829631344647282276e+02,-1.117922517276701910e+02,-1.212774087959087410e+02,-2.828296589056008088e+02,-3.023198474224418533e+02,-5.915802088328655373e+01,-1.130055699966801512e+02,9.484992027282714844e+00,-3.824593871831893921e-02,4.971971809864044189e-01,4.490000000000000000e+02
-2.623163915667364563e+02,-2.810042093557490261e+02,-1.116448677552143636e+02,-1.198967566023097788e+02,-2.803215856312986034e+02,-2.995892258344902075e+02,-5.710670974077038409e+01,-1.109935871023644722e+02,9.484992027282714844e+00,-3.824593871831893921e-02,4.971971809864044189e-01,4.500000000000000000e+02
-2.602151426545342474e+02,-2.786926055391786576e+02,-1.108324867346391329e+02,-1.183779502660668186e+02,-2.767753582786835977e+02,-2.964696957645883231e+02,-5.427620165005691888e+01,-1.086902737850491576e+02,9.484992027282714844e+00,-3.824593871831893921e-02,4.971971809864044189e-01,4.510000000000000000e+02
-2.590350867553484022e+02,-2.761055284313956690e+02,-1.094105365163168244e+02,-1.167007252159869495e+02,-2.728128087714712819e+02,-2.931095643674389066e+02,-5.115194705006206277e+01,-1.067768874645544201e+02,9.484992027282714844e+00,-3.824593871831893921e-02,4.971971809864044189e-01,4.520000000000000000e+02
-2.590502040956480414e+02,-2.734979625656378630e+02,-1.078636317092500576e+02,-1.150304033443439948e+02,-2.690853675033072250e+02,-2.896788820547108116e+02,-4.848791123335149678e+01,-1.056039309941779720e+02,9.484992027282714844e+00,-3.824593871831893921e-02,4.971971809864044189e-01,4.530000000000000000e+02
-2.597074379291343575e+02,-2.709436568145924866e+02,-1.066426740313800110e+02,-1.135500430406359555e+02,-2.658495597139258280e+02,-2.863354453769529755e+02,-4.685146840043444172e+01,-1.051964148452311747e+02,9.484992027282714844e+00,-3.824593871831893921e-02,4.971971809864044189e-01,4.540000000000000000e+02
-2.598815886390320884e+02,-2.683332202756960214e+02,-1.059753332152840812e+02,-1.124153723142972012e+02,-2.630943624503124738e+02,-2.834024896231044295e+02,-4.642374905357883108e+01,-1.056052487037622996e+02,9.484992027282714844e+00,-3.824593871831893921e-02,4.971971809864044189e-01,4.550000000000000000e+02
-2.588203326556840693e+02,-2.656682391864474084e+02,-1.059735173832214059e+02,-1.118283346995408465e+02,-2.608779287191541698e+02,-2.814019496506884934e+02,-4.707851006799046445e+01,-1.070533040987374989e+02,9.484992027282714844e+00,-3.824593871831893921e-02,4.971971809864044189e-01,4.560000000000000000e+02
-2.568415569484000116e+02,-2.631692824194860805e+02,-1.066837122321726383e+02,-1.119662216273795821e+02,-2.593588821345942961e+02,-2.806667241164432198e+02,-4.846232131430497247e+01,-1.095229022049416017e+02,9.484992027282714844e+00,-3.824593871831893921e-02,4.971971809864044189e-01,4.570000000000000000e+02
-2.550593828493206274e+02,-2.609447101372893485e+02,-1.078691158873534732e+02,-1.126498277960977248e+02,-2.584449941842131011e+02,-2.807664656300489696e+02,-4.991550679021111137e+01,-1.121212240385407313e+02,9.484992027282714844e+00,-3.824593871831893921e-02,4.971971809864044189e-01,4.580000000000000000e+02
-2.543763065751654722e+02,-2.586051545674913541e+02,-1.087972638472447215e+02,-1.130753903317613549e+02,-2.575166292472008536e+02,-2.803874154611471567e+02,-5.045247261679696749e+01,-1.130282274229334689e+02,9.484992027282714844e+00,-3.824593871831893921e-02,4.971971809864044189e-01,4.590000000000000000e+02
-2.546697271122334314e+02,-2.554077923746413035e+02,-1.084496094514151991e+02,-1.120684297569132468e+02,-2.556297771278264008e+02,-2.780175530508968222e+02,-4.908217196938403504e+01,-1.104472377234710621e+02,9.484992027282714844e+00,-3.824593871831893921e-02,4.971971809864044189e-01,4.600000000000000000e+02
-2.548807075192912635e+02,-2.509758443533992249e+02,-1.061549539328984793e+02,-1.088829301601504085e+02,-2.520984886110345542e+02,-2.730308671071693425e+02,-4.540890902233741144e+01,-1.039929825593108035e+02,9.484992027282714844e+00,-3.824593871831893921e-02,4.971971809864044189e-01,4.610000000000000000e+02
-2.538362883455629344e+02,-2.459334771474736954e+02,-1.021486603531116089e+02,-1.039567696391750360e+02,-2.469833926233063721e+02,-2.662852715796580014e+02,-4.007684832583709067e+01,-9.535255364210024709e+01,9.484992027282714844e+00,-3.824593871831893921e-02,4.971971809864044189e-01,4.620000000000000000e+02
-2.510196799347245360e+02,-2.417242288399575045e+02,-9.751525306233634183e+01,-9.888223836627912533e+01,-2.410917578952107760e+02,-2.596701271673964584e+02,-3.460169245604129173e+01,-8.749411145777548882e+01,9.484992027282714844e+00,-3.824593871831893921e-02,4.971971809864044189e-01,4.630000000000000000e+02
-2.467097780335830066e+02,-2.396197077205188180e+02,-9.351164074398548109e+01,-9.545674921067211471e+01,-2.355245251072674364e+02,-2.549060711946776792e+02,-3.058908338788251058e+01,-8.288885881502483244e+01,9.484992027282714844e+00,-3.824593871831893921e-02,4.971971809864044189e-01,4.640000000000000000e+02
-2.415830747714080644e+02,-2.397330075172849320e+02,-9.082075126587506020e+01,-9.448706756920137195e+01,-2.310942855497337405e+02,-2.525071995690368567e+02,-2.884988007376341557e+01,-8.206720956378285337e+01,9.484992027282714844e+00,-3.824593871831893921e-02,4.971971809864044189e-01,4.650000000000000000e+02
-2.362842300861884723e+02,-2.408883443234726656e+02,-8.929673049508892291e+01,-9.527712616172175331e+01,-2.279510860394980227e+02,-2.516351454442065005e+02,-2.902351582244045858e+01,-8.355114811391331386e+01,9.484992027282714844e+00,-3.824593871831893921e-02,4.971971809864044189e-01,4.660000000000000000e+02
-2.313073281068445795e+02,-2.414161985502619245e+02,-8.827226139537378913e+01,-9.617089151781601686e+01,-2.255809084540360345e+02,-2.508106305660849102e+02,-2.992443405271160373e+01,-8.505562257013934868e+01,9.484992027282714844e+00,-3.824593871831893921e-02,4.971971809864044189e-01,4.670000000000000000e+02
-2.270701543120644601e+02,-2.401478961943912509e+02,-8.703496796150238879e+01,-9.563653016279795338e+01,-2.231272848996391076e+02,-2.488056984957802342e+02,-3.027247180491576728e+01,-8.488149055722078629e+01,9.446745872497558594e+00,-3.824593871831893921e-02,4.971971809864044189e-01,4.680000000000000000e+02
-2.238823059800829469e+02,-2.368638791188427604e+02,-8.510355211711566881e+01,-9.303081625608410832e+01,-2.198720976012664323e+02,-2.450926787451749078e+02,-2.927008904310105208e+01,-8.251715143910723782e+01,9.446745872497558594e+00,-3.824593871831893921e-02,4.971971809864044189e-01,4.690000000000000000e+02
-2.217516274506160698e+02,-2.320875552288857762e+02,-8.230850251661377115e+01,-8.863276640737421985e+01,-2.156470856240580360e+02,-2.397761467765790258e+02,-2.675473808131300757e+01,-7.837897387736620658e+01,9.446745872497558594e+00,-3.824593871831893921e-02,4.971971809864044189e-01,4.700000000000000000e+02
-2.202609856150024825e+02,-2.266448015851055970e+02,-7.886403496269986135e+01,-8.321088821575449401e+01,-2.109542289089031328e+02,-2.333552550998765582e+02,-2.306644584055538871e+01,-7.331222304177072147e+01,9.446745872497558594e+00,-3.824593871831893921e-02,4.971971809864044189e-01,4.710000000000000000e+02
-2.187435848284162603e+02,-2.213767198196751451e+02,-7.545667981199039787e+01,-7.765845566671305278e+01,-2.067356664720182380e+02,-2.266265077554885465e+02,-1.892635473722157258e+01,-6.838221295300809288e+01,9.446745872497558594e+00,-3.824593871831893921e-02,4.971971809864044189e-01,4.720000000000000000e+02
-2.166892613238028389e+02,-2.170076728338854082e+02,-7.312023439425684046e+01,-7.292097153388385777e+01,-2.039283556239365680e+02,-2.206719615245833666e+02,-1.538688709308144098e+01,-6.486572070208057994e+01,9.446745872497558594e+00,-3.824593871831893921e-02,4.971971809864044189e-01,4.730000000000000000e+02
-2.140648039977636472e+02,-2.139715750560148990e+02,-7.272147655426806523e+01,-6.996788536454641871e+01,-2.030266383368957577e+02,-2.166482552104603201e+02,-1.362552117244786132e+01,-6.397047679077604698e+01,9.446745872497558594e+00,-3.824593871831893921e-02,4.971971809864044189e-01,4.740000000000000000e+02
-2.112964918213283454e+02,-2.122001819934648665e+02,-7.429488972191211360e+01,-6.949339995231321154e+01,-2.038246526204216025e+02,-2.152900690229307656e+02,-1.440709645299057229e+01,-6.616767797508873628e+01,9.446745872497558594e+00,-3.824593871831893921e-02,4.971971809864044189e-01,4.750000000000000000e+02
-2.089518398100317427e+02,-2.111235457380653315e+02,-7.678754339977376731e+01,-7.142096827366185607e+01,-2.054312997467623063e+02,-2.164161869655267765e+02,-1.746481966957662735e+01,-7.063955437402000825e+01,9.446745872497558594e+00,-3.824593871831893921e-02,4.971971809864044189e-01,4.760000000000000000e+02
-2.073757713409563621e+02,-2.100158011127618920e+02,-7.857254024348594612e+01,-7.466099234327793965e+01,-2.065881234304429199e+02,-2.188716246604249136e+02,-2.137308371487051772e+01,-7.546517862914652142e+01,9.446745872497558594e+00,-3.824593871831893921e-02,4.971971809864044189e-01,4.770000000000000000e+02
-2.064895073979364497e+02,-2.084437479719267685e+02,-7.844863302883641154e+01,-7.747992900014878614e+01,-2.061936550156024168e+02,-2.210407795400647046e+02,-2.422604587671594345e+01,-7.858383292324151626e+01,9.446745872497558594e+00,-3.824593871831893921e-02,4.971971809864044189e-01,4.780000000000000000e+02
-2.058230700043040997e+02,-2.064306020115709543e+02,-7.638543590423296337e+01,-7.835456097639462314e+01,-2.038112860002820526e+02,-2.216186487055488215e+02,-2.477947329441622060e+01,-7.887682095937998383e+01,9.446745872497558594e+00,-3.824593871831893921e-02,4.971971809864044189e-01,4.790000000000000000e+02
-2.047299530911554939e+02,-2.042353285176541249e+02,-7.342682324882389366e+01,-7.675615896810177219e+01,-1.998519822393718641e+02,-2.201395072578279724e+02,-2.321271400055775302e+01,-7.658471474884663621e+01,9.446745872497558594e+00,-3.824593871831893921e-02,4.971971809864044189e-01,4.800000000000000000e+02
-2.027050217016042097e+02,-2.020345708306235792e+02,-7.086094859542572522e+01,-7.334473546593926585e+01,-1.952836282317048244e+02,-2.169899764448532551e+02,-2.088564549225520750e+01,-7.284169408154502889e+01,9.446745872497558594e+00,-3.824593871831893921e-02,4.971971809864044189e-01,4.810000000000000000e+02
-1.997100727628510413e+02,-1.998593024731735568e+02,-6.936366194439824540e+01,-6.950037307168349798e+01,-1.910779150770977139e+02,-2.130507223343643091e+02,-1.928920269367290530e+01,-6.882120899104529599e+01,9.446745872497558594e+00,-3.824593871831893921e-02,4.971971809864044189e-01,4.820000000000000000e+02
-1.963034987000005458e+02,-1.977764572946362023e+02,-6.876412608984128383e+01,-6.653312167929925636e+01,-1.877855234857220239e+02,-2.092692807929470291e+02,-1.900990009242332235e+01,-6.516292952514686476e+01,9.446745872497558594e+00,-3.824593871831893921e-02,4.971971809864044189e-01,4.830000000000000000e+02
-1.933997476401227686e+02,-1.959955002920473817e+02,-6.848764251395687097e+01,-6.504426708856453843e+01,-1.854793934308995631e+02,-2.063424766112730140e+02,-1.946252931192566393e+01,-6.194659952809661263e+01,9.446745872497558594e+00,-3.824593871831893921e-02,4.971971809864044189e-01,4.840000000000000000e+02
-1.917176412526280274e+02,-1.946797282728321079e+02,-6.814783758867770302e+01,-6.473182492362957419e+01,-1.839529782295162477e+02,-2.045109510835150104e+02,-1.948232897778780170e+01,-5.900768761846029520e+01,9.446745872497558594e+00,-3.824593871831893921e-02,4.971971809864044189e-01,4.850000000000000000e+02
-1.912655352487115579e+02,-1.936565978194687432e+02,-6.773755421541136457e+01,-6.466081802015787616e+01,-1.829079955835286455e+02,-2.034707213224755833e+02,-1.823841543357639239e+01,-5.625151964331325871e+01,9.446745872497558594e+00,-3.824593871831893921e-02,4.971971809864044189e-01,4.860000000000000000e+02
-1.912913269752743872e+02,-1.924173368206011219e+02,-6.736714902981475461e+01,-6.382317865510731281e+01,-1.820401017276972198e+02,-2.025136648427637738e+02,-1.581888846261972503e+01,-5.382061304285161896e+01,9.446745872497558594e+00,-3.824593871831893921e-02,4.971971809864044189e-01,4.870000000000000000e+02
-1.907893220136136279e+02,-1.904955937021502450e+02,-6.692668766718770712e+01,-6.168969137346994103e+01,-1.810975184452699978e+02,-2.009348137866436446e+02,-1.315185451097522673e+01,-5.209757773800038194e+01,9.446745872497558594e+00,-3.824593871831893921e-02,4.971971809864044189e-01,4.880000000000000000e+02
-1.891991011794268616e+02,-1.878674693554560235e+02,-6.606760306057549315e+01,-5.846135038306852039e+01,-1.799763323406841664e+02,-1.985066342107470518e+02,-1.138520997105160859e+01,-5.153590814997232883e+01,9.446745872497558594e+00,-3.824593871831893921e-02,4.971971809864044189e-01,4.890000000000000000e+02
-1.867576125579664676e+02,-1.849613848427147786e+02,-6.452395907379604978e+01,-5.488995185261842380e+01,-1.787571658972656223e+02,-1.956491447336979945e+02,-1.113219887279228715e+01,-5.232996578236134155e+01,9.446745872497558594e+00,-3.824593871831893921e-02,4.971971809864044189e-01,4.900000000000000000e+02
-1.842540135590857062e+02,-1.822892762527903869e+02,-6.244140339123259764e+01,-5.181567202538599304e+01,-1.775781342002665042e+02,-1.931108853983928384e+02,-1.204872319135392900e+01,-5.409796017194321394e+01,9.446745872497558594e+00,-3.824593871831893921e-02,4.971971809864044189e-01,4.910000000000000000e+02
-1.824160838504185449e+02,-1.800934454602661390e+02,-6.037275596308973036e+01,-4.974200804040492585e+01,-1.764389903641899764e+02,-1.913953593470996566e+02,-1.303307834532665765e+01,-5.587584097234730507e+01,9.446745872497558594e+00,-3.824593871831893921e-02,4.971971809864044189e-01,4.920000000000000000e+02
-1.814016408547108767e+02,-1.783555709774268507e+02,-5.888938199477934177e+01,-4.868650342013916088e+01,-1.751268961508503708e+02,-1.903950713815411291e+02,-1.294409297744346077e+01,-5.655201501270676090e+01,9.446745872497558594e+00,-3.824593871831893921e-02,4.971971809864044189e-01,4.930000000000000000e+02
-1.807305595910515876e+02,-1.770661223847891961e+02,-5.811329672831834614e+01,-4.829706485898100254e+01,-1.733463696408089163e+02,-1.895091134944636906e+02,-1.135792068722025761e+01,-5.548348121737626570e+01,9.446745872497558594e+00,-3.824593871831893921e-02,4.971971809864044189e-01,4.940000000000000000e+02
-1.796374015797500761e+02,-1.763435734270078683e+02,-5.756270568556010403e+01,-4.803731185465676390e+01,-1.708976345912565193e+02,-1.880885918329177002e+02,-8.796078168093117711e+00,-5.280159262093047801e+01,9.446745872497558594e+00,-3.824593871831893921e-02,4.971971809864044189e-01,4.950000000000000000e+02
-1.775640273668191185e+02,-1.761995161494771764e+02,-5.646750171605481228e+01,-4.730862097853218984e+01,-1.677205958424192431e+02,-1.858185719266875822e+02,-6.241613866121042520e+00,-4.915449149821597530e+01,9.446745872497558594e+00,-3.824593871831893921e-02,4.971971809864044189e-01,4.960000000000000000e+02
-1.745031897908006613e+02,-1.762163004800754607e+02,-5.434759965950593141e+01,-4.556977251840839926e+01,-1.638628986257983797e+02,-1.828041187256114881e+02,-4.359623015651777678e+00,-4.514204499500897327e+01,9.446745872497558594e+00,-3.824593871831893921e-02,4.971971809864044189e-01,4.970000000000000000e+02
-1.710165932623490335e+02,-1.756016625610461688e+02,-5.141182345252127561e+01,-4.255932379263890653e+01,-1.595414824142435464e+02,-1.794274496260895830e+02,-3.069764367994594068e+00,-4.097441900340231768e+01,9.446745872497558594e+00,-3.824593871831893921e-02,4.971971809864044189e-01,4.980000000000000000e+02
-1.679213638797116346e+02,-1.737154324844680104e+02,-4.844322989421425518e+01,-3.854938511523346278e+01,-1.552790690393737805e+02,-1.761663946731027863e+02,-1.781922716202871015e+00,-3.663258285908409562e+01,9.408499717712402344e+00,-7.649187743663787842e-02,4.971971809864044189e-01,4.990000000000000000e+02
-1.658107816283412603e+02,-1.706079506585145964e+02,-4.623001695437028502e+01,-3.436725471582326463e+01,-1.518376593699317709e+02,-1.734537608408691085e+02,5.362301237028077594e-03,-3.229125432567252574e+01,9.408499717712402344e+00,-7.649187743663787842e-02,4.971971809864044189e-01,5.000000000000000000e+02
-1.647098542723425680e+02,-1.670255681480214207e+02,-4.500111045448034020e+01,-3.102208120154830340e+01,-1.497997630109646252e+02,-1.715495350569985931e+02,2.304987855910894723e+00,-2.853355727314192336e+01,9.408499717712402344e+00,-7.649187743663787842e-02,4.971971809864044189e-01,5.010000000000000000e+02
-1.641245314153736672e+02,-1.638307998750548222e+02,-4.436081891662684029e+01,-2.913223982204249296e+01,-1.491148196735148304e+02,-1.704403884069956803e+02,4.695631234130814846e+00,-2.613685450966181634e+01,9.408499717712402344e+00,-7.649187743663787842e-02,4.971971809864044189e-01,5.020000000000000000e+02
-1.634427461580482941e+02,-1.613657100815823924e+02,-4.376326693115845501e+01,-2.857729931154835867e+01,-1.491138421856901459e+02,-1.698579938636167981e+02,6.647069317903628871e+00,-2.562460906517560488e+01,9.408499717712402344e+00,-7.649187743663787842e-02,4.971971809864044189e-01,5.030000000000000000e+02
-1.623574282247400333e+02,-1.593630848677202039e+02,-4.306650838840391771e+01,-2.866297782040055608e+01,-1.491048995567998645e+02,-1.694661409801617538e+02,7.767101052315979359e+00,-2.696519928106806674e+01,9.408499717712402344e+00,-7.649187743663787842e-02,4.971971809864044189e-01,5.040000000000000000e+02
-1.609651876961415837e+02,-1.574491455678783041e+02,-4.261079744823223336e+01,-2.865313708287862937e+01,-1.489887269942722696e+02,-1.690915660713816351e+02,7.865520398025410032e+00,-2.960379982405606825e+01,9.408499717712402344e+00,-7.649187743663787842e-02,4.971971809864044189e-01,5.050000000000000000e+02
-1.595028840097360217e+02,-1.556602973865479385e+02,-4.274180785075873246e+01,-2.822077960756161019e+01,-1.492092417014277999e+02,-1.687860091984132396e+02,6.984365912995258441e+00,-3.269945166759396216e+01,9.408499717712402344e+00,-7.649187743663787842e-02,4.971971809864044189e-01,5.060000000000000000e+02
-1.580449057580871113e+02,-1.543918451803212406e+02,-4.328991466271742183e+01,-2.748515345040243574e+01,-1.500481177209888415e+02,-1.686629715271159284e+02,5.482975174998045986e+00,-3.537000549570501562e+01,9.408499717712402344e+00,-7.649187743663787842e-02,4.971971809864044189e-01,5.070000000000000000e+02
-1.564740410131464046e+02,-1.538194984593134222e+02,-4.357009288847211792e+01,-2.668080968651486273e+01,-1.510174578350787442e+02,-1.686636437976321190e+02,4.068221137845171143e+00,-3.687159713955219331e+01,9.408499717712402344e+00,-7.649187743663787842e-02,4.971971809864044189e-01,5.080000000000000000e+02
-1.546878876912783767e+02,-1.534391459000547684e+02,-4.293487398292430157e+01,-2.580834055491138201e+01,-1.510606466205894662e+02,-1.684646152731142479e+02,3.606010608794292693e+00,-3.673646128132145350e+01,9.408499717712402344e+00,-7.649187743663787842e-02,4.971971809864044189e-01,5.090000000000000000e+02
-1.527375130293304721e+02,-1.523029336103244304e+02,-4.133017475698147791e+01,-2.457949454606892914e+01,-1.494242780240931552e+02,-1.675996418886609263e+02,4.737344069053428086e+00,-3.488300719419250129e+01,9.408499717712402344e+00,-7.649187743663787842e-02,4.971971809864044189e-01,5.100000000000000000e+02
-1.507281006601936326e+02,-1.498140795087567483e+02,-3.930710591907747187e+01,-2.267692816822420809e+01,-1.463442680272565894e+02,-1.657001964891577188e+02,7.514789386628635270e+00,-3.166039655285777599e+01,9.408499717712402344e+00,-7.649187743663787842e-02,4.971971809864044189e-01,5.110000000000000000e+02
-1.486483707912553598e+02,-1.463162513647791343e+02,-3.752254101768528471e+01,-2.007036021590633368e+01,-1.428753493559564163e+02,-1.627079727157914135e+02,1.128241609608124918e+01,-2.776711948174946087e+01,9.408499717712402344e+00,-7.649187743663787842e-02,4.971971809864044189e-01,5.120000000000000000e+02
-1.464052696744910804e+02,-1.428562819684249803e+02,-3.625983094153434649e+01,-1.710340441778112108e+01,-1.400413278684352463e+02,-1.589518286189523337e+02,1.488877758803499773e+01,-2.402493604030769347e+01,9.408499717712402344e+00,-7.649187743663787842e-02,4.971971809864044189e-01,5.130000000000000000e+02
-1.440851748133840715e+02,-1.403207347568566661e+02,-3.542601305323478300e+01,-1.429200200552384104e+01,-1.381290955078807201e+02,-1.550538945807129494e+02,1.714827351253745746e+01,-2.109932283952332455e+01,9.408499717712402344e+00,-7.649187743663787842e-02,4.971971809864044189e-01,5.140000000000000000e+02
-1.421042972052161986e+02,-1.387791877470162945e+02,-3.490109677191696846e+01,-1.200789612829271391e+01,-1.367016245408838131e+02,-1.516674425905760017e+02,1.739183470280011079e+01,-1.928313179485712681e+01,9.408499717712402344e+00,-7.649187743663787842e-02,4.971971809864044189e-01,5.150000000000000000e+02
-1.409729017954430219e+02,-1.376603552238185557e+02,-3.474177666509172013e+01,-1.029576425954769547e+01,-1.351585759724493983e+02,-1.491550405086660476e+02,1.587122203470835302e+01,-1.844045071919538259e+01,9.408499717712402344e+00,-7.649187743663787842e-02,4.971971809864044189e-01,5.160000000000000000e+02
-1.408318175368929133e+02,-1.365064893447935219e+02,-3.499905849396554913e+01,-8.961099444923320334e+00,-1.332507723100211479e+02,-1.474332242052205402e+02,1.372397031580953808e+01,-1.815387277238028219e+01,9.408499717712402344e+00,-7.649187743663787842e-02,4.971971809864044189e-01,5.170000000000000000e+02
-1.412254605689317941e+02,-1.354497931098169374e+02,-3.541347313825622223e+01,-7.819306623188140293e+00,-1.311411850494159808e+02,-1.461318540460997610e+02,1.239287337422433666e+01,-1.799272333370799970e+01,9.408499717712402344e+00,-7.649187743663787842e-02,4.971971809864044189e-01,5.180000000000000000e+02
-1.413922457859093811e+02,-1.349024539957511024e+02,-3.543213715070396574e+01,-6.863877179055180022e+00,-1.291139132004659587e+02,-1.449577831833257733e+02,1.276198034857816310e+01,-1.773745770547566281e+01,9.408499717712402344e+00,-7.649187743663787842e-02,4.971971809864044189e-01,5.190000000000000000e+02
-1.408356229546711802e+02,-1.348658383775484708e+02,-3.462265279210305380e+01,-6.189553563195659081e+00,-1.272924050113101657e+02,-1.439192963053274070e+02,1.459093988440031353e+01,-1.739955152423090112e+01,9.523238182067871094e+00,-1.147378161549568176e-01,5.354431271553039551e-01,5.200000000000000000e+02
-1.396384683519302143e+02,-1.347188263882608226e+02,-3.306062807794205582e+01,-5.758990410610977051e+00,-1.255861038021471359e+02,-1.431642582701383617e+02,1.671817463560864780e+01,-1.703047876247114800e+01,9.523238182067871094e+00,-1.147378161549568176e-01,5.354431271553039551e-01,5.210000000000000000e+02
-1.382442053775716886e+02,-1.337910395272474489e+02,-3.127350685314354450e+01,-5.281999555112179223e+00,-1.238388913203816628e+02,-1.426063444150754549e+02,1.790876020922337375e+01,-1.653433477332055190e+01,9.523238182067871094e+00,-1.147378161549568176e-01,5.354431271553039551e-01,5.220000000000000000e+02
-1.369539667251617630e+02,-1.320933372053502808e+02,-2.978707306733895166e+01,-4.386327637415206482e+00,-1.219999635247568222e+02,-1.417916615080121119e+02,1.769625761275574405e+01,-1.571704090062576142e+01,9.523238182067871094e+00,-1.147378161549568176e-01,5.354431271553039551e-01,5.230000000000000000e+02
-1.356462104943093436e+02,-1.303227828697840778e+02,-2.872941815198737459e+01,-2.978272471313857750e+00,-1.201759267060183447e+02,-1.402534364853563602e+02,1.657546735405685467e+01,-1.457029059899423373e+01,9.523238182067871094e+00,-1.147378161549568176e-01,5.354431271553039551e-01,5.240000000000000000e+02
-1.339554525163880498e+02,-1.290433378449843076e+02,-2.786056146083774365e+01,-1.457990976613018574e+00,-1.185310286097164862e+02,-1.380673515582820983e+02,1.546911674944703918e+01,-1.349888673416853635e+01,9.523238182067871094e+00,-1.147378161549568176e-01,5.354431271553039551e-01,5.250000000000000000e+02
-1.316721298002289586e+02,-1.279314969331035172e+02,-2.690906846025836785e+01,-5.290052003288110427e-01,-1.171090648200433861e+02,-1.360052949480846110e+02,1.501013041735495790e+01,-1.316570008922599300e+01,9.523238182067871094e+00,-1.147378161549568176e-01,5.354431271553039551e-01,5.260000000000000000e+02
-1.289562771479781986e+02,-1.260178303161860640e+02,-2.580295016737181868e+01,-6.910815032383652579e-01,-1.157454480120031803e+02,-1.350052716770383086e+02,1.524250732806603992e+01,-1.396851275464860009e+01,9.523238182067871094e+00,-1.147378161549568176e-01,5.354431271553039551e-01,5.270000000000000000e+02
-1.262061727384261758e+02,-1.228055558950322848e+02,-2.458841431454720805e+01,-1.801291869111082633e+00,-1.141908418276493649e+02,-1.353495243230759115e+02,1.587865485198426541e+01,-1.557652132640305354e+01,9.523238182067871094e+00,-1.147378161549568176e-01,5.354431271553039551e-01,5.280000000000000000e+02
-1.237679334646686584e+02,-1.191013520471205993e+02,-2.322758421631715464e+01,-3.066029681654072192e+00,-1.123609457101624685e+02,-1.362744117329821165e+02,1.674908723877979355e+01,-1.697813854101013931e+01,9.523238182067871094e+00,-1.147378161549568176e-01,5.354431271553039551e-01,5.290000000000000000e+02
-1.217628157511512654e+02,-1.165546714955326024e+02,-2.158992849777496303e+01,-3.491349264716518519e+00,-1.104388365318159231e+02,-1.364017293453566708e+02,1.798742337827752635e+01,-1.708537801054171723e+01,9.523238182067871094e+00,-1.147378161549568176e-01,5.354431271553039551e-01,5.300000000000000000e+02
-1.201407964754862405e+02,-1.162205902351624900e+02,-1.968725289697567860e+01,-2.477759915116621414e+00,-1.086959809780159958e+02,-1.346909232274310853e+02,1.980213601995228601e+01,-1.546528732171600495e+01,9.523238182067871094e+00,-1.147378161549568176e-01,5.354431271553039551e-01,5.310000000000000000e+02
-1.188428055815147673e+02,-1.175423796806758219e+02,-1.785375895053812201e+01,-1.416900451213223278e-01,-1.072131477408615865e+02,-1.311749334033834202e+02,2.209009332239656942e+01,-1.261413773993990617e+01,9.523238182067871094e+00,-1.147378161549568176e-01,5.354431271553039551e-01,5.320000000000000000e+02
-1.178701823939513815e+02,-1.188150898040921675e+02,-1.656997317885816301e+01,2.851961851176838536e+00,-1.058099863282586739e+02,-1.269360836255509639e+02,2.431096932453601767e+01,-9.550172471088444581e+00,9.523238182067871094e+00,-1.147378161549568176e-01,5.354431271553039551e-01,5.330000000000000000e+02
-1.172115786601088985e+02,-1.187183786232917555e+02,-1.602026014385774033e+01,5.797630273864342598e+00,-1.042844403516628518e+02,-1.233900906340059009e+02,2.579025730376997672e+01,-7.069242552654941392e+00,9.523238182067871094e+00,-1.147378161549568176e-01,5.354431271553039551e-01,5.340000000000000000e+02
-1.167369369168382036e+02,-1.174084363131628379e+02,-1.581208915167735540e+01,8.411905099996602075e+00,-1.026758708486040632e+02,-1.214218843364278655e+02,2.623335628204131353e+01,-5.271205692451076175e+00,9.523238182067871094e+00,-1.147378161549568176e-01,5.354431271553039551e-01,5.350000000000000000e+02
-1.161992145054964567e+02,-1.161053952180063789e+02,-1.517701326496990077e+01,1.091926159705053578e+01,-1.012002608833308841e+02,-1.209415314839870916e+02,2.603204431533958996e+01,-3.697200725931907073e+00,9.523238182067871094e+00,-1.147378161549568176e-01,5.354431271553039551e-01,5.360000000000000000e+02
-1.153681309373378099e+02,-1.156574209157070072e+02,-1.353202313716155913e+01,1.371148413855826220e+01,-9.991215907843798050e+01,-1.210966802131479199e+02,2.606452143240403529e+01,-1.898468946480534214e+00,9.523238182067871094e+00,-1.147378161549568176e-01,5.354431271553039551e-01,5.370000000000000000e+02
-1.141723259894183684e+02,-1.155898398009030643e+02,-1.092635591675752949e+01,1.687924858349924762e+01,-9.850448690501980309e+01,-1.209282954792615783e+02,2.710324129576929408e+01,9.249770005135360407e-02,9.523238182067871094e+00,-1.147378161549568176e-01,5.354431271553039551e-01,5.380000000000000000e+02
-1.127119353046828110e+02,-1.146002163236789784e+02,-7.984442345427851251e+00,2.003087199705623789e+01,-9.655258669058093801e+01,-1.199929548674654143e+02,2.929076439302571089e+01,1.789111781693463854e+00,9.523238182067871094e+00,-1.147378161549568176e-01,5.354431271553039551e-01,5.390000000000000000e+02
-1.111074896858972352e+02,-1.119440906432400880e+02,-5.409360300668595301e+00,2.257290166553866584e+01,-9.399424562503099878e+01,-1.185347686808863727e+02,3.210222800011342770e+01,2.709949738820796483e+00,9.523238182067871094e+00,-1.147378161549568176e-01,5.354431271553039551e-01,5.400000000000000000e+02
-1.093325815285907083e+02,-1.082687774231453659e+02,-3.500677456969242485e+00,2.421066244069697859e+01,-9.131667044688583701e+01,-1.171343328573620965e+02,3.477759785244779778e+01,2.818555195353837917e+00,9.523238182067871094e+00,-1.147378161549568176e-01,5.354431271553039551e-01,5.410000000000000000e+02
-1.072337041977752961e+02,-1.050720272162707261e+02,-2.095474321017718466e+00,2.521002764404238405e+01,-8.920739908703581023e+01,-1.161538009832638636e+02,3.679840128457544779e+01,2.542903355155431200e+00,9.523238182067871094e+00,-1.147378161549568176e-01,5.354431271553039551e-01,5.420000000000000000e+02
-1.047597669099914128e+02,-1.033932811595286694e+02,-9.087142225598654477e-01,2.615480412687702483e+01,-8.798587204942577955e+01,-1.154448098723369185e+02,3.801908166451357829e+01,2.386120101466985943e+00,9.523238182067871094e+00,-1.147378161549568176e-01,5.354431271553039551e-01,5.430000000000000000e+02
-1.021834466310538119e+02,-1.030632139184681364e+02,1.196739526894816663e-01,2.739847145289149921e+01,-8.736892955862367671e+01,-1.145459374198908336e+02,3.847306141257104173e+01,2.529849133103198255e+00,9.523238182067871094e+00,-1.147378161549568176e-01,5.354431271553039551e-01,5.440000000000000000e+02
-1.000624837236227904e+02,-1.031864247568719293e+02,7.950940774544505985e-01,2.870346519563281618e+01,-8.677810671497536532e+01,-1.131639338965233037e+02,3.818717657849083480e+01,2.798446358759065333e+00,9.370253562927246094e+00,-1.912296712398529053e-01,4.207052886486053467e-01,5.450000000000000000e+02
-9.889493821482483327e+01,-1.032321541593164511e+02,9.295993819459908991e-01,2.941338818498388719e+01,-8.585916569563596568e+01,-1.114865623502710150e+02,3.723677592121293856e+01,2.964550701487496553e+00,9.370253562927246094e+00,-1.912296712398529053e-01,4.207052886486053467e-01,5.460000000000000000e+02
-9.873299631096688245e+01,-1.035520368449888338e+02,5.812466066390697961e-01,2.902351366187031090e+01,-8.474182660633869091e+01,-1.100505291110957842e+02,3.589451049181388953e+01,3.049872789239088888e+00,9.370253562927246094e+00,-1.912296712398529053e-01,4.207052886486053467e-01,5.470000000000000000e+02
-9.910426531920256821e+01,-1.048420078585459123e+02,3.203709502486162819e-02,2.767205078421920916e+01,-8.384729418741881091e+01,-1.092847445301449625e+02,3.459114049004710978e+01,3.327869975455541862e+00,9.370253562927246094e+00,-1.912296712398529053e-01,4.207052886486053467e-01,5.480000000000000000e+02
-9.933665672862298379e+01,-1.071867894782299118e+02,-4.240445839932363015e-01,2.615788695950595866e+01,-8.347297740232716023e+01,-1.091353197983662540e+02,3.364850325953739230e+01,4.061141969389609585e+00,9.370253562927246094e+00,-1.912296712398529053e-01,4.207052886486053467e-01,5.490000000000000000e+02
-9.902089722155142226e+01,-1.096946008717723089e+02,-6.274648052767588524e-01,2.548532256865019008e+01,-8.351849381009378703e+01,-1.090782615076805087e+02,3.308157746820870670e+01,5.271006555916756042e+00,9.370253562927246094e+00,-1.912296712398529053e-01,4.207052886486053467e-01,5.500000000000000000e+02
-9.823926556315382186e+01,-1.110683932957363140e+02,-5.291023828340257751e-01,2.629397193021759449e+01,-8.354338757980804075e+01,-1.084919822929805377e+02,3.272463271084416192e+01,6.749073490180307999e+00,9.370253562927246094e+00,-1.912296712398529053e-01,4.207052886486053467e-01,5.510000000000000000e+02
-9.742335387401817570e+01,-1.105390606272603691e+02,-1.310485938083729707e-01,2.855947865920643380e+01,-8.311052922881754057e+01,-1.070990584155460965e+02,3.253414316250928096e+01,8.224749609471473377e+00,9.370253562927246094e+00,-1.912296712398529053e-01,4.207052886486053467e-01,5.520000000000000000e+02
-9.699668780953925307e+01,-1.083395719270538393e+02,4.771965380878100405e-01,3.169838584102399182e+01,-8.215773203728349472e+01,-1.051575214427284664e+02,3.270441584309082828e+01,9.483225741119895247e+00,9.370253562927246094e+00,-1.912296712398529053e-01,4.207052886486053467e-01,5.530000000000000000e+02
-9.708496060354173096e+01,-1.054348314318067423e+02,1.079831140346868779e+00,3.492586611519436701e+01,-8.109456711936763895e+01,-1.032827219165865245e+02,3.345152377172962588e+01,1.037217088789839181e+01,9.370253562927246094e+00,-1.912296712398529053e-01,4.207052886486053467e-01,5.540000000000000000e+02
-9.744851669457148091e+01,-1.028793407753364590e+02,1.487983379100114689e+00,3.762873002964079205e+01,-8.046388038477380178e+01,-1.020267879611110402e+02,3.473840440320054768e+01,1.083372148775015376e+01,9.370253562927246094e+00,-1.912296712398529053e-01,4.207052886486053467e-01,5.550000000000000000e+02
-9.759947584838027979e+01,-1.013052696719278174e+02,1.848982319053902756e+00,3.958082319859568088e+01,-8.036409882443695096e+01,-1.014903431269995053e+02,3.629093461472075433e+01,1.104740136162945419e+01,9.370253562927246094e+00,-1.912296712398529053e-01,4.207052886486053467e-01,5.560000000000000000e+02
-9.702060550974238140e+01,-1.007276714059098595e+02,2.741365707843215205e+00,4.093864168771688128e+01,-8.015674689213665260e+01,-1.012303461816445633e+02,3.787035671788544278e+01,1.152353389146446716e+01,9.370253562927246094e+00,-1.912296712398529053e-01,4.207052886486053467e-01,5.570000000000000000e+02
-9.541665892954551964e+01,-1.005817743695242825e+02,4.758880365541699575e+00,4.207366883934264479e+01,-7.884411998986252001e+01,-1.005428672941397963e+02,3.944459821561213175e+01,1.290381473631168774e+01,9.370253562927246094e+00,-1.912296712398529053e-01,4.207052886486053467e-01,5.580000000000000000e+02
-9.291075105859454197e+01,-9.995824356591401738e+01,7.835220671648130519e+00,4.334634188782547426e+01,-7.593285827291219903e+01,-9.894226626407544245e+01,4.103140750666352687e+01,1.548047975551526179e+01,9.370253562927246094e+00,-1.912296712398529053e-01,4.207052886486053467e-01,5.590000000000000000e+02
-9.006732997202198021e+01,-9.808949552582635079e+01,1.099313342251116410e+01,4.493496723897987977e+01,-7.204867414969339734e+01,-9.649271879300067667e+01,4.242771874152822420e+01,1.881416529099988111e+01,9.370253562927246094e+00,-1.912296712398529053e-01,4.207052886486053467e-01,5.600000000000000000e+02
-8.767596592101472197e+01,-9.492723359690535290e+01,1.294965668236181955e+01,4.678630044349483796e+01,-6.865689129651582334e+01,-9.374256475652327936e+01,4.322644628028683655e+01,2.187292135631832934e+01,9.370253562927246094e+00,-1.912296712398529053e-01,4.207052886486053467e-01,5.610000000000000000e+02
-8.638115197689694469e+01,-9.136123363728984259e+01,1.316983062045437691e+01,4.867315051150217187e+01,-6.703153518420185719e+01,-9.132393322483949305e+01,4.317601357241437654e+01,2.367922790510056075e+01,9.370253562927246094e+00,-1.912296712398529053e-01,4.207052886486053467e-01,5.620000000000000000e+02
-8.637781568209720717e+01,-8.872100493583639036e+01,1.238279696816243813e+01,5.031363776206853800e+01,-6.732665170379914343e+01,-8.954492413436310017e+01,4.248790446834937029e+01,2.396136243622640905e+01,9.370253562927246094e+00,-1.912296712398529053e-01,4.207052886486053467e-01,5.630000000000000000e+02
-8.733255767161972472e+01,-8.776913681510086462e+01,1.200028713874598907e+01,5.152469214483426185e+01,-6.851731997930255602e+01,-8.825901492193042941e+01,4.173425031433362165e+01,2.329311028338088363e+01,9.370253562927246094e+00,-1.912296712398529053e-01,4.207052886486053467e-01,5.640000000000000000e+02
-8.853909580707295390e+01,-8.800397633914326434e+01,1.293039158247847809e+01,5.235949778862777748e+01,-6.918093887602663017e+01,-8.705434922768836259e+01,4.143375966500570939e+01,2.265129719608012238e+01,9.370253562927246094e+00,-1.912296712398529053e-01,4.207052886486053467e-01,5.650000000000000000e+02
-8.919774021381454077e+01,-8.798921922453337174e+01,1.489882735593710095e+01,5.312549323144048685e+01,-6.839545968450693181e+01,-8.557515469037934963e+01,4.175982802441285457e+01,2.279097177360199566e+01,9.370253562927246094e+00,-1.912296712398529053e-01,4.207052886486053467e-01,5.660000000000000000e+02
-8.869024102694493195e+01,-8.652196415692742448e+01,1.690457612483442063e+01,5.421258880829009286e+01,-6.607455514952198428e+01,-8.373003995191174909e+01,4.263749102103247424e+01,2.392650368045178766e+01,9.370253562927246094e+00,-1.912296712398529053e-01,4.207052886486053467e-01,5.670000000000000000e+02
-8.680116513996472349e+01,-8.362307298244377307e+01,1.829505092329782201e+01,5.579029212225032097e+01,-6.268650375692595844e+01,-8.169260022819798905e+01,4.401796804699915810e+01,2.584081343496291083e+01,9.370253562927246094e+00,-1.912296712398529053e-01,4.207052886486053467e-01,5.680000000000000000e+02
-8.385578129240093403e+01,-8.042955049804186274e+01,1.933910652459962876e+01,5.759303488907971769e+01,-5.882791324971185531e+01,-7.975905430794227868e+01,4.592111874847250874e+01,2.816609892574524565e+01,9.370253562927246094e+00,-1.912296712398529053e-01,4.207052886486053467e-01,5.690000000000000000e+02
-8.065910627364064567e+01,-7.811203254211250169e+01,2.075248703205579659e+01,5.901308770041941898e+01,-5.503829431024132646e+01,-7.816700853055044718e+01,4.819114163276935869e+01,3.054532601051505480e+01,9.370253562927246094e+00,-1.912296712398529053e-01,4.207052886486053467e-01,5.700000000000000000e+02
-7.815328598861196951e+01,-7.689378044381919608e+01,2.274791977031418355e+01,5.947397499235012219e+01,-5.183222324025700800e+01,-7.695986029738924117e+01,5.032086544269623118e+01,3.262141338747642294e+01,9.370253562927246094e+00,-1.912296712398529053e-01,4.207052886486053467e-01,5.710000000000000000e+02
-7.689793456690131279e+01,-7.611235476153888158e+01,2.466395473727061471e+01,5.878743498295807512e+01,-4.969226883467854350e+01,-7.596492409147685976e+01,5.166914744409587001e+01,3.402331706331096939e+01,9.370253562927246094e+00,-3.824593871831893921e-02,5.354431271553039551e-01,5.720000000000000000e+02
-7.670384741821544594e+01,-7.518428324170963606e+01,2.557626357860135613e+01,5.718603637450178212e+01,-4.889876521697078715e+01,-7.491333350648346823e+01,5.194832370653602993e+01,3.447925841880714870e+01,9.370253562927246094e+00,-3.824593871831893921e-02,5.354431271553039551e-01,5.730000000000000000e+02
-7.673682219532020099e+01,-7.440678490737445827e+01,2.524217302627585013e+01,5.501810584748818655e+01,-4.933760270828133798e+01,-7.364713819877943024e+01,5.149031513574664132e+01,3.398812658910901519e+01,9.370253562927246094e+00,-3.824593871831893921e-02,5.354431271553039551e-01,5.740000000000000000e+02
-7.607341361267754110e+01,-7.470282043092993263e+01,2.439574913213800755e+01,5.244677343603507325e+01,-5.047087717596878065e+01,-7.224425067870106432e+01,5.099903692716907244e+01,3.288103271940053673e+01,9.370253562927246094e+00,-3.824593871831893921e-02,5.354431271553039551e-01,5.750000000000000000e+02
-7.433096582775942807e+01,-7.653234971706297074e+01,2.409724461642690585e+01,4.948366114282725903e+01,-5.153749733052973170e+01,-7.093297816974154557e+01,5.100128114557082881e+01,3.169016637226013700e+01,9.370253562927246094e+00,-3.824593871831893921e-02,5.354431271553039551e-01,5.760000000000000000e+02
-7.191777378962251532e+01,-7.911324222545044904e+01,2.478780584859487135e+01,4.629006999726698268e+01,-5.190458078952724463e+01,-6.986680909069036716e+01,5.148114415838790592e+01,3.088867311971262097e+01,9.370253562927246094e+00,-3.824593871831893921e-02,5.354431271553039551e-01,5.770000000000000000e+02
-6.973258431431531790e+01,-8.081908871149244078e+01,2.594703014985861955e+01,4.335071636548309471e+01,-5.139951433295573224e+01,-6.898016465609907755e+01,5.199100813895347528e+01,3.065851919050328434e+01,9.370253562927246094e+00,-3.824593871831893921e-02,5.354431271553039551e-01,5.780000000000000000e+02
-6.855757937268572277e+01,-8.045590966013151046e+01,2.661238356237299740e+01,4.122530377944895008e+01,-5.042436900498432806e+01,-6.808040340366278542e+01,5.207496361766970949e+01,3.080490163553622551e+01,9.370253562927246094e+00,-3.824593871831893921e-02,5.354431271553039551e-01,5.790000000000000000e+02
-6.858625572089658817e+01,-7.821250973428686848e+01,2.621900488111350569e+01,4.005007978384674061e+01,-4.970022719759435859e+01,-6.707668804403510876e+01,5.162727809283751412e+01,3.087069326665005065e+01,9.370253562927246094e+00,-3.824593871831893921e-02,5.354431271553039551e-01,5.800000000000000000e+02
-6.939836808921791089e+01,-7.539906556127607473e+01,2.500695746114070062e+01,3.929107740382460179e+01,-4.973716941000748193e+01,-6.608984199665792403e+01,5.092801969381980598e+01,3.040767214204242919e+01,9.370253562927246094e+00,-3.824593871831893921e-02,5.354431271553039551e-01,5.810000000000000000e+02
-7.032526090414648934e+01,-7.328123628969478887e+01,2.373573598228176706e+01,3.806896573832273134e+01,-5.040686519181326730e+01,-6.531232169048234937e+01,5.040224051951736328e+01,2.926365817965415772e+01,9.370253562927246094e+00,-3.824593871831893921e-02,5.354431271553039551e-01,5.820000000000000000e+02
-7.086768791314534610e+01,-7.214824616445912397e+01,2.307423705647306633e+01,3.583323839074000716e+01,-5.100856459079295746e+01,-6.476502109939610818e+01,5.033161421349359443e+01,2.770495812933950219e+01,9.370253562927246094e+00,-3.824593871831893921e-02,5.354431271553039551e-01,5.830000000000000000e+02
-7.085457470346227637e+01,-7.144236698285021703e+01,2.321605535945491283e+01,3.279457126944907941e+01,-5.084121334096198552e+01,-6.423228934797589318e+01,5.070665405469480902e+01,2.625416071366635151e+01,9.370253562927246094e+00,-3.824593871831893921e-02,5.354431271553039551e-01,5.840000000000000000e+02
-7.030295267872861587e+01,-7.067235459287621779e+01,2.395533407788752811e+01,2.973181277355251950e+01,-4.978370429114875151e+01,-6.345821713576879120e+01,5.129087242994137341e+01,2.532508852535102051e+01,9.370253562927246094e+00,-3.824593871831893921e-02,5.354431271553039551e-01,5.850000000000000000e+02
-6.923257857180942665e+01,-7.006841660515783587e+01,2.500586592992840451e+01,2.735401428028853843e+01,-4.834695059235673398e+01,-6.240984136432598461e+01,5.181574456144517171e+01,2.491826031663731555e+01,9.370253562927246094e+00,-3.824593871831893921e-02,5.354431271553039551e-01,5.860000000000000000e+02
-6.767835812742487178e+01,-7.028868472619069507e+01,2.620846598866410204e+01,2.578831968338636216e+01,-4.717388077278155833e+01,-6.133492680614654091e+01,5.215117110762730590e+01,2.462161697478586575e+01,9.370253562927246094e+00,-3.824593871831893921e-02,5.354431271553039551e-01,5.870000000000000000e+02
-6.586045256731449626e+01,-7.153289332999702310e+01,2.747697905046516098e+01,2.461508656642035930e+01,-4.651139459039040958e+01,-6.055644430756001384e+01,5.233028039159034961e+01,2.392521777525689686e+01,9.370253562927246094e+00,-3.824593871831893921e-02,5.354431271553039551e-01,5.880000000000000000e+02
-6.422930362877377775e+01,-7.305756739519711118e+01,2.862201338672093698e+01,2.333532781974645332e+01,-4.617775545866970788e+01,-6.022366916526516434e+01,5.243348982896350208e+01,2.259065943074892857e+01,9.370253562927246094e+00,-3.824593871831893921e-02,5.354431271553039551e-01,5.890000000000000000e+02
-6.316785395815168158e+01,-7.366719797806581482e+01,2.930543306947947713e+01,2.181008833194209728e+01,-4.596660447240356007e+01,-6.024026625507758581e+01,5.247739492699474795e+01,2.078621057480268064e+01,9.370253562927246094e+00,-3.824593871831893921e-02,5.354431271553039551e-01,5.900000000000000000e+02
-6.256166176300030202e+01,-7.274689888663124293e+01,2.922582515189787955e+01,2.029797571836752468e+01,-4.597571165191402542e+01,-6.039856139535550028e+01,5.242252524531068048e+01,1.889359136377606774e+01,9.370253562927246094e+00,-3.824593871831893921e-02,5.354431271553039551e-01,5.910000000000000000e+02
-6.173831919411168201e+01,-7.084371007266963716e+01,2.838967000450065825e+01,1.912220746749153477e+01,-4.648310823717838502e+01,-6.055130145708972123e+01,5.227073111610297929e+01,1.718706143979579792e+01,9.370253562927246094e+00,-3.824593871831893921e-02,5.354431271553039551e-01,5.920000000000000000e+02
-6.001790809607336996e+01,-6.925357572359280312e+01,2.721559756984061096e+01,1.831823698401422007e+01,-4.752751745242858306e+01,-6.065914800139580620e+01,5.211458621800557012e+01,1.568082122892155894e+01,9.370253562927246094e+00,-3.824593871831893921e-02,5.354431271553039551e-01,5.930000000000000000e+02
-5.749295288860957953e+01,-6.902795430402329657e+01,2.630859025610334356e+01,1.755302533175927238e+01,-4.871277051340439357e+01,-6.073501087892145733e+01,5.203282641812256770e+01,1.422487431352783460e+01,9.370253562927246094e+00,-3.824593871831893921e-02,5.354431271553039551e-01,5.940000000000000000e+02
-5.524722133043178474e+01,-7.030123473874118645e+01,2.601985826889358577e+01,1.634095187581260689e+01,-4.949199539897381328e+01,-6.079763925355291576e+01,5.192301075605428196e+01,1.269129305784372264e+01,9.370253562927246094e+00,-3.824593871831893921e-02,5.354431271553039551e-01,5.950000000000000000e+02
-5.460740214578618179e+01,-7.243339961156380014e+01,2.614996116914699087e+01,1.436188809445957304e+01,-4.965109646991550107e+01,-6.088369528262774111e+01,5.148730325728320167e+01,1.106381764711841242e+01,9.370253562927246094e+00,-3.824593871831893921e-02,5.354431271553039551e-01,5.960000000000000000e+02
-5.593535588471786468e+01,-7.464006834481187980e+01,2.610745601184680709e+01,1.166957717746845447e+01,-4.949567623040638864e+01,-6.103893241180776386e+01,5.047310502609616378e+01,9.435002874248311855e+00,9.370253562927246094e+00,-3.824593871831893921e-02,5.354431271553039551e-01,5.970000000000000000e+02
-5.804748480513444520e+01,-7.641303845937727601e+01,2.549406457477743970e+01,8.717443418943730649e+00,-4.952654141145831090e+01,-6.119925572111606016e+01,4.901160001011521672e+01,8.043449292581499321e+00,9.370253562927246094e+00,-3.824593871831893921e-02,5.354431271553039551e-01,5.980000000000000000e+02
-5.895356375674236915e+01,-7.743967394797073212e+01,2.464980803525395459e+01,6.215014374894963112e+00,-4.989526797132202773e+01,-6.104068930173161789e+01,4.773099657936836593e+01,7.362970992282498628e+00,9.370253562927246094e+00,-3.824593871831893921e-02,5.354431271553039551e-01,5.990000000000000000e+02
-5.744930443864359404e+01,-7.735388404815239483e+01,2.459848360092291841e+01,4.851859485603199573e+00,-5.013752048191599897e+01,-6.001363691680671764e+01,4.745837273216966423e+01,8.033036500564776361e+00,9.370253562927246094e+00,-3.824593871831893921e-02,5.354431271553039551e-01,6.000000000000000000e+02
-5.423355362855727435e+01,-7.579594298331358004e+01,2.626983403845224530e+01,4.953417799468297744e+00,-4.947556264125523739e+01,-5.768234758238395443e+01,4.864878767519621761e+01,1.043216305719761294e+01,9.370253562927246094e+00,-3.824593871831893921e-02,5.354431271553039551e-01,6.010000000000000000e+02
-5.151882429766919813e+01,-7.282428847960909479e+01,2.955192384345718892e+01,6.225628942491312046e+00,-4.751292990701040253e+01,-5.418400607759394916e+01,5.093787758905091323e+01,1.408857171873387415e+01,9.370253562927246094e+00,-3.824593871831893921e-02,5.354431271553039551e-01,6.020000000000000000e+02
-5.136981135704263579e+01,-6.920936413332310622e+01,3.303438634556005127e+01,7.811521722087491071e+00,-4.476330910637625493e+01,-5.038329060804608162e+01,5.320262921070388984e+01,1.753290526837736252e+01,9.370253562927246094e+00,-3.824593871831893921e-02,5.354431271553039551e-01,6.030000000000000000e+02
-5.413627262033696752e+01,-6.617692304867523490e+01,3.483281702001113445e+01,8.739512329899298493e+00,-4.252175416608952219e+01,-4.744859659187204670e+01,5.417067556656184024e+01,1.903325406208023196e+01,9.370253562927246094e+00,-3.824593871831893921e-02,5.354431271553039551e-01,6.040000000000000000e+02
-5.827823593836728833e+01,-6.469188129220128758e+01,3.396965211728820577e+01,8.535928797842643689e+00,-4.202656283840042306e+01,-4.605175997607148020e+01,5.322354514772450784e+01,1.789259314761511632e+01,9.370253562927246094e+00,-3.824593871831893921e-02,5.354431271553039551e-01,6.050000000000000000e+02
-6.167718074852746213e+01,-6.484902915508428123e+01,3.119872514442613465e+01,7.554434177498478675e+00,-4.347280895784206223e+01,-4.581094635837507667e+01,5.084065864133299328e+01,1.525787795080395881e+01,9.370253562927246094e+00,-3.824593871831893921e-02,5.354431271553039551e-01,6.060000000000000000e+02
-6.327049925297978916e+01,-6.587824401108082384e+01,2.852858009835472330e+01,6.720878758620528970e+00,-4.570709469099529088e+01,-4.551089494043844752e+01,4.834431533952738391e+01,1.353767506512667751e+01,9.370253562927246094e+00,-3.824593871831893921e-02,5.354431271553039551e-01,6.070000000000000000e+02
-6.363509594800052582e+01,-6.673562111902356264e+01,2.776527890276338439e+01,6.841731728680315427e+00,-4.698777481994329719e+01,-4.401968457680050051e+01,4.709599230068124598e+01,1.464319065173913259e+01,9.370253562927246094e+00,-3.824593871831893921e-02,5.354431271553039551e-01,6.080000000000000000e+02
-6.413013337814481929e+01,-6.678218150053726276e+01,2.924265269308671122e+01,8.003740151314559625e+00,-4.630546578235953348e+01,-4.119666090897226240e+01,4.769386914581991732e+01,1.842975006407505134e+01,9.370253562927246094e+00,-3.824593871831893921e-02,5.354431271553039551e-01,6.090000000000000000e+02
-6.547980012063999311e+01,-6.604112097712641116e+01,3.176213503052713349e+01,9.551495075305865612e+00,-4.414972678441699827e+01,-3.801754663918836741e+01,4.973233867579256184e+01,2.274577455438702600e+01,9.370253562927246094e+00,-3.824593871831893921e-02,5.354431271553039551e-01,6.100000000000000000e+02
-6.710792816562388907e+01,-6.494036836684244918e+01,3.369825455507816514e+01,1.064219144120579585e+01,-4.203043912180146435e+01,-3.579609654447267530e+01,5.221939634341833880e+01,2.515533515060087666e+01,9.370253562927246094e+00,-3.824593871831893921e-02,5.354431271553039551e-01,6.110000000000000000e+02
-6.778398051798285451e+01,-6.386262112999247620e+01,3.424202865976985777e+01,1.088469307558625587e+01,-4.117464592034230009e+01,-3.517083472182275727e+01,5.424350615925504826e+01,2.488665509980637580e+01,9.370253562927246094e+00,-3.824593871831893921e-02,5.354431271553039551e-01,6.120000000000000000e+02
-6.689890508765893173e+01,-6.289341079586665728e+01,3.375535387203126447e+01,1.053834958150764578e+01,-4.157720701862126589e+01,-3.569974488965090131e+01,5.537473254778888077e+01,2.331309920922649326e+01,9.370253562927246094e+00,-3.824593871831893921e-02,5.354431271553039551e-01,6.130000000000000000e+02
-6.513314367326893262e+01,-6.190455031150850118e+01,3.311633489843370626e+01,1.016833413011045195e+01,-4.223505676305649104e+01,-3.635130799457692774e+01,5.561323714118771022e+01,2.257942927614203654e+01,9.370253562927246094e+00,-3.824593871831893921e-02,5.354431271553039551e-01,6.140000000000000000e+02
