F3,F4,C3,C4,P3,P4,Cz,Pz,Accel_x,Accel_y,Accel_z,Sample
-3.183231456205248833e-11,-5.547917680814862251e-11,-3.274180926382541656e-11,-4.911271389573812485e-11,-5.002220859751105309e-11,-5.820766091346740723e-11,-3.456079866737127304e-11,-3.274180926382541656e-11,9.484992027282714844e+00,-2.677215635776519775e-01,0.000000000000000000e+00,2.020000000000000000e+02
-1.314580106716948649e+01,-1.762159002660337137e+01,-1.018924640537079540e+01,-3.082688336726278067e+00,-1.021630458068921143e+01,-3.767480189679190516e+00,-4.530573115763218084e+00,-1.170597216171063337e+01,9.484992027282714844e+00,-2.677215635776519775e-01,0.000000000000000000e+00,2.030000000000000000e+02
-2.789013009725204029e+01,-3.346956876231706701e+01,-1.808721811977284233e+01,-7.563786983425416111e+00,-2.299219069169339491e+01,-1.176841959277226124e+01,-9.152915320768443053e+00,-1.949070944510367553e+01,9.484992027282714844e+00,-2.677215635776519775e-01,0.000000000000000000e+00,2.040000000000000000e+02
-4.437154309663856111e+01,-4.750648179237305158e+01,-2.297509340575015813e+01,-1.304684303001158696e+01,-3.800596845782820310e+01,-2.434241403830492345e+01,-1.378980070062425511e+01,-2.245073173310447601e+01,9.484992027282714844e+00,-2.677215635776519775e-01,0.000000000000000000e+00,2.050000000000000000e+02
-6.108704975327054854e+01,-6.124301877172911190e+01,-2.588549975754904153e+01,-1.748935037941009796e+01,-5.223095443356032774e+01,-3.774189194539394521e+01,-1.824771888062514336e+01,-2.302458266135454323e+01,9.484992027282714844e+00,-2.677215635776519775e-01,0.000000000000000000e+00,2.060000000000000000e+02
-7.612607071739330422e+01,-7.587899308458418091e+01,-2.843158923890769074e+01,-1.915209544277604437e+01,-6.294519515984484315e+01,-4.762611027924504015e+01,-2.244773830543090298e+01,-2.453554706360773707e+01,9.484992027282714844e+00,-2.677215635776519775e-01,0.000000000000000000e+00,2.070000000000000000e+02
-8.873217880042648176e+01,-9.085957658654115221e+01,-3.160035299053561175e+01,-1.831832983061667619e+01,-7.040120741410828487e+01,-5.270801495817249815e+01,-2.657414253696788364e+01,-2.843519107524844003e+01,9.484992027282714844e+00,-2.677215635776519775e-01,0.000000000000000000e+00,2.080000000000000000e+02
-9.987243631749697670e+01,-1.044292475374777496e+02,-3.559917707286240329e+01,-1.706470470372642012e+01,-7.747862194641220412e+01,-5.521123824343703745e+01,-3.095149405046049651e+01,-3.373244680135758244e+01,9.561484336853027344e+00,-3.059675097465515137e-01,0.000000000000000000e+00,2.090000000000000000e+02
-1.113826053919792685e+02,-1.155256186545348100e+02,-4.051025195792499289e+01,-1.745582903959802934e+01,-8.691512602750299266e+01,-5.825348047552142816e+01,-3.576830254990909452e+01,-3.872650382447500306e+01,9.561484336853027344e+00,-3.059675097465515137e-01,0.000000000000000000e+00,2.100000000000000000e+02
-1.244470306026696562e+02,-1.249359594967190787e+02,-4.667734152111643198e+01,-2.005885133377887541e+01,-9.910220183330602595e+01,-6.317688182594429236e+01,-4.096089500960715668e+01,-4.299521116941923538e+01,9.561484336853027344e+00,-3.059675097465515137e-01,0.000000000000000000e+00,2.110000000000000000e+02
-1.386565414747856266e+02,-1.345317030614642135e+02,-5.429916338302518852e+01,-2.408030832099757390e+01,-1.124828109595018759e+02,-6.932141991728713037e+01,-4.641221058608607564e+01,-4.770156681379012298e+01,9.561484336853027344e+00,-3.059675097465515137e-01,0.000000000000000000e+00,2.120000000000000000e+02
-1.523471028265175846e+02,-1.454953284051707669e+02,-6.282588432518787158e+01,-2.859922362448742206e+01,-1.256580642615572287e+02,-7.580414079019647033e+01,-5.225051669911499630e+01,-5.421982234386905475e+01,9.561484336853027344e+00,-3.059675097465515137e-01,0.000000000000000000e+00,2.130000000000000000e+02
-1.639013728733052631e+02,-1.574362012316432811e+02,-7.107574405806735740e+01,-3.338274954841745057e+01,-1.387051582065196271e+02,-8.289078956676166854e+01,-5.886731391348894249e+01,-6.270543926088703302e+01,9.561484336853027344e+00,-3.059675097465515137e-01,0.000000000000000000e+00,2.140000000000000000e+02
-1.730023315350726989e+02,-1.691366644427116626e+02,-7.811248668240114057e+01,-3.857046076893038844e+01,-1.524804940007743426e+02,-9.146477992390282452e+01,-6.652153173822898680e+01,-7.199145647298246331e+01,9.561484336853027344e+00,-3.059675097465515137e-01,0.000000000000000000e+00,2.150000000000000000e+02
-1.809374953951946736e+02,-1.798834333254944795e+02,-8.396852418458183820e+01,-4.391418617551516945e+01,-1.670626971024321392e+02,-1.014799221404991840e+02,-7.484138625214109197e+01,-8.063827053368186171e+01,9.561484336853027344e+00,-3.059675097465515137e-01,0.000000000000000000e+00,2.160000000000000000e+02
-1.897912982031602951e+02,-1.899099377753655062e+02,-8.943558653096533817e+01,-4.863076145428749442e+01,-1.812477155318838413e+02,-1.113464396811814368e+02,-8.273448510889829777e+01,-8.788777778693747678e+01,9.561484336853027344e+00,-3.059675097465515137e-01,0.000000000000000000e+00,2.170000000000000000e+02
-2.011438883377750244e+02,-1.996880981217673252e+02,-9.517732924582833220e+01,-5.202218451795852161e+01,-1.935952563469672896e+02,-1.190027234486933594e+02,-8.894073561516142945e+01,-9.368476077958257520e+01,9.561484336853027344e+00,-3.059675097465515137e-01,0.000000000000000000e+00,2.180000000000000000e+02
-2.151709332302998519e+02,-2.091290725663975536e+02,-1.011367736124457224e+02,-5.404681018251903879e+01,-2.037354675921169473e+02,-1.235183713498863654e+02,-9.289691932527330209e+01,-9.808688264074680774e+01,9.561484336853027344e+00,-3.059675097465515137e-01,0.000000000000000000e+00,2.190000000000000000e+02
-2.306675823251662223e+02,-2.176868171765599982e+02,-1.067961551713569861e+02,-5.517357154040200840e+01,-2.125359387768867236e+02,-1.256318480710961012e+02,-9.522734922731342522e+01,-1.009441727893181451e+02,9.561484336853027344e+00,-3.059675097465515137e-01,0.000000000000000000e+00,2.200000000000000000e+02
-2.458354707434300508e+02,-2.251813246522578993e+02,-1.118489363037488147e+02,-5.582392173436983285e+01,-2.211364222196252740e+02,-1.269033963553956710e+02,-9.740469679773468670e+01,-1.022381271927879425e+02,9.561484336853027344e+00,-3.059675097465515137e-01,0.000000000000000000e+00,2.210000000000000000e+02
-2.591968087073591960e+02,-2.323158393102185073e+02,-1.164361771975372903e+02,-5.619403785556005460e+01,-2.300173643288844687e+02,-1.285389051929832931e+02,-1.007781373726338643e+02,-1.026435553580213309e+02,9.561484336853027344e+00,-3.059675097465515137e-01,0.000000000000000000e+00,2.220000000000000000e+02
-2.700645775236516783e+02,-2.402500788058041508e+02,-1.207328680518794499e+02,-5.669468697460524709e+01,-2.390022783896192777e+02,-1.310095835515630824e+02,-1.056997131584475937e+02,-1.036098262546402111e+02,9.561484336853027344e+00,-3.059675097465515137e-01,0.000000000000000000e+00,2.230000000000000000e+02
-2.784962524391185070e+02,-2.496715392491496459e+02,-1.245053006711859780e+02,-5.832903724600146234e+01,-2.478930266229554036e+02,-1.344935971739614615e+02,-1.114061117089822801e+02,-1.067293355659339795e+02,9.561484336853027344e+00,-3.059675097465515137e-01,0.000000000000000000e+00,2.240000000000000000e+02
-2.850748087103802391e+02,-2.602964116347420713e+02,-1.272953177277540817e+02,-6.224176280052870425e+01,-2.568253183789765899e+02,-1.393168967536330456e+02,-1.166831651532611431e+02,-1.127761015804344424e+02,9.561484336853027344e+00,-3.059675097465515137e-01,0.000000000000000000e+00,2.250000000000000000e+02
-2.907939398346952657e+02,-2.711997417459442659e+02,-1.290960571214463926e+02,-6.861357945669169567e+01,-2.659521792275227199e+02,-1.457827591203185875e+02,-1.207359689107588565e+02,-1.210578127388653229e+02,9.561484336853027344e+00,-3.059675097465515137e-01,0.000000000000000000e+00,2.260000000000000000e+02
-2.969522679886422338e+02,-2.815356057628614508e+02,-1.307204715089656020e+02,-7.598230634009541973e+01,-2.749490838500187238e+02,-1.536162618572543579e+02,-1.236112952389312341e+02,-1.295446353456700308e+02,9.561484336853027344e+00,-3.059675097465515137e-01,0.000000000000000000e+00,2.270000000000000000e+02
-3.047717995564435114e+02,-2.909521336162351872e+02,-1.333322207938872452e+02,-8.187725122977008141e+01,-2.830424230716780585e+02,-1.617219001650519203e+02,-1.259875532028790985e+02,-1.358176495682027962e+02,9.561484336853027344e+00,-3.059675097465515137e-01,0.000000000000000000e+00,2.280000000000000000e+02
-3.147271640773524268e+02,-2.994892025280587404e+02,-1.375200986435147570e+02,-8.445932769081355218e+01,-2.896440213571440836e+02,-1.686260868202789425e+02,-1.286810078184780650e+02,-1.384555596375867026e+02,9.561484336853027344e+00,-3.059675097465515137e-01,0.000000000000000000e+00,2.290000000000000000e+02
-3.260564178839367742e+02,-3.072789808925599573e+02,-1.428339008743914746e+02,-8.384668583458005742e+01,-2.950293627902556182e+02,-1.733382274993109604e+02,-1.323128401624271646e+02,-1.381090177782580213e+02,9.561484336853027344e+00,-3.059675097465515137e-01,0.000000000000000000e+00,2.300000000000000000e+02
-3.370118879664114502e+02,-3.144208844482036511e+02,-1.482612669637137515e+02,-8.199772642776224529e+01,-3.004345491429439789e+02,-1.760004624490766219e+02,-1.372189111986535863e+02,-1.374473470859256850e+02,9.561484336853027344e+00,-3.059675097465515137e-01,0.000000000000000000e+00,2.310000000000000000e+02
-3.458847213639573965e+02,-3.210768090570190907e+02,-1.531751994761989408e+02,-8.125982342576662631e+01,-3.074382520641493102e+02,-1.778546188935943064e+02,-1.433804167767202671e+02,-1.397188305026720627e+02,9.561484336853027344e+00,-3.059675097465515137e-01,0.000000000000000000e+00,2.320000000000000000e+02
-3.521340905991401087e+02,-3.275717554229836423e+02,-1.578326820486827273e+02,-8.280438304836388852e+01,-3.170319743205427585e+02,-1.805236314372086781e+02,-1.502470488029048283e+02,-1.466439790674321557e+02,9.561484336853027344e+00,-3.059675097465515137e-01,0.000000000000000000e+00,2.330000000000000000e+02
-3.567477502304373047e+02,-3.343549726499495591e+02,-1.629708839984768929e+02,-8.614988987013930455e+01,-3.289496424802064212e+02,-1.850211238203146422e+02,-1.566972211978745690e+02,-1.570839498763562005e+02,9.484992027282714844e+00,-2.677215635776519775e-01,0.000000000000000000e+00,2.340000000000000000e+02
-3.615220861504631102e+02,-3.418600891971036617e+02,-1.689426851805819751e+02,-8.997524549765421398e+01,-3.416714821136320097e+02,-1.911153450940964831e+02,-1.614890558912657070e+02,-1.676074041603178557e+02,9.484992027282714844e+00,-2.677215635776519775e-01,0.000000000000000000e+00,2.350000000000000000e+02
-3.678184457619909153e+02,-3.503417071262356330e+02,-1.752618451600255867e+02,-9.336014803323996603e+01,-3.531686627967374079e+02,-1.975120697093398121e+02,-1.641248720306430187e+02,-1.747464377256060288e+02,9.484992027282714844e+00,-2.677215635776519775e-01,0.000000000000000000e+00,2.360000000000000000e+02
-3.757457298220888333e+02,-3.597142645715443905e+02,-1.809950579279288831e+02,-9.637192248737210321e+01,-3.620370844136250525e+02,-2.027855865996680222e+02,-1.654796440587879260e+02,-1.773614629171847810e+02,9.484992027282714844e+00,-2.677215635776519775e-01,0.000000000000000000e+00,2.370000000000000000e+02
-3.843177782812117584e+02,-3.694385720421978476e+02,-1.855849405887656758e+02,-9.964402058469840995e+01,-3.683373473457522778e+02,-2.064112882005201755e+02,-1.674896090004003781e+02,-1.773345969671077000e+02,9.484992027282714844e+00,-2.677215635776519775e-01,0.000000000000000000e+00,2.380000000000000000e+02
-3.923340911580571628e+02,-3.786039238636126356e+02,-1.893059147538415345e+02,-1.035173233213135973e+02,-3.735106156463252773e+02,-2.091014519189284329e+02,-1.718976268061669543e+02,-1.780742410048501370e+02,9.484992027282714844e+00,-2.677215635776519775e-01,0.000000000000000000e+00,2.390000000000000000e+02
-3.992179850982338394e+02,-3.863065684072112163e+02,-1.929385861243254112e+02,-1.076160867717926521e+02,-3.793473381226522179e+02,-2.121906490019437115e+02,-1.789347919365632151e+02,-1.820160636203554532e+02,9.484992027282714844e+00,-2.677215635776519775e-01,0.000000000000000000e+00,2.400000000000000000e+02
-4.051998309870632511e+02,-3.921838019313304358e+02,-1.969905398701926060e+02,-1.112113573669566904e+02,-3.867402377977168726e+02,-2.166117330537936141e+02,-1.870216141343462368e+02,-1.890478798099770756e+02,9.484992027282714844e+00,-2.677215635776519775e-01,0.000000000000000000e+00,2.410000000000000000e+02
-4.108428260167843291e+02,-3.967111066029397080e+02,-2.012094003502743362e+02,-1.139352240606285704e+02,-3.951845056630127146e+02,-2.223289955031323188e+02,-1.938149813362601890e+02,-1.969695578284631665e+02,9.484992027282714844e+00,-2.677215635776519775e-01,0.000000000000000000e+00,2.420000000000000000e+02
-4.164325258150010995e+02,-4.009450351628338467e+02,-2.048264312131641418e+02,-1.161040167335804654e+02,-4.033919801191846091e+02,-2.286203782545508147e+02,-1.978140752949952912e+02,-2.034494014554052228e+02,9.484992027282714844e+00,-2.677215635776519775e-01,0.000000000000000000e+00,2.430000000000000000e+02
-4.217735945381764395e+02,-4.058431244750618134e+02,-2.072846867726284472e+02,-1.183237522224198983e+02,-4.104095304357788336e+02,-2.347800418461647496e+02,-1.992886763898018216e+02,-2.078516819496048811e+02,9.484992027282714844e+00,-2.677215635776519775e-01,0.000000000000000000e+00,2.440000000000000000e+02
-4.265238527514470661e+02,-4.116663200595312446e+02,-2.087691965914946195e+02,-1.207882930967753055e+02,-4.162293355627357414e+02,-2.405017613639929550e+02,-1.998685790733570684e+02,-2.115525522447001094e+02,9.484992027282714844e+00,-2.677215635776519775e-01,0.000000000000000000e+00,2.450000000000000000e+02
-4.307057085860656116e+02,-4.179140824542446353e+02,-2.100709279290676932e+02,-1.229925509104841694e+02,-4.214289341058183709e+02,-2.456813006058600877e+02,-2.012382790975257194e+02,-2.166706778140019196e+02,9.484992027282714844e+00,-2.677215635776519775e-01,0.000000000000000000e+00,2.460000000000000000e+02
-4.348898969879874130e+02,-4.237879033663580230e+02,-2.119346068696286238e+02,-1.241808712681977340e+02,-4.263599467273979826e+02,-2.500727534288089373e+02,-2.040340097287148637e+02,-2.243620006350738549e+02,9.484992027282714844e+00,-2.677215635776519775e-01,0.000000000000000000e+00,2.470000000000000000e+02
-4.398265810056877854e+02,-4.287561297366655708e+02,-2.145000093913336059e+02,-1.241236592863879196e+02,-4.307918556979507230e+02,-2.533305011368520354e+02,-2.077186474689256102e+02,-2.340169038005433322e+02,9.484992027282714844e+00,-2.677215635776519775e-01,0.000000000000000000e+00,2.480000000000000000e+02
-4.457914564863267515e+02,-4.328046363821777049e+02,-2.173381909131212524e+02,-1.234935231494755499e+02,-4.343708536745143647e+02,-2.554262257715226951e+02,-2.113260486100120943e+02,-2.438537325130382669e+02,9.484992027282714844e+00,-2.677215635776519775e-01,0.000000000000000000e+00,2.490000000000000000e+02
-4.522147842067533929e+02,-4.362943236203709603e+02,-2.199997052527423875e+02,-1.234937395624397141e+02,-4.373636313009901642e+02,-2.569404028207391093e+02,-2.143241271796978253e+02,-2.522644312379043186e+02,9.484992027282714844e+00,-2.677215635776519775e-01,0.000000000000000000e+00,2.500000000000000000e+02
-4.579809478876450157e+02,-4.396690028144157623e+02,-2.225161078013252336e+02,-1.250797127071109571e+02,-4.408327245537248018e+02,-2.588297707674500998e+02,-2.169138834310983839e+02,-2.587792975062379810e+02,9.484992027282714844e+00,-2.677215635776519775e-01,0.000000000000000000e+00,2.510000000000000000e+02
-4.622390493824605073e+02,-4.432714952280407488e+02,-2.253812775679798506e+02,-1.284158504330212054e+02,-4.459500739559671274e+02,-2.618299320724308927e+02,-2.196855178656028329e+02,-2.639752010266115576e+02,9.484992027282714844e+00,-2.677215635776519775e-01,0.000000000000000000e+00,2.520000000000000000e+02
-4.650816461120007261e+02,-4.473066606058396246e+02,-2.290393408357981571e+02,-1.328901057295129249e+02,-4.530095926849235184e+02,-2.660025084437711484e+02,-2.230719845520111448e+02,-2.685751752895312165e+02,9.484992027282714844e+00,-2.677215635776519775e-01,0.000000000000000000e+00,2.530000000000000000e+02
-4.675106702106468219e+02,-4.518246869675176640e+02,-2.333834992716247143e+02,-1.375075264419515406e+02,-4.610403190411593641e+02,-2.707659823980202418e+02,-2.270740798983470086e+02,-2.726137687004011241e+02,9.484992027282714844e+00,-2.677215635776519775e-01,0.000000000000000000e+00,2.540000000000000000e+02
-4.707004001417585641e+02,-4.566580503334698733e+02,-2.377580983472926164e+02,-1.412976084800657190e+02,-4.684223736013750568e+02,-2.752898816960423574e+02,-2.313782491137330908e+02,-2.753828453047844960e+02,9.484992027282714844e+00,-2.677215635776519775e-01,0.000000000000000000e+00,2.550000000000000000e+02
-4.751682699590378434e+02,-4.614142468672212090e+02,-2.414693002185886144e+02,-1.435660235859400018e+02,-4.740244797888967696e+02,-2.788684324706682673e+02,-2.356112592514982680e+02,-2.761196806799234764e+02,9.484992027282714844e+00,-2.677215635776519775e-01,0.000000000000000000e+00,2.560000000000000000e+02
-4.805376689946383522e+02,-4.656404917418385594e+02,-2.443498579578804311e+02,-1.440593466785035162e+02,-4.779399077796570054e+02,-2.810673253507793561e+02,-2.394607412096006556e+02,-2.747687715815072806e+02,9.484992027282714844e+00,-2.677215635776519775e-01,0.000000000000000000e+00,2.570000000000000000e+02
-4.860368482764370128e+02,-4.691061662409460951e+02,-2.468722601662466332e+02,-1.430715394386893422e+02,-4.812478933534384851e+02,-2.817425249961333975e+02,-2.426364754930846175e+02,-2.721571279378963482e+02,9.484992027282714844e+00,-2.677215635776519775e-01,0.000000000000000000e+00,2.580000000000000000e+02
-4.912007227086414787e+02,-4.719796569640088819e+02,-2.497068167084844390e+02,-1.413543875873801881e+02,-4.850425964624701010e+02,-2.810849671650576056e+02,-2.448637268071861399e+02,-2.694804555499354137e+02,9.484992027282714844e+00,-2.677215635776519775e-01,0.000000000000000000e+00,2.590000000000000000e+02
-4.961045468871880075e+02,-4.747070922343600614e+02,-2.530989490958104398e+02,-1.397463885276392830e+02,-4.895479935249904884e+02,-2.796625822822588816e+02,-2.460432709446531589e+02,-2.675738795756824402e+02,9.484992027282714844e+00,-2.677215635776519775e-01,0.000000000000000000e+00,2.600000000000000000e+02
-5.009689247986661940e+02,-4.776565538877853214e+02,-2.565958280605323125e+02,-1.387189013682927907e+02,-4.940196761943980164e+02,-2.783127082762503051e+02,-2.464451433068202277e+02,-2.665703482030403393e+02,9.523238182067871094e+00,-3.059675097465515137e-01,0.000000000000000000e+00,2.610000000000000000e+02
-5.056195993818591887e+02,-4.808409264543602148e+02,-2.593502500849253920e+02,-1.382449501801988845e+02,-4.974374714558571213e+02,-2.778472296270142579e+02,-2.466636118791557237e+02,-2.661485586285693898e+02,9.523238182067871094e+00,-3.059675097465515137e-01,0.000000000000000000e+00,2.620000000000000000e+02
-5.094203720955083554e+02,-4.839888719282894272e+02,-2.607318388276935366e+02,-1.381345664365981065e+02,-4.993435515160249452e+02,-2.787394398383416956e+02,-2.472497384617440730e+02,-2.660460629814774620e+02,9.523238182067871094e+00,-3.059675097465515137e-01,0.000000000000000000e+00,2.630000000000000000e+02
-5.117856994590324575e+02,-4.869175106021552892e+02,-2.607338403942771947e+02,-1.384813273983559156e+02,-5.001309720399576690e+02,-2.810121232377473461e+02,-2.482853583682099270e+02,-2.663295473201610548e+02,9.523238182067871094e+00,-3.059675097465515137e-01,0.000000000000000000e+00,2.640000000000000000e+02
-5.127584851508603379e+02,-4.898466936912718097e+02,-2.598615570311658303e+02,-1.397124198491585503e+02,-5.006263175983889369e+02,-2.843863607723403675e+02,-2.493365816772538892e+02,-2.672159080451476711e+02,9.523238182067871094e+00,-3.059675097465515137e-01,0.000000000000000000e+00,2.650000000000000000e+02
-5.130545915530929051e+02,-4.933014274692355343e+02,-2.586697534379786703e+02,-1.421406188089335956e+02,-5.014252171242079612e+02,-2.885304873401323675e+02,-2.499177591676259453e+02,-2.686925426929678906e+02,9.523238182067871094e+00,-3.059675097465515137e-01,0.000000000000000000e+00,2.660000000000000000e+02
-5.135088659032683154e+02,-4.976217916080056511e+02,-2.574187101675428266e+02,-1.455019665871643610e+02,-5.026046814615042422e+02,-2.931798942093209916e+02,-2.500772177311941959e+02,-2.703892254352450664e+02,9.523238182067871094e+00,-3.059675097465515137e-01,0.000000000000000000e+00,2.670000000000000000e+02
-5.144641928019241277e+02,-5.024979265121605181e+02,-2.561681215835005787e+02,-1.490586493889252324e+02,-5.040131817525939368e+02,-2.980517593843562736e+02,-2.505187628855837829e+02,-2.718975760670425643e+02,9.523238182067871094e+00,-3.059675097465515137e-01,0.000000000000000000e+00,2.680000000000000000e+02
-5.156762326009624076e+02,-5.069667481050705078e+02,-2.551523578409644415e+02,-1.522649423538107385e+02,-5.057547231294423682e+02,-3.026946443881383857e+02,-2.520337760201630317e+02,-2.732494038994666425e+02,9.523238182067871094e+00,-3.059675097465515137e-01,0.000000000000000000e+00,2.690000000000000000e+02
-5.167738395104933034e+02,-5.099366582851779413e+02,-2.549626933291618798e+02,-1.553501305092536313e+02,-5.083245283718223391e+02,-3.064985091295809525e+02,-2.547046346645347512e+02,-2.750410275205431390e+02,9.523238182067871094e+00,-3.059675097465515137e-01,0.000000000000000000e+00,2.700000000000000000e+02
-5.177538846367324368e+02,-5.108485793638969312e+02,-2.562268363209719837e+02,-1.591737132893526905e+02,-5.122162197418001597e+02,-3.089641302929796893e+02,-2.576569173602182445e+02,-2.779536697576135111e+02,9.523238182067871094e+00,-3.059675097465515137e-01,0.000000000000000000e+00,2.710000000000000000e+02
-5.189999741967674254e+02,-5.099721779430852280e+02,-2.590131298322407929e+02,-1.644074575134259248e+02,-5.173581329809489944e+02,-3.100545586763082611e+02,-2.596904995789667510e+02,-2.819940091067253434e+02,9.523238182067871094e+00,-3.059675097465515137e-01,0.000000000000000000e+00,2.720000000000000000e+02
-5.208657283817371990e+02,-5.081648819680348765e+02,-2.625480381360838464e+02,-1.708007478508918666e+02,-5.229026679119644996e+02,-3.102913877399223566e+02,-2.603094345168774453e+02,-2.861325037380587446e+02,9.523238182067871094e+00,-3.059675097465515137e-01,0.000000000000000000e+00,2.730000000000000000e+02
-5.233059725269970386e+02,-5.063618897721629537e+02,-2.656089247564144671e+02,-1.772402378019187381e+02,-5.275822015923549770e+02,-3.104071125393634247e+02,-2.602188268703407630e+02,-2.887630585202222164e+02,9.523238182067871094e+00,-3.059675097465515137e-01,0.000000000000000000e+00,2.740000000000000000e+02
-5.259440406666585659e+02,-5.052199859169049319e+02,-2.673300674346722872e+02,-1.825771192536974468e+02,-5.303699192294370732e+02,-3.107778180994068862e+02,-2.607838065453908030e+02,-2.887399171340421162e+02,9.523238182067871094e+00,-3.059675097465515137e-01,0.000000000000000000e+00,2.750000000000000000e+02
-5.284492717266208501e+02,-5.051008430730924488e+02,-2.677404790988581453e+02,-1.864932039097602683e+02,-5.309720625325537640e+02,-3.111586566587188827e+02,-2.628794089764998034e+02,-2.862137295667347416e+02,9.523238182067871094e+00,-3.059675097465515137e-01,0.000000000000000000e+00,2.760000000000000000e+02
-5.307636864430521655e+02,-5.062207533505678612e+02,-2.675828666995407730e+02,-1.896691585706769274e+02,-5.298598356494828749e+02,-3.110321778470379286e+02,-2.661170748385382012e+02,-2.826036977525213842e+02,9.523238182067871094e+00,-3.059675097465515137e-01,0.000000000000000000e+00,2.770000000000000000e+02
-5.329194165814374173e+02,-5.086799077675806302e+02,-2.676321996761773789e+02,-1.931705421418557762e+02,-5.279381736584338114e+02,-3.103019275078952433e+02,-2.691074642942129458e+02,-2.797562619770810670e+02,9.523238182067871094e+00,-3.059675097465515137e-01,0.000000000000000000e+00,2.780000000000000000e+02
-5.347037352487907356e+02,-5.122764204877942120e+02,-2.681650317475440488e+02,-1.976037432951252413e+02,-5.261713374878112290e+02,-3.096486871186293683e+02,-2.705185931671567232e+02,-2.789654025094471308e+02,9.523238182067871094e+00,-3.059675097465515137e-01,0.000000000000000000e+00,2.790000000000000000e+02
-5.356554681447985331e+02,-5.163155809510309382e+02,-2.690134624745329575e+02,-2.026865696990207653e+02,-5.253721887516397828e+02,-3.101092485452918481e+02,-2.700263501053910886e+02,-2.805074973481603138e+02,9.523238182067871094e+00,-3.059675097465515137e-01,0.000000000000000000e+00,2.800000000000000000e+02
-5.355185141729157294e+02,-5.197017842190421106e+02,-2.700015026871915325e+02,-2.074423748860883734e+02,-5.261044256054605057e+02,-3.121747585585210345e+02,-2.684047760869628974e+02,-2.838007217711644898e+02,9.523238182067871094e+00,-3.059675097465515137e-01,0.000000000000000000e+00,2.810000000000000000e+02
-5.347049501813532970e+02,-5.213883166935648887e+02,-2.712117077290623683e+02,-2.107751006429473364e+02,-5.285320412044616205e+02,-3.152337628883199159e+02,-2.668004805657570842e+02,-2.878183857582580458e+02,9.523238182067871094e+00,-3.059675097465515137e-01,0.000000000000000000e+00,2.820000000000000000e+02
-5.341957785569228463e+02,-5.209646404822644854e+02,-2.728003848039626291e+02,-2.120383341766707872e+02,-5.322039763991123209e+02,-3.179360996196862743e+02,-2.658949555424376285e+02,-2.914165656127846660e+02,9.523238182067871094e+00,-3.059675097465515137e-01,0.000000000000000000e+00,2.830000000000000000e+02
-5.348324233351111161e+02,-5.189824547091291151e+02,-2.746207408578319473e+02,-2.113339528119972783e+02,-5.360050327773187746e+02,-3.191966704854241925e+02,-2.656240362856676711e+02,-2.935757572263070188e+02,9.523238182067871094e+00,-3.059675097465515137e-01,0.000000000000000000e+00,2.840000000000000000e+02
-5.365909457519620673e+02,-5.167441870258780909e+02,-2.761283081957325294e+02,-2.094523130021511861e+02,-5.385242203943099639e+02,-3.189559139207822227e+02,-2.655348244907264643e+02,-2.937357610521821698e+02,9.523238182067871094e+00,-3.059675097465515137e-01,0.000000000000000000e+00,2.850000000000000000e+02
-5.385224772967505942e+02,-5.156316382171620489e+02,-2.767263960908668423e+02,-2.074978757318824591e+02,-5.387886480537797524e+02,-3.180631732982994890e+02,-2.653166791677263063e+02,-2.921589810317451565e+02,9.523238182067871094e+00,-3.059675097465515137e-01,0.000000000000000000e+00,2.860000000000000000e+02
-5.394583077247789333e+02,-5.163893516855837333e+02,-2.762367061724594350e+02,-2.063611012222195313e+02,-5.369078970057387323e+02,-3.174718964438461626e+02,-2.650067194693833699e+02,-2.899513866000264670e+02,9.523238182067871094e+00,-3.059675097465515137e-01,0.000000000000000000e+00,2.870000000000000000e+02
-5.388822492451819244e+02,-5.188193793455948253e+02,-2.750587153319951312e+02,-2.063282171939342788e+02,-5.340896987765904669e+02,-3.175155449255564690e+02,-2.647946685805142124e+02,-2.884872241167122411e+02,9.523238182067871094e+00,-3.059675097465515137e-01,0.000000000000000000e+00,2.880000000000000000e+02
-5.372394128923822336e+02,-5.220485379342501346e+02,-2.739130596156205684e+02,-2.070869085193716046e+02,-5.319094650998318912e+02,-3.178426336429176899e+02,-2.647424756560504875e+02,-2.885426374934042997e+02,9.523238182067871094e+00,-3.059675097465515137e-01,0.000000000000000000e+00,2.890000000000000000e+02
-5.354756009327467154e+02,-5.251400598758485785e+02,-2.734365852648423925e+02,-2.081267094603590522e+02,-5.313315361372308416e+02,-3.179257845345249507e+02,-2.647308219996818934e+02,-2.898484886766699447e+02,9.523238182067871094e+00,-3.059675097465515137e-01,0.000000000000000000e+00,2.900000000000000000e+02
-5.342797782956467927e+02,-5.276006492232795608e+02,-2.739434905285409059e+02,-2.091931676530487039e+02,-5.322142210541262557e+02,-3.175865320505389491e+02,-2.646449719328268202e+02,-2.914887211803716127e+02,9.523238182067871094e+00,-3.059675097465515137e-01,0.000000000000000000e+00,2.910000000000000000e+02
-5.337008417580984769e+02,-5.294770479550693381e+02,-2.754189905146275805e+02,-2.103875520515566677e+02,-5.336343605637866858e+02,-3.170773228769568277e+02,-2.645455841891097180e+02,-2.927976892120570938e+02,9.446745872497558594e+00,-2.294756323099136353e-01,0.000000000000000000e+00,2.920000000000000000e+02
-5.333923863895386148e+02,-5.311041624852628047e+02,-2.776159769857089259e+02,-2.118476396549820038e+02,-5.346773273192304714e+02,-3.167509309120002854e+02,-2.646123616757819264e+02,-2.938961829620224648e+02,9.446745872497558594e+00,-2.294756323099136353e-01,0.000000000000000000e+00,2.930000000000000000e+02
-5.331424845297644879e+02,-5.327956674455350594e+02,-2.801525415307377216e+02,-2.133837246721882366e+02,-5.350163672962187320e+02,-3.166958874762715368e+02,-2.649234086765401344e+02,-2.953539221929692076e+02,9.446745872497558594e+00,-2.294756323099136353e-01,0.000000000000000000e+00,2.940000000000000000e+02
-5.331441506538949398e+02,-5.346980850818754334e+02,-2.826274349707142619e+02,-2.145097620932504014e+02,-5.348996422363723013e+02,-3.166675309871411628e+02,-2.653046754746503666e+02,-2.973537805936107361e+02,9.446745872497558594e+00,-2.294756323099136353e-01,0.000000000000000000e+00,2.950000000000000000e+02
-5.337649061407619229e+02,-5.368051337828929945e+02,-2.847778411984679678e+02,-2.148940430055247361e+02,-5.347439159011407810e+02,-3.163389382765865321e+02,-2.654042641980149710e+02,-2.992592020629391527e+02,9.446745872497558594e+00,-2.294756323099136353e-01,0.000000000000000000e+00,2.960000000000000000e+02
-5.350623074719110264e+02,-5.390154051348290523e+02,-2.865832633471399049e+02,-2.147769726120319547e+02,-5.347939458662801826e+02,-3.156283074480229516e+02,-2.649369326704936611e+02,-3.000798446998115878e+02,9.446745872497558594e+00,-2.294756323099136353e-01,0.000000000000000000e+00,2.970000000000000000e+02
-5.365308404929892276e+02,-5.411739174579220162e+02,-2.881924431881371902e+02,-2.148835876873008601e+02,-5.350750118602550174e+02,-3.148243439779018900e+02,-2.639011953149397414e+02,-2.993972792512375918e+02,9.446745872497558594e+00,-2.294756323099136353e-01,0.000000000000000000e+00,2.980000000000000000e+02
-5.373575579767723411e+02,-5.431362300293230874e+02,-2.897048380960376335e+02,-2.158442880388404319e+02,-5.354882963738959916e+02,-3.143981135735688213e+02,-2.625952124013107323e+02,-2.978149372380655677e+02,9.446745872497558594e+00,-2.294756323099136353e-01,0.000000000000000000e+00,2.990000000000000000e+02
-5.370169029572007275e+02,-5.448628564525661204e+02,-2.910319585926007449e+02,-2.176316698632764428e+02,-5.358408651924049764e+02,-3.146257390698232257e+02,-2.614393700612909015e+02,-2.964583088638670461e+02,9.446745872497558594e+00,-2.294756323099136353e-01,0.000000000000000000e+00,3.000000000000000000e+02
-5.357330416507093105e+02,-5.464534167344947946e+02,-2.920075132639021831e+02,-2.195383166890259190e+02,-5.358379661221289325e+02,-3.153030198555027255e+02,-2.607496281549314290e+02,-2.960075155890275482e+02,9.446745872497558594e+00,-2.294756323099136353e-01,0.000000000000000000e+00,3.010000000000000000e+02
-5.344134415978371635e+02,-5.480438269433202549e+02,-2.926309456639193058e+02,-2.207240153415791610e+02,-5.352000804612287084e+02,-3.157749951000976125e+02,-2.606017211830840097e+02,-2.961943096364760777e+02,9.446745872497558594e+00,-2.294756323099136353e-01,0.000000000000000000e+00,3.020000000000000000e+02
-5.340527617524317066e+02,-5.496304756442054895e+02,-2.931536607386196920e+02,-2.208477657573904480e+02,-5.339011133676598320e+02,-3.152847068387346781e+02,-2.608435209660306100e+02,-2.962068196961782860e+02,9.446745872497558594e+00,-2.294756323099136353e-01,0.000000000000000000e+00,3.030000000000000000e+02
-5.350168341374998136e+02,-5.510110921714440337e+02,-2.938589044624545750e+02,-2.202592743776193629e+02,-5.322843580593012121e+02,-3.134127847726107348e+02,-2.612119906635444977e+02,-2.955392438356107050e+02,9.446745872497558594e+00,-2.294756323099136353e-01,0.000000000000000000e+00,3.040000000000000000e+02
-5.367466262135218358e+02,-5.519241720494991341e+02,-2.947300371483727304e+02,-2.196548258611775282e+02,-5.308473601638529544e+02,-3.103179707677522856e+02,-2.614627036912971789e+02,-2.944202449202408616e+02,9.446745872497558594e+00,-2.294756323099136353e-01,0.000000000000000000e+00,3.050000000000000000e+02
-5.381075941033977870e+02,-5.522375494998043450e+02,-2.953637168145145324e+02,-2.195305360549878060e+02,-5.298301633021869748e+02,-3.066452367557233174e+02,-2.614358041516312596e+02,-2.934443197175046407e+02,9.446745872497558594e+00,-2.294756323099136353e-01,0.000000000000000000e+00,3.060000000000000000e+02
-5.381182577145785899e+02,-5.519799679490539575e+02,-2.952793475818428988e+02,-2.198632612543868845e+02,-5.290062425273345070e+02,-3.032112404618337678e+02,-2.610676321549116210e+02,-2.928835049098219088e+02,9.446745872497558594e+00,-2.294756323099136353e-01,0.000000000000000000e+00,3.070000000000000000e+02
-5.365183023879001212e+02,-5.512067439877341712e+02,-2.943564509876057400e+02,-2.201894486075601662e+02,-5.279172074989226076e+02,-3.006693556467738517e+02,-2.603985066894910005e+02,-2.924608118961166383e+02,9.446745872497558594e+00,-2.294756323099136353e-01,0.000000000000000000e+00,3.080000000000000000e+02
-5.338002777841256830e+02,-5.499037927473915488e+02,-2.929921923098083880e+02,-2.199437187146108954e+02,-5.263514107846076513e+02,-2.992946779549948815e+02,-2.596094767093020437e+02,-2.918146560546691717e+02,9.446745872497558594e+00,-2.294756323099136353e-01,0.000000000000000000e+00,3.090000000000000000e+02
-5.307712782422520377e+02,-5.480963859915708554e+02,-2.918236981459368735e+02,-2.188100100416406804e+02,-5.246179168259029666e+02,-2.989296170057575637e+02,-2.590364252959891473e+02,-2.911021902797493794e+02,9.446745872497558594e+00,-2.294756323099136353e-01,0.000000000000000000e+00,3.100000000000000000e+02
-5.280599720643683668e+02,-5.460398015399741780e+02,-2.912541745449832433e+02,-2.168937474560240162e+02,-5.233428106572496290e+02,-2.990834164898859626e+02,-2.590554466964290441e+02,-2.910046944161376814e+02,9.446745872497558594e+00,-2.294756323099136353e-01,0.000000000000000000e+00,3.110000000000000000e+02
-5.259195244390821244e+02,-5.442039564420024362e+02,-2.911967572219604108e+02,-2.146370472468905746e+02,-5.229357706794276055e+02,-2.991480299902065099e+02,-2.598203013419004037e+02,-2.920273689194923463e+02,9.446745872497558594e+00,-2.294756323099136353e-01,0.000000000000000000e+00,3.120000000000000000e+02
-5.243358012855804873e+02,-5.429483791556598362e+02,-2.912112430864495991e+02,-2.125311979912989955e+02,-5.231473812020597052e+02,-2.986585079757835501e+02,-2.610194774590066800e+02,-2.937897651197203004e+02,9.523238182067871094e+00,-3.059675097465515137e-01,0.000000000000000000e+00,3.130000000000000000e+02
-5.231866306519284535e+02,-5.421625990927542489e+02,-2.908656575613788391e+02,-2.107989843031484725e+02,-5.230713484924242493e+02,-2.974733424578219001e+02,-2.619159445377975999e+02,-2.951054080105108142e+02,9.523238182067871094e+00,-3.059675097465515137e-01,0.000000000000000000e+00,3.140000000000000000e+02
-5.222508637586799978e+02,-5.412728957363166273e+02,-2.900017906716826701e+02,-2.092973143414805008e+02,-5.216458116302879944e+02,-2.957865646166794704e+02,-2.617697783408800660e+02,-2.949130418108233016e+02,9.523238182067871094e+00,-3.059675097465515137e-01,0.000000000000000000e+00,3.150000000000000000e+02
-5.211497890239543267e+02,-5.396837487552420498e+02,-2.887465005317798159e+02,-2.077590494584343332e+02,-5.183904251875335376e+02,-2.940152545567447078e+02,-2.604063027047965306e+02,-2.932754025531688171e+02,9.523238182067871094e+00,-3.059675097465515137e-01,0.000000000000000000e+00,3.160000000000000000e+02
-5.194363031242512534e+02,-5.372661632796172171e+02,-2.873662904424240878e+02,-2.061972967026047172e+02,-5.139134082482041777e+02,-2.926674052687229732e+02,-2.584731717573555443e+02,-2.915215413808138010e+02,9.523238182067871094e+00,-3.059675097465515137e-01,0.000000000000000000e+00,3.170000000000000000e+02
-5.168819586810084274e+02,-5.344350962691312361e+02,-2.861382255959562144e+02,-2.050711117821978178e+02,-5.097613922610019017e+02,-2.922208209844538942e+02,-2.570965573183277684e+02,-2.913343637330957563e+02,9.523238182067871094e+00,-3.059675097465515137e-01,0.000000000000000000e+00,3.180000000000000000e+02
-5.137533229735764735e+02,-5.317482801283296112e+02,-2.853066459824672165e+02,-2.049690072810537913e+02,-5.075330603765792148e+02,-2.929461630100863658e+02,-2.571095587437448557e+02,-2.934769633595014966e+02,9.523238182067871094e+00,-3.059675097465515137e-01,0.000000000000000000e+00,3.190000000000000000e+02
-5.108084380190221054e+02,-5.294154813690787478e+02,-2.850664916807878626e+02,-2.060279000672204575e+02,-5.077575298345805095e+02,-2.946734141854171867e+02,-2.584159525708405454e+02,-2.971391181781471005e+02,9.523238182067871094e+00,-3.059675097465515137e-01,0.000000000000000000e+00,3.200000000000000000e+02
-5.089270066549796638e+02,-5.271617131868018760e+02,-2.854966155351459065e+02,-2.076055531565928050e+02,-5.093849292639176838e+02,-2.966810050557028262e+02,-2.599817148366906849e+02,-3.003608714706858791e+02,9.523238182067871094e+00,-3.059675097465515137e-01,0.000000000000000000e+00,3.210000000000000000e+02
-5.085898087452244454e+02,-5.245223744094703306e+02,-2.864709139353418550e+02,-2.085602268360064500e+02,-5.104092338517723419e+02,-2.979307211163951479e+02,-2.604786098323777424e+02,-3.011943269873968347e+02,9.523238182067871094e+00,-3.059675097465515137e-01,0.000000000000000000e+00,3.220000000000000000e+02
-5.095424357676407681e+02,-5.212690930189507981e+02,-2.876360593808843760e+02,-2.079640090858295025e+02,-5.092515830774383403e+02,-2.976073768707960880e+02,-2.591075950832313310e+02,-2.988009927174780387e+02,9.523238182067871094e+00,-3.059675097465515137e-01,0.000000000000000000e+00,3.230000000000000000e+02
-5.108543585651877947e+02,-5.176179876069694501e+02,-2.884964540458879583e+02,-2.056702503929259365e+02,-5.058146177001492561e+02,-2.955770334952458143e+02,-2.560261781941943582e+02,-2.938163710759220066e+02,9.523238182067871094e+00,-3.059675097465515137e-01,0.000000000000000000e+00,3.240000000000000000e+02
-5.113390657124508607e+02,-5.141127298787353084e+02,-2.885669869117093640e+02,-2.023025067495701705e+02,-5.013369108209428759e+02,-2.923677253092110959e+02,-2.521508075589804321e+02,-2.878557265612951142e+02,9.523238182067871094e+00,-3.059675097465515137e-01,0.000000000000000000e+00,3.250000000000000000e+02
-5.101011429440668508e+02,-5.112997102273430983e+02,-2.875241289797415902e+02,-1.987470762165241922e+02,-4.972269547966122900e+02,-2.886767631732529935e+02,-2.485549317147165311e+02,-2.825407952798720999e+02,9.523238182067871094e+00,-3.059675097465515137e-01,0.000000000000000000e+00,3.260000000000000000e+02
-5.069376974434615022e+02,-5.093979024208626925e+02,-2.853351556937516307e+02,-1.956257751252892376e+02,-4.939747923669374359e+02,-2.848737308053962352e+02,-2.459162979266041020e+02,-2.786996296018648991e+02,9.523238182067871094e+00,-3.059675097465515137e-01,0.000000000000000000e+00,3.270000000000000000e+02
-5.024117261690334999e+02,-5.081282418494083686e+02,-2.823474078656635129e+02,-1.931432629321976719e+02,-4.911014677538748856e+02,-2.809713751933240928e+02,-2.443329166242816655e+02,-2.762381070804374303e+02,9.523238182067871094e+00,-3.059675097465515137e-01,0.000000000000000000e+00,3.280000000000000000e+02
-4.975634413489900680e+02,-5.068030338601569156e+02,-2.792547620424073784e+02,-1.912918955256661775e+02,-4.880448615511127173e+02,-2.770294674819406282e+02,-2.435013930320916415e+02,-2.746768597069794851e+02,9.523238182067871094e+00,-3.059675097465515137e-01,0.000000000000000000e+00,3.290000000000000000e+02
-4.933976670748942297e+02,-5.047163561848129802e+02,-2.768589886531692628e+02,-1.901034213146105003e+02,-4.849681748014508003e+02,-2.734893605464683333e+02,-2.430327519195074046e+02,-2.738226061786867831e+02,9.523238182067871094e+00,-3.059675097465515137e-01,0.000000000000000000e+00,3.300000000000000000e+02
-4.904255244394214515e+02,-5.016656988085472904e+02,-2.756754228732738738e+02,-1.896874773879271743e+02,-4.826514280645658346e+02,-2.710052138305525204e+02,-2.426652859346000923e+02,-2.738984590579104861e+02,9.523238182067871094e+00,-3.059675097465515137e-01,0.000000000000000000e+00,3.310000000000000000e+02
-4.885207961843636895e+02,-4.982192327785922998e+02,-2.756144820653796614e+02,-1.900691149350574278e+02,-4.816256194659574703e+02,-2.698823178791787996e+02,-2.422820077093791724e+02,-2.749547978804735067e+02,9.523238182067871094e+00,-3.059675097465515137e-01,0.000000000000000000e+00,3.320000000000000000e+02
-4.871396886387987024e+02,-4.953988260021957331e+02,-2.760047549053480225e+02,-1.910348851880751226e+02,-4.814899127629562372e+02,-2.696998253509343613e+02,-2.418121533255713302e+02,-2.761918316416453081e+02,9.523238182067871094e+00,-3.059675097465515137e-01,0.000000000000000000e+00,3.330000000000000000e+02
-4.857045431510158551e+02,-4.938739683858386798e+02,-2.759960562266213628e+02,-1.921487006957379435e+02,-4.811151129601091725e+02,-2.695461054149648135e+02,-2.411624315421807978e+02,-2.761138647738949885e+02,9.523238182067871094e+00,-3.059675097465515137e-01,0.000000000000000000e+00,3.340000000000000000e+02
-4.838754858334739311e+02,-4.932672437215326227e+02,-2.750715180935153512e+02,-1.929264401164859919e+02,-4.795143953752019570e+02,-2.686922439786646919e+02,-2.402550344618381359e+02,-2.737481669993245532e+02,9.523238182067871094e+00,-3.059675097465515137e-01,0.000000000000000000e+00,3.350000000000000000e+02
-4.815771441505785333e+02,-4.922184411510028212e+02,-2.732897764063902741e+02,-1.930319355324371600e+02,-4.765479272569830300e+02,-2.670880319929101461e+02,-2.391237260658970172e+02,-2.699956601500988427e+02,9.523238182067871094e+00,-3.059675097465515137e-01,0.000000000000000000e+00,3.360000000000000000e+02
-4.788652225044819488e+02,-4.893100336598964759e+02,-2.711027237423543284e+02,-1.923669610321278469e+02,-4.728761673266635626e+02,-2.652178718588870652e+02,-2.379458417155234429e+02,-2.676805657419338331e+02,9.523238182067871094e+00,-3.059675097465515137e-01,0.000000000000000000e+00,3.370000000000000000e+02
-4.758200463174871402e+02,-4.841876959845258170e+02,-2.689722614647832870e+02,-1.910342748181085426e+02,-4.693546225097592242e+02,-2.634879104556328002e+02,-2.369544260849114607e+02,-2.697984051732872786e+02,9.523238182067871094e+00,-3.442134261131286621e-01,-3.824593871831893921e-02,3.380000000000000000e+02
-4.725487791357702463e+02,-4.779527423703666500e+02,-2.671270574059601586e+02,-1.892333476105503678e+02,-4.664922704589612295e+02,-2.617492517604630393e+02,-2.362923741566535227e+02,-2.771216002389580808e+02,9.523238182067871094e+00,-3.442134261131286621e-01,-3.824593871831893921e-02,3.390000000000000000e+02
-4.692329895419495642e+02,-4.724417125840889184e+02,-2.656069895397710070e+02,-1.871710566661336088e+02,-4.643532146053432825e+02,-2.594215790188864048e+02,-2.359335532295667690e+02,-2.871493952336152233e+02,9.523238182067871094e+00,-3.442134261131286621e-01,-3.824593871831893921e-02,3.400000000000000000e+02
-4.661351646388966401e+02,-4.689209578566214986e+02,-2.644465078332827943e+02,-1.850265810297946700e+02,-4.627598933263661820e+02,-2.561074195158687417e+02,-2.357284042884726887e+02,-2.954555566370008819e+02,9.523238182067871094e+00,-3.442134261131286621e-01,-3.824593871831893921e-02,3.410000000000000000e+02
-4.635483842515704964e+02,-4.672298550424238783e+02,-2.637555486065542709e+02,-1.829395381875870044e+02,-4.614516816623295199e+02,-2.521036863386552795e+02,-2.354850842161908986e+02,-2.985114042781755188e+02,9.523238182067871094e+00,-3.442134261131286621e-01,-3.824593871831893921e-02,3.420000000000000000e+02
-4.617404763335956659e+02,-4.660352547818532685e+02,-2.636343214696399855e+02,-1.809610295116731322e+02,-4.600933086907989491e+02,-2.482942255835773722e+02,-2.349825875302927898e+02,-2.957853804839970735e+02,9.523238182067871094e+00,-3.442134261131286621e-01,-3.824593871831893921e-02,3.430000000000000000e+02
-4.608949746554142166e+02,-4.639320314505595206e+02,-2.640420221942730450e+02,-1.789781878880996828e+02,-4.583077368066985855e+02,-2.454803144246259308e+02,-2.339399341445345044e+02,-2.895802429576266377e+02,9.523238182067871094e+00,-3.442134261131286621e-01,-3.824593871831893921e-02,3.440000000000000000e+02
-4.609945056677115645e+02,-4.604604959683838388e+02,-2.647621823079382466e+02,-1.767298997444918314e+02,-4.558864511165513704e+02,-2.437518352757592766e+02,-2.320923493895230649e+02,-2.830205817336405971e+02,9.523238182067871094e+00,-3.442134261131286621e-01,-3.824593871831893921e-02,3.450000000000000000e+02
-4.616423417279238492e+02,-4.562674958199647790e+02,-2.654620883308303974e+02,-1.740195936018667453e+02,-4.530136542512113920e+02,-2.424845234004710619e+02,-2.294529570074753337e+02,-2.780207004429723838e+02,9.523238182067871094e+00,-3.442134261131286621e-01,-3.824593871831893921e-02,3.460000000000000000e+02
-4.619806922001225757e+02,-4.524211333320546373e+02,-2.657458301279978059e+02,-1.710368723976268939e+02,-4.501963355152702206e+02,-2.409688946606693207e+02,-2.265618644495846183e+02,-2.747440241273421861e+02,9.523238182067871094e+00,-3.442134261131286621e-01,-3.824593871831893921e-02,3.470000000000000000e+02
-4.609253382950744253e+02,-4.495680746947703028e+02,-2.651739154202373356e+02,-1.684830847910475313e+02,-4.478340166344560203e+02,-2.390756775866725548e+02,-2.243633701679809747e+02,-2.724835333170694867e+02,9.523238182067871094e+00,-3.442134261131286621e-01,-3.824593871831893921e-02,3.480000000000000000e+02
-4.577276281941688012e+02,-4.476194424661252924e+02,-2.633544026141152017e+02,-1.672355506722578866e+02,-4.457586116625398063e+02,-2.373332907084941326e+02,-2.236067162042768359e+02,-2.707024578056115161e+02,9.523238182067871094e+00,-3.442134261131286621e-01,-3.824593871831893921e-02,3.490000000000000000e+02
-4.525391893431799417e+02,-4.460630269305659112e+02,-2.601712827537012345e+02,-1.676584875520225069e+02,-4.432132942047092001e+02,-2.363574414997037820e+02,-2.241514419129202906e+02,-2.692120299728538839e+02,9.523238182067871094e+00,-3.442134261131286621e-01,-3.824593871831893921e-02,3.500000000000000000e+02
-4.465069044942538312e+02,-4.444432663171226068e+02,-2.560153303145129939e+02,-1.690997974075251022e+02,-4.394032889797717871e+02,-2.361964998228768309e+02,-2.248183148531320512e+02,-2.676729315279267212e+02,9.523238182067871094e+00,-3.442134261131286621e-01,-3.824593871831893921e-02,3.510000000000000000e+02
-4.411981221427017772e+02,-4.425284344668275480e+02,-2.517614233416577463e+02,-1.701018855130346310e+02,-4.342041420008845307e+02,-2.362312699845856514e+02,-2.240887697657960871e+02,-2.653536511613660878e+02,9.523238182067871094e+00,-3.442134261131286621e-01,-3.824593871831893921e-02,3.520000000000000000e+02
-4.376904368399041232e+02,-4.401332442513451042e+02,-2.483846012785124913e+02,-1.693151234143938382e+02,-4.284184855015605535e+02,-2.356949087788002544e+02,-2.212164065350207238e+02,-2.616598121560932668e+02,9.523238182067871094e+00,-3.442134261131286621e-01,-3.824593871831893921e-02,3.530000000000000000e+02
-4.359650237886501145e+02,-4.369695424881651888e+02,-2.464261915963884348e+02,-1.664508490537600665e+02,-4.233175671074029651e+02,-2.342794220893001693e+02,-2.168560046946695365e+02,-2.569168321666752490e+02,9.523238182067871094e+00,-3.442134261131286621e-01,-3.824593871831893921e-02,3.540000000000000000e+02
-4.350297923158914273e+02,-4.328215468773171324e+02,-2.457020708676654976e+02,-1.624846267062762308e+02,-4.198143445239622906e+02,-2.322694210339470828e+02,-2.126379491802460961e+02,-2.524645261224791284e+02,9.523238182067871094e+00,-3.442134261131286621e-01,-3.824593871831893921e-02,3.550000000000000000e+02
-4.336543656861344971e+02,-4.279145507159173576e+02,-2.454920976906748820e+02,-1.589312059653811957e+02,-4.179429757267594141e+02,-2.301776453552743078e+02,-2.100254744968276555e+02,-2.498039613607656975e+02,9.523238182067871094e+00,-3.442134261131286621e-01,-3.824593871831893921e-02,3.560000000000000000e+02
-4.311406583439538736e+02,-4.230601547101446158e+02,-2.450539864716270131e+02,-1.567852695535639214e+02,-4.170155059968117257e+02,-2.283276779219725086e+02,-2.093998691622518891e+02,-2.495218323485544261e+02,9.523238182067871094e+00,-3.442134261131286621e-01,-3.824593871831893921e-02,3.570000000000000000e+02
-4.276016067391133220e+02,-4.193216383000910810e+02,-2.440649016165223202e+02,-1.559993421252127064e+02,-4.162381263360257435e+02,-2.267737964059767819e+02,-2.100698221758630098e+02,-2.509645196417095576e+02,9.523238182067871094e+00,-3.442134261131286621e-01,-3.824593871831893921e-02,3.580000000000000000e+02
-4.236785828725780902e+02,-4.173942181594002250e+02,-2.426920848103909520e+02,-1.558574974383891458e+02,-4.152102219391640574e+02,-2.254902370598142625e+02,-2.110465876802272760e+02,-2.528746699318589890e+02,9.523238182067871094e+00,-3.442134261131286621e-01,-3.824593871831893921e-02,3.590000000000000000e+02
-4.200389424601009978e+02,-4.171674262285969235e+02,-2.413064772639868352e+02,-1.557784984020122465e+02,-4.139021877261443478e+02,-2.244661267413152927e+02,-2.117644369091772205e+02,-2.542664906581831019e+02,9.523238182067871094e+00,-3.442134261131286621e-01,-3.824593871831893921e-02,3.600000000000000000e+02
-4.170407882291603983e+02,-4.177828656721662810e+02,-2.401223800128591392e+02,-1.557560083229211614e+02,-4.122558729731890708e+02,-2.235409577216043999e+02,-2.121106131433268729e+02,-2.547134938168428562e+02,9.523238182067871094e+00,-3.442134261131286621e-01,-3.824593871831893921e-02,3.610000000000000000e+02
-4.146928052143787227e+02,-4.181069607162041848e+02,-2.390481891067743163e+02,-1.560696297413164757e+02,-4.099269212194255942e+02,-2.222380838716342168e+02,-2.119313251766880057e+02,-2.540124327141224967e+02,9.523238182067871094e+00,-3.442134261131286621e-01,-3.824593871831893921e-02,3.620000000000000000e+02
-4.127777639953928883e+02,-4.172543580759702309e+02,-2.378149349962036467e+02,-1.566415080473773287e+02,-4.065115920572270625e+02,-2.199477737205843368e+02,-2.107353346577128832e+02,-2.518938665854082046e+02,9.523238182067871094e+00,-3.442134261131286621e-01,-3.824593871831893921e-02,3.630000000000000000e+02
-4.109704703858922130e+02,-4.148540512657571071e+02,-2.362316866408100395e+02,-1.567548887224520513e+02,-4.020789983706376916e+02,-2.164324238494455130e+02,-2.080466470521982956e+02,-2.483006102144818215e+02,9.523238182067871094e+00,-3.442134261131286621e-01,-3.824593871831893921e-02,3.640000000000000000e+02
-4.089239014343918370e+02,-4.110102565888191748e+02,-2.343609879136351992e+02,-1.554713236034001511e+02,-3.974600461011295920e+02,-2.122095103347332952e+02,-2.040758443195491054e+02,-2.439348761283083604e+02,9.484992027282714844e+00,-2.677215635776519775e-01,0.000000000000000000e+00,3.650000000000000000e+02
-4.063779810825981258e+02,-4.061119350393310015e+02,-2.324979344337189104e+02,-1.523965152996825054e+02,-3.938966356714236099e+02,-2.083930513523548598e+02,-1.999326182968616195e+02,-2.402609326463420985e+02,9.484992027282714844e+00,-2.677215635776519775e-01,0.000000000000000000e+00,3.660000000000000000e+02
-4.032920803493889252e+02,-4.006622299817690873e+02,-2.309847805977196913e+02,-1.481079568956431558e+02,-3.922083636670213309e+02,-2.060288433633352270e+02,-1.969921062242906373e+02,-2.386194446539909677e+02,9.484992027282714844e+00,-2.677215635776519775e-01,0.000000000000000000e+00,3.670000000000000000e+02
-3.999054307806918587e+02,-3.951935169526225309e+02,-2.299734928622565349e+02,-1.438489922271871819e+02,-3.921107281931117541e+02,-2.054105463130290445e+02,-1.958801926590037965e+02,-2.390993410526907610e+02,9.484992027282714844e+00,-2.677215635776519775e-01,0.000000000000000000e+00,3.680000000000000000e+02
-3.966342596755896466e+02,-3.902138061071329957e+02,-2.292724258486516646e+02,-1.407351088246032305e+02,-3.922612757172280453e+02,-2.058845972763770078e+02,-1.959826714841576631e+02,-2.402435094224392742e+02,9.484992027282714844e+00,-2.677215635776519775e-01,0.000000000000000000e+00,3.690000000000000000e+02
-3.938494776445309071e+02,-3.861065237435075232e+02,-2.283788189613899249e+02,-1.391028331661332231e+02,-3.910657072956826141e+02,-2.062633355816824405e+02,-1.959396199690936555e+02,-2.399938744015983048e+02,9.484992027282714844e+00,-2.677215635776519775e-01,0.000000000000000000e+00,3.700000000000000000e+02
-3.916712191323852039e+02,-3.829752413668784357e+02,-2.267116738524960056e+02,-1.384417777704056789e+02,-3.876710545105408983e+02,-2.055215154186416839e+02,-1.946903117250844844e+02,-2.371224004873151898e+02,9.484992027282714844e+00,-2.677215635776519775e-01,0.000000000000000000e+00,3.710000000000000000e+02
-3.898990598763475646e+02,-3.805236718840114918e+02,-2.239430633068113821e+02,-1.378485342024659985e+02,-3.824087863042109348e+02,-2.032908945459475945e+02,-1.921669539027061546e+02,-2.319261424081114455e+02,9.484992027282714844e+00,-2.677215635776519775e-01,0.000000000000000000e+00,3.720000000000000000e+02
-3.881105467312493147e+02,-3.781055417150562334e+02,-2.202282223141585291e+02,-1.365806161460011481e+02,-3.763873469659035891e+02,-1.998863832158594960e+02,-1.891064972028650573e+02,-2.256861352391692890e+02,9.484992027282714844e+00,-2.677215635776519775e-01,0.000000000000000000e+00,3.730000000000000000e+02
-3.858605341368511290e+02,-3.750142070495037387e+02,-2.161567728015725152e+02,-1.343585089486923607e+02,-3.706320473139767273e+02,-1.959647733477786460e+02,-1.862741155281896681e+02,-2.195487441126658723e+02,9.484992027282714844e+00,-2.677215635776519775e-01,0.000000000000000000e+00,3.740000000000000000e+02
-3.828839918511571341e+02,-3.708959713333956643e+02,-2.124236918724295720e+02,-1.313708579986659970e+02,-3.655159850257196013e+02,-1.921482065747823071e+02,-1.838732493639452059e+02,-2.139300310048733991e+02,9.484992027282714844e+00,-2.677215635776519775e-01,0.000000000000000000e+00,3.750000000000000000e+02
-3.792195538943187785e+02,-3.660143611267467350e+02,-2.094479752658742200e+02,-1.281439223668651266e+02,-3.609157723125165376e+02,-1.888939919467220534e+02,-1.816322037786121655e+02,-2.088688767017233658e+02,9.484992027282714844e+00,-2.677215635776519775e-01,0.000000000000000000e+00,3.760000000000000000e+02
-3.751958620979980878e+02,-3.611260291386881818e+02,-2.072417987665935470e+02,-1.253875208237102470e+02,-3.568332620155563291e+02,-1.866100671334193066e+02,-1.793569616238951312e+02,-2.047392549879893977e+02,9.484992027282714844e+00,-2.677215635776519775e-01,0.000000000000000000e+00,3.770000000000000000e+02
-3.712630062191406068e+02,-3.570009908217150496e+02,-2.056101072825379106e+02,-1.237791857090496705e+02,-3.537626662546731495e+02,-1.857314309310795579e+02,-1.773129910387679047e+02,-2.023918577304730206e+02,9.484992027282714844e+00,-2.677215635776519775e-01,0.000000000000000000e+00,3.780000000000000000e+02
-3.677526058519454182e+02,-3.539318955086528149e+02,-2.044633269793034742e+02,-1.236499843815472559e+02,-3.523493087815525087e+02,-1.865156826875631850e+02,-1.760336560861139787e+02,-2.024742627011103195e+02,9.484992027282714844e+00,-2.677215635776519775e-01,0.000000000000000000e+00,3.790000000000000000e+02
-3.647406249265006863e+02,-3.516223791833408541e+02,-2.039071352489747824e+02,-1.247114372703786103e+02,-3.526333932035292946e+02,-1.886558246652775779e+02,-1.757562114653710523e+02,-2.045977900357443104e+02,9.484992027282714844e+00,-2.677215635776519775e-01,0.000000000000000000e+00,3.800000000000000000e+02
-3.621281286205112337e+02,-3.495395296341248468e+02,-2.039892001304008318e+02,-1.260692677498273042e+02,-3.536335974901480768e+02,-1.911212357355179847e+02,-1.760517048851288564e+02,-2.072192465394239207e+02,9.484992027282714844e+00,-2.677215635776519775e-01,0.000000000000000000e+00,3.810000000000000000e+02
-3.598418493240271800e+02,-3.473997457933503483e+02,-2.043654678888326544e+02,-1.266158565720766092e+02,-3.537679577491549026e+02,-1.925465673339176647e+02,-1.760141640177866975e+02,-2.084482903096723021e+02,9.484992027282714844e+00,-2.677215635776519775e-01,0.000000000000000000e+00,3.820000000000000000e+02
-3.579161107215347783e+02,-3.453240796584202599e+02,-2.042938063879478250e+02,-1.255776926098628792e+02,-3.518352385982939268e+02,-1.919956601106573544e+02,-1.748505329324270861e+02,-2.071502040966270215e+02,9.484992027282714844e+00,-2.677215635776519775e-01,0.000000000000000000e+00,3.830000000000000000e+02
-3.563310416452470690e+02,-3.435131283440168772e+02,-2.030912716948653269e+02,-1.228590484425617433e+02,-3.477776095106044068e+02,-1.895120155842196255e+02,-1.723747702455252693e+02,-2.035202287054166845e+02,9.484992027282714844e+00,-2.677215635776519775e-01,0.000000000000000000e+00,3.840000000000000000e+02
-3.547675654492518333e+02,-3.417699139763662970e+02,-2.007059434177119783e+02,-1.189895177510798021e+02,-3.426609357773970714e+02,-1.859890704039053162e+02,-1.690273489639448599e+02,-1.988063982782714447e+02,9.484992027282714844e+00,-2.677215635776519775e-01,0.000000000000000000e+00,3.850000000000000000e+02
-3.526130477584647451e+02,-3.394023016596570415e+02,-1.978730174050829191e+02,-1.147910695225268682e+02,-3.379867812306963515e+02,-1.824940439933525340e+02,-1.654821463392838723e+02,-1.945297187409814796e+02,9.484992027282714844e+00,-2.677215635776519775e-01,0.000000000000000000e+00,3.860000000000000000e+02
-3.493606102427606857e+02,-3.357130433745121536e+02,-1.956420974673217188e+02,-1.110360556804293992e+02,-3.349021389350846221e+02,-1.796688721797208927e+02,-1.622395278382484776e+02,-1.917817054093211482e+02,9.484992027282714844e+00,-2.677215635776519775e-01,0.000000000000000000e+00,3.870000000000000000e+02
-3.451196917316017334e+02,-3.307114989795009024e+02,-1.946243035028176109e+02,-1.082534505021794757e+02,-3.337718729588239057e+02,-1.776742219155016755e+02,-1.595324500925507891e+02,-1.909089047393208602e+02,9.484992027282714844e+00,-2.677215635776519775e-01,0.000000000000000000e+00,3.880000000000000000e+02
-3.407425984450981105e+02,-3.253741674313303065e+02,-1.945872725505550989e+02,-1.066517804681743655e+02,-3.341584016586641610e+02,-1.765241589357019620e+02,-1.575134962892561816e+02,-1.915312125300151820e+02,9.484992027282714844e+00,-2.677215635776519775e-01,0.000000000000000000e+00,3.890000000000000000e+02
-3.373387765798609053e+02,-3.210941156203234641e+02,-1.947186671670128817e+02,-1.060767797907301428e+02,-3.350300844268112996e+02,-1.762748106836265833e+02,-1.563928246498662702e+02,-1.927258907182904295e+02,9.484992027282714844e+00,-2.677215635776519775e-01,0.000000000000000000e+00,3.900000000000000000e+02
-3.355056356297932325e+02,-3.186740290144125538e+02,-1.942833418719194469e+02,-1.060476810948712227e+02,-3.351153970099994694e+02,-1.768108876043861528e+02,-1.562785897517051126e+02,-1.933289264848333460e+02,9.484992027282714844e+00,-2.677215635776519775e-01,0.000000000000000000e+00,3.910000000000000000e+02
-3.349058360040467051e+02,-3.176859900423703493e+02,-1.930860077649222148e+02,-1.059597754412784525e+02,-3.333959362408068046e+02,-1.775347478536755261e+02,-1.568406601714973476e+02,-1.923504631390769646e+02,9.484992027282714844e+00,-2.677215635776519775e-01,0.000000000000000000e+00,3.920000000000000000e+02
-3.345482867412790711e+02,-3.167675011625583466e+02,-1.913807725241174467e+02,-1.053977190069072094e+02,-3.295809363031744397e+02,-1.774725180633627133e+02,-1.572014862096373236e+02,-1.893764722695398177e+02,9.484992027282714844e+00,-2.677215635776519775e-01,0.000000000000000000e+00,3.930000000000000000e+02
-3.335024663106196385e+02,-3.146513209037891556e+02,-1.894073879325053440e+02,-1.043303762939322041e+02,-3.242335769138790056e+02,-1.758737369143882461e+02,-1.563305576917364306e+02,-1.847286829048050549e+02,9.484992027282714844e+00,-2.677215635776519775e-01,0.000000000000000000e+00,3.940000000000000000e+02
-3.314121239906401115e+02,-3.110920944505051011e+02,-1.870510183823621446e+02,-1.030074671719389698e+02,-3.183657984313440465e+02,-1.727874128758326151e+02,-1.537566223826102032e+02,-1.792589686262904252e+02,9.484992027282714844e+00,-2.677215635776519775e-01,0.000000000000000000e+00,3.950000000000000000e+02
-3.284206037599942647e+02,-3.069520788265388092e+02,-1.839553800628441422e+02,-1.016517154174912321e+02,-3.127779176884364460e+02,-1.690342147507485606e+02,-1.500306356223234161e+02,-1.739224161131371602e+02,9.523238182067871094e+00,-2.677215635776519775e-01,0.000000000000000000e+00,3.960000000000000000e+02
-3.247153610865707378e+02,-3.034386242333205246e+02,-1.799513474677985414e+02,-1.002457326880726214e+02,-3.076917529396459940e+02,-1.655688617199289183e+02,-1.464907055904266144e+02,-1.694338565111952448e+02,9.523238182067871094e+00,-2.677215635776519775e-01,0.000000000000000000e+00,3.970000000000000000e+02
-3.202459706519402971e+02,-3.012043432931297957e+02,-1.753754304137892177e+02,-9.862559849309491256e+01,-3.029571573114581042e+02,-1.628191135444349129e+02,-1.444161458020068949e+02,-1.661801601655124614e+02,9.523238182067871094e+00,-2.677215635776519775e-01,0.000000000000000000e+00,3.980000000000000000e+02
-3.149314351201965110e+02,-3.000488949806715482e+02,-1.709652640446654459e+02,-9.678142470301554567e+01,-2.985342584184954831e+02,-1.605870277070516750e+02,-1.441850104978720992e+02,-1.642907640687662933e+02,9.523238182067871094e+00,-2.677215635776519775e-01,0.000000000000000000e+00,3.990000000000000000e+02
-3.091164967836843971e+02,-2.993116555444830738e+02,-1.674128494632523143e+02,-9.503195602199366476e+01,-2.946911821878920819e+02,-1.585206838122303452e+02,-1.450640167106298577e+02,-1.636552808008955253e+02,9.523238182067871094e+00,-2.677215635776519775e-01,0.000000000000000000e+00,4.000000000000000000e+02
-3.037263602307843939e+02,-2.984249632649689374e+02,-1.649527080083971669e+02,-9.386178532397707386e+01,-2.917156810693686566e+02,-1.566153916497087266e+02,-1.457489551182261494e+02,-1.638503445374283274e+02,9.523238182067871094e+00,-2.677215635776519775e-01,0.000000000000000000e+00,4.010000000000000000e+02
-2.998434773708845569e+02,-2.970924675056987780e+02,-1.633097928298525403e+02,-9.354339462790903781e+01,-2.895254828065685615e+02,-1.552335423240047021e+02,-1.452056454899934579e+02,-1.641854350787314161e+02,9.523238182067871094e+00,-2.677215635776519775e-01,0.000000000000000000e+00,4.020000000000000000e+02
-2.979929805826400298e+02,-2.950744435641713608e+02,-1.620010522300542561e+02,-9.386445320698931027e+01,-2.876778613971450795e+02,-1.546619899459824410e+02,-1.432124230798490316e+02,-1.640223780101669036e+02,9.523238182067871094e+00,-2.677215635776519775e-01,0.000000000000000000e+00,4.030000000000000000e+02
-2.977200964315602505e+02,-2.920245892158636707e+02,-1.606940783964521415e+02,-9.418370348243161061e+01,-2.858005386805980379e+02,-1.546992867569115333e+02,-1.403234914649287930e+02,-1.632043385764011418e+02,9.523238182067871094e+00,-2.677215635776519775e-01,0.000000000000000000e+00,4.040000000000000000e+02
-2.978071626988003118e+02,-2.877038638332958271e+02,-1.593280288673968244e+02,-9.376753139155289318e+01,-2.839531583595721713e+02,-1.547266153512023266e+02,-1.374272284456119451e+02,-1.622093160063270716e+02,9.523238182067871094e+00,-2.677215635776519775e-01,0.000000000000000000e+00,4.050000000000000000e+02
-2.969740809585800889e+02,-2.823824683726368221e+02,-1.579720373686050152e+02,-9.217793207224167418e+01,-2.824865000468003018e+02,-1.542122388344100727e+02,-1.352702906205095132e+02,-1.617929642524381961e+02,9.523238182067871094e+00,-2.677215635776519775e-01,0.000000000000000000e+00,4.060000000000000000e+02
-2.945686804152501281e+02,-2.769433057853320861e+02,-1.566477049642298880e+02,-8.950247752624136410e+01,-2.815437936025969066e+02,-1.531543637982422297e+02,-1.341736280243862893e+02,-1.623529375833202266e+02,9.523238182067871094e+00,-2.677215635776519775e-01,0.000000000000000000e+00,4.070000000000000000e+02
-2.908441650205245423e+02,-2.724492678955166411e+02,-1.553426466515225002e+02,-8.633702441414743589e+01,-2.807850414880062999e+02,-1.520207165308361255e+02,-1.339647276325899838e+02,-1.635553751594504774e+02,9.523238182067871094e+00,-2.677215635776519775e-01,0.000000000000000000e+00,4.080000000000000000e+02
-2.867402617193815786e+02,-2.694714983115582072e+02,-1.541685466447736417e+02,-8.353094984883500729e+01,-2.796838301710149608e+02,-1.512397522116589244e+02,-1.340718144065185697e+02,-1.645590830299906884e+02,9.523238182067871094e+00,-2.677215635776519775e-01,0.000000000000000000e+00,4.090000000000000000e+02
-2.833487329563286039e+02,-2.677153562524345034e+02,-1.533950221719710498e+02,-8.176407840894398760e+01,-2.780844297581438695e+02,-1.507342022205184549e+02,-1.337514894060500410e+02,-1.646208569200571219e+02,9.523238182067871094e+00,-2.677215635776519775e-01,0.000000000000000000e+00,4.100000000000000000e+02
-2.813488179337482507e+02,-2.662373302601840805e+02,-1.532089229910525319e+02,-8.114153954839230209e+01,-2.763767719254838084e+02,-1.499662516777566452e+02,-1.324251661908374444e+02,-1.635379271240994967e+02,9.523238182067871094e+00,-2.677215635776519775e-01,0.000000000000000000e+00,4.110000000000000000e+02
-2.806622376786704081e+02,-2.640565864572272403e+02,-1.533741761224587208e+02,-8.107425529643978734e+01,-2.750262466103540646e+02,-1.484509997092072808e+02,-1.299988920342598249e+02,-1.615936759346104736e+02,9.523238182067871094e+00,-2.677215635776519775e-01,0.000000000000000000e+00,4.120000000000000000e+02
-2.805014874927792334e+02,-2.607065359648518097e+02,-1.531795298711290343e+02,-8.061878978158119935e+01,-2.739066637815531067e+02,-1.462152449969889858e+02,-1.269686947724489983e+02,-1.591928884255621597e+02,9.523238182067871094e+00,-2.677215635776519775e-01,0.000000000000000000e+00,4.130000000000000000e+02
-2.798199425540624361e+02,-2.564200442731162184e+02,-1.518582390005990419e+02,-7.913213838507454057e+01,-2.721696368712973708e+02,-1.437292279966804927e+02,-1.242041359841077792e+02,-1.566357040925913680e+02,9.523238182067871094e+00,-2.677215635776519775e-01,0.000000000000000000e+00,4.140000000000000000e+02
-2.779332062737275919e+02,-2.519292588909547703e+02,-1.491836032067672022e+02,-7.677372007194753678e+01,-2.688958740263151412e+02,-1.413765145262077567e+02,-1.224950201807259873e+02,-1.542021362702503211e+02,9.523238182067871094e+00,-2.677215635776519775e-01,0.000000000000000000e+00,4.150000000000000000e+02
-2.749084564908966968e+02,-2.480513426560851258e+02,-1.456965888188019562e+02,-7.440985539476741906e+01,-2.639711752510688711e+02,-1.390299531723348991e+02,-1.221160795145829070e+02,-1.522811059044106514e+02,9.523238182067871094e+00,-2.677215635776519775e-01,0.000000000000000000e+00,4.160000000000000000e+02
-2.714211459800617376e+02,-2.452722470271287420e+02,-1.423222344098403482e+02,-7.292936709358536973e+01,-2.583530750164431993e+02,-1.362182784004553469e+02,-1.226546742600348807e+02,-1.512125092243013569e+02,9.523238182067871094e+00,-3.059675097465515137e-01,0.000000000000000000e+00,4.170000000000000000e+02
-2.681880014455482524e+02,-2.435004397681950650e+02,-1.397120490030652036e+02,-7.249166699437137140e+01,-2.534275951752379115e+02,-1.327313889997053593e+02,-1.232082456314283263e+02,-1.509078736173159996e+02,9.523238182067871094e+00,-3.059675097465515137e-01,0.000000000000000000e+00,4.180000000000000000e+02
-2.654480476006870049e+02,-2.421171444883398181e+02,-1.379072465016502065e+02,-7.233770786035802303e+01,-2.500036319856853879e+02,-1.290109897054021530e+02,-1.228535825077724439e+02,-1.506986042981411629e+02,9.523238182067871094e+00,-3.059675097465515137e-01,0.000000000000000000e+00,4.190000000000000000e+02
-2.629265767141437209e+02,-2.403181184681970990e+02,-1.365737824162047218e+02,-7.135340623603042332e+01,-2.478279770819544865e+02,-1.258593960075795621e+02,-1.211402336214937350e+02,-1.497351429676941734e+02,9.523238182067871094e+00,-3.059675097465515137e-01,0.000000000000000000e+00,4.200000000000000000e+02
-2.602585493519932243e+02,-2.375638217955356595e+02,-1.354830134015078329e+02,-6.893742413756854148e+01,-2.460047718815762892e+02,-1.237135174959826145e+02,-1.183292160970177065e+02,-1.476824223738417459e+02,9.523238182067871094e+00,-3.059675097465515137e-01,0.000000000000000000e+00,4.210000000000000000e+02
-2.574084313055100210e+02,-2.338586941284756904e+02,-1.346966009608781860e+02,-6.546769293686202218e+01,-2.438651312857095945e+02,-1.222278268918803406e+02,-1.152102131975584598e+02,-1.450682998719362331e+02,9.523238182067871094e+00,-3.059675097465515137e-01,0.000000000000000000e+00,4.220000000000000000e+02
-2.546551948555875242e+02,-2.296920166540267019e+02,-1.342736305714988703e+02,-6.201331599007016848e+01,-2.414603449614637611e+02,-1.206043001234911571e+02,-1.125626652621413086e+02,-1.428835658292682638e+02,9.523238182067871094e+00,-3.059675097465515137e-01,0.000000000000000000e+00,4.230000000000000000e+02
-2.522036647383451964e+02,-2.257194739940946420e+02,-1.338837314379798045e+02,-5.958028847444529674e+01,-2.392699510385104986e+02,-1.183453493660113054e+02,-1.106052917377119229e+02,-1.417307560142508009e+02,9.523238182067871094e+00,-3.059675097465515137e-01,0.000000000000000000e+00,4.240000000000000000e+02
-2.498842486241665029e+02,-2.224445166415830499e+02,-1.328167703318772510e+02,-5.852417692460494436e+01,-2.374842315048726960e+02,-1.156697294719738238e+02,-1.088478137111578690e+02,-1.412739014937378670e+02,9.523238182067871094e+00,-3.059675097465515137e-01,0.000000000000000000e+00,4.250000000000000000e+02
-2.472912991596986103e+02,-2.200988670207252653e+02,-1.304520891263409794e+02,-5.854510421267377751e+01,-2.355975556280873207e+02,-1.131998415027842384e+02,-1.065057127334507641e+02,-1.404879700469341515e+02,9.523238182067871094e+00,-3.059675097465515137e-01,0.000000000000000000e+00,4.260000000000000000e+02
-2.442151891783905739e+02,-2.187068560515149329e+02,-1.267683731846532282e+02,-5.913083634187432835e+01,-2.327103822089807181e+02,-1.112929084284232886e+02,-1.032105666126167307e+02,-1.384909497680155255e+02,9.523238182067871094e+00,-3.059675097465515137e-01,0.000000000000000000e+00,4.270000000000000000e+02
-2.408811286188911254e+02,-2.181596426587134374e+02,-1.224285631977290905e+02,-5.996685611436669205e+01,-2.282598753430565921e+02,-1.097268338775384109e+02,-9.945922389826228027e+01,-1.352361014980747314e+02,9.523238182067871094e+00,-3.059675097465515137e-01,0.000000000000000000e+00,4.280000000000000000e+02
-2.377258360620385247e+02,-2.181961107360639289e+02,-1.184010878007911742e+02,-6.096612009622731421e+01,-2.225475827908626343e+02,-1.080315839682352816e+02,-9.641537931190578092e+01,-1.315228355231670321e+02,9.523238182067871094e+00,-3.059675097465515137e-01,0.000000000000000000e+00,4.290000000000000000e+02
-2.349583467013580957e+02,-2.183362492850028502e+02,-1.154585427222232283e+02,-6.198950738243047454e+01,-2.166469562564088847e+02,-1.060485725135863504e+02,-9.516456222742272075e+01,-1.283914537880677926e+02,9.523238182067871094e+00,-3.059675097465515137e-01,0.000000000000000000e+00,4.300000000000000000e+02
-2.324044363633147441e+02,-2.179038336607923156e+02,-1.139059899515350480e+02,-6.263075979886116329e+01,-2.118205909245129988e+02,-1.040950993070073309e+02,-9.595700888732835665e+01,-1.264595795517057013e+02,9.523238182067871094e+00,-3.059675097465515137e-01,0.000000000000000000e+00,4.310000000000000000e+02
-2.298118413798911206e+02,-2.162315144969452376e+02,-1.136092138429426086e+02,-6.232898752855362545e+01,-2.089020192214984490e+02,-1.025756606026807276e+02,-9.800048183940907620e+01,-1.257082882197332765e+02,9.523238182067871094e+00,-3.059675097465515137e-01,0.000000000000000000e+00,4.320000000000000000e+02
-2.272467543670559280e+02,-2.129837056885717175e+02,-1.141527595820789429e+02,-6.073630090151436889e+01,-2.080042706150284175e+02,-1.015016889421885935e+02,-9.994287030431860330e+01,-1.257673973097284943e+02,9.523238182067871094e+00,-3.059675097465515137e-01,0.000000000000000000e+00,4.330000000000000000e+02
-2.250776826522533156e+02,-2.084013207353837061e+02,-1.149884444694853300e+02,-5.802293037964409450e+01,-2.086289486365735684e+02,-1.004586637214842995e+02,-1.006759188115033794e+02,-1.263448283148318296e+02,9.523238182067871094e+00,-3.059675097465515137e-01,0.000000000000000000e+00,4.340000000000000000e+02
-2.235008995887660603e+02,-2.032865992859301514e+02,-1.155776422242774970e+02,-5.486030296120816274e+01,-2.100135281538646268e+02,-9.906660704877413082e+01,-9.989077940733932337e+01,-1.274091143203108913e+02,9.523238182067871094e+00,-3.059675097465515137e-01,0.000000000000000000e+00,4.350000000000000000e+02
-2.221293036138913521e+02,-1.986797632365169193e+02,-1.155479290800462877e+02,-5.208220033473980948e+01,-2.114785745975950704e+02,-9.744556405218645523e+01,-9.805493183280714220e+01,-1.290068121774993415e+02,9.523238182067871094e+00,-3.059675097465515137e-01,0.000000000000000000e+00,4.360000000000000000e+02
-2.201823607368269222e+02,-1.953772988182008703e+02,-1.147853246995596237e+02,-5.024645134363026955e+01,-2.125944608110980880e+02,-9.616371262646498508e+01,-9.592341343310181401e+01,-1.309365046413245182e+02,9.523238182067871094e+00,-3.059675097465515137e-01,0.000000000000000000e+00,4.370000000000000000e+02
-2.171898281609996957e+02,-1.935727978259055817e+02,-1.133670051973695081e+02,-4.936560265840034845e+01,-2.131080692402961176e+02,-9.566995902777534866e+01,-9.399933080189657630e+01,-1.326178094654806046e+02,9.523238182067871094e+00,-3.059675097465515137e-01,0.000000000000000000e+00,4.380000000000000000e+02
-2.135339022598600422e+02,-1.928337091712896836e+02,-1.114060837704441838e+02,-4.895115042573661412e+01,-2.127491618575818393e+02,-9.574975468568572978e+01,-9.233645257300076992e+01,-1.333176542291957958e+02,9.523238182067871094e+00,-3.059675097465515137e-01,0.000000000000000000e+00,4.390000000000000000e+02
-2.102307484782318170e+02,-1.924113479665825253e+02,-1.089962629591591394e+02,-4.832949204970918800e+01,-2.111647659959048724e+02,-9.555852134445149204e+01,-9.075454886602938132e+01,-1.325835059276555512e+02,9.523238182067871094e+00,-3.059675097465515137e-01,0.000000000000000000e+00,4.400000000000000000e+02
-2.080719038323586574e+02,-1.916682254069487499e+02,-1.063201179571524335e+02,-4.703456365055808419e+01,-2.081293303201769049e+02,-9.425367603037693698e+01,-8.919531301970710047e+01,-1.305322777577562192e+02,9.523238182067871094e+00,-3.059675097465515137e-01,0.000000000000000000e+00,4.410000000000000000e+02
-2.069215146239980641e+02,-1.903581686694919881e+02,-1.037685202311035937e+02,-4.505775421103180634e+01,-2.038875876331994732e+02,-9.169086507253314267e+01,-8.788437560436250351e+01,-1.277470640250608085e+02,9.446745872497558594e+00,-3.059675097465515137e-01,0.000000000000000000e+00,4.420000000000000000e+02
-2.058472595786406600e+02,-1.886564258849530233e+02,-1.018393555736256531e+02,-4.281760350525655667e+01,-1.992485447581211702e+02,-8.856228776116040535e+01,-8.716148633806233192e+01,-1.248649049604484844e+02,9.446745872497558594e+00,-3.059675097465515137e-01,0.000000000000000000e+00,4.430000000000000000e+02
-2.039644958835997386e+02,-1.869971360670610920e+02,-1.008083352290259427e+02,-4.088601408322028874e+01,-1.951970348307463610e+02,-8.585333921667051982e+01,-8.713757137480479287e+01,-1.221925983540429570e+02,9.446745872497558594e+00,-3.059675097465515137e-01,0.000000000000000000e+00,4.440000000000000000e+02
-2.011871478417374419e+02,-1.858306255515676639e+02,-1.004686803262766261e+02,-3.965745774129072743e+01,-1.922728642883103021e+02,-8.410661819075539825e+01,-8.749148023977659250e+01,-1.196551804143634854e+02,9.446745872497558594e+00,-3.059675097465515137e-01,0.000000000000000000e+00,4.450000000000000000e+02
-1.981871710079431068e+02,-1.853648433858318185e+02,-1.002515492978475322e+02,-3.915898054825038344e+01,-1.902886326275183819e+02,-8.314110780607916240e+01,-8.759901722019367298e+01,-1.170783057432295209e+02,9.446745872497558594e+00,-3.059675097465515137e-01,0.000000000000000000e+00,4.460000000000000000e+02
-1.956694923345344250e+02,-1.853608319303821190e+02,-9.966728478715435813e+01,-3.907979876716535728e+01,-1.886640586293538036e+02,-8.241067172642533478e+01,-8.689691800429363866e+01,-1.144807667503309858e+02,9.446745872497558594e+00,-3.059675097465515137e-01,0.000000000000000000e+00,4.470000000000000000e+02
-1.937320504244012227e+02,-1.851185366464678737e+02,-9.866292887861891359e+01,-3.894631746089407898e+01,-1.870358106712355948e+02,-8.156273208618949866e+01,-8.520086611423403156e+01,-1.120731291426409371e+02,9.446745872497558594e+00,-3.059675097465515137e-01,0.000000000000000000e+00,4.480000000000000000e+02
-1.919333180641842773e+02,-1.837813541406794684e+02,-9.755788576590339289e+01,-3.831291622736080171e+01,-1.855033454080312367e+02,-8.062565228198718614e+01,-8.276277591876055340e+01,-1.099939283637443168e+02,9.446745872497558594e+00,-3.059675097465515137e-01,0.000000000000000000e+00,4.490000000000000000e+02
-1.899233752105128588e+02,-1.808800530907128632e+02,-9.663684563946549133e+01,-3.690630846658496012e+01,-1.842706152214773283e+02,-7.969573228477111115e+01,-8.008686044045111885e+01,-1.081013901565304423e+02,9.446745872497558594e+00,-3.059675097465515137e-01,0.000000000000000000e+00,4.500000000000000000e+02
-1.878971525727672542e+02,-1.767546209009515223e+02,-9.583335762064166374e+01,-3.472388069928911136e+01,-1.831559124589311978e+02,-7.856713587868580362e+01,-7.769708867406893660e+01,-1.060845217608773510e+02,9.446745872497558594e+00,-3.059675097465515137e-01,0.000000000000000000e+00,4.510000000000000000e+02
-1.863501707214993530e+02,-1.724628011352135672e+02,-9.482793939527732618e+01,-3.207249228339287583e+01,-1.816339451393832860e+02,-7.681362128067667072e+01,-7.601550494578646067e+01,-1.038316544040339977e+02,9.446745872497558594e+00,-3.059675097465515137e-01,0.000000000000000000e+00,4.520000000000000000e+02
-1.854043042866383075e+02,-1.691440269779784558e+02,-9.344570620370859615e+01,-2.950204732120391782e+01,-1.794789761184274539e+02,-7.431016283289363855e+01,-7.534954606820656409e+01,-1.017130121937134390e+02,9.446745872497558594e+00,-3.059675097465515137e-01,0.000000000000000000e+00,4.530000000000000000e+02
-1.844613397748757961e+02,-1.673022215519720248e+02,-9.191980479934500181e+01,-2.761548544580546150e+01,-1.773223936140852857e+02,-7.164214423480552796e+01,-7.586621273512969310e+01,-1.004849449456405637e+02,9.446745872497558594e+00,-3.059675097465515137e-01,0.000000000000000000e+00,4.540000000000000000e+02
-1.826253601669257023e+02,-1.665851593814240914e+02,-9.073436609849954948e+01,-2.682948607072785308e+01,-1.763935316225524730e+02,-6.989321878690861922e+01,-7.748750237020635723e+01,-1.008425870228793428e+02,9.446745872497558594e+00,-3.059675097465515137e-01,0.000000000000000000e+00,4.550000000000000000e+02
-1.795344558770509593e+02,-1.662148472592759845e+02,-9.018392524327305182e+01,-2.722282222001877017e+01,-1.774981995540431399e+02,-6.990916257813933044e+01,-7.978463223201629262e+01,-1.029041888822098372e+02,9.446745872497558594e+00,-3.059675097465515137e-01,0.000000000000000000e+00,4.560000000000000000e+02
-1.757836336740938350e+02,-1.656466455669187781e+02,-9.006167174208894721e+01,-2.854897160041582538e+01,-1.801158279740325270e+02,-7.166320684084121240e+01,-8.200743359649277409e+01,-1.059627939841752777e+02,9.446745872497558594e+00,-3.059675097465515137e-01,0.000000000000000000e+00,4.570000000000000000e+02
-1.724911737033053214e+02,-1.648626116527802878e+02,-8.975078503314034606e+01,-3.036176032961111559e+01,-1.824825695140507378e+02,-7.425142733569146003e+01,-8.331382996753904990e+01,-1.086588966344888831e+02,9.446745872497558594e+00,-3.059675097465515137e-01,0.000000000000000000e+00,4.580000000000000000e+02
-1.703981838600063838e+02,-1.641105653079064268e+02,-8.862724007074302790e+01,-3.216000090898228336e+01,-1.826650086541490055e+02,-7.647865500703665020e+01,-8.311848821816806776e+01,-1.095193546362786492e+02,9.446745872497558594e+00,-3.059675097465515137e-01,0.000000000000000000e+00,4.590000000000000000e+02
-1.693398632268688289e+02,-1.634604703696377328e+02,-8.647088850909563007e+01,-3.352233569910958977e+01,-1.797990783878583443e+02,-7.753260407185916847e+01,-8.138423901674491390e+01,-1.076764802218197019e+02,9.446745872497558594e+00,-3.059675097465515137e-01,0.000000000000000000e+00,4.600000000000000000e+02
-1.685356184954348464e+02,-1.626679253674010397e+02,-8.362207474071465185e+01,-3.422720550038366127e+01,-1.745842674342670762e+02,-7.728209491152665578e+01,-7.867839787568800602e+01,-1.034372818456324694e+02,9.446745872497558594e+00,-3.059675097465515137e-01,0.000000000000000000e+00,4.610000000000000000e+02
-1.673406913214946599e+02,-1.614673774311113448e+02,-8.082478841150714288e+01,-3.432407494298900019e+01,-1.687861631585683426e+02,-7.613306205312073871e+01,-7.593717025557498346e+01,-9.831373906709313815e+01,9.446745872497558594e+00,-3.059675097465515137e-01,0.000000000000000000e+00,4.620000000000000000e+02
-1.657216192312503154e+02,-1.599450055908444028e+02,-7.886473473156775071e+01,-3.407967205280192502e+01,-1.642266806093164178e+02,-7.467969116270523955e+01,-7.402766514055792868e+01,-9.432054464238012770e+01,9.446745872497558594e+00,-3.059675097465515137e-01,0.000000000000000000e+00,4.630000000000000000e+02
-1.640693259499732903e+02,-1.585532335761577087e+02,-7.815260798041254020e+01,-3.376174732790013877e+01,-1.619063414434383503e+02,-7.336702172929699373e+01,-7.330297131065799476e+01,-9.280082734461416294e+01,9.446745872497558594e+00,-3.059675097465515137e-01,0.000000000000000000e+00,4.640000000000000000e+02
-1.626483890295794481e+02,-1.577126748292046159e+02,-7.843778046289571648e+01,-3.340821818529411757e+01,-1.616349608587058810e+02,-7.226642451188172345e+01,-7.338652805920810351e+01,-9.351243354866733171e+01,9.446745872497558594e+00,-3.059675097465515137e-01,0.000000000000000000e+00,4.650000000000000000e+02
-1.612921595548409641e+02,-1.573741980643849274e+02,-7.887549309497239847e+01,-3.280777841921644722e+01,-1.622391872938694632e+02,-7.103720167185110768e+01,-7.334693404759946134e+01,-9.471622300668332173e+01,9.446745872497558594e+00,-3.059675097465515137e-01,0.000000000000000000e+00,4.660000000000000000e+02
-1.596307370687527509e+02,-1.569535254710556273e+02,-7.852305860829073936e+01,-3.174936491821222262e+01,-1.622173386970614501e+02,-6.916031938599121531e+01,-7.222317575097031295e+01,-9.434637173919054476e+01,9.446745872497558594e+00,-3.059675097465515137e-01,0.000000000000000000e+00,4.670000000000000000e+02
-1.575558916718500768e+02,-1.557103748835500028e+02,-7.700665927653312792e+01,-3.031956098959403789e+01,-1.605803687414606884e+02,-6.638796829873467686e+01,-6.962709831065626531e+01,-9.147349535762646155e+01,9.446745872497558594e+00,-3.059675097465515137e-01,0.000000000000000000e+00,4.680000000000000000e+02
-1.554070601368175630e+02,-1.532631775155232390e+02,-7.485567147698498047e+01,-2.893019308341172291e+01,-1.574445077019784094e+02,-6.309227238933681292e+01,-6.604482083206926291e+01,-8.693531775606243173e+01,9.637976646423339844e+00,-1.912296712398529053e-01,0.000000000000000000e+00,4.690000000000000000e+02
-1.537014753417770407e+02,-1.498507944661907914e+02,-7.315025601701222513e+01,-2.798895638659655560e+01,-1.539404644500857557e+02,-6.013940072405307546e+01,-6.260028691597267425e+01,-8.262124319890858715e+01,9.637976646423339844e+00,-1.912296712398529053e-01,0.000000000000000000e+00,4.700000000000000000e+02
-1.527027382289252273e+02,-1.461743257201637789e+02,-7.268337447669864559e+01,-2.750274465336383400e+01,-1.514056129130174213e+02,-5.827608368581513787e+01,-6.037763193205182688e+01,-8.000534101075072613e+01,9.637976646423339844e+00,-1.912296712398529053e-01,0.000000000000000000e+00,4.710000000000000000e+02
-1.522419130678269994e+02,-1.429846095715488445e+02,-7.331399905668331485e+01,-2.701429474544784171e+01,-1.504085431370924653e+02,-5.750241656124558176e+01,-5.971472822334953889e+01,-7.914605273707707056e+01,9.637976646423339844e+00,-1.912296712398529053e-01,0.000000000000000000e+00,4.720000000000000000e+02
-1.519136647566440388e+02,-1.407082429874787977e+02,-7.407609131326114493e+01,-2.597947903511499135e+01,-1.503645020367514462e+02,-5.700843349197702992e+01,-5.995512855488937021e+01,-7.891490179191544030e+01,9.637976646423339844e+00,-1.912296712398529053e-01,0.000000000000000000e+00,4.730000000000000000e+02
-1.513915750571557055e+02,-1.393198041072758997e+02,-7.393657243390578060e+01,-2.426184603703177345e+01,-1.500562851176600816e+02,-5.580438920328742824e+01,-5.985550830766260333e+01,-7.810966886731137038e+01,9.637976646423339844e+00,-1.912296712398529053e-01,0.000000000000000000e+00,4.740000000000000000e+02
-1.505398240473218721e+02,-1.384877901707519641e+02,-7.250511183610137778e+01,-2.230145424705642654e+01,-1.485984646079449476e+02,-5.353561948699871209e+01,-5.840104493019930487e+01,-7.638578974166989610e+01,9.637976646423339844e+00,-1.912296712398529053e-01,0.000000000000000000e+00,4.750000000000000000e+02
-1.492694893910621659e+02,-1.378446897668981137e+02,-7.009367914357972040e+01,-2.080072882519084487e+01,-1.460214462065094949e+02,-5.077252001477972954e+01,-5.547670199652691281e+01,-7.424896292643029483e+01,9.637976646423339844e+00,-1.912296712398529053e-01,0.000000000000000000e+00,4.760000000000000000e+02
-1.473710897973890042e+02,-1.371652095430360987e+02,-6.721187115805184931e+01,-2.019569798933321181e+01,-1.430575331077136525e+02,-4.852953370169666414e+01,-5.194284356626599219e+01,-7.234255516647601780e+01,9.637976646423339844e+00,-1.912296712398529053e-01,0.000000000000000000e+00,4.770000000000000000e+02
-1.445804989472284205e+02,-1.363494320034385510e+02,-6.414080854378869390e+01,-2.035021875857637497e+01,-1.404755277083276042e+02,-4.744228848355589889e+01,-4.908774166082844204e+01,-7.090356349092633081e+01,9.637976646423339844e+00,-1.912296712398529053e-01,0.000000000000000000e+00,4.780000000000000000e+02
-1.408782389094511700e+02,-1.352841752133440423e+02,-6.104772569562419449e+01,-2.069584984096911739e+01,-1.386468179684974302e+02,-4.731770206896499076e+01,-4.786380843620815995e+01,-6.991331820162656641e+01,9.637976646423339844e+00,-1.912296712398529053e-01,0.000000000000000000e+00,4.790000000000000000e+02
-1.367544130964481610e+02,-1.337710660955497133e+02,-5.839584688307502347e+01,-2.065637081987131296e+01,-1.376483477864580891e+02,-4.740846518606883819e+01,-4.840506110264504969e+01,-6.958559184598539105e+01,9.637976646423339844e+00,-1.912296712398529053e-01,0.000000000000000000e+00,4.800000000000000000e+02
-1.331524356676928278e+02,-1.316561535670867897e+02,-5.699316596780880673e+01,-2.000322787163884186e+01,-1.375689961953561351e+02,-4.711890224960347950e+01,-5.007595408996331798e+01,-7.042291139033375202e+01,9.637976646423339844e+00,-1.912296712398529053e-01,0.000000000000000000e+00,4.810000000000000000e+02
-1.310332819502408483e+02,-1.290860416207231651e+02,-5.741002585206649655e+01,-1.889576721234959678e+01,-1.384988930957387083e+02,-4.648567578131132905e+01,-5.191181163916422747e+01,-7.260741127376985560e+01,9.637976646423339844e+00,-1.912296712398529053e-01,0.000000000000000000e+00,4.820000000000000000e+02
-1.308045273344552015e+02,-1.266270857396860663e+02,-5.927799756586534841e+01,-1.764230498990559681e+01,-1.401584080639720469e+02,-4.602715710373928459e+01,-5.311060300283321567e+01,-7.537827851311556060e+01,9.637976646423339844e+00,-1.912296712398529053e-01,0.000000000000000000e+00,4.830000000000000000e+02
-1.320117838016612666e+02,-1.250320585002790494e+02,-6.129920552560847113e+01,-1.641468489555080623e+01,-1.416816315296995867e+02,-4.613790057041330783e+01,-5.332454083776931952e+01,-7.723780508789815258e+01,9.637976646423339844e+00,-1.912296712398529053e-01,0.000000000000000000e+00,4.840000000000000000e+02
-1.335463247521353765e+02,-1.247573915516379088e+02,-6.216651109289097121e+01,-1.515519836911670382e+01,-1.420258635406935070e+02,-4.660776849984205228e+01,-5.270620452557722047e+01,-7.703730479050938129e+01,9.637976646423339844e+00,-1.912296712398529053e-01,0.000000000000000000e+00,4.850000000000000000e+02
-1.342719312137755026e+02,-1.256160567240094394e+02,-6.162957546822134702e+01,-1.373166656673758013e+01,-1.407987693940569613e+02,-4.672264379709496041e+01,-5.176469701781707045e+01,-7.499291382215064061e+01,9.637976646423339844e+00,-1.912296712398529053e-01,0.000000000000000000e+00,4.860000000000000000e+02
-1.336566016337253586e+02,-1.269089399847977120e+02,-6.065513070918898109e+01,-1.217993632037837415e+01,-1.386897512179259024e+02,-4.585234626796155055e+01,-5.107402724316196441e+01,-7.256227038888660275e+01,9.637976646423339844e+00,-1.912296712398529053e-01,0.000000000000000000e+00,4.870000000000000000e+02
-1.319791508163250455e+02,-1.279847541969066924e+02,-6.044710995071230286e+01,-1.081051049369202133e+01,-1.369436634526550449e+02,-4.399482893827459407e+01,-5.091549399547585608e+01,-7.118081710458065459e+01,9.637976646423339844e+00,-1.912296712398529053e-01,0.000000000000000000e+00,4.880000000000000000e+02
-1.299780408826490543e+02,-1.287551260908421114e+02,-6.121318015587442574e+01,-1.005242793918966981e+01,-1.362320731583751012e+02,-4.178063277067246872e+01,-5.103063512283773662e+01,-7.100932265632238227e+01,9.637976646423339844e+00,-1.912296712398529053e-01,0.000000000000000000e+00,4.890000000000000000e+02
-1.282415373280092581e+02,-1.296927472046309049e+02,-6.187505468105769069e+01,-1.013116353941285297e+01,-1.359823482446422531e+02,-3.993907758801128693e+01,-5.070439524974119649e+01,-7.089595798137781912e+01,9.637976646423339844e+00,-1.912296712398529053e-01,0.000000000000000000e+00,4.900000000000000000e+02
-1.268351296104590915e+02,-1.313057412314781232e+02,-6.105872138004417593e+01,-1.083405058696104106e+01,-1.348952714808251585e+02,-3.871734247110316574e+01,-4.923031392947916629e+01,-6.960782715903576445e+01,9.637976646423339844e+00,-1.912296712398529053e-01,0.000000000000000000e+00,4.910000000000000000e+02
-1.254515361524510126e+02,-1.335832956042393107e+02,-5.847377835190809492e+01,-1.157357072526474440e+01,-1.322346392679817200e+02,-3.774775763959394226e+01,-4.647757321795302232e+01,-6.713175673535693022e+01,9.637976646423339844e+00,-1.912296712398529053e-01,0.000000000000000000e+00,4.920000000000000000e+02
-1.238994695303468916e+02,-1.359461505486394799e+02,-5.537948468502327160e+01,-1.171609336021151648e+01,-1.286508274230236566e+02,-3.642239033768532863e+01,-4.309807258234923211e+01,-6.475029358000335833e+01,9.637976646423339844e+00,-1.912296712398529053e-01,0.000000000000000000e+00,4.930000000000000000e+02
-1.224388455594228162e+02,-1.377427622346015141e+02,-5.365697227956582083e+01,-1.092682226686292779e+01,-1.256809821959579949e+02,-3.438986155677434908e+01,-4.011831651772070018e+01,-6.378583567926671094e+01,9.637976646423339844e+00,-1.912296712398529053e-01,0.000000000000000000e+00,4.940000000000000000e+02
-1.216140591283290178e+02,-1.387942121635428521e+02,-5.427075804855053320e+01,-9.281138236329297797e+00,-1.243459322617302405e+02,-3.175000020639049580e+01,-3.817605010407100963e+01,-6.420734407412646760e+01,9.637976646423339844e+00,-1.912296712398529053e-01,0.000000000000000000e+00,4.950000000000000000e+02
-1.217197776072105171e+02,-1.394398186983196410e+02,-5.646234492674102512e+01,-7.098434112565428222e+00,-1.241708579714913867e+02,-2.886639329764284412e+01,-3.702866325152842819e+01,-6.444933632796823986e+01,9.637976646423339844e+00,-1.912296712398529053e-01,0.000000000000000000e+00,4.960000000000000000e+02
-1.224126190897693505e+02,-1.400652956308549619e+02,-5.836211923721111816e+01,-4.681850411009463642e+00,-1.235612241479868771e+02,-2.606595992262009531e+01,-3.578288738621768061e+01,-6.265598179642188370e+01,9.637976646423339844e+00,-1.912296712398529053e-01,0.000000000000000000e+00,4.970000000000000000e+02
-1.228721685517111837e+02,-1.406373338425416932e+02,-5.847193293075315523e+01,-2.191993374126241179e+00,-1.211771971731034228e+02,-2.350357334160435130e+01,-3.369334793772236480e+01,-5.824898082783420250e+01,9.637976646423339844e+00,-1.912296712398529053e-01,0.000000000000000000e+00,4.980000000000000000e+02
-1.224223210265608941e+02,-1.407475080434633128e+02,-5.678208597004254443e+01,2.811470857072890794e-01,-1.170359953185447921e+02,-2.121311276906862986e+01,-3.086717099834277178e+01,-5.246031546626045383e+01,9.637976646423339844e+00,-1.912296712398529053e-01,0.000000000000000000e+00,4.990000000000000000e+02
-1.210876307142491441e+02,-1.401192345467700306e+02,-5.467597731881210166e+01,2.563099198057443573e+00,-1.124147046389082334e+02,-1.918769002233784704e+01,-2.827723180592784047e+01,-4.743196341291741192e+01,9.408499717712402344e+00,-2.677215635776519775e-01,-3.824593871831893921e-02,5.000000000000000000e+02
-1.195851231321794330e+02,-1.390261335555860569e+02,-5.381410150148417415e+01,4.329432292272713312e+00,-1.087989398482452543e+02,-1.740076784694929302e+01,-2.706083458133571185e+01,-4.470823826739092510e+01,9.408499717712402344e+00,-2.677215635776519775e-01,-3.824593871831893921e-02,5.010000000000000000e+02
-1.187298916344170721e+02,-1.381535063728128989e+02,-5.494606341668622917e+01,5.225868991089555493e+00,-1.069132298379170152e+02,-1.582804644015686790e+01,-2.766897518980613313e+01,-4.434570935322949481e+01,9.408499717712402344e+00,-2.677215635776519775e-01,-3.824593871831893921e-02,5.020000000000000000e+02
-1.187477114734679162e+02,-1.380224913606339214e+02,-5.750155071647600380e+01,5.103570126059821632e+00,-1.065771993373523401e+02,-1.452864614541977062e+01,-2.952388393466549132e+01,-4.520489222651622185e+01,9.408499717712402344e+00,-2.677215635776519775e-01,-3.824593871831893921e-02,5.030000000000000000e+02
-1.190683817215908675e+02,-1.385534478559961826e+02,-6.009581430973685201e+01,4.192496015730739600e+00,-1.072094303374728952e+02,-1.371019674365925312e+01,-3.139527289685338474e+01,-4.598748489906552095e+01,9.408499717712402344e+00,-2.677215635776519775e-01,-3.824593871831893921e-02,5.040000000000000000e+02
-1.187570739640214015e+02,-1.391966123469887862e+02,-6.143190846021389007e+01,3.054684677790646674e+00,-1.082931987016781932e+02,-1.364176644290546392e+01,-3.216627040834828222e+01,-4.612030021295799997e+01,9.408499717712402344e+00,-2.677215635776519775e-01,-3.824593871831893921e-02,5.050000000000000000e+02
-1.172211079358157804e+02,-1.394719316432460801e+02,-6.095952288602211411e+01,2.303590272948895290e+00,-1.094363801753343068e+02,-1.442205652471420763e+01,-3.143249050055510452e+01,-4.589779074661146296e+01,9.408499717712402344e+00,-2.677215635776519775e-01,-3.824593871831893921e-02,5.060000000000000000e+02
-1.146310954011155445e+02,-1.393480446659023073e+02,-5.898886717348887032e+01,2.256356379572025617e+00,-1.102493941674702000e+02,-1.578289875171549284e+01,-2.958471342560687845e+01,-4.595459525868636774e+01,9.408499717712402344e+00,-2.677215635776519775e-01,-3.824593871831893921e-02,5.070000000000000000e+02
-1.117821475662090052e+02,-1.390920419285807839e+02,-5.638569062974556800e+01,2.780963298114784266e+00,-1.104041119280122984e+02,-1.712276397003370221e+01,-2.745769832510541164e+01,-4.657977858308731811e+01,9.408499717712402344e+00,-2.677215635776519775e-01,-3.824593871831893921e-02,5.080000000000000000e+02
-1.095748412276125237e+02,-1.387980924966100247e+02,-5.412971024100852446e+01,3.483332370728021488e+00,-1.098621916723195682e+02,-1.778176452557681841e+01,-2.587011212262041226e+01,-4.737580581250904288e+01,9.408499717712402344e+00,-2.677215635776519775e-01,-3.824593871831893921e-02,5.090000000000000000e+02
-1.085370894143316036e+02,-1.381312540072285628e+02,-5.293357272569983252e+01,4.107938163891049044e+00,-1.089319950345320649e+02,-1.736470180036576494e+01,-2.530934420444373245e+01,-4.745598582254524445e+01,9.408499717712402344e+00,-2.677215635776519775e-01,-3.824593871831893921e-02,5.100000000000000000e+02
-1.086743379686458866e+02,-1.365818186143833373e+02,-5.300829680033621116e+01,4.806275094555530814e+00,-1.079870131837997178e+02,-1.590497548290659324e+01,-2.582307914450984754e+01,-4.602688335493849081e+01,9.408499717712402344e+00,-2.677215635776519775e-01,-3.824593871831893921e-02,5.110000000000000000e+02
-1.096198593208355305e+02,-1.340026721356052803e+02,-5.401977874661452006e+01,5.998110030160660244e+00,-1.071051924217863416e+02,-1.380957789555759518e+01,-2.704824115207657087e+01,-4.296811036038297971e+01,9.408499717712402344e+00,-2.677215635776519775e-01,-3.824593871831893921e-02,5.120000000000000000e+02
-1.108647297180291389e+02,-1.309156746650405694e+02,-5.525194122076345593e+01,7.909706226276739471e+00,-1.060105367255582678e+02,-1.165162304253226466e+01,-2.831528278459518333e+01,-3.898805051987756087e+01,9.408499717712402344e+00,-2.677215635776519775e-01,-3.824593871831893921e-02,5.130000000000000000e+02
-1.118900147585045488e+02,-1.282625795204021415e+02,-5.591176373556845647e+01,1.020229336612101179e+01,-1.043571196865577804e+02,-9.902089782783150440e+00,-2.884521170747984797e+01,-3.517284626645323442e+01,9.408499717712402344e+00,-2.677215635776519775e-01,-3.824593871831893921e-02,5.140000000000000000e+02
-1.122175355131171273e+02,-1.267695608284111586e+02,-5.545180858049570816e+01,1.207393494869756978e+01,-1.020402850138161739e+02,-8.716281547813196084e+00,-2.806959792840552836e+01,-3.223898671007191297e+01,9.408499717712402344e+00,-2.677215635776519775e-01,-3.824593871831893921e-02,5.150000000000000000e+02
-1.114862907249412274e+02,-1.264038394632489144e+02,-5.377420008429999143e+01,1.282524441757959721e+01,-9.924604346093565255e+01,-7.895926245662849396e+00,-2.597304476781573612e+01,-3.010436280486601390e+01,9.408499717712402344e+00,-2.677215635776519775e-01,-3.824593871831893921e-02,5.160000000000000000e+02
-1.095906541635113172e+02,-1.263212219288743654e+02,-5.125071036576810002e+01,1.244037249556095048e+01,-9.630789136611565482e+01,-7.081965915526780009e+00,-2.324356495456959237e+01,-2.820471055918005732e+01,9.408499717712402344e+00,-2.677215635776519775e-01,-3.824593871831893921e-02,5.170000000000000000e+02
-1.067908595389271795e+02,-1.253475846726187228e+02,-4.857744645491811752e+01,1.168442261645941471e+01,-9.362888334933450096e+01,-6.065169789158062486e+00,-2.103268937214443213e+01,-2.630499114986014320e+01,9.408499717712402344e+00,-2.677215635776519775e-01,-3.824593871831893921e-02,5.180000000000000000e+02
-1.036739743655925849e+02,-1.227049946732595345e+02,-4.650783806914569141e+01,1.160573086423573841e+01,-9.170289362752919260e+01,-4.963828859065870347e+00,-2.034745393006596714e+01,-2.498253923469746951e+01,9.408499717712402344e+00,-2.677215635776519775e-01,-3.824593871831893921e-02,5.190000000000000000e+02
-1.009342648828878737e+02,-1.185485984301831195e+02,-4.550383370429972274e+01,1.282008391920771828e+01,-9.097806141984256101e+01,-4.088326043086453865e+00,-2.140214488294896000e+01,-2.514819355756844743e+01,9.408499717712402344e+00,-2.677215635776519775e-01,-3.824593871831893921e-02,5.200000000000000000e+02
-9.905867544791362889e+01,-1.139960462032377109e+02,-4.541730987100072525e+01,1.511829290279456472e+01,-9.142663356133562047e+01,-3.601052937987333280e+00,-2.337195370546487538e+01,-2.690145432460849406e+01,9.523238182067871094e+00,-3.059675097465515137e-01,0.000000000000000000e+00,5.210000000000000000e+02
-9.808463469434991566e+01,-1.105864500760080773e+02,-4.542931506806780817e+01,1.764991565859509137e+01,-9.215584051762652962e+01,-3.306606687068779138e+00,-2.479258784386547632e+01,-2.883794583643248188e+01,9.523238182067871094e+00,-3.059675097465515137e-01,0.000000000000000000e+00,5.220000000000000000e+02
-9.757852241227374179e+01,-1.094289993127813432e+02,-4.443067306591365195e+01,1.949154336157153011e+01,-9.162542672052859416e+01,-2.808136139601629111e+00,-2.440684768600294774e+01,-2.870246624125229573e+01,9.523238182067871094e+00,-3.059675097465515137e-01,0.000000000000000000e+00,5.230000000000000000e+02
-9.687167376067282021e+01,-1.105394751834310227e+02,-4.173312583135975729e+01,2.017234713823745551e+01,-8.861157327866931155e+01,-1.901711956170402118e+00,-2.190896654564312485e+01,-2.508743398168007843e+01,9.523238182067871094e+00,-3.059675097465515137e-01,0.000000000000000000e+00,5.240000000000000000e+02
-9.545517201498842041e+01,-1.127882209994204459e+02,-3.766255777724200016e+01,1.984698413816386164e+01,-8.327979587130721484e+01,-8.297454536950681359e-01,-1.810041128293323709e+01,-1.878309989633908117e+01,9.523238182067871094e+00,-3.059675097465515137e-01,0.000000000000000000e+00,5.250000000000000000e+02
-9.331226248359598685e+01,-1.145202119759524066e+02,-3.355520462077583943e+01,1.910474127454108384e+01,-7.742629757704162330e+01,-1.427747746438399190e-01,-1.437394623264481197e+01,-1.252050364451861242e+01,9.523238182067871094e+00,-3.059675097465515137e-01,0.000000000000000000e+00,5.260000000000000000e+02
-9.096064912699694105e+01,-1.144714625560800414e+02,-3.105257106935005140e+01,1.860743372221259051e+01,-7.351580970358008926e+01,-2.811435281964804744e-01,-1.191456342804031010e+01,-9.187244920784905844e+00,9.523238182067871094e+00,-3.059675097465515137e-01,0.000000000000000000e+00,5.270000000000000000e+02
-8.914765258049737895e+01,-1.124012483417945987e+02,-3.112641734827320761e+01,1.876993867661803961e+01,-7.313203811288622092e+01,-1.239702838855009759e+00,-1.114149058334987785e+01,-9.904390550646894553e+00,9.523238182067871094e+00,-3.059675097465515137e-01,0.000000000000000000e+00,5.280000000000000000e+02
-8.837410694041864190e+01,-1.090705088581989912e+02,-3.350839501423979527e+01,1.960820658722332155e+01,-7.598422065626800759e+01,-2.570462501047586557e+00,-1.166654582035243948e+01,-1.345193718257633009e+01,9.523238182067871094e+00,-3.059675097465515137e-01,0.000000000000000000e+00,5.290000000000000000e+02
-8.857024277421714942e+01,-1.056643268279231052e+02,-3.691499411747281556e+01,2.078724675819466938e+01,-8.018849059402964485e+01,-3.685064070630687638e+00,-1.268423622659338434e+01,-1.734730251245127874e+01,9.523238182067871094e+00,-3.059675097465515137e-01,0.000000000000000000e+00,5.300000000000000000e+02
-8.916534101438173820e+01,-1.031117401883884668e+02,-3.986542896134596958e+01,2.183052937674074201e+01,-8.354501245852407010e+01,-4.212464717333205044e+00,-1.348698869531381206e+01,-1.956074587834700651e+01,9.523238182067871094e+00,-3.059675097465515137e-01,0.000000000000000000e+00,5.310000000000000000e+02
-8.949580812403291930e+01,-1.017290001359597227e+02,-4.151093123742521129e+01,2.239800125703004596e+01,-8.484520568137304508e+01,-4.184068101476441370e+00,-1.383002800795566145e+01,-1.956160335652202775e+01,9.523238182067871094e+00,-3.059675097465515137e-01,0.000000000000000000e+00,5.320000000000000000e+02
-8.924933982561469747e+01,-1.012971435148974706e+02,-4.196056391884667391e+01,2.247661958818207495e+01,-8.435982638234600017e+01,-3.980723141188718728e+00,-1.401396401436250017e+01,-1.818457694710559736e+01,9.523238182067871094e+00,-3.059675097465515137e-01,0.000000000000000000e+00,5.330000000000000000e+02
-8.862781010671096737e+01,-1.013610290423821425e+02,-4.198396822992708621e+01,2.235538886533868208e+01,-8.333138071857047180e+01,-4.070935896990704350e+00,-1.464683091140068427e+01,-1.673609838366155600e+01,9.523238182067871094e+00,-3.059675097465515137e-01,0.000000000000000000e+00,5.340000000000000000e+02
-8.815338063245235389e+01,-1.014877271114737596e+02,-4.236061053260800691e+01,2.239068465183117951e+01,-8.295797677088557975e+01,-4.651672847998270299e+00,-1.616807421702833381e+01,-1.608638968118248158e+01,9.523238182067871094e+00,-3.059675097465515137e-01,0.000000000000000000e+00,5.350000000000000000e+02
-8.829539348819344013e+01,-1.013826801953209724e+02,-4.330322562991568702e+01,2.273452646897203522e+01,-8.356264249204104999e+01,-5.399573725573645788e+00,-1.838503731376931682e+01,-1.619930109626693593e+01,9.523238182067871094e+00,-3.059675097465515137e-01,0.000000000000000000e+00,5.360000000000000000e+02
-8.916968070121947676e+01,-1.009380436247920443e+02,-4.429079973352054367e+01,2.323397303005185677e+01,-8.440851785972881771e+01,-5.557237618215367547e+00,-2.038339558193729317e+01,-1.617652191379329452e+01,9.523238182067871094e+00,-3.059675097465515137e-01,0.000000000000000000e+00,5.370000000000000000e+02
-9.046010823596770933e+01,-1.002708891356296590e+02,-4.440714070686590276e+01,2.357556655277221580e+01,-8.420924133918197185e+01,-4.409822141718905186e+00,-2.101269081195368926e+01,-1.477046632566361950e+01,9.523238182067871094e+00,-3.059675097465515137e-01,0.000000000000000000e+00,5.380000000000000000e+02
-9.155757761922723148e+01,-9.967027388089445594e+01,-4.299466443255187187e+01,2.354864631750024273e+01,-8.201539643931027967e+01,-1.888878335063054692e+00,-1.971116207566774392e+01,-1.122318747877397982e+01,9.523238182067871094e+00,-3.059675097465515137e-01,0.000000000000000000e+00,5.390000000000000000e+02
-9.182956250990355329e+01,-9.936527312495309161e+01,-4.020134860325742920e+01,2.321579946259043936e+01,-7.794502436540460621e+01,1.188124357295237132e+00,-1.703440822616175865e+01,-6.000022238669771468e+00,9.523238182067871094e+00,-3.059675097465515137e-01,0.000000000000000000e+00,5.400000000000000000e+02
-9.090854189315541589e+01,-9.920788701226229023e+01,-3.701212913852759812e+01,2.288136160216163262e+01,-7.327427672661178804e+01,3.553836595023312839e+00,-1.437141811427500215e+01,-8.298669939067622181e-01,9.523238182067871094e+00,-3.059675097465515137e-01,0.000000000000000000e+00,5.410000000000000000e+02
-8.888589530640092562e+01,-9.857000804030394647e+01,-3.468549235236423556e+01,2.292039031846616126e+01,-6.977399437502572255e+01,4.379082572626430192e+00,-1.298221059840943781e+01,2.205531301015071222e+00,9.523238182067871094e+00,-3.059675097465515137e-01,0.000000000000000000e+00,5.420000000000000000e+02
-8.630320327716253814e+01,-9.667336758177953016e+01,-3.396555832569174527e+01,2.360052502321195789e+01,-6.870054381877343985e+01,3.935108883475550101e+00,-1.310275847284538031e+01,2.007935171288409038e+00,9.523238182067871094e+00,-3.059675097465515137e-01,0.000000000000000000e+00,5.430000000000000000e+02
-8.390170313872295083e+01,-9.318558656257664552e+01,-3.464438948996394174e+01,2.498819730668765260e+01,-7.012822556712308142e+01,3.436270023836186738e+00,-1.384937823457221384e+01,-7.947078362212778302e-01,9.523238182067871094e+00,-3.059675097465515137e-01,0.000000000000000000e+00,5.440000000000000000e+02
-8.224579282358899945e+01,-8.859658023187512299e+01,-3.577852555913887045e+01,2.693915271041623782e+01,-7.305990507584647276e+01,4.111888465256924974e+00,-1.396772127036456368e+01,-4.308117979857343016e+00,9.523238182067871094e+00,-3.059675097465515137e-01,0.000000000000000000e+00,5.450000000000000000e+02
-8.145104413421722711e+01,-8.399744547398040595e+01,-3.635880211415314989e+01,2.911885563640498731e+01,-7.615451814939115138e+01,6.223372689988536877e+00,-1.275681747807720967e+01,-6.653136790879216278e+00,9.561484336853027344e+00,-3.442134261131286621e-01,-3.824593871831893921e-02,5.460000000000000000e+02
-8.119182421149344009e+01,-8.036005608731647953e+01,-3.590738375530963822e+01,3.106252625604975037e+01,-7.844809444843849633e+01,8.850113717831845861e+00,-1.042121082169978763e+01,-7.029765384237180115e+00,9.561484336853027344e+00,-3.442134261131286621e-01,-3.824593871831893921e-02,5.470000000000000000e+02
-8.095473928901810723e+01,-7.788481120500364341e+01,-3.460864331810444128e+01,3.231226439989404753e+01,-7.957394495671360346e+01,1.064600798348510580e+01,-7.728728398396924604e+00,-5.851058779102459084e+00,9.561484336853027344e+00,-3.442134261131286621e-01,-3.824593871831893921e-02,5.480000000000000000e+02
-8.034048266163881635e+01,-7.596774008989268623e+01,-3.300702267468659556e+01,3.260153646042999753e+01,-7.952575622449876391e+01,1.094587971406326687e+01,-5.461684041076296126e+00,-4.100669887280673720e+00,9.561484336853027344e+00,-3.442134261131286621e-01,-3.824593871831893921e-02,5.490000000000000000e+02
-7.923198816133117361e+01,-7.382100098083174089e+01,-3.160179047843121225e+01,3.199173345114286349e+01,-7.839033134179771878e+01,1.030578517462345189e+01,-4.151821530906090629e+00,-2.601449121182668023e+00,9.561484336853027344e+00,-3.442134261131286621e-01,-3.824593871831893921e-02,5.500000000000000000e+02
-7.778887206153194711e+01,-7.123069860627583694e+01,-3.061212908627385332e+01,3.086174547223708942e+01,-7.634152810347040941e+01,1.005026227143389406e+01,-4.090084809140535071e+00,-1.672663812583778054e+00,9.561484336853027344e+00,-3.442134261131286621e-01,-3.824593871831893921e-02,5.510000000000000000e+02
-7.633978397034661612e+01,-6.881396475329165696e+01,-2.996550862800177129e+01,2.974462657672484056e+01,-7.377260128474517842e+01,1.124349374013036140e+01,-5.274859386379830539e+00,-1.151571709626296069e+00,9.561484336853027344e+00,-3.442134261131286621e-01,-3.824593871831893921e-02,5.520000000000000000e+02
-7.523152299318462610e+01,-6.755113614934634825e+01,-2.942431542707345216e+01,2.910457677260819764e+01,-7.125581444862837088e+01,1.394978263461598544e+01,-7.194876935063803103e+00,-5.825645645527401939e-01,9.561484336853027344e+00,-3.442134261131286621e-01,-3.824593871831893921e-02,5.530000000000000000e+02
-7.465449464038829319e+01,-6.795764039979621884e+01,-2.877330987079949409e+01,2.916436720020828943e+01,-6.928068002252985025e+01,1.731614237374742515e+01,-8.804163308874194627e+00,4.651429908226418775e-01,9.561484336853027344e+00,-3.442134261131286621e-01,-3.824593871831893921e-02,5.540000000000000000e+02
-7.448508288594166515e+01,-6.954505161544875591e+01,-2.799361271955785924e+01,2.983158043038929463e+01,-6.805418226244364632e+01,2.025528038527772878e+01,-9.041918101876945002e+00,1.941249395569684566e+00,9.561484336853027344e+00,-3.442134261131286621e-01,-3.824593871831893921e-02,5.550000000000000000e+02
-7.425149301416058734e+01,-7.101451249146884948e+01,-2.729554110579920234e+01,3.072364195835871215e+01,-6.758453804884993588e+01,2.206828052181299427e+01,-7.668723050894186599e+00,3.012179006726000807e+00,9.561484336853027344e+00,-3.442134261131286621e-01,-3.824593871831893921e-02,5.560000000000000000e+02
-7.335402699000951543e+01,-7.109766602315539785e+01,-2.692590319028931845e+01,3.129593406329877325e+01,-6.788003543631930370e+01,2.256908456086966908e+01,-5.651620697761245538e+00,2.420971355875735753e+00,9.561484336853027344e+00,-3.442134261131286621e-01,-3.824593871831893921e-02,5.570000000000000000e+02
-7.149507755428930977e+01,-6.947689857739169383e+01,-2.685494173586812394e+01,3.107946981584791502e+01,-6.890370450200680352e+01,2.185123858261067653e+01,-4.543044714075222146e+00,-4.475877602017135359e-01,9.561484336853027344e+00,-3.442134261131286621e-01,-3.824593871831893921e-02,5.580000000000000000e+02
-6.902883145178202540e+01,-6.710477773537240864e+01,-2.663970365406566998e+01,2.995323919276233937e+01,-7.023938279546200647e+01,2.013247929549106630e+01,-5.210589670567060239e+00,-4.589345627638977021e+00,9.561484336853027344e+00,-3.442134261131286621e-01,-3.824593871831893921e-02,5.590000000000000000e+02
-6.688335754776562680e+01,-6.560831029644941736e+01,-2.567639095430786256e+01,2.828840329473314341e+01,-7.090650790827930905e+01,1.786017245053517399e+01,-6.989673788973959745e+00,-7.552625059957790654e+00,9.561484336853027344e+00,-3.442134261131286621e-01,-3.824593871831893921e-02,5.600000000000000000e+02
-6.597952618598355912e+01,-6.614077946389988938e+01,-2.368302653793580248e+01,2.681086381594286649e+01,-6.975971954466513125e+01,1.581564152408100199e+01,-8.070860574094695039e+00,-6.972156278285183362e+00,9.561484336853027344e+00,-3.442134261131286621e-01,-3.824593871831893921e-02,5.610000000000000000e+02
-6.650950294766880688e+01,-6.853620692303047690e+01,-2.094854403492536221e+01,2.620508189965039492e+01,-6.629350733199316892e+01,1.488481744696764508e+01,-6.857930355785356369e+00,-2.355843473676941358e+00,9.561484336853027344e+00,-3.442134261131286621e-01,-3.824593871831893921e-02,5.620000000000000000e+02
-6.763647802854211477e+01,-7.144762537288079329e+01,-1.806557579207219533e+01,2.670598230251198402e+01,-6.112797203355148667e+01,1.553651686408920796e+01,-3.179936765818638378e+00,4.406139841110416455e+00,9.561484336853027344e+00,-3.442134261131286621e-01,-3.824593871831893921e-02,5.630000000000000000e+02
-6.795070829310498084e+01,-7.338849915256651002e+01,-1.541439545186949545e+01,2.796343515061380458e+01,-5.566329267868059105e+01,1.742936381658364553e+01,1.592991601724861539e+00,1.028630699910536350e+01,9.561484336853027344e+00,-3.442134261131286621e-01,-3.824593871831893921e-02,5.640000000000000000e+02
-6.643754663966137741e+01,-7.379654216535527667e+01,-1.297778836407997005e+01,2.928459694687626325e+01,-5.118638171318525565e+01,1.954734402296526241e+01,5.501209641939567518e+00,1.306935615507063631e+01,9.561484336853027344e+00,-3.442134261131286621e-01,-3.824593871831893921e-02,5.650000000000000000e+02
-6.326925728746573441e+01,-7.321222392020536063e+01,-1.071302176850258547e+01,3.007991473339279764e+01,-4.824425646433155634e+01,2.081243226541118929e+01,7.183715967943498981e+00,1.243639766549131309e+01,9.561484336853027344e+00,-3.442134261131286621e-01,-3.824593871831893921e-02,5.660000000000000000e+02
-5.979649881495788577e+01,-7.249115181305933220e+01,-9.031879494503300521e+00,3.019582532144704601e+01,-4.676120259991148487e+01,2.072762836214678828e+01,6.484572567311261082e+00,9.547546541283736588e+00,9.561484336853027344e+00,-3.442134261131286621e-01,-3.824593871831893921e-02,5.670000000000000000e+02
-5.767599932858138345e+01,-7.187440625558519969e+01,-8.711182936156546930e+00,2.994315766283762059e+01,-4.654770438523701159e+01,1.963805094384588301e+01,4.296921066652430454e+00,5.891663704704114934e+00,9.561484336853027344e+00,-3.442134261131286621e-01,-3.824593871831893921e-02,5.680000000000000000e+02
-5.772270861922152108e+01,-7.083982742247826536e+01,-1.013100238371953310e+01,2.987010930303586065e+01,-4.750539306941209361e+01,1.851362651086674305e+01,2.010691036783100571e+00,2.564345065542511293e+00,9.561484336853027344e+00,-3.442134261131286621e-01,-3.824593871831893921e-02,5.690000000000000000e+02
-5.931890837855826248e+01,-6.881196401430133847e+01,-1.258530993566455436e+01,3.047099982552754227e+01,-4.935845387298832065e+01,1.842820327966910554e+01,9.318164823016559239e-01,2.916203304412192665e-01,9.561484336853027344e+00,-3.442134261131286621e-01,-3.824593871831893921e-02,5.700000000000000000e+02
-6.084080292597718653e+01,-6.592481865382433170e+01,-1.453518265195816639e+01,3.199054793824325316e+01,-5.143656567354992148e+01,1.999803426881771884e+01,1.775206480335327797e+00,-4.073465700166707393e-01,9.561484336853027344e+00,-3.442134261131286621e-01,-3.824593871831893921e-02,5.710000000000000000e+02
-6.082463711710443022e+01,-6.302188326970644994e+01,-1.479624927627446596e+01,3.436931225880471175e+01,-5.298842270360546536e+01,2.302604016576151480e+01,4.286530506225972204e+00,5.449323996836028527e-01,9.561484336853027344e+00,-3.442134261131286621e-01,-3.824593871831893921e-02,5.720000000000000000e+02
-5.902321205138650839e+01,-6.095914649400583585e+01,-1.359018071035825415e+01,3.728035049029858783e+01,-5.374518218630691990e+01,2.656969802018647897e+01,7.252969733890495263e+00,2.490708037345029879e+00,9.484992027282714844e+00,-2.677215635776519775e-01,-7.649187743663787842e-02,5.730000000000000000e+02
-5.655243395144862006e+01,-6.003382957656140206e+01,-1.233217117303138366e+01,4.019836600106282276e+01,-5.397003333077373100e+01,2.949969360686372966e+01,9.152126934302941663e+00,4.440736623269913252e+00,9.484992027282714844e+00,-2.677215635776519775e-01,-7.649187743663787842e-02,5.740000000000000000e+02
-5.499189208980169496e+01,-6.012247584770739195e+01,-1.218790920019455370e+01,4.248349701579354587e+01,-5.374159775995576638e+01,3.127621235723927384e+01,9.217636208330077352e+00,6.161522952559607802e+00,9.484992027282714844e+00,-2.677215635776519775e-01,-7.649187743663787842e-02,5.750000000000000000e+02
-5.510370956547922106e+01,-6.119289295467388001e+01,-1.273613141876194277e+01,4.349655665025056805e+01,-5.224061645565598155e+01,3.237278907011932461e+01,8.134675321405666182e+00,8.817008005353272893e+00,9.484992027282714844e+00,-2.677215635776519775e-01,-7.649187743663787842e-02,5.760000000000000000e+02
-5.615637622887879843e+01,-6.336585612452108762e+01,-1.212673704430198995e+01,4.275881355996170896e+01,-4.807947347907611402e+01,3.390315718045530957e+01,7.635854886393644847e+00,1.406391268552761176e+01,9.484992027282714844e+00,-2.677215635776519775e-01,-7.649187743663787842e-02,5.770000000000000000e+02
-5.641957131115850643e+01,-6.628909236332037835e+01,-8.750815451894595753e+00,4.012360342267857050e+01,-4.071496727169505903e+01,3.664069799960998353e+01,9.120973698070883984e+00,2.201667869754237472e+01,9.484992027282714844e+00,-2.677215635776519775e-01,-7.649187743663787842e-02,5.780000000000000000e+02
-5.448429304117235006e+01,-6.859482188436959404e+01,-2.938101837797148619e+00,3.587290872218363802e+01,-3.168318730096143554e+01,4.022998389855274581e+01,1.236722152362199267e+01,3.002732701729837572e+01,9.484992027282714844e+00,-2.677215635776519775e-01,-7.649187743663787842e-02,5.790000000000000000e+02
-5.039856517555381288e+01,-6.839175444046486518e+01,2.919418101526389364e+00,3.064259648733059294e+01,-2.425459784134000074e+01,4.331691666981350863e+01,1.548274522619249183e+01,3.391989681757695507e+01,9.484992027282714844e+00,-2.677215635776519775e-01,-7.649187743663787842e-02,5.800000000000000000e+02
-4.572659560769170639e+01,-6.471947770587939885e+01,6.014105235291935969e+00,2.517125668939115712e+01,-2.146389062981324969e+01,4.454866037418105407e+01,1.627340274244852480e+01,3.111605407762544928e+01,9.484992027282714844e+00,-2.677215635776519775e-01,-7.649187743663787842e-02,5.810000000000000000e+02
-4.247222856590815354e+01,-5.869087778555331170e+01,5.123325906020909315e+00,2.000504150904816925e+01,-2.405637541863688966e+01,4.360090103077527601e+01,1.395522970571983024e+01,2.301286638025703724e+01,9.484992027282714844e+00,-2.677215635776519775e-01,-7.649187743663787842e-02,5.820000000000000000e+02
-4.171928072536684340e+01,-5.305921041919646086e+01,1.289801209582947195e+00,1.535771216545617790e+01,-3.008085173513973132e+01,4.136144442620934569e+01,9.810769480092858430e+00,1.427206046184801380e+01,9.484992027282714844e+00,-2.677215635776519775e-01,-7.649187743663787842e-02,5.830000000000000000e+02
-4.303203200791176641e+01,-5.031710464092248003e+01,-3.226565778775693616e+00,1.121637346637362498e+01,-3.642800569207975059e+01,3.918065006305914721e+01,6.267927655237144791e+00,9.381001209538226249e+00,9.484992027282714844e+00,-2.677215635776519775e-01,-7.649187743663787842e-02,5.840000000000000000e+02
-4.500307863761918270e+01,-5.087789579216405400e+01,-6.648442322439223062e+00,7.591084509465872543e+00,-4.095988885570477578e+01,3.790883613355254056e+01,5.179878059003385715e+00,9.420698429043113720e+00,9.484992027282714844e+00,-2.677215635776519775e-01,-7.649187743663787842e-02,5.850000000000000000e+02
-4.639342915370798437e+01,-5.290606732651212951e+01,-8.600886564519896638e+00,4.682900655614503194e+00,-4.351363645825404092e+01,3.753215671898215078e+01,6.682125398481730372e+00,1.188346601114972145e+01,9.484992027282714844e+00,-2.677215635776519775e-01,-7.649187743663787842e-02,5.860000000000000000e+02
-4.689990036639210302e+01,-5.390193548685783753e+01,-9.759004145911603700e+00,2.817689809930016054e+00,-4.522897048122467822e+01,3.756795186481031124e+01,9.385516375456063543e+00,1.354091886032256298e+01,9.484992027282714844e+00,-2.677215635776519775e-01,-7.649187743663787842e-02,5.870000000000000000e+02
-4.702244195378079894e+01,-5.260764090872180532e+01,-1.089405262360378401e+01,2.206845051270647673e+00,-4.710440716419179807e+01,3.768500290611700621e+01,1.153080978701837012e+01,1.349470126722735586e+01,9.484992027282714844e+00,-2.677215635776519775e-01,-7.649187743663787842e-02,5.880000000000000000e+02
-4.734930358718338539e+01,-4.964017513100770884e+01,-1.227622764365150942e+01,2.746385162779915845e+00,-4.912827478126200731e+01,3.794348584455292439e+01,1.209065543023461942e+01,1.348008939017381635e+01,9.484992027282714844e+00,-2.677215635776519775e-01,-7.649187743663787842e-02,5.890000000000000000e+02
