F3,F4,C3,C4,P3,P4,Cz,Pz,Accel_x,Accel_y,Accel_z,Sample
-3.910827217623591423e-11,-5.456968210637569427e-11,-4.729372449219226837e-11,-3.274180926382541656e-11,-7.457856554538011551e-11,-7.094058673828840256e-11,-3.365130396559834480e-11,-3.456079866737127304e-11,9.484992027282714844e+00,-3.059675097465515137e-01,-3.824593871831893921e-02,2.260000000000000000e+02
-9.836344997552259883e+00,-1.930618416922516190e+01,-8.667387273351778276e+00,-7.486303801788380952e+00,-1.269475264204447740e+01,-1.258343494767359516e+01,-5.112814072802393639e+00,-5.129933212927426212e+00,9.484992027282714844e+00,-3.059675097465515137e-01,-3.824593871831893921e-02,2.270000000000000000e+02
-2.135757858966644562e+01,-3.631161278795207181e+01,-1.634903437813409255e+01,-1.506737975110991101e+01,-2.571949142152789136e+01,-2.218128914182670997e+01,-1.211985429004835169e+01,-1.082271674971070752e+01,9.484992027282714844e+00,-3.059675097465515137e-01,-3.824593871831893921e-02,2.280000000000000000e+02
-3.493328204746376286e+01,-5.011835782387151994e+01,-2.277643601475392643e+01,-2.241793215189227340e+01,-3.886140393364621559e+01,-2.836910277950119053e+01,-2.097747867690395651e+01,-1.699364009684813936e+01,9.484992027282714844e+00,-3.059675097465515137e-01,-3.824593871831893921e-02,2.290000000000000000e+02
-4.943825369912974566e+01,-6.150174751822851249e+01,-2.844882102280007530e+01,-2.879507221422409202e+01,-5.135555669224686426e+01,-3.322263753355946392e+01,-2.953608129247368197e+01,-2.291165858040130843e+01,9.484992027282714844e+00,-3.059675097465515137e-01,-3.824593871831893921e-02,2.300000000000000000e+02
-6.328556525130989030e+01,-7.193159281311909581e+01,-3.402245279249564192e+01,-3.344287139232346817e+01,-6.242369566439447226e+01,-3.884491283096213010e+01,-3.525675532171590021e+01,-2.782697359042867902e+01,9.484992027282714844e+00,-3.059675097465515137e-01,-3.824593871831893921e-02,2.310000000000000000e+02
-7.568446808232511103e+01,-8.230323847893942002e+01,-3.966094064997105306e+01,-3.600837145932746353e+01,-7.184730305307039089e+01,-4.520963651946112805e+01,-3.722483776034096081e+01,-3.157028533413176774e+01,9.484992027282714844e+00,-3.059675097465515137e-01,-3.824593871831893921e-02,2.320000000000000000e+02
-8.703682602867320384e+01,-9.248787110364446562e+01,-4.494715435079342569e+01,-3.666057421459390753e+01,-8.003104035420619766e+01,-5.052651015346782515e+01,-3.673630472544664372e+01,-3.456025971623330406e+01,9.484992027282714844e+00,-3.059675097465515137e-01,-3.824593871831893921e-02,2.330000000000000000e+02
-9.826911964807641198e+01,-1.019314535737730694e+02,-4.933402666278288962e+01,-3.596052862943633954e+01,-8.751573328669292096e+01,-5.347674657068091619e+01,-3.612420672802272748e+01,-3.729141257632363704e+01,9.484992027282714844e+00,-3.059675097465515137e-01,-3.824593871831893921e-02,2.340000000000000000e+02
-1.098372171556338799e+02,-1.105323960801024441e+02,-5.262001587207487319e+01,-3.472462032983912650e+01,-9.446567824069461494e+01,-5.475779945872454846e+01,-3.700257630173018697e+01,-3.989635149384685064e+01,9.561484336853027344e+00,-2.677215635776519775e-01,-3.824593871831893921e-02,2.350000000000000000e+02
-1.213013396318174273e+02,-1.188616308091332030e+02,-5.504030484928443911e+01,-3.392212767598084611e+01,-1.006867440742598774e+02,-5.636673837982380064e+01,-3.937965351583170559e+01,-4.223299457904431620e+01,9.561484336853027344e+00,-2.677215635776519775e-01,-3.824593871831893921e-02,2.360000000000000000e+02
-1.317250527246078491e+02,-1.275575450924879988e+02,-5.703489283027829515e+01,-3.442293292790782289e+01,-1.061660489782916557e+02,-5.963808934475309798e+01,-4.210890606237080647e+01,-4.435098093747728853e+01,9.561484336853027344e+00,-2.677215635776519775e-01,-3.824593871831893921e-02,2.370000000000000000e+02
-1.404298800623128045e+02,-1.366191067396785002e+02,-5.901502750959207333e+01,-3.653276680965518608e+01,-1.115213799611574359e+02,-6.425215147888047795e+01,-4.401733306691130565e+01,-4.678274748093008384e+01,9.561484336853027344e+00,-2.677215635776519775e-01,-3.824593871831893921e-02,2.380000000000000000e+02
-1.474605828823314368e+02,-1.454049779699880673e+02,-6.128882479809362849e+01,-3.964041062903652346e+01,-1.177841638377349227e+02,-6.906507149816388846e+01,-4.475438386461155460e+01,-5.029906749317069625e+01,9.561484336853027344e+00,-2.677215635776519775e-01,-3.824593871831893921e-02,2.390000000000000000e+02
-1.534912192943620539e+02,-1.533668201205746300e+02,-6.406396036727801402e+01,-4.242603023759420466e+01,-1.256266670090744810e+02,-7.351654984202468768e+01,-4.492415843136041076e+01,-5.532347554749685514e+01,9.561484336853027344e+00,-2.677215635776519775e-01,-3.824593871831893921e-02,2.400000000000000000e+02
-1.593810373096384865e+02,-1.607312369003484491e+02,-6.740449993624315539e+01,-4.364638755636769929e+01,-1.347551339174387977e+02,-7.794616071553537040e+01,-4.565696850369022286e+01,-6.152151772851539135e+01,9.561484336853027344e+00,-2.677215635776519775e-01,-3.824593871831893921e-02,2.410000000000000000e+02
-1.657651988123661795e+02,-1.683672776129087651e+02,-7.118494737563560193e+01,-4.292835254306737625e+01,-1.440832155705111290e+02,-8.265203604603630083e+01,-4.799635281109567586e+01,-6.790738754158519441e+01,9.561484336853027344e+00,-2.677215635776519775e-01,-3.824593871831893921e-02,2.420000000000000000e+02
-1.729179224951631113e+02,-1.769081042262605479e+02,-7.517673040418594610e+01,-4.090615099282149458e+01,-1.525393106095016265e+02,-8.703143833957619790e+01,-5.237152610587600066e+01,-7.336397178670631547e+01,9.561484336853027344e+00,-2.677215635776519775e-01,-3.824593871831893921e-02,2.430000000000000000e+02
-1.808632968498486662e+02,-1.859926390068676483e+02,-7.923003539065848599e+01,-3.861699355197379191e+01,-1.597492435380336246e+02,-8.994868921135275741e+01,-5.833049035642034141e+01,-7.719746839364961488e+01,9.561484336853027344e+00,-2.677215635776519775e-01,-3.824593871831893921e-02,2.440000000000000000e+02
-1.895263945436163340e+02,-1.944190871668106411e+02,-8.333764379067451955e+01,-3.675643790703543345e+01,-1.660040329375942747e+02,-9.093782757248663984e+01,-6.467981090448665782e+01,-7.940549066131643485e+01,9.561484336853027344e+00,-2.677215635776519775e-01,-3.824593871831893921e-02,2.450000000000000000e+02
-1.987453547465420343e+02,-2.011349040555751344e+02,-8.747332729204208590e+01,-3.546829294879262306e+01,-1.716891933383731157e+02,-9.085081053969952336e+01,-7.004788138269577757e+01,-8.058475054607333732e+01,9.561484336853027344e+00,-2.677215635776519775e-01,-3.824593871831893921e-02,2.460000000000000000e+02
-2.081556365090027612e+02,-2.061643857521976315e+02,-9.138260012306272984e+01,-3.471464803185244818e+01,-1.768651752472324006e+02,-9.119126836118175561e+01,-7.361076828591831145e+01,-8.158547864974298136e+01,9.561484336853027344e+00,-2.677215635776519775e-01,-3.824593871831893921e-02,2.470000000000000000e+02
-2.171427252150660934e+02,-2.106063512811879264e+02,-9.461099759128410369e+01,-3.464981579060804506e+01,-1.813922729487003380e+02,-9.280080144719067903e+01,-7.549917779931820405e+01,-8.306897134020346130e+01,9.561484336853027344e+00,-2.677215635776519775e-01,-3.824593871831893921e-02,2.480000000000000000e+02
-2.250472227783020571e+02,-2.157210499830816843e+02,-9.682110752368680551e+01,-3.551564466768832062e+01,-1.853268547339766883e+02,-9.522758776195405517e+01,-7.659376334879561909e+01,-8.517818784665359999e+01,9.561484336853027344e+00,-2.677215635776519775e-01,-3.824593871831893921e-02,2.490000000000000000e+02
-2.315866039254951829e+02,-2.219535344894402442e+02,-9.811674827883416583e+01,-3.722007365749504970e+01,-1.890428066004233187e+02,-9.734091980931043508e+01,-7.787330045933413203e+01,-8.753156970616873878e+01,9.561484336853027344e+00,-2.677215635776519775e-01,-3.824593871831893921e-02,2.500000000000000000e+02
-2.371608203992373092e+02,-2.287496633413220479e+02,-9.904795687039677432e+01,-3.919264250898868340e+01,-1.929238604079337165e+02,-9.849434625724643411e+01,-7.980734496548757306e+01,-8.958258508030758094e+01,9.561484336853027344e+00,-2.677215635776519775e-01,-3.824593871831893921e-02,2.510000000000000000e+02
-2.426997720019789995e+02,-2.352401356220225352e+02,-1.002795147458118663e+02,-4.080671811199681542e+01,-1.970389410954676350e+02,-9.910377042543404968e+01,-8.220420119685422833e+01,-9.112104911717142386e+01,9.561484336853027344e+00,-2.677215635776519775e-01,-3.824593871831893921e-02,2.520000000000000000e+02
-2.490587592685797063e+02,-2.410821784615291108e+02,-1.022239922917515287e+02,-4.195752809169607644e+01,-2.012413726500890334e+02,-1.001968217088151505e+02,-8.452353691891039489e+01,-9.252108203668012720e+01,9.561484336853027344e+00,-2.677215635776519775e-01,-3.824593871831893921e-02,2.530000000000000000e+02
-2.563903528417313282e+02,-2.466759999301102653e+02,-1.049120238447148949e+02,-4.312059736041555880e+01,-2.055947108291738914e+02,-1.024772183071463587e+02,-8.631118665581561800e+01,-9.448050005645654892e+01,9.561484336853027344e+00,-2.677215635776519775e-01,-3.824593871831893921e-02,2.540000000000000000e+02
-2.640033458038587924e+02,-2.526520591820171830e+02,-1.080832287428229392e+02,-4.476148330094292760e+01,-2.105822006370663075e+02,-1.057812279353947815e+02,-8.741255488615024660e+01,-9.742862915139721736e+01,9.561484336853027344e+00,-2.677215635776519775e-01,-3.824593871831893921e-02,2.550000000000000000e+02
-2.708434001328832892e+02,-2.592221403625835592e+02,-1.113226431094744839e+02,-4.671402867266442627e+01,-2.167677262192410126e+02,-1.093166636347796157e+02,-8.792764634250579547e+01,-1.011463210088286360e+02,9.561484336853027344e+00,-2.677215635776519775e-01,-3.824593871831893921e-02,2.560000000000000000e+02
-2.762112550992760589e+02,-2.660181246542842928e+02,-1.141797340939274363e+02,-4.823440541803120141e+01,-2.242132735489703919e+02,-1.123622683042794961e+02,-8.810950782459076436e+01,-1.050079161878011291e+02,9.561484336853027344e+00,-2.677215635776519775e-01,-3.824593871831893921e-02,2.570000000000000000e+02
-2.801751638977402763e+02,-2.724766550263029785e+02,-1.163656721778816063e+02,-4.872157621362384816e+01,-2.322801559992258262e+02,-1.147971291842768551e+02,-8.836539814322713937e+01,-1.086583622746193214e+02,9.561484336853027344e+00,-2.677215635776519775e-01,-3.824593871831893921e-02,2.580000000000000000e+02
-2.834489938614660787e+02,-2.782717066217828688e+02,-1.180222323110165235e+02,-4.834595314651323861e+01,-2.400784747230982248e+02,-1.170838155847859525e+02,-8.928321020070961822e+01,-1.124509834952041274e+02,9.561484336853027344e+00,-2.677215635776519775e-01,-3.824593871831893921e-02,2.590000000000000000e+02
-2.869358996704531819e+02,-2.833324915964317370e+02,-1.198006308548356174e+02,-4.787651146957887249e+01,-2.471490712283130051e+02,-1.198072036138491967e+02,-9.146634545561209961e+01,-1.171204330102036693e+02,9.561484336853027344e+00,-2.677215635776519775e-01,-3.824593871831893921e-02,2.600000000000000000e+02
-2.913128016877562914e+02,-2.875385624776772602e+02,-1.224932959543384641e+02,-4.785042988596524083e+01,-2.536969874694386817e+02,-1.231506243369940421e+02,-9.512638714110835281e+01,-1.228709526644993275e+02,9.561484336853027344e+00,-2.677215635776519775e-01,-3.824593871831893921e-02,2.610000000000000000e+02
-2.968530601066013332e+02,-2.905991913222196672e+02,-1.263648206883831335e+02,-4.797051436335641483e+01,-2.601458306146269024e+02,-1.266514147474126730e+02,-9.970991682877047424e+01,-1.287009299484475378e+02,9.561484336853027344e+00,-2.677215635776519775e-01,-3.824593871831893921e-02,2.620000000000000000e+02
-3.034259192688309668e+02,-2.924068220494723391e+02,-1.307504738028524116e+02,-4.741589061463128019e+01,-2.664697766870285704e+02,-1.293563509681462165e+02,-1.039818142631402225e+02,-1.327070057323421679e+02,9.561484336853027344e+00,-2.677215635776519775e-01,-3.824593871831893921e-02,2.630000000000000000e+02
-3.105659081335511473e+02,-2.935180010260150993e+02,-1.344015783448426191e+02,-4.580735944842945173e+01,-2.719902728361957998e+02,-1.302963893333653687e+02,-1.067050400896246174e+02,-1.332984939147168006e+02,9.561484336853027344e+00,-2.677215635776519775e-01,-3.824593871831893921e-02,2.640000000000000000e+02
-3.175892399197796294e+02,-2.951261667458552438e+02,-1.363909353609651589e+02,-4.383738783276567119e+01,-2.758779522366294259e+02,-1.290660861478172592e+02,-1.075138420557950667e+02,-1.303956310890935129e+02,9.561484336853027344e+00,-2.677215635776519775e-01,-3.824593871831893921e-02,2.650000000000000000e+02
-3.237766226941525929e+02,-2.983409164750173659e+02,-1.368101053628565751e+02,-4.289056478361544578e+01,-2.779267772618559320e+02,-1.262353728845118894e+02,-1.072876733993352900e+02,-1.256369933807332018e+02,9.523238182067871094e+00,-1.147378161549568176e-01,-3.824593871831893921e-02,2.660000000000000000e+02
-3.285861944092766862e+02,-3.033775906226687766e+02,-1.366324633184490267e+02,-4.398029499135373044e+01,-2.789119700597111660e+02,-1.233187533707068724e+02,-1.076282362547217417e+02,-1.214183236188073352e+02,9.523238182067871094e+00,-1.147378161549568176e-01,-3.824593871831893921e-02,2.670000000000000000e+02
-3.318063236458729079e+02,-3.094698450440946544e+02,-1.368949334512203677e+02,-4.698984337223737384e+01,-2.801945528384403588e+02,-1.221592808607310872e+02,-1.097535571085504671e+02,-1.194997445453286673e+02,9.523238182067871094e+00,-1.147378161549568176e-01,-3.824593871831893921e-02,2.680000000000000000e+02
-3.336155531750523551e+02,-3.156306449391954629e+02,-1.379808632107228732e+02,-5.087254579581258440e+01,-2.828634695922419269e+02,-1.239457372413789926e+02,-1.136413297508443065e+02,-1.201769241289098318e+02,9.523238182067871094e+00,-1.147378161549568176e-01,-3.824593871831893921e-02,2.690000000000000000e+02
-3.346153609828465960e+02,-3.214816956304161977e+02,-1.396382982178270140e+02,-5.451024017689996981e+01,-2.870797790162318961e+02,-1.284388560653160312e+02,-1.181052700751411066e+02,-1.224890863250966504e+02,9.523238182067871094e+00,-1.147378161549568176e-01,-3.824593871831893921e-02,2.700000000000000000e+02
-3.358396332137135687e+02,-3.272374162538981182e+02,-1.416053714008962743e+02,-5.736523623981702258e+01,-2.921244342152713216e+02,-1.339974681922130912e+02,-1.217444529909835182e+02,-1.251565051292363933e+02,9.523238182067871094e+00,-1.147378161549568176e-01,-3.824593871831893921e-02,2.710000000000000000e+02
-3.385861969834490992e+02,-3.328506211058243025e+02,-1.440961087861119267e+02,-5.942206326603718480e+01,-2.970779661334672710e+02,-1.385341235393607349e+02,-1.239964976362875859e+02,-1.275148999707244002e+02,9.523238182067871094e+00,-1.147378161549568176e-01,-3.824593871831893921e-02,2.720000000000000000e+02
-3.438845973246038739e+02,-3.373418530489125260e+02,-1.475716225924302307e+02,-6.071802357727028721e+01,-3.015653810531807721e+02,-1.408256084538488722e+02,-1.254489952746921517e+02,-1.298451724487740648e+02,9.523238182067871094e+00,-1.147378161549568176e-01,-3.824593871831893921e-02,2.730000000000000000e+02
-3.517302819219585217e+02,-3.392714160217346944e+02,-1.520119309849501406e+02,-6.112758135969670548e+01,-3.059542537872443972e+02,-1.412303688247357059e+02,-1.272149111275207360e+02,-1.329708304195182791e+02,9.523238182067871094e+00,-1.147378161549568176e-01,-3.824593871831893921e-02,2.740000000000000000e+02
-3.606502156672277124e+02,-3.381269837720515170e+02,-1.564680247474202588e+02,-6.064540119377033989e+01,-3.108656973412539628e+02,-1.412732134899579250e+02,-1.299520109940558541e+02,-1.374553834701828237e+02,9.523238182067871094e+00,-1.147378161549568176e-01,-3.824593871831893921e-02,2.750000000000000000e+02
-3.681529148497370443e+02,-3.352726096004703322e+02,-1.594615299330516791e+02,-5.974664149341742814e+01,-3.164590148944444081e+02,-1.424550364367005386e+02,-1.333477141265652790e+02,-1.429655436369580457e+02,9.523238182067871094e+00,-1.147378161549568176e-01,-3.824593871831893921e-02,2.760000000000000000e+02
-3.720413598611371526e+02,-3.333353686989698872e+02,-1.600246743199104458e+02,-5.926566292999632424e+01,-3.221484030452293155e+02,-1.452337328239100316e+02,-1.364583526744836490e+02,-1.482831312737089320e+02,9.523238182067871094e+00,-1.147378161549568176e-01,-3.824593871831893921e-02,2.770000000000000000e+02
-3.718045200388560261e+02,-3.343668366820616029e+02,-1.585602754845685922e+02,-5.980583552884172605e+01,-3.270455799870051123e+02,-1.489395046375402671e+02,-1.385584599456524302e+02,-1.520510448725603965e+02,9.523238182067871094e+00,-1.147378161549568176e-01,-3.824593871831893921e-02,2.780000000000000000e+02
-3.690564241824954479e+02,-3.383844718742589066e+02,-1.567922047464676325e+02,-6.127955956814821548e+01,-3.307387049859585204e+02,-1.525575628990736732e+02,-1.397488263593072588e+02,-1.537550856690463661e+02,9.523238182067871094e+00,-1.147378161549568176e-01,-3.824593871831893921e-02,2.790000000000000000e+02
-3.665934615822197884e+02,-3.436142034083918588e+02,-1.567616918905218881e+02,-6.308065795178299595e+01,-3.336670421948356307e+02,-1.556022608428811509e+02,-1.408050330151731941e+02,-1.541269813545768557e+02,9.523238182067871094e+00,-1.147378161549568176e-01,-3.824593871831893921e-02,2.800000000000000000e+02
-3.666845537921308278e+02,-3.481648228980639033e+02,-1.595468434227655052e+02,-6.472314175752626397e+01,-3.366891146347784343e+02,-1.583406842082422372e+02,-1.424100808435405270e+02,-1.545332939675117814e+02,9.523238182067871094e+00,-1.147378161549568176e-01,-3.824593871831893921e-02,2.810000000000000000e+02
-3.697925006401310384e+02,-3.515492755428840610e+02,-1.645791258953554461e+02,-6.627048436936865983e+01,-3.402060386966368242e+02,-1.612780461932788967e+02,-1.444645452568970541e+02,-1.558138968229127386e+02,9.523238182067871094e+00,-1.147378161549568176e-01,-3.824593871831893921e-02,2.820000000000000000e+02
-3.745904378588675172e+02,-3.547192465222892679e+02,-1.700076003995000065e+02,-6.813337405461516028e+01,-3.436886054667875214e+02,-1.644994968284527204e+02,-1.461266522854925825e+02,-1.576317713688026743e+02,9.523238182067871094e+00,-1.147378161549568176e-01,-3.824593871831893921e-02,2.830000000000000000e+02
-3.791512541946240162e+02,-3.587852398500008348e+02,-1.738590234412808968e+02,-7.052199665516218374e+01,-3.461302316062137834e+02,-1.675191305630323768e+02,-1.466101732054166860e+02,-1.589943679947386954e+02,9.523238182067871094e+00,-1.147378161549568176e-01,-3.824593871831893921e-02,2.840000000000000000e+02
-3.823454309873809507e+02,-3.637877629586660078e+02,-1.752348048782760088e+02,-7.320492862581386362e+01,-3.470824839106485342e+02,-1.697662488792002478e+02,-1.460641523001313544e+02,-1.594604210549814525e+02,9.523238182067871094e+00,-1.147378161549568176e-01,-3.824593871831893921e-02,2.850000000000000000e+02
-3.844406555553191538e+02,-3.686680335775481581e+02,-1.747912540683123552e+02,-7.584424614164618106e+01,-3.473244467131812598e+02,-1.712261018312065062e+02,-1.457106467614121357e+02,-1.597934074884701658e+02,9.523238182067871094e+00,-1.147378161549568176e-01,-3.824593871831893921e-02,2.860000000000000000e+02
-3.865963630172504963e+02,-3.722959413687585766e+02,-1.742308701786455458e+02,-7.846735733775858535e+01,-3.484706328974862117e+02,-1.725850236912424407e+02,-1.469998292192235567e+02,-1.613081258249658276e+02,9.523238182067871094e+00,-3.059675097465515137e-01,-3.824593871831893921e-02,2.870000000000000000e+02
-3.897709499086054166e+02,-3.744124730601379270e+02,-1.751701584971528973e+02,-8.143080968217736881e+01,-3.517829287401164038e+02,-1.746818386082313737e+02,-1.504355884191072619e+02,-1.645062203672823671e+02,9.523238182067871094e+00,-3.059675097465515137e-01,-3.824593871831893921e-02,2.880000000000000000e+02
-3.939164121007798940e+02,-3.756299006894193440e+02,-1.781406296952247885e+02,-8.482257411844830131e+01,-3.572023078165793777e+02,-1.777165826535940596e+02,-1.550907735681563508e+02,-1.684180955236606678e+02,9.523238182067871094e+00,-3.059675097465515137e-01,-3.824593871831893921e-02,2.890000000000000000e+02
-3.980269188385019561e+02,-3.766973052395405830e+02,-1.823621217281150848e+02,-8.797502150441187041e+01,-3.634558631455944351e+02,-1.809520718634694276e+02,-1.592691783520854187e+02,-1.714069693774624739e+02,9.523238182067871094e+00,-3.059675097465515137e-01,-3.824593871831893921e-02,2.900000000000000000e+02
-4.009168303537960583e+02,-3.778994590840686101e+02,-1.863862758983821095e+02,-8.974351018798574842e+01,-3.691150275264778884e+02,-1.832488228570095998e+02,-1.617434706141702918e+02,-1.726742303433884445e+02,9.523238182067871094e+00,-3.059675097465515137e-01,-3.824593871831893921e-02,2.910000000000000000e+02
-4.020965549556449332e+02,-3.791627257117219187e+02,-1.891181258519560515e+02,-8.942675044245697791e+01,-3.736183933020181485e+02,-1.840142435417226352e+02,-1.624865165686690034e+02,-1.729400541245494196e+02,9.523238182067871094e+00,-3.059675097465515137e-01,-3.824593871831893921e-02,2.920000000000000000e+02
-4.021065333248179741e+02,-3.805897806969501289e+02,-1.904784001896269956e+02,-8.747567773816786030e+01,-3.773532613236224051e+02,-1.837370088371815200e+02,-1.623213221855385200e+02,-1.735989249270140817e+02,9.523238182067871094e+00,-3.059675097465515137e-01,-3.824593871831893921e-02,2.930000000000000000e+02
-4.021190157583511109e+02,-3.827064943353029776e+02,-1.912659279249697875e+02,-8.526227291704230993e+01,-3.808367184826138327e+02,-1.835972080116241614e+02,-1.619650271563659771e+02,-1.752285470012316182e+02,9.523238182067871094e+00,-3.059675097465515137e-01,-3.824593871831893921e-02,2.940000000000000000e+02
-4.031461396431533331e+02,-3.860748397135754431e+02,-1.923766481527512724e+02,-8.406851660171423646e+01,-3.839050135758873239e+02,-1.844738511513073718e+02,-1.614883385452552602e+02,-1.769943861354207684e+02,9.523238182067871094e+00,-3.059675097465515137e-01,-3.824593871831893921e-02,2.950000000000000000e+02
-4.054367819582043353e+02,-3.906598587363996558e+02,-1.940343750132769856e+02,-8.421932593895280661e+01,-3.857523236038136929e+02,-1.862519849968296057e+02,-1.606996015901142982e+02,-1.775574779292542189e+02,9.523238182067871094e+00,-3.059675097465515137e-01,-3.824593871831893921e-02,2.960000000000000000e+02
-4.084432028145329809e+02,-3.956077670882696111e+02,-1.956628174728562044e+02,-8.511753784939992329e+01,-3.857547556897260392e+02,-1.880383860542585808e+02,-1.599396609303528294e+02,-1.765361361184308180e+02,9.523238182067871094e+00,-3.059675097465515137e-01,-3.824593871831893921e-02,2.970000000000000000e+02
-4.112866481956256735e+02,-3.997041183055187048e+02,-1.964761240523230299e+02,-8.603951580676562116e+01,-3.842126930630778361e+02,-1.890341713352574970e+02,-1.603060840450118576e+02,-1.750275553365557926e+02,9.523238182067871094e+00,-3.059675097465515137e-01,-3.824593871831893921e-02,2.980000000000000000e+02
-4.133270212170521631e+02,-4.021514271437847583e+02,-1.962342050363224644e+02,-8.685331332614009625e+01,-3.822419862719550565e+02,-1.892263045879392394e+02,-1.629108249617453339e+02,-1.746867229382130517e+02,9.523238182067871094e+00,-3.059675097465515137e-01,-3.824593871831893921e-02,2.990000000000000000e+02
-4.144302188817194974e+02,-4.030320783812634318e+02,-1.954499341223680631e+02,-8.797775980001779317e+01,-3.809110325851131620e+02,-1.892867487405276279e+02,-1.677781370466904036e+02,-1.762761220187717299e+02,9.523238182067871094e+00,-3.059675097465515137e-01,-3.824593871831893921e-02,3.000000000000000000e+02
-4.148464704352393824e+02,-4.031241262185457117e+02,-1.948559447639817108e+02,-8.970623095261953495e+01,-3.804653164858453920e+02,-1.898762792757631814e+02,-1.734138398901309301e+02,-1.790438776462257238e+02,9.523238182067871094e+00,-3.059675097465515137e-01,-3.824593871831893921e-02,3.010000000000000000e+02
-4.149293033117181722e+02,-4.032659174922462171e+02,-1.946749429489281056e+02,-9.163136143019210067e+01,-3.803581804006524862e+02,-1.910591897109138699e+02,-1.774960283437507087e+02,-1.813985577894738981e+02,9.523238182067871094e+00,-3.059675097465515137e-01,-3.824593871831893921e-02,3.020000000000000000e+02
-4.149649044877609754e+02,-4.037719930870360940e+02,-1.944487854376874338e+02,-9.276824619536705541e+01,-3.799807506570134592e+02,-1.923204796606576110e+02,-1.781861101886402139e+02,-1.821245171226205457e+02,9.523238182067871094e+00,-3.059675097465515137e-01,-3.824593871831893921e-02,3.030000000000000000e+02
-4.151850991758381610e+02,-4.042945490213757012e+02,-1.936324114495865842e+02,-9.227729822224227973e+01,-3.793094579946746308e+02,-1.930302208050100035e+02,-1.751105167526277455e+02,-1.810459740878640105e+02,9.523238182067871094e+00,-3.059675097465515137e-01,-3.824593871831893921e-02,3.040000000000000000e+02
-4.158081674373317469e+02,-4.041658530009073615e+02,-1.923562906153638323e+02,-9.014302408376761377e+01,-3.788638942102367082e+02,-1.928440929276853240e+02,-1.694497602723624823e+02,-1.787691116890516696e+02,9.523238182067871094e+00,-3.059675097465515137e-01,-3.824593871831893921e-02,3.050000000000000000e+02
-4.169513967888887578e+02,-4.029287023944061730e+02,-1.915370388265419024e+02,-8.724600861457543033e+01,-3.791211628366845616e+02,-1.917407240483580608e+02,-1.632934757679594213e+02,-1.760246564339990982e+02,9.523238182067871094e+00,-3.059675097465515137e-01,-3.824593871831893921e-02,3.060000000000000000e+02
-4.184680847182907542e+02,-4.006983588060835473e+02,-1.921369995270197251e+02,-8.480229270397603614e+01,-3.800480416853348515e+02,-1.898469139161429666e+02,-1.587709396971076785e+02,-1.733284003235753516e+02,9.523238182067871094e+00,-3.059675097465515137e-01,-3.824593871831893921e-02,3.070000000000000000e+02
-4.199172043797856873e+02,-3.981399984614317873e+02,-1.942615885768002499e+02,-8.363091244092129273e+01,-3.812297274484574245e+02,-1.873572820223532744e+02,-1.573164830651735429e+02,-1.711400521320460939e+02,9.523238182067871094e+00,-3.059675097465515137e-01,-3.824593871831893921e-02,3.080000000000000000e+02
-4.207896133758778205e+02,-3.960890507667921838e+02,-1.970022585289789276e+02,-8.378023481000127504e+01,-3.824279618798724414e+02,-1.846080224239037761e+02,-1.592042145512800744e+02,-1.701101266476821365e+02,9.523238182067871094e+00,-3.059675097465515137e-01,-3.824593871831893921e-02,3.090000000000000000e+02
-4.208462196549934333e+02,-3.950643893982008876e+02,-1.992001754407278895e+02,-8.471197603882092153e+01,-3.839665411890214841e+02,-1.821191704091120300e+02,-1.634553043594753490e+02,-1.709737425683739502e+02,9.523238182067871094e+00,-3.059675097465515137e-01,-3.824593871831893921e-02,3.100000000000000000e+02
-4.202662271663754154e+02,-3.949938286025927709e+02,-2.003747684093634689e+02,-8.581440933625776779e+01,-3.865166870719529015e+02,-1.804428934463057885e+02,-1.682514554082403038e+02,-1.740911971313819322e+02,9.523238182067871094e+00,-3.059675097465515137e-01,-3.824593871831893921e-02,3.110000000000000000e+02
-4.194606216896585238e+02,-3.953504325378037265e+02,-2.009439764436087899e+02,-8.681611643742849083e+01,-3.904367570135847814e+02,-1.799009981226595301e+02,-1.718084757805613663e+02,-1.790536203701627755e+02,9.523238182067871094e+00,-2.677215635776519775e-01,-3.824593871831893921e-02,3.120000000000000000e+02
-4.187268571303360432e+02,-3.956118018089235306e+02,-2.016027527255245104e+02,-8.780146320928497516e+01,-3.952481571947249677e+02,-1.804410077373668173e+02,-1.732626998240996272e+02,-1.847232929062890889e+02,9.523238182067871094e+00,-2.677215635776519775e-01,-3.824593871831893921e-02,3.130000000000000000e+02
-4.180814933829754523e+02,-3.956986245519818794e+02,-2.025871154969975123e+02,-8.888139812271754181e+01,-3.997182303603029254e+02,-1.817156802528452317e+02,-1.729805100599538719e+02,-1.896995685450913243e+02,9.523238182067871094e+00,-2.677215635776519775e-01,-3.824593871831893921e-02,3.140000000000000000e+02
-4.174314116215321633e+02,-3.960370411786506111e+02,-2.035842652873595853e+02,-8.987471386796801198e+01,-4.025249405553128668e+02,-1.832870668516997057e+02,-1.720610233959830566e+02,-1.928651629171572495e+02,9.523238182067871094e+00,-2.677215635776519775e-01,-3.824593871831893921e-02,3.150000000000000000e+02
-4.168902243524431128e+02,-3.971730779892374130e+02,-2.042746119008783126e+02,-9.035216509480164859e+01,-4.030163482759326712e+02,-1.848021976720618795e+02,-1.714624775368483824e+02,-1.936967940871144265e+02,9.523238182067871094e+00,-2.677215635776519775e-01,-3.824593871831893921e-02,3.160000000000000000e+02
-4.168756051098556554e+02,-3.992553085376871422e+02,-2.048067511383671899e+02,-9.005622068892785137e+01,-4.015139854270997830e+02,-1.860659328954328657e+02,-1.714887703664398941e+02,-1.922853280708103512e+02,9.523238182067871094e+00,-2.677215635776519775e-01,-3.824593871831893921e-02,3.170000000000000000e+02
-4.178290915726919366e+02,-4.018251503671419869e+02,-2.056386262081804261e+02,-8.931783952648447666e+01,-3.989849807995618107e+02,-1.870336306419069388e+02,-1.719795530112774031e+02,-1.892053958102376896e+02,9.523238182067871094e+00,-2.677215635776519775e-01,-3.824593871831893921e-02,3.180000000000000000e+02
-4.197912978838858749e+02,-4.040964834046440046e+02,-2.069532665043210500e+02,-8.902404555603516201e+01,-3.963949982823028222e+02,-1.877609646513581083e+02,-1.728585053373128630e+02,-1.853804960745676453e+02,9.523238182067871094e+00,-2.677215635776519775e-01,-3.824593871831893921e-02,3.190000000000000000e+02
-4.222258315681921772e+02,-4.054748101953334753e+02,-2.083490537568560512e+02,-9.004453019563084126e+01,-3.942605214300509715e+02,-1.883296134595761941e+02,-1.743884655793549427e+02,-1.819314398487106246e+02,9.523238182067871094e+00,-2.677215635776519775e-01,-3.824593871831893921e-02,3.200000000000000000e+02
-4.242644849960089459e+02,-4.058805937890516020e+02,-2.091797407358992587e+02,-9.253749956695480705e+01,-3.926846890443265465e+02,-1.887908324723603073e+02,-1.768526259488395453e+02,-1.799091416986337322e+02,9.523238182067871094e+00,-2.677215635776519775e-01,-3.824593871831893921e-02,3.210000000000000000e+02
-4.251746287493152181e+02,-4.056636079865016882e+02,-2.091654194174612940e+02,-9.572512070528944150e+01,-3.916803645992255838e+02,-1.891617583353869350e+02,-1.800230714571830504e+02,-1.799171279860102572e+02,9.523238182067871094e+00,-2.677215635776519775e-01,-3.824593871831893921e-02,3.220000000000000000e+02
-4.247066075447025923e+02,-4.052701722395185584e+02,-2.085991982095200683e+02,-9.837222411656512122e+01,-3.913453654115069185e+02,-1.894473307218084983e+02,-1.830309311988245327e+02,-1.818082154956236423e+02,9.523238182067871094e+00,-2.677215635776519775e-01,-3.824593871831893921e-02,3.230000000000000000e+02
-4.231341186170508877e+02,-4.049883654812324494e+02,-2.079577387877590127e+02,-9.961552963489032209e+01,-3.916882820918013977e+02,-1.896275628555705453e+02,-1.848561634212611580e+02,-1.847053097686921319e+02,9.523238182067871094e+00,-2.677215635776519775e-01,-3.824593871831893921e-02,3.240000000000000000e+02
-4.210580343466278919e+02,-4.049114727359522021e+02,-2.073862051718177781e+02,-9.949010193114338563e+01,-3.923492833662207886e+02,-1.896030871888654019e+02,-1.850318420637761392e+02,-1.874129381784897532e+02,9.523238182067871094e+00,-2.677215635776519775e-01,-3.824593871831893921e-02,3.250000000000000000e+02
-4.191518168172638639e+02,-4.049867510216921005e+02,-2.066493594228854818e+02,-9.876331832800622124e+01,-3.926374790935031456e+02,-1.891814452807547013e+02,-1.839549317886946938e+02,-1.889990271528673702e+02,9.523238182067871094e+00,-2.677215635776519775e-01,-3.824593871831893921e-02,3.260000000000000000e+02
-4.179459315792307166e+02,-4.049958532993916833e+02,-2.055870827253223752e+02,-9.826665940893667539e+01,-3.919857975255437736e+02,-1.881770665920317924e+02,-1.825643571960165445e+02,-1.891868078304062237e+02,9.523238182067871094e+00,-2.677215635776519775e-01,-3.824593871831893921e-02,3.270000000000000000e+02
-4.176597265865835311e+02,-4.045260670550661644e+02,-2.045245404575957764e+02,-9.830131457261063588e+01,-3.904443061671225337e+02,-1.865834073828667670e+02,-1.816979415424299305e+02,-1.883417145554454919e+02,9.523238182067871094e+00,-2.677215635776519775e-01,-3.824593871831893921e-02,3.280000000000000000e+02
-4.181091641002707888e+02,-4.031316771339232901e+02,-2.041433800373440590e+02,-9.857883777316135365e+01,-3.887158531129234120e+02,-1.846535933214109946e+02,-1.816486214845562017e+02,-1.871363450106415485e+02,9.523238182067871094e+00,-2.677215635776519775e-01,-3.824593871831893921e-02,3.290000000000000000e+02
-4.187804901609447938e+02,-4.007077647076333164e+02,-2.049244139025942104e+02,-9.868079343619729116e+01,-3.876691802505039846e+02,-1.827972084156114079e+02,-1.821804318794002029e+02,-1.861784122789986213e+02,9.523238182067871094e+00,-2.677215635776519775e-01,-3.824593871831893921e-02,3.300000000000000000e+02
-4.190815674097539727e+02,-3.977492563990358576e+02,-2.067202530051005169e+02,-9.855944062671846950e+01,-3.877682656854800598e+02,-1.813767777476491574e+02,-1.828452853525234332e+02,-1.858161296667302622e+02,9.523238182067871094e+00,-2.677215635776519775e-01,-3.824593871831893921e-02,3.310000000000000000e+02
-4.186302829295795505e+02,-3.951498158604300670e+02,-2.088601504636490063e+02,-9.860837358771289018e+01,-3.889094851236430941e+02,-1.805703060906774908e+02,-1.832932598560159931e+02,-1.861345594114754931e+02,9.523238182067871094e+00,-2.677215635776519775e-01,-3.824593871831893921e-02,3.320000000000000000e+02
-4.173801169766970816e+02,-3.935848701418212841e+02,-2.106591330692871225e+02,-9.926407067564616682e+01,-3.907228708217019744e+02,-1.803688445741436226e+02,-1.834282250741031248e+02,-1.870411959037402312e+02,9.523238182067871094e+00,-2.677215635776519775e-01,-3.824593871831893921e-02,3.330000000000000000e+02
-4.155314107227421232e+02,-3.929684748491775963e+02,-2.118287034729905827e+02,-1.005254901846597022e+02,-3.929164698982133928e+02,-1.806222782648940210e+02,-1.834175272543127448e+02,-1.883328902657893877e+02,9.523238182067871094e+00,-2.677215635776519775e-01,-3.824593871831893921e-02,3.340000000000000000e+02
-4.133644444976466161e+02,-3.925105469587042535e+02,-2.124532015747369087e+02,-1.018581505557280025e+02,-3.952717966132795482e+02,-1.810637166111523584e+02,-1.835983676112712146e+02,-1.897204699656522280e+02,9.523238182067871094e+00,-2.677215635776519775e-01,-3.824593871831893921e-02,3.350000000000000000e+02
-4.111636813198330742e+02,-3.913787703190965885e+02,-2.126668477066502874e+02,-1.025882167923972474e+02,-3.973686296648596681e+02,-1.813723391981426403e+02,-1.842692860540320225e+02,-1.908635321410562256e+02,9.523238182067871094e+00,-2.677215635776519775e-01,-3.824593871831893921e-02,3.360000000000000000e+02
-4.092292146399747708e+02,-3.893937881760056143e+02,-2.124176507425897853e+02,-1.024308813439904497e+02,-3.984701431257617514e+02,-1.813505796434587864e+02,-1.854206374227860579e+02,-1.914409837502901155e+02,9.523238182067871094e+00,-2.677215635776519775e-01,-3.824593871831893921e-02,3.370000000000000000e+02
-4.078354113722751890e+02,-3.871452315520475622e+02,-2.115348272831879513e+02,-1.016691527722124420e+02,-3.978398934932081374e+02,-1.811040373788209763e+02,-1.865824530636602958e+02,-1.912134244185020293e+02,9.523238182067871094e+00,-2.677215635776519775e-01,-3.824593871831893921e-02,3.380000000000000000e+02
-4.070787612338727968e+02,-3.854512923489800187e+02,-2.099717754352244583e+02,-1.008296784813574050e+02,-3.952827121092609559e+02,-1.809593684103531359e+02,-1.870052051162153930e+02,-1.900421307114370393e+02,9.561484336853027344e+00,-3.824593424797058105e-01,0.000000000000000000e+00,3.390000000000000000e+02
-4.067673913606822680e+02,-3.846781308485551563e+02,-2.079510701860424433e+02,-1.001832649167403133e+02,-3.914188888262001456e+02,-1.810537558039482064e+02,-1.861562884212681865e+02,-1.878771720822292650e+02,9.561484336853027344e+00,-3.824593424797058105e-01,0.000000000000000000e+00,3.400000000000000000e+02
-4.065431357235999030e+02,-3.845283415029070966e+02,-2.058850506206368891e+02,-9.956015880816755725e+01,-3.873924460442356121e+02,-1.809416188160510046e+02,-1.841745892728163199e+02,-1.847687420453853520e+02,9.561484336853027344e+00,-3.824593424797058105e-01,0.000000000000000000e+00,3.410000000000000000e+02
-4.061861838081233600e+02,-3.844240910633599242e+02,-2.041732490279232479e+02,-9.864465555496633442e+01,-3.841942610005314691e+02,-1.797071925381429764e+02,-1.818659135110666512e+02,-1.809387892754722316e+02,9.561484336853027344e+00,-3.824593424797058105e-01,0.000000000000000000e+00,3.420000000000000000e+02
-4.057910925402213707e+02,-3.840410243332474920e+02,-2.030381829123259649e+02,-9.742947307109704980e+01,-3.821119695439863335e+02,-1.766818160369424504e+02,-1.801410908639736590e+02,-1.768708881308371019e+02,9.561484336853027344e+00,-3.824593424797058105e-01,0.000000000000000000e+00,3.430000000000000000e+02
-4.055750538914279559e+02,-3.834766157816720806e+02,-2.024723038701703217e+02,-9.634683257272035917e+01,-3.807043554067550986e+02,-1.722108008049319778e+02,-1.793136647415361722e+02,-1.733108889939317123e+02,9.561484336853027344e+00,-3.824593424797058105e-01,0.000000000000000000e+00,3.440000000000000000e+02
-4.054659189790648952e+02,-3.829555912460676836e+02,-2.022616551056703429e+02,-9.593544294392756910e+01,-3.792671071299694177e+02,-1.677195119497266660e+02,-1.788542818948052400e+02,-1.710496266502620983e+02,9.561484336853027344e+00,-3.824593424797058105e-01,0.000000000000000000e+00,3.450000000000000000e+02
-4.049152263024930107e+02,-3.824561575029301821e+02,-2.020470306743351330e+02,-9.636455873502995928e+01,-3.774029167043947837e+02,-1.648827101744299171e+02,-1.778393756382490665e+02,-1.705102103413491932e+02,9.561484336853027344e+00,-3.824593424797058105e-01,0.000000000000000000e+00,3.460000000000000000e+02
-4.032193821929047317e+02,-3.816916241202658284e+02,-2.014257311320907320e+02,-9.726674450220684776e+01,-3.752529549961503790e+02,-1.645076669726108776e+02,-1.757353295543731520e+02,-1.713816153893403680e+02,9.561484336853027344e+00,-3.824593424797058105e-01,0.000000000000000000e+00,3.470000000000000000e+02
-4.001248459315409036e+02,-3.804684445898494687e+02,-2.001002869351731306e+02,-9.801703278536160724e+01,-3.732429061412784677e+02,-1.660370966250351330e+02,-1.728473346739182261e+02,-1.726147372231524741e+02,9.561484336853027344e+00,-3.824593424797058105e-01,0.000000000000000000e+00,3.480000000000000000e+02
-3.961521605210401731e+02,-3.790041811952798980e+02,-1.980172134455790456e+02,-9.817486310403762673e+01,-3.715931723756802967e+02,-1.680488024176765975e+02,-1.700462504971363842e+02,-1.729115428550533125e+02,9.561484336853027344e+00,-3.824593424797058105e-01,0.000000000000000000e+00,3.490000000000000000e+02
-3.923017272107490498e+02,-3.777922253064248252e+02,-1.954183646674536021e+02,-9.770507942380891109e+01,-3.700511910106848745e+02,-1.692851061794873431e+02,-1.680267851529256404e+02,-1.714820058961902305e+02,9.561484336853027344e+00,-3.824593424797058105e-01,0.000000000000000000e+00,3.500000000000000000e+02
-3.893872697135898306e+02,-3.770744005930969251e+02,-1.927848994117363191e+02,-9.686445505036681425e+01,-3.681282703072924960e+02,-1.693596821508861012e+02,-1.667576120926687508e+02,-1.685588365148905723e+02,9.561484336853027344e+00,-3.824593424797058105e-01,0.000000000000000000e+00,3.510000000000000000e+02
-3.875839321461877489e+02,-3.764261968447101481e+02,-1.907051103655500128e+02,-9.594010349186260100e+01,-3.656552338072881412e+02,-1.686679350721003630e+02,-1.656056771131804908e+02,-1.652663158937297112e+02,9.561484336853027344e+00,-3.824593424797058105e-01,0.000000000000000000e+00,3.520000000000000000e+02
-3.865518412826771737e+02,-3.749401511423982356e+02,-1.897260804772040501e+02,-9.508869992916584124e+01,-3.631518151650194568e+02,-1.677690643848775380e+02,-1.640372568280986343e+02,-1.629155019914589957e+02,9.561484336853027344e+00,-3.824593424797058105e-01,0.000000000000000000e+00,3.530000000000000000e+02
-3.859221811933354047e+02,-3.719589200899979460e+02,-1.902144169094016206e+02,-9.434267509362462079e+01,-3.616397750860996894e+02,-1.668864441422729215e+02,-1.622976370620526723e+02,-1.622620460850260997e+02,9.561484336853027344e+00,-3.824593424797058105e-01,0.000000000000000000e+00,3.540000000000000000e+02
-3.856164301755406996e+02,-3.677478601707931603e+02,-1.922168686945549325e+02,-9.368638151860034213e+01,-3.619975414268479881e+02,-1.659360183558428616e+02,-1.614575513372843716e+02,-1.632656139554657102e+02,9.561484336853027344e+00,-3.824593424797058105e-01,0.000000000000000000e+00,3.550000000000000000e+02
-3.857085673673059318e+02,-3.634752842117854925e+02,-1.953369190049794497e+02,-9.311674249171790052e+01,-3.643477311113248334e+02,-1.649344276277959125e+02,-1.627071128644640794e+02,-1.654137529250338048e+02,9.561484336853027344e+00,-3.824593424797058105e-01,0.000000000000000000e+00,3.560000000000000000e+02
-3.860338979133082375e+02,-3.604565185185480232e+02,-1.987089050802046586e+02,-9.268894546923627331e+01,-3.679118253793858457e+02,-1.642795188192956175e+02,-1.663797156304988221e+02,-1.681868984428665499e+02,9.561484336853027344e+00,-3.824593424797058105e-01,0.000000000000000000e+00,3.570000000000000000e+02
-3.860006546717586389e+02,-3.592682612346718543e+02,-2.011898378173352739e+02,-9.256650088910566865e+01,-3.713716067208583809e+02,-1.645764182920677285e+02,-1.714637778117630660e+02,-1.712212750707024043e+02,9.561484336853027344e+00,-3.824593424797058105e-01,0.000000000000000000e+00,3.580000000000000000e+02
-3.848366397965644410e+02,-3.594512533121459228e+02,-2.017806480971859173e+02,-9.300301197835938183e+01,-3.734357079053055486e+02,-1.661497242853179159e+02,-1.760299549685390730e+02,-1.741188494804921447e+02,9.561484336853027344e+00,-3.824593424797058105e-01,0.000000000000000000e+00,3.590000000000000000e+02
-3.820852801878921809e+02,-3.599983974760734782e+02,-2.001140534651079861e+02,-9.416880583138117800e+01,-3.733004830743698221e+02,-1.687005937328256095e+02,-1.783325411950341959e+02,-1.762614851652410835e+02,9.561484336853027344e+00,-3.824593424797058105e-01,0.000000000000000000e+00,3.600000000000000000e+02
-3.779683410450649035e+02,-3.601427956646858775e+02,-1.967177097233571885e+02,-9.589064600481844991e+01,-3.708947156628241828e+02,-1.714333835247275601e+02,-1.778349513127129740e+02,-1.769646574763071385e+02,9.561484336853027344e+00,-3.824593424797058105e-01,0.000000000000000000e+00,3.610000000000000000e+02
-3.733789956913248034e+02,-3.597483283927052753e+02,-1.928310429955899963e+02,-9.753490471348789015e+01,-3.668963448226327273e+02,-1.735372226977965511e+02,-1.754361831109774812e+02,-1.758975566130145580e+02,9.561484336853027344e+00,-3.824593424797058105e-01,0.000000000000000000e+00,3.620000000000000000e+02
-3.695272899919439169e+02,-3.590464749747497990e+02,-1.898112800074037523e+02,-9.823272692971431752e+01,-3.624652786426745479e+02,-1.746017394257933120e+02,-1.727682930240459882e+02,-1.733701593293606038e+02,9.561484336853027344e+00,-3.824593424797058105e-01,0.000000000000000000e+00,3.630000000000000000e+02
-3.674136645854435983e+02,-3.580984501997215830e+02,-1.884521590722644078e+02,-9.739115454777311243e+01,-3.587059128232806415e+02,-1.746486447747593047e+02,-1.711341034026382886e+02,-1.701942552436208871e+02,9.561484336853027344e+00,-3.824593424797058105e-01,0.000000000000000000e+00,3.640000000000000000e+02
-3.673295029954712163e+02,-3.565799037278175092e+02,-1.886397175837796567e+02,-9.515447514017068897e+01,-3.561103087857403580e+02,-1.738724697219765858e+02,-1.708706822858878240e+02,-1.672328404132366586e+02,9.561484336853027344e+00,-3.824593424797058105e-01,0.000000000000000000e+00,3.650000000000000000e+02
-3.685868496863459995e+02,-3.541070171648462974e+02,-1.895594957859339047e+02,-9.246002900943835812e+01,-3.543950281644331426e+02,-1.724596601684909274e+02,-1.715110868131521329e+02,-1.650243887974314703e+02,9.561484336853027344e+00,-3.824593424797058105e-01,0.000000000000000000e+00,3.660000000000000000e+02
-3.697110654138739392e+02,-3.507730104577707380e+02,-1.902851564640538982e+02,-9.059039101273492633e+01,-3.529034355675889856e+02,-1.706742319638851768e+02,-1.724323250193280046e+02,-1.637244579256571342e+02,9.561484336853027344e+00,-3.824593424797058105e-01,0.000000000000000000e+00,3.670000000000000000e+02
-3.691636407838786909e+02,-3.473391591851111571e+02,-1.902900622103942396e+02,-9.047421212529570766e+01,-3.512252686621900466e+02,-1.689942978812862293e+02,-1.733246056801290251e+02,-1.632412360890178888e+02,9.561484336853027344e+00,-3.824593424797058105e-01,0.000000000000000000e+00,3.680000000000000000e+02
-3.662803351928271240e+02,-3.448174917949199880e+02,-1.895341627306181636e+02,-9.216221748300154104e+01,-3.494454243214681810e+02,-1.679564218666116631e+02,-1.741232187016063335e+02,-1.633132242206379487e+02,9.561484336853027344e+00,-3.824593424797058105e-01,0.000000000000000000e+00,3.690000000000000000e+02
-3.617995040674240954e+02,-3.437368005594382794e+02,-1.881820411306483720e+02,-9.478947968299348759e+01,-3.478046473698077534e+02,-1.677083727107606137e+02,-1.746346844926326867e+02,-1.634714867947913035e+02,9.293763160705566406e+00,-3.824593424797058105e-01,-3.824593871831893921e-02,3.700000000000000000e+02
-3.574724576496651025e+02,-3.436951008890841877e+02,-1.863329530922881077e+02,-9.704019517388360327e+01,-3.461940715936812012e+02,-1.677074478342312887e+02,-1.743821001984038048e+02,-1.630787737030077551e+02,9.293763160705566406e+00,-3.824593424797058105e-01,-3.824593871831893921e-02,3.710000000000000000e+02
-3.548968282804808041e+02,-3.435846534118286399e+02,-1.840716474650654391e+02,-9.783993144458918323e+01,-3.441160180657448109e+02,-1.669824234224995507e+02,-1.729168246685840131e+02,-1.616135890692282828e+02,9.293763160705566406e+00,-3.824593424797058105e-01,-3.824593871831893921e-02,3.720000000000000000e+02
-3.544038989837690679e+02,-3.423285683053406956e+02,-1.817471859981866373e+02,-9.687752826074211043e+01,-3.412307022040822631e+02,-1.648633546674507215e+02,-1.702990554891443935e+02,-1.590480259046747733e+02,9.293763160705566406e+00,-3.824593424797058105e-01,-3.824593871831893921e-02,3.730000000000000000e+02
-3.548860869582636042e+02,-3.395505089606019737e+02,-1.800679935227556143e+02,-9.466932895940863091e+01,-3.379133606777891146e+02,-1.615700956577190937e+02,-1.672230829090808584e+02,-1.559528962325734938e+02,9.293763160705566406e+00,-3.824593424797058105e-01,-3.824593871831893921e-02,3.740000000000000000e+02
-3.547180805090929425e+02,-3.356736692102781490e+02,-1.797421324568326781e+02,-9.216037762561677482e+01,-3.351547920244058787e+02,-1.581176103318980495e+02,-1.645988432719550474e+02,-1.531607210999184190e+02,9.293763160705566406e+00,-3.824593424797058105e-01,-3.824593871831893921e-02,3.750000000000000000e+02
-3.529982576732179496e+02,-3.314444161453561719e+02,-1.808980007882964856e+02,-9.013889636974454334e+01,-3.338133377608180581e+02,-1.556068461339430087e+02,-1.629571889912404004e+02,-1.512454525388150159e+02,9.293763160705566406e+00,-3.824593424797058105e-01,-3.824593871831893921e-02,3.760000000000000000e+02
-3.500782475722478466e+02,-3.273623908275344547e+02,-1.828415658736807927e+02,-8.884218961401120396e+01,-3.339198305576501298e+02,-1.545142949529513317e+02,-1.622120296291154773e+02,-1.502805739404329870e+02,9.293763160705566406e+00,-3.824593424797058105e-01,-3.824593871831893921e-02,3.770000000000000000e+02
-3.470107598738204615e+02,-3.235186842432738104e+02,-1.844586094496580699e+02,-8.797994439480135043e+01,-3.346963112942421503e+02,-1.545406261935306702e+02,-1.619471288226714023e+02,-1.500381997411595876e+02,9.293763160705566406e+00,-3.824593424797058105e-01,-3.824593871831893921e-02,3.780000000000000000e+02
-3.445186313261624491e+02,-3.199157150667115275e+02,-1.849558599553624845e+02,-8.710020733226156153e+01,-3.352037503322203520e+02,-1.550198488794874265e+02,-1.618673472530947492e+02,-1.503204422723265452e+02,9.293763160705566406e+00,-3.824593424797058105e-01,-3.824593871831893921e-02,3.790000000000000000e+02
-3.424671205261943214e+02,-3.168612243646118714e+02,-1.842794442217498272e+02,-8.599334890636055206e+01,-3.349184487526547400e+02,-1.554250854903827985e+02,-1.619231475034916912e+02,-1.509929808788167520e+02,9.293763160705566406e+00,-3.824593424797058105e-01,-3.824593871831893921e-02,3.800000000000000000e+02
-3.402452006667481328e+02,-3.149711060173237911e+02,-1.828556284368028173e+02,-8.483536398092633135e+01,-3.337209652641399771e+02,-1.555606639031366285e+02,-1.620397013808142219e+02,-1.516973054341460738e+02,9.293763160705566406e+00,-3.824593424797058105e-01,-3.824593871831893921e-02,3.810000000000000000e+02
-3.375741380396120803e+02,-3.147259464873222896e+02,-1.810014510448404508e+02,-8.400673106421299963e+01,-3.315033833501893241e+02,-1.554174397054307519e+02,-1.618656810897934974e+02,-1.516901978074233739e+02,9.293763160705566406e+00,-3.824593424797058105e-01,-3.824593871831893921e-02,3.820000000000000000e+02
-3.348884739667030317e+02,-3.159876411527902746e+02,-1.786583919718059406e+02,-8.377333274059310497e+01,-3.280183880344602585e+02,-1.549549182512362222e+02,-1.609471333922242593e+02,-1.502033265298969127e+02,9.293763160705566406e+00,-3.824593424797058105e-01,-3.824593871831893921e-02,3.830000000000000000e+02
-3.329049807697679171e+02,-3.179430862868807708e+02,-1.757081406735678684e+02,-8.409289673759394645e+01,-3.232433360670452203e+02,-1.540284362553784376e+02,-1.592190176612739378e+02,-1.471281173335619314e+02,9.293763160705566406e+00,-3.824593424797058105e-01,-3.824593871831893921e-02,3.840000000000000000e+02
-3.318262329442434293e+02,-3.195389168131450788e+02,-1.724566127409043474e+02,-8.467222395756357400e+01,-3.178492076872807957e+02,-1.524873431489959330e+02,-1.572680736058882758e+02,-1.433588934318704560e+02,9.293763160705566406e+00,-3.824593424797058105e-01,-3.824593871831893921e-02,3.850000000000000000e+02
-3.309661784547893149e+02,-3.200351653136697223e+02,-1.696498374758602949e+02,-8.518432664750980621e+01,-3.131262799549422198e+02,-1.503268791781306390e+02,-1.559604882765283946e+02,-1.403213208179290632e+02,9.293763160705566406e+00,-3.824593424797058105e-01,-3.824593871831893921e-02,3.860000000000000000e+02
-3.291664732666886266e+02,-3.192700316503692193e+02,-1.678985139383248679e+02,-8.545110119265837056e+01,-3.102314865560019825e+02,-1.477798556879790794e+02,-1.556725467170310822e+02,-1.389899430862460576e+02,9.293763160705566406e+00,-3.824593424797058105e-01,-3.824593871831893921e-02,3.870000000000000000e+02
-3.256485655492874685e+02,-3.175497634265341276e+02,-1.670700478618148281e+02,-8.546602087374071743e+01,-3.093484703108117628e+02,-1.452806810336528542e+02,-1.558198428016335129e+02,-1.392594757093579574e+02,9.293763160705566406e+00,-3.824593424797058105e-01,-3.824593871831893921e-02,3.880000000000000000e+02
-3.206129476244102534e+02,-3.153617369510418484e+02,-1.663149972673836601e+02,-8.528707372752660376e+01,-3.095236129977515702e+02,-1.432713528464375941e+02,-1.551814949560639434e+02,-1.402277878047079867e+02,9.293763160705566406e+00,-3.824593424797058105e-01,-3.824593871831893921e-02,3.890000000000000000e+02
-3.151634573943406394e+02,-3.131133645635261473e+02,-1.647761659303532724e+02,-8.492020741649821503e+01,-3.093509337026157482e+02,-1.419107033352181588e+02,-1.528120612460261327e+02,-1.410678310183131998e+02,9.293763160705566406e+00,-3.824593424797058105e-01,-3.824593871831893921e-02,3.900000000000000000e+02
-3.106725514921699869e+02,-3.109637145682959272e+02,-1.623171776776080151e+02,-8.429203858722530640e+01,-3.079202220916322403e+02,-1.408948908108054638e+02,-1.487860264505461600e+02,-1.416171264361123576e+02,9.523238182067871094e+00,-3.442134261131286621e-01,-1.529837548732757568e-01,3.910000000000000000e+02
-3.080401370762851911e+02,-3.087529343229196002e+02,-1.595884519923217795e+02,-8.330603606820295681e+01,-3.052596301160413077e+02,-1.395792649023742342e+02,-1.441751834293868342e+02,-1.421619690602854007e+02,9.523238182067871094e+00,-3.442134261131286621e-01,-1.529837548732757568e-01,3.920000000000000000e+02
-3.072493299435780045e+02,-3.060975348257104542e+02,-1.573885924233193236e+02,-8.191474058707626682e+01,-3.020131352098751449e+02,-1.373834543666475838e+02,-1.403361669182609148e+02,-1.427709915635214202e+02,9.523238182067871094e+00,-3.442134261131286621e-01,-1.529837548732757568e-01,3.930000000000000000e+02
-3.073854663847091615e+02,-3.026945331622534923e+02,-1.559617436939804520e+02,-8.016455871625498730e+01,-2.987835781552480512e+02,-1.341947814146287783e+02,-1.381137336375254563e+02,-1.429924279226122508e+02,9.523238182067871094e+00,-3.442134261131286621e-01,-1.529837548732757568e-01,3.940000000000000000e+02
-3.070802215701291971e+02,-2.986579881928378200e+02,-1.548821770816225580e+02,-7.821336733402813479e+01,-2.957708235886411785e+02,-1.304472902945053647e+02,-1.375005490150788319e+02,-1.422845222396392728e+02,9.523238182067871094e+00,-3.442134261131286621e-01,-1.529837548732757568e-01,3.950000000000000000e+02
-3.051983343890658489e+02,-2.945571140061083497e+02,-1.535632884062579251e+02,-7.632691627744497964e+01,-2.929342871682172245e+02,-1.268361149381107680e+02,-1.378440408839539941e+02,-1.407097988331702254e+02,9.523238182067871094e+00,-3.442134261131286621e-01,-1.529837548732757568e-01,3.960000000000000000e+02
-3.014323242892587587e+02,-2.910201968480450887e+02,-1.518425729932278045e+02,-7.483400423016882996e+01,-2.903683789034521396e+02,-1.239370396820945643e+02,-1.383133103380350803e+02,-1.391141703323007732e+02,9.523238182067871094e+00,-3.442134261131286621e-01,-1.529837548732757568e-01,3.970000000000000000e+02
-2.964488242029312914e+02,-2.882261362395229298e+02,-1.500943553939803223e+02,-7.401436483521069931e+01,-2.884158232892198157e+02,-1.220247918268114518e+02,-1.383109037949500362e+02,-1.385274276846798784e+02,9.523238182067871094e+00,-3.442134261131286621e-01,-1.529837548732757568e-01,3.980000000000000000e+02
-2.914544961412129851e+02,-2.858064252960318754e+02,-1.488275720999554323e+02,-7.394059468071986885e+01,-2.873713135737327775e+02,-1.211160393803215811e+02,-1.376818650105199140e+02,-1.393182807126227090e+02,9.523238182067871094e+00,-3.442134261131286621e-01,-1.529837548732757568e-01,3.990000000000000000e+02
-2.874526717353505774e+02,-2.833154789729660479e+02,-1.481991774202465422e+02,-7.438909036735958580e+01,-2.870751164542600691e+02,-1.210431807589106938e+02,-1.367008347366586349e+02,-1.408812900459588491e+02,9.523238182067871094e+00,-3.442134261131286621e-01,-1.529837548732757568e-01,4.000000000000000000e+02
-2.847260907328513895e+02,-2.808158243031807615e+02,-1.478787867650648877e+02,-7.492032502769916391e+01,-2.868163701428720742e+02,-1.214360977659794116e+02,-1.358309553772012350e+02,-1.420816434531020604e+02,9.523238182067871094e+00,-3.442134261131286621e-01,-1.529837548732757568e-01,4.010000000000000000e+02
-2.829055243162065381e+02,-2.789218685854293653e+02,-1.473283952953609059e+02,-7.510008363413226107e+01,-2.856735802097480246e+02,-1.217192246534182232e+02,-1.353384218816515840e+02,-1.420033145024308396e+02,9.523238182067871094e+00,-3.442134261131286621e-01,-1.529837548732757568e-01,4.020000000000000000e+02
-2.814787515882062507e+02,-2.781699610808566376e+02,-1.462254114951354040e+02,-7.472453623129081279e+01,-2.830546777028425822e+02,-1.213208137451251787e+02,-1.350277573064518037e+02,-1.403999543611967056e+02,9.523238182067871094e+00,-3.442134261131286621e-01,-1.529837548732757568e-01,4.030000000000000000e+02
-2.802074917558506968e+02,-2.783237390953402155e+02,-1.446840619769068326e+02,-7.389511752837802305e+01,-2.790597827806652731e+02,-1.200418199990767789e+02,-1.343627475586372384e+02,-1.376328457421850544e+02,9.523238182067871094e+00,-3.442134261131286621e-01,-1.529837548732757568e-01,4.040000000000000000e+02
-2.790772711727381648e+02,-2.783737476077244537e+02,-1.431418520382267161e+02,-7.292428915387699817e+01,-2.744705080776986961e+02,-1.182803310037052142e+02,-1.329525230056826786e+02,-1.343598078922495915e+02,9.523238182067871094e+00,-3.442134261131286621e-01,-1.529837548732757568e-01,4.050000000000000000e+02
-2.779388680672529972e+02,-2.773201062021864800e+02,-1.420293260832936539e+02,-7.217638932966974608e+01,-2.704186252734286882e+02,-1.168408848732210572e+02,-1.309960436069409297e+02,-1.312889982258166128e+02,9.523238182067871094e+00,-3.442134261131286621e-01,-1.529837548732757568e-01,4.060000000000000000e+02
-2.763411864838799374e+02,-2.750130167986590095e+02,-1.414446782303530199e+02,-7.192897463317012807e+01,-2.679001688650259894e+02,-1.163957522957593937e+02,-1.292227787263686878e+02,-1.290290384898232787e+02,9.523238182067871094e+00,-3.442134261131286621e-01,-1.529837548732757568e-01,4.070000000000000000e+02
-2.738137362665163437e+02,-2.722464771309118987e+02,-1.410275553687545198e+02,-7.227192228899320980e+01,-2.673137035495101372e+02,-1.170151746680089673e+02,-1.282946754485119527e+02,-1.278942997145150002e+02,9.523238182067871094e+00,-3.442134261131286621e-01,-1.529837548732757568e-01,4.080000000000000000e+02
-2.703419147551931019e+02,-2.700278180917080135e+02,-1.401315914033402805e+02,-7.301691560798280989e+01,-2.681977261751560491e+02,-1.181411903950765918e+02,-1.281766326036183727e+02,-1.276665077791485601e+02,9.523238182067871094e+00,-3.442134261131286621e-01,-1.529837548732757568e-01,4.090000000000000000e+02
-2.665240792910331038e+02,-2.687357542296563224e+02,-1.382318116413018743e+02,-7.365622961549343017e+01,-2.693498033654282153e+02,-1.189917449037648112e+02,-1.280704747835679882e+02,-1.275379868797513154e+02,9.523238182067871094e+00,-3.442134261131286621e-01,-1.529837548732757568e-01,4.100000000000000000e+02
-2.632011463095791441e+02,-2.679324833455495991e+02,-1.353321855050701288e+02,-7.347073406167373832e+01,-2.693752226399119536e+02,-1.190246318596764468e+02,-1.270021793027556214e+02,-1.264426298756043252e+02,9.523238182067871094e+00,-3.442134261131286621e-01,-1.529837548732757568e-01,4.110000000000000000e+02
-2.608848295518046143e+02,-2.669038314413319313e+02,-1.320800040673145759e+02,-7.183757148170798246e+01,-2.674133271784562567e+02,-1.180887716266188363e+02,-1.245467297593731928e+02,-1.236554112970918595e+02,9.523238182067871094e+00,-3.442134261131286621e-01,-1.529837548732757568e-01,4.120000000000000000e+02
-2.594956821054688589e+02,-2.653233149101893105e+02,-1.294403957885288037e+02,-6.862247792345806374e+01,-2.635752772731448204e+02,-1.162410095049290248e+02,-1.210671728508298202e+02,-1.192527848082788751e+02,9.523238182067871094e+00,-3.442134261131286621e-01,-1.529837548732757568e-01,4.130000000000000000e+02
-2.585698181219449907e+02,-2.634310487237505640e+02,-1.280980397918497147e+02,-6.438504973667659215e+01,-2.587669302357107881e+02,-1.135282876483488508e+02,-1.173408835943737358e+02,-1.140906384336710744e+02,9.523238182067871094e+00,-3.442134261131286621e-01,-1.529837548732757568e-01,4.140000000000000000e+02
-2.575999340732837481e+02,-2.616791938891421978e+02,-1.279920623570160387e+02,-6.018864225914148847e+01,-2.540501749020822899e+02,-1.100152596537072895e+02,-1.140053467658824502e+02,-1.093285920399694078e+02,9.523238182067871094e+00,-3.442134261131286621e-01,-1.529837548732757568e-01,4.150000000000000000e+02
-2.561550276220900741e+02,-2.603197048810186516e+02,-1.283563709263567034e+02,-5.708382895405748059e+01,-2.500738374224547442e+02,-1.060197654316652915e+02,-1.113351679768047688e+02,-1.058614100454938125e+02,9.446745872497558594e+00,-2.677215635776519775e-01,-1.147378161549568176e-01,4.160000000000000000e+02
-2.538033877838881835e+02,-2.593317487826898287e+02,-1.282762592879887507e+02,-5.557349851007120378e+01,-2.469679985861380374e+02,-1.022061091376053810e+02,-1.094063920031237558e+02,-1.040091383803817280e+02,9.446745872497558594e+00,-2.677215635776519775e-01,-1.147378161549568176e-01,4.170000000000000000e+02
-2.501755343617714971e+02,-2.586244925729915849e+02,-1.273559942630101887e+02,-5.539759335839926280e+01,-2.446172073867937797e+02,-9.928234580789876418e+01,-1.082890540913224413e+02,-1.035479117076281455e+02,9.446745872497558594e+00,-2.677215635776519775e-01,-1.147378161549568176e-01,4.180000000000000000e+02
-2.453244635640623983e+02,-2.581725346033049391e+02,-1.259904099843092808e+02,-5.574665189191182435e+01,-2.428901701341387707e+02,-9.746910402113371674e+01,-1.079672081536841688e+02,-1.039373436084683817e+02,9.446745872497558594e+00,-2.677215635776519775e-01,-1.147378161549568176e-01,4.190000000000000000e+02
-2.400540676421505850e+02,-2.579125807583889127e+02,-1.250184395162916644e+02,-5.573145506640094027e+01,-2.415811193570962132e+02,-9.624053329189428041e+01,-1.080971650766343828e+02,-1.045625148852225266e+02,9.446745872497558594e+00,-2.677215635776519775e-01,-1.147378161549568176e-01,4.200000000000000000e+02
-2.357245695818191962e+02,-2.575834832984771765e+02,-1.250433053509866568e+02,-5.479883103941256195e+01,-2.402648403222929119e+02,-9.469420042584533803e+01,-1.079893093996522566e+02,-1.049127922724744622e+02,9.446745872497558594e+00,-2.677215635776519775e-01,-1.147378161549568176e-01,4.210000000000000000e+02
-2.334766999386761199e+02,-2.567935152443174047e+02,-1.259737319298747025e+02,-5.288334255659901828e+01,-2.384066025107249516e+02,-9.230742947497628847e+01,-1.069805189131411680e+02,-1.047104583451914550e+02,9.446745872497558594e+00,-2.677215635776519775e-01,-1.147378161549568176e-01,4.220000000000000000e+02
-2.334461047878285171e+02,-2.553229002394602958e+02,-1.271380864189331987e+02,-5.029846878055695925e+01,-2.357429277904043374e+02,-8.940106094082739219e+01,-1.049304553070514885e+02,-1.039706724139721246e+02,9.446745872497558594e+00,-2.677215635776519775e-01,-1.147378161549568176e-01,4.230000000000000000e+02
-2.346501284813698476e+02,-2.533628186546111465e+02,-1.278195688470959794e+02,-4.751384459653672820e+01,-2.325273694678817265e+02,-8.683785826837265631e+01,-1.023786867156688913e+02,-1.029267677421112239e+02,9.446745872497558594e+00,-2.677215635776519775e-01,-1.147378161549568176e-01,4.240000000000000000e+02
-2.356652835390746077e+02,-2.514239409256115323e+02,-1.277193064943960508e+02,-4.498035230154982855e+01,-2.292883611899269454e+02,-8.520641649998697176e+01,-1.001838311353467361e+02,-1.018342579172908700e+02,9.446745872497558594e+00,-2.677215635776519775e-01,-1.147378161549568176e-01,4.250000000000000000e+02
-2.355100726009764003e+02,-2.499707086688342770e+02,-1.269856023087734229e+02,-4.305884244966682672e+01,-2.262912121471231330e+02,-8.428024833642666636e+01,-9.893617709486716194e+01,-1.008014329273960357e+02,9.446745872497558594e+00,-2.677215635776519775e-01,-1.147378161549568176e-01,4.260000000000000000e+02
-2.340318863365696416e+02,-2.491069888993245058e+02,-1.259163369889688511e+02,-4.199414366030578094e+01,-2.233174884515296981e+02,-8.330353326584054230e+01,-9.862261714459327777e+01,-9.982999157855033445e+01,9.446745872497558594e+00,-2.677215635776519775e-01,-1.147378161549568176e-01,4.270000000000000000e+02
-2.316530275943109700e+02,-2.485747851805970186e+02,-1.247319462697148538e+02,-4.186296660605057696e+01,-2.200873727000125655e+02,-8.180981833129862935e+01,-9.877984549198754394e+01,-9.905354298004294833e+01,9.446745872497558594e+00,-2.677215635776519775e-01,-1.147378161549568176e-01,4.280000000000000000e+02
-2.289303784798466950e+02,-2.480065498221770213e+02,-1.236584502207006153e+02,-4.250316762781039870e+01,-2.169259443007581467e+02,-8.011469236452876430e+01,-9.893112129247265329e+01,-9.892201232285196966e+01,9.446745872497558594e+00,-2.677215635776519775e-01,-1.147378161549568176e-01,4.290000000000000000e+02
-2.263827531779197670e+02,-2.471646768242653707e+02,-1.231278878365160381e+02,-4.350262345792907581e+01,-2.148854769699833014e+02,-7.894412879195942878e+01,-9.890328562077411334e+01,-1.000430976768388973e+02,9.446745872497558594e+00,-2.677215635776519775e-01,-1.147378161549568176e-01,4.300000000000000000e+02
-2.245426163784973141e+02,-2.459965240832507334e+02,-1.237010647926831552e+02,-4.433193372570394786e+01,-2.149937251728151750e+02,-7.857149030958453295e+01,-9.881040803574433085e+01,-1.026856516390553224e+02,9.446745872497558594e+00,-2.677215635776519775e-01,-1.147378161549568176e-01,4.310000000000000000e+02
-2.238609235765129597e+02,-2.445643654903610695e+02,-1.256096307443208389e+02,-4.460642386662357239e+01,-2.172095924452814870e+02,-7.839149031564102188e+01,-9.881801216561143519e+01,-1.063365248666298157e+02,9.446745872497558594e+00,-2.677215635776519775e-01,-1.147378161549568176e-01,4.320000000000000000e+02
-2.243294306884135949e+02,-2.429859488144693387e+02,-1.282997789704741081e+02,-4.432913502529072503e+01,-2.201059223982074400e+02,-7.744613911829446806e+01,-9.896749376229035988e+01,-1.097929642747672005e+02,9.446745872497558594e+00,-2.677215635776519775e-01,-1.147378161549568176e-01,4.330000000000000000e+02
-2.252068073267932959e+02,-2.414274454415208311e+02,-1.305231219895354116e+02,-4.393101841809038888e+01,-2.217350905604562286e+02,-7.543197357983990514e+01,-9.922030391673615668e+01,-1.118725416541224149e+02,9.446745872497558594e+00,-2.677215635776519775e-01,-1.147378161549568176e-01,4.340000000000000000e+02
-2.253107435922274817e+02,-2.400506339328080685e+02,-1.310643890304413617e+02,-4.401681622142450578e+01,-2.210231459912233731e+02,-7.316955452806269022e+01,-9.959041607833751186e+01,-1.122151626957411281e+02,9.446745872497558594e+00,-2.677215635776519775e-01,-1.147378161549568176e-01,4.350000000000000000e+02
-2.238143752155610855e+02,-2.388760323827268621e+02,-1.295758112212060951e+02,-4.493794586402827917e+01,-2.184946465407192591e+02,-7.200150198788242051e+01,-1.001455584805448780e+02,-1.114808270946405173e+02,9.446745872497558594e+00,-2.677215635776519775e-01,-1.147378161549568176e-01,4.360000000000000000e+02
-2.209029492849622329e+02,-2.377038537330863619e+02,-1.268242050388284952e+02,-4.649173374547899584e+01,-2.157001187684713841e+02,-7.261925256505764992e+01,-1.008381342631796542e+02,-1.107316523487493214e+02,9.446745872497558594e+00,-2.677215635776519775e-01,-1.147378161549568176e-01,4.370000000000000000e+02
-2.176534455429800801e+02,-2.362422301825431532e+02,-1.241183868097455161e+02,-4.798817847285545213e+01,-2.138743428933344148e+02,-7.436912574979214696e+01,-1.013442336155349039e+02,-1.105102901685827419e+02,9.446745872497558594e+00,-2.677215635776519775e-01,-1.147378161549568176e-01,4.380000000000000000e+02
-2.151926207827555118e+02,-2.343898278058863980e+02,-1.223916569613752472e+02,-4.867692882035771618e+01,-2.130089130516548721e+02,-7.566148349442437393e+01,-1.011461930112982373e+02,-1.104376031439928738e+02,9.446745872497558594e+00,-2.677215635776519775e-01,-1.147378161549568176e-01,4.390000000000000000e+02
-2.138643975229974785e+02,-2.324087408044401855e+02,-1.216757779959125401e+02,-4.825502393917668087e+01,-2.121005930683013503e+02,-7.513574440950014832e+01,-9.988257828943278582e+01,-1.096896642345232067e+02,9.446745872497558594e+00,-2.677215635776519775e-01,-1.147378161549568176e-01,4.400000000000000000e+02
-2.131124387143504464e+02,-2.307866712193335843e+02,-1.213077216057308760e+02,-4.708616953174077935e+01,-2.102289809131739275e+02,-7.261443103666169918e+01,-9.769823513398614523e+01,-1.078889036743266843e+02,9.446745872497558594e+00,-2.677215635776519775e-01,-1.147378161549568176e-01,4.410000000000000000e+02
-2.120873041775766978e+02,-2.298920804588269675e+02,-1.205828949396095595e+02,-4.595840361162572663e+01,-2.074165515819800021e+02,-6.913688029660215761e+01,-9.526987942137975551e+01,-1.055694608847261406e+02,9.446745872497558594e+00,-2.677215635776519775e-01,-1.147378161549568176e-01,4.420000000000000000e+02
-2.103606785781244071e+02,-2.297294845125747997e+02,-1.192622781879986178e+02,-4.555704622738403486e+01,-2.045319404681913511e+02,-6.616450791670695253e+01,-9.341773270869180124e+01,-1.037759705628745905e+02,9.484992027282714844e+00,-2.677215635776519775e-01,0.000000000000000000e+00,4.430000000000000000e+02
-2.081485289482984626e+02,-2.299855664467154384e+02,-1.175990720899030748e+02,-4.603899195905796660e+01,-2.024442341911121730e+02,-6.464674807340543339e+01,-9.257425791653395208e+01,-1.031812120026670527e+02,9.484992027282714844e+00,-2.677215635776519775e-01,0.000000000000000000e+00,4.440000000000000000e+02
-2.059851406570742256e+02,-2.302424372807195141e+02,-1.160255344115394109e+02,-4.699720904685591449e+01,-2.013043802580082229e+02,-6.460525580664079826e+01,-9.251739372556721719e+01,-1.035424938004962314e+02,9.484992027282714844e+00,-2.677215635776519775e-01,0.000000000000000000e+00,4.450000000000000000e+02
-2.042616938839223621e+02,-2.301078532027290748e+02,-1.148676931570989836e+02,-4.779433257591836082e+01,-2.005820621541638502e+02,-6.538568325117148561e+01,-9.256424482875081594e+01,-1.039652201046346818e+02,9.484992027282714844e+00,-2.677215635776519775e-01,0.000000000000000000e+00,4.460000000000000000e+02
-2.030275562168403667e+02,-2.292192832713885764e+02,-1.142848292949834104e+02,-4.795816527912484162e+01,-1.996715936855471227e+02,-6.622830116956993152e+01,-9.205731144066976412e+01,-1.036651750293849545e+02,9.484992027282714844e+00,-2.677215635776519775e-01,0.000000000000000000e+00,4.470000000000000000e+02
-2.021036745506057741e+02,-2.273145764950108969e+02,-1.143219587863591187e+02,-4.735434082910978759e+01,-1.983776378464099253e+02,-6.669657946937877568e+01,-9.075710899113391861e+01,-1.024874597142775201e+02,9.484992027282714844e+00,-2.677215635776519775e-01,0.000000000000000000e+00,4.480000000000000000e+02
-2.012725672510609911e+02,-2.244761335417169903e+02,-1.148772580026366086e+02,-4.609591997920369977e+01,-1.968318284861502434e+02,-6.674907709833314584e+01,-8.888133923790610424e+01,-1.007613062657806040e+02,9.484992027282714844e+00,-2.677215635776519775e-01,0.000000000000000000e+00,4.490000000000000000e+02
-2.003725017911342547e+02,-2.213206482396599313e+02,-1.155835363214182507e+02,-4.437877488338290277e+01,-1.950714137743880201e+02,-6.654848327682566378e+01,-8.683991808295422743e+01,-9.875272852242642330e+01,9.484992027282714844e+00,-2.677215635776519775e-01,0.000000000000000000e+00,4.500000000000000000e+02
-1.993068887933259248e+02,-2.187872126308320730e+02,-1.157989383483363781e+02,-4.241925080668261216e+01,-1.928523783399527929e+02,-6.622998193292369251e+01,-8.491668424700537798e+01,-9.634723793249349910e+01,9.484992027282714844e+00,-2.677215635776519775e-01,0.000000000000000000e+00,4.510000000000000000e+02
-1.980371797467896613e+02,-2.175118922628639666e+02,-1.148687235333864010e+02,-4.048617676664161991e+01,-1.899478907182747207e+02,-6.578138318193487066e+01,-8.312891254471469438e+01,-9.330780978196753495e+01,9.484992027282714844e+00,-2.677215635776519775e-01,0.000000000000000000e+00,4.520000000000000000e+02
-1.965825297644673810e+02,-2.172625288191293293e+02,-1.125684939764346382e+02,-3.887210813619958572e+01,-1.865900656208123110e+02,-6.505722327096100344e+01,-8.132066673094595899e+01,-8.982195500473198990e+01,9.484992027282714844e+00,-2.677215635776519775e-01,0.000000000000000000e+00,4.530000000000000000e+02
-1.950010592252410788e+02,-2.170090768682916860e+02,-1.093815339916882294e+02,-3.772920634514184712e+01,-1.835051435244367894e+02,-6.388199181307754770e+01,-7.937339447566318995e+01,-8.669846292678676036e+01,9.484992027282714844e+00,-2.677215635776519775e-01,0.000000000000000000e+00,4.540000000000000000e+02
-1.933566953347108210e+02,-2.156805254527012039e+02,-1.063124603114829370e+02,-3.692149131287578712e+01,-1.814077958917841897e+02,-6.220166054299488678e+01,-7.737202138142174590e+01,-8.489643970550287122e+01,9.484992027282714844e+00,-2.677215635776519775e-01,0.000000000000000000e+00,4.550000000000000000e+02
-1.917066160200561171e+02,-2.129791435368601924e+02,-1.042890930690182358e+02,-3.609508524340526492e+01,-1.804129001758537925e+02,-6.020145496988243394e+01,-7.562339339208483580e+01,-8.473667117826062167e+01,9.484992027282714844e+00,-2.677215635776519775e-01,0.000000000000000000e+00,4.560000000000000000e+02
-1.901147249991277022e+02,-2.095333939333545459e+02,-1.035878404721102015e+02,-3.497522912688054930e+01,-1.799324782864946428e+02,-5.828582251302668737e+01,-7.452226896212232532e+01,-8.552846408367304321e+01,9.484992027282714844e+00,-2.677215635776519775e-01,0.000000000000000000e+00,4.570000000000000000e+02
-1.886403648370305746e+02,-2.062828505813226911e+02,-1.037359514443301123e+02,-3.365283997965570961e+01,-1.791812296492589667e+02,-5.687974146719488999e+01,-7.432792205172017930e+01,-8.604193963719308158e+01,9.484992027282714844e+00,-2.677215635776519775e-01,0.000000000000000000e+00,4.580000000000000000e+02
-1.872838284689219108e+02,-2.037053079074808011e+02,-1.039662712645599640e+02,-3.257674343289818353e+01,-1.778373930238958565e+02,-5.614761151094535307e+01,-7.497117355376121850e+01,-8.548815281978704661e+01,9.484992027282714844e+00,-2.677215635776519775e-01,0.000000000000000000e+00,4.590000000000000000e+02
-1.859578743202941951e+02,-2.015878343689018948e+02,-1.038219579753467769e+02,-3.221537080081498061e+01,-1.762707853054671432e+02,-5.585826549784633244e+01,-7.601718806686403695e+01,-8.414778062141795090e+01,9.484992027282714844e+00,-2.677215635776519775e-01,0.000000000000000000e+00,4.600000000000000000e+02
-1.845665770834848445e+02,-1.994440767648115980e+02,-1.033802596868586079e+02,-3.264693796081610344e+01,-1.751488367324163846e+02,-5.555584983513517727e+01,-7.681938140082047539e+01,-8.304193669483811391e+01,9.484992027282714844e+00,-2.677215635776519775e-01,0.000000000000000000e+00,4.610000000000000000e+02
-1.831369344120585083e+02,-1.970666401256880818e+02,-1.029361016760840357e+02,-3.341854028615080097e+01,-1.747726325545677355e+02,-5.492524751461905907e+01,-7.680109441666672865e+01,-8.289007882041050834e+01,9.484992027282714844e+00,-2.677215635776519775e-01,0.000000000000000000e+00,4.620000000000000000e+02
-1.818374732137685896e+02,-1.946666298608729448e+02,-1.025042709390354503e+02,-3.379994091740172735e+01,-1.747122096923426398e+02,-5.401938871786296659e+01,-7.570696805955776654e+01,-8.328695289941197188e+01,9.484992027282714844e+00,-2.677215635776519775e-01,0.000000000000000000e+00,4.630000000000000000e+02
-1.808126556541492391e+02,-1.925631631743290200e+02,-1.016788766291656430e+02,-3.323748314032491180e+01,-1.740454574542636692e+02,-5.312364688613706676e+01,-7.368422506957585938e+01,-8.289689831399573450e+01,9.484992027282714844e+00,-2.677215635776519775e-01,0.000000000000000000e+00,4.640000000000000000e+02
-1.799849161789061327e+02,-1.908555856617822428e+02,-1.000281402495702423e+02,-3.168072275252507097e+01,-1.720268748689136373e+02,-5.239742184835267835e+01,-7.116623367435522596e+01,-8.056736630215027617e+01,9.484992027282714844e+00,-2.677215635776519775e-01,0.000000000000000000e+00,4.650000000000000000e+02
-1.790726014318638590e+02,-1.894355714804264608e+02,-9.763532625766129058e+01,-2.958297803584855501e+01,-1.686792785794314113e+02,-5.166678028185287985e+01,-6.865614253404783085e+01,-7.640586269266850650e+01,9.484992027282714844e+00,-2.677215635776519775e-01,0.000000000000000000e+00,4.660000000000000000e+02
-1.778427544498567840e+02,-1.882401955280533912e+02,-9.520387388553172059e+01,-2.762591391266005303e+01,-1.648432833150131955e+02,-5.059181783115718645e+01,-6.654977906571730273e+01,-7.187275611842187573e+01,9.484992027282714844e+00,-2.677215635776519775e-01,0.000000000000000000e+00,4.670000000000000000e+02
-1.763183165851669401e+02,-1.873619857305998266e+02,-9.354584621213280116e+01,-2.637558894501353279e+01,-1.616373956431189072e+02,-4.904168465933025800e+01,-6.507551547036109696e+01,-6.879516268246197797e+01,9.484992027282714844e+00,-2.677215635776519775e-01,0.000000000000000000e+00,4.680000000000000000e+02
-1.746613027292582956e+02,-1.868295777355801874e+02,-9.289237781951874240e+01,-2.604926974714635435e+01,-1.597291224994778531e+02,-4.726998683395322587e+01,-6.432895259218048523e+01,-6.813761915221175514e+01,9.484992027282714844e+00,-2.677215635776519775e-01,0.000000000000000000e+00,4.690000000000000000e+02
-1.728215653981483229e+02,-1.863043413797472567e+02,-9.267902819457140140e+01,-2.645450058977530716e+01,-1.589709254251729362e+02,-4.569641687241983163e+01,-6.430872264356503365e+01,-6.950590808796255260e+01,9.484992027282714844e+00,-2.677215635776519775e-01,0.000000000000000000e+00,4.700000000000000000e+02
-1.703900121358378783e+02,-1.850998097685333050e+02,-9.202693731291083168e+01,-2.707115392243804308e+01,-1.586539888176421300e+02,-4.451895443770035854e+01,-6.488013663085030203e+01,-7.164808184870707919e+01,9.484992027282714844e+00,-2.677215635776519775e-01,0.000000000000000000e+00,4.710000000000000000e+02
-1.669653495061352260e+02,-1.826306970283874307e+02,-9.047945494241002962e+01,-2.723453529192192946e+01,-1.581088559070840347e+02,-4.354269309268283905e+01,-6.569179099904295072e+01,-7.337398394366664434e+01,9.484992027282714844e+00,-2.677215635776519775e-01,0.000000000000000000e+00,4.720000000000000000e+02
-1.627732445140250093e+02,-1.789347114125346252e+02,-8.832134965021168682e+01,-2.638445795390498461e+01,-1.571172599439178157e+02,-4.238339192840157921e+01,-6.616797586444090484e+01,-7.409828727080798672e+01,9.484992027282714844e+00,-2.677215635776519775e-01,0.000000000000000000e+00,4.730000000000000000e+02
-1.588609962910177273e+02,-1.747819427754527624e+02,-8.622514102062177699e+01,-2.432190707804920748e+01,-1.558193636968194369e+02,-4.083119245632633465e+01,-6.569308486328782237e+01,-7.374444998195144763e+01,9.523238182067871094e+00,-3.059675097465515137e-01,0.000000000000000000e+00,4.740000000000000000e+02
-1.564859709289530656e+02,-1.712170496606336201e+02,-8.462028956633866983e+01,-2.137653914296333824e+01,-1.543216555876610983e+02,-3.904770325257732111e+01,-6.394439739690392344e+01,-7.239394431025198173e+01,9.523238182067871094e+00,-3.059675097465515137e-01,0.000000000000000000e+00,4.750000000000000000e+02
-1.561096274802423522e+02,-1.688673872093470436e+02,-8.340193914797418984e+01,-1.833976689318842546e+01,-1.524823015089141336e+02,-3.745665867745992728e+01,-6.114574908224267347e+01,-7.016851126668939287e+01,9.523238182067871094e+00,-3.059675097465515137e-01,0.000000000000000000e+00,4.760000000000000000e+02
-1.568902191775187021e+02,-1.675641080282989606e+02,-8.219042182443718048e+01,-1.612056045694907880e+01,-1.500947009387896287e+02,-3.645621904898143839e+01,-5.800355443003923028e+01,-6.740980042509863779e+01,9.523238182067871094e+00,-3.059675097465515137e-01,0.000000000000000000e+00,4.770000000000000000e+02
-1.572135375888044564e+02,-1.665654239850600788e+02,-8.079725605711655589e+01,-1.528649258202221972e+01,-1.472352562826658868e+02,-3.617078337898919926e+01,-5.532281698041651907e+01,-6.480519735948041671e+01,9.523238182067871094e+00,-3.059675097465515137e-01,0.000000000000000000e+00,4.780000000000000000e+02
-1.558709092284011604e+02,-1.651956181011835270e+02,-7.939331739998078774e+01,-1.579526212297787424e+01,-1.443466505414394305e+02,-3.637037326007566662e+01,-5.357963385097218634e+01,-6.314428440791311914e+01,9.523238182067871094e+00,-3.059675097465515137e-01,0.000000000000000000e+00,4.790000000000000000e+02
-1.528864888247398994e+02,-1.633838174481452370e+02,-7.825282319407892828e+01,-1.713525550109807227e+01,-1.419428735893966405e+02,-3.658691065192078895e+01,-5.279120040393695490e+01,-6.283365016129550895e+01,9.523238182067871094e+00,-3.059675097465515137e-01,0.000000000000000000e+00,4.800000000000000000e+02
-1.493236150404211457e+02,-1.616706718300974899e+02,-7.741922881889081509e+01,-1.876879800200595128e+01,-1.402555884711205181e+02,-3.638537979049988280e+01,-5.273593458489585828e+01,-6.359849648523572796e+01,9.523238182067871094e+00,-3.059675097465515137e-01,0.000000000000000000e+00,4.810000000000000000e+02
-1.463461831410754712e+02,-1.606884745161798946e+02,-7.668360059263522999e+01,-2.047107944368963217e+01,-1.391787232452716125e+02,-3.564921321589599756e+01,-5.323718007317916090e+01,-6.464231392707756640e+01,9.523238182067871094e+00,-3.059675097465515137e-01,0.000000000000000000e+00,4.820000000000000000e+02
-1.444276518956155542e+02,-1.605450913335762380e+02,-7.588132937094633235e+01,-2.224060930177006412e+01,-1.385091498744104683e+02,-3.466118952768329109e+01,-5.417742889352143720e+01,-6.512747560677985348e+01,9.523238182067871094e+00,-3.059675097465515137e-01,0.000000000000000000e+00,4.830000000000000000e+02
-1.433222246147386159e+02,-1.606230090293138346e+02,-7.513115551053556374e+01,-2.387623840173137069e+01,-1.381473392517411867e+02,-3.384448954584559033e+01,-5.524147624007832746e+01,-6.457842097141269733e+01,9.523238182067871094e+00,-3.059675097465515137e-01,0.000000000000000000e+00,4.840000000000000000e+02
-1.426168217731958521e+02,-1.599764270049847710e+02,-7.470729143434800790e+01,-2.470508151165017807e+01,-1.380228468586335566e+02,-3.333340493153173156e+01,-5.577739344462406734e+01,-6.295516992010652757e+01,9.523238182067871094e+00,-3.059675097465515137e-01,0.000000000000000000e+00,4.850000000000000000e+02
-1.421898458448863494e+02,-1.580275744415262125e+02,-7.467184238391746476e+01,-2.387203519081776903e+01,-1.378963212138230574e+02,-3.278800269656039745e+01,-5.513162518207968787e+01,-6.049047580668548107e+01,9.523238182067871094e+00,-3.059675097465515137e-01,0.000000000000000000e+00,4.860000000000000000e+02
-1.421490798625743537e+02,-1.550199477719786501e+02,-7.469005845899118867e+01,-2.105118210661635203e+01,-1.373544105605180903e+02,-3.170842598128319878e+01,-5.329021519652997085e+01,-5.753575749244259896e+01,9.523238182067871094e+00,-3.059675097465515137e-01,0.000000000000000000e+00,4.870000000000000000e+02
-1.424348716328072442e+02,-1.518583370439887403e+02,-7.425316295120410359e+01,-1.694204610194083216e+01,-1.360690471990199057e+02,-3.000502792766292259e+01,-5.117862246570780371e+01,-5.450862697448701510e+01,9.523238182067871094e+00,-3.059675097465515137e-01,0.000000000000000000e+00,4.880000000000000000e+02
-1.426129255553582880e+02,-1.494504152224590143e+02,-7.310966704064549049e+01,-1.301552844924958663e+01,-1.340600090191885556e+02,-2.824733201207072852e+01,-5.014673924192948107e+01,-5.186793591070886578e+01,9.523238182067871094e+00,-3.059675097465515137e-01,0.000000000000000000e+00,4.890000000000000000e+02
-1.421082296668489562e+02,-1.480604002824568397e+02,-7.148032917751856985e+01,-1.061936810550332666e+01,-1.316670470813357952e+02,-2.724983269497261062e+01,-5.091100661107975611e+01,-4.999834946269879765e+01,9.523238182067871094e+00,-3.059675097465515137e-01,0.000000000000000000e+00,4.900000000000000000e+02
-1.406313534369203353e+02,-1.471840559012143785e+02,-6.984229428109961191e+01,-1.014911461939914261e+01,-1.292682685058939569e+02,-2.732129533728311799e+01,-5.284292831963193748e+01,-4.904344474290678590e+01,9.523238182067871094e+00,-3.059675097465515137e-01,0.000000000000000000e+00,4.910000000000000000e+02
-1.383766753203128701e+02,-1.460401632315442839e+02,-6.851195365999114983e+01,-1.094716142421316363e+01,-1.270549232556572861e+02,-2.790640600387473569e+01,-5.430903412358588866e+01,-4.883819964708459338e+01,9.523238182067871094e+00,-3.059675097465515137e-01,0.000000000000000000e+00,4.920000000000000000e+02
-1.358486202680824135e+02,-1.442576795904519713e+02,-6.743117306148224088e+01,-1.194402279865471428e+01,-1.250754655577145513e+02,-2.801749709237833486e+01,-5.386768024405614597e+01,-4.902024043826213529e+01,9.523238182067871094e+00,-3.059675097465515137e-01,0.000000000000000000e+00,4.930000000000000000e+02
-1.335388807727501899e+02,-1.421785238717313860e+02,-6.632293179489511203e+01,-1.242694291219959268e+01,-1.234137277401071060e+02,-2.707230850293262847e+01,-5.134075114120696526e+01,-4.922560463007403087e+01,9.523238182067871094e+00,-3.059675097465515137e-01,0.000000000000000000e+00,4.940000000000000000e+02
-1.317296280578857477e+02,-1.405151978871217580e+02,-6.501554481350399328e+01,-1.231250070792134466e+01,-1.222227213305964142e+02,-2.534233135015665539e+01,-4.787910733066655666e+01,-4.921076713543152437e+01,9.523238182067871094e+00,-1.912296712398529053e-01,0.000000000000000000e+00,4.950000000000000000e+02
-1.304766469374756070e+02,-1.396637277982617888e+02,-6.360809703328914111e+01,-1.185735928904091452e+01,-1.215504685106468514e+02,-2.359820418510298623e+01,-4.503220629658517282e+01,-4.885379142632564253e+01,9.523238182067871094e+00,-1.912296712398529053e-01,0.000000000000000000e+00,4.960000000000000000e+02
-1.296434085821763347e+02,-1.392934488408767493e+02,-6.236133981339821730e+01,-1.125530484483397231e+01,-1.211851594793047298e+02,-2.233771789478441860e+01,-4.367060819045946118e+01,-4.813577760341274825e+01,9.523238182067871094e+00,-1.912296712398529053e-01,0.000000000000000000e+00,4.970000000000000000e+02
-1.289067499371285521e+02,-1.386121342210847160e+02,-6.146963544007974178e+01,-1.056758117768163174e+01,-1.207576509169787187e+02,-2.138108512243547921e+01,-4.362998154507079107e+01,-4.719128382755411621e+01,9.523238182067871094e+00,-1.912296712398529053e-01,0.000000000000000000e+00,4.980000000000000000e+02
-1.278135608808287316e+02,-1.370980915171556944e+02,-6.093020038214808665e+01,-9.966624594331733533e+00,-1.200474088200517144e+02,-2.021169309195533970e+01,-4.419123094049359679e+01,-4.637541397312406843e+01,9.523238182067871094e+00,-1.912296712398529053e-01,0.000000000000000000e+00,4.990000000000000000e+02
-1.259987922961179265e+02,-1.350438778257348531e+02,-6.058313582192033664e+01,-9.890192000675369854e+00,-1.191910697369738728e+02,-1.867466970764780854e+01,-4.478524854191948634e+01,-4.617821010996226505e+01,9.523238182067871094e+00,-1.912296712398529053e-01,0.000000000000000000e+00,5.000000000000000000e+02
-1.234672374359821561e+02,-1.333903054985785275e+02,-6.023468516370041925e+01,-1.080658854774958400e+01,-1.185591722913958392e+02,-1.728718981288602663e+01,-4.526245137224464088e+01,-4.692105488779895950e+01,9.523238182067871094e+00,-1.912296712398529053e-01,0.000000000000000000e+00,5.010000000000000000e+02
-1.206844777458392173e+02,-1.329540826428175251e+02,-5.976621340963492912e+01,-1.273715511044133564e+01,-1.183898530998336582e+02,-1.681396834320594280e+01,-4.564636357501694874e+01,-4.841557734784271361e+01,9.523238182067871094e+00,-1.912296712398529053e-01,0.000000000000000000e+00,5.020000000000000000e+02
-1.183230434810782299e+02,-1.337201682459192398e+02,-5.918006657289220129e+01,-1.500354026050331413e+01,-1.185076036377986384e+02,-1.750170565630696728e+01,-4.581335170891702546e+01,-4.989677230377719752e+01,9.523238182067871094e+00,-1.912296712398529053e-01,0.000000000000000000e+00,5.030000000000000000e+02
-1.168285630732968912e+02,-1.348374060077143213e+02,-5.857482127390647975e+01,-1.651592674791936588e+01,-1.183790513208040238e+02,-1.870229295900105626e+01,-4.550290839903414053e+01,-5.037092370413813569e+01,9.523238182067871094e+00,-1.912296712398529053e-01,0.000000000000000000e+00,5.040000000000000000e+02
-1.161660892625262704e+02,-1.353160062007863758e+02,-5.805335992276980051e+01,-1.643973924239173812e+01,-1.174596074044569036e+02,-1.926765394702385947e+01,-4.460195707623336148e+01,-4.917705077882442311e+01,9.523238182067871094e+00,-1.912296712398529053e-01,0.000000000000000000e+00,5.050000000000000000e+02
-1.159434900918356561e+02,-1.347851261242859096e+02,-5.760638948968323803e+01,-1.473446085267795524e+01,-1.155665469224726962e+02,-1.837996749711919620e+01,-4.332409486064960902e+01,-4.636911015722927232e+01,9.523238182067871094e+00,-1.912296712398529053e-01,0.000000000000000000e+00,5.060000000000000000e+02
-1.157710762051350457e+02,-1.336168691560889954e+02,-5.709041668568835348e+01,-1.213723325744916792e+01,-1.130171696270667780e+02,-1.610045147971732149e+01,-4.205332868191101170e+01,-4.264433318514153370e+01,9.523238182067871094e+00,-1.912296712398529053e-01,0.000000000000000000e+00,5.070000000000000000e+02
-1.154986696132413044e+02,-1.323299217133217667e+02,-5.636215093678060839e+01,-9.624505560865600273e+00,-1.104490068854146045e+02,-1.318881388537295152e+01,-4.099926870632640430e+01,-3.889218200163003303e+01,9.523238182067871094e+00,-1.912296712398529053e-01,0.000000000000000000e+00,5.080000000000000000e+02
-1.151453204911480555e+02,-1.308960445753911017e+02,-5.547024746809098872e+01,-7.808476030149563485e+00,-1.084547833114743298e+02,-1.041519459091199451e+01,-4.002075181767976630e+01,-3.572915005173402392e+01,9.523238182067871094e+00,-1.912296712398529053e-01,0.000000000000000000e+00,5.090000000000000000e+02
-1.146544618760449055e+02,-1.286714984782630040e+02,-5.468625869754653479e+01,-6.740838412713301864e+00,-1.072810325314464706e+02,-8.032896015748818286e+00,-3.880003394185179388e+01,-3.335261502257350230e+01,9.523238182067871094e+00,-1.912296712398529053e-01,0.000000000000000000e+00,5.100000000000000000e+02
-1.137722708605457456e+02,-1.250768491211812545e+02,-5.427871880220206435e+01,-6.203540178095146018e+00,-1.067817819110327946e+02,-5.871662253677840226e+00,-3.720636197814081925e+01,-3.173535284527825695e+01,9.523238182067871094e+00,-1.912296712398529053e-01,0.000000000000000000e+00,5.110000000000000000e+02
-1.122118651241059695e+02,-1.204126820360929742e+02,-5.421556787796060917e+01,-6.127186585188923118e+00,-1.066235011263344461e+02,-3.861808665247281169e+00,-3.552532653426084153e+01,-3.089519078444516254e+01,9.523238182067871094e+00,-1.912296712398529053e-01,0.000000000000000000e+00,5.120000000000000000e+02
-1.099558848450768664e+02,-1.160105259055640090e+02,-5.412040491848352985e+01,-6.709237798605045100e+00,-1.065518813926894381e+02,-2.383683979320721846e+00,-3.435857758612809221e+01,-3.095088057563856410e+01,9.523238182067871094e+00,-1.912296712398529053e-01,0.000000000000000000e+00,5.130000000000000000e+02
-1.073895807786252590e+02,-1.134712394759256426e+02,-5.358938461480465776e+01,-8.127170958328463257e+00,-1.064864842090365187e+02,-2.035192779256476570e+00,-3.426394035579204456e+01,-3.190431718644060766e+01,9.523238182067871094e+00,-1.912296712398529053e-01,0.000000000000000000e+00,5.140000000000000000e+02
-1.051021083179465450e+02,-1.135455139097422261e+02,-5.259082693638958972e+01,-1.015882639201805659e+01,-1.063910217715422277e+02,-3.035276177859032032e+00,-3.536524599797121482e+01,-3.338083107673867289e+01,9.523238182067871094e+00,-1.912296712398529053e-01,0.000000000000000000e+00,5.150000000000000000e+02
-1.034854556425411829e+02,-1.155518133661644242e+02,-5.153390187357990726e+01,-1.212518512594010645e+01,-1.060881477770479933e+02,-4.889321863037821458e+00,-3.715503271554359799e+01,-3.464400525869302783e+01,9.523238182067871094e+00,-1.912296712398529053e-01,0.000000000000000000e+00,5.160000000000000000e+02
-1.024463724023031546e+02,-1.178139058076815218e+02,-5.089594121966968032e+01,-1.325677373542441728e+01,-1.052495594946740312e+02,-6.680676019889574491e+00,-3.862923496664734557e+01,-3.497400702281208851e+01,9.523238182067871094e+00,-1.912296712398529053e-01,0.000000000000000000e+00,5.170000000000000000e+02
-1.014701676847121234e+02,-1.187731646381467954e+02,-5.075803232157090861e+01,-1.316865028874599375e+01,-1.036176352878699163e+02,-7.712279340935310756e+00,-3.873876520588601124e+01,-3.414218174155200813e+01,9.523238182067871094e+00,-1.912296712398529053e-01,0.000000000000000000e+00,5.180000000000000000e+02
-9.999249806167085808e+01,-1.178910455217398976e+02,-5.070407406398999228e+01,-1.201483648877740507e+01,-1.012547669069881522e+02,-7.869649473643448800e+00,-3.694667508883185292e+01,-3.256445261378769374e+01,9.523238182067871094e+00,-1.912296712398529053e-01,0.000000000000000000e+00,5.190000000000000000e+02
-9.781331410089887868e+01,-1.157013919511296081e+02,-5.017542098345609247e+01,-1.023286392840509507e+01,-9.856474325574936302e+01,-7.415084727071189263e+00,-3.357642843190319581e+01,-3.096209590624982866e+01,9.484992027282714844e+00,-3.059675097465515137e-01,-3.824593871831893921e-02,5.200000000000000000e+02
-9.525642427243042221e+01,-1.131085896528434205e+02,-4.891430163287895994e+01,-8.175745299261507171e+00,-9.603083146827634664e+01,-6.528645360353948490e+00,-2.969345486791507938e+01,-2.978505297651872752e+01,9.484992027282714844e+00,-3.059675097465515137e-01,-3.824593871831893921e-02,5.210000000000000000e+02
-9.296282119753800544e+01,-1.106269821300284093e+02,-4.708900463457052865e+01,-5.982106989858039015e+00,-9.388052288237099674e+01,-5.126748823909792918e+00,-2.653661694840548080e+01,-2.890178564129996630e+01,9.484992027282714844e+00,-3.059675097465515137e-01,-3.824593871831893921e-02,5.220000000000000000e+02
-9.146254931484600093e+01,-1.081891835272481330e+02,-4.506253367032786628e+01,-3.739670894832443082e+00,-9.197188681872103189e+01,-3.116391844188001414e+00,-2.484636635298852525e+01,-2.785717037882523073e+01,9.484992027282714844e+00,-3.059675097465515137e-01,-3.824593871831893921e-02,5.230000000000000000e+02
-9.082333840946580494e+01,-1.055455258175611561e+02,-4.311818446749066425e+01,-1.662851396220958122e+00,-9.000403152050193967e+01,-7.139852251107186021e-01,-2.452532177187367779e+01,-2.645479036660890415e+01,9.484992027282714844e+00,-3.059675097465515137e-01,-3.824593871831893921e-02,5.240000000000000000e+02
-9.062044070144111174e+01,-1.027457423596335957e+02,-4.141156621356822143e+01,-1.901803552482306259e-02,-8.786342252270856079e+01,1.591644348200134118e+00,-2.482726114801084805e+01,-2.507489699914913217e+01,9.484992027282714844e+00,-3.059675097465515137e-01,-3.824593871831893921e-02,5.250000000000000000e+02
-9.025184776437163237e+01,-1.001994178393890707e+02,-4.009755318469206031e+01,1.123588669205219048e+00,-8.580201676135470734e+01,3.409777212312292249e+00,-2.489197850147365898e+01,-2.435827986860886085e+01,9.484992027282714844e+00,-3.059675097465515137e-01,-3.824593871831893921e-02,5.260000000000000000e+02
-8.938709420062241406e+01,-9.831640873490709964e+01,-3.936648976937794941e+01,2.024619583839012193e+00,-8.427183423434735232e+01,4.729681250165867823e+00,-2.423620836548298030e+01,-2.449784610135134244e+01,9.484992027282714844e+00,-3.059675097465515137e-01,-3.824593871831893921e-02,5.270000000000000000e+02
-8.822656020020849610e+01,-9.715602183316968876e+01,-3.928118843918400671e+01,3.099789800980943255e+00,-8.353565289902826407e+01,5.801132405017597193e+00,-2.290975954809732684e+01,-2.483214921996250268e+01,9.484992027282714844e+00,-3.059675097465515137e-01,-3.824593871831893921e-02,5.280000000000000000e+02
-8.737374314740054615e+01,-9.644447978796597454e+01,-3.961212115083162644e+01,4.591844671911530895e+00,-8.337751456423211494e+01,6.775905101688749710e+00,-2.132220086552752036e+01,-2.422860269491570762e+01,9.484992027282714844e+00,-3.059675097465515137e-01,-3.824593871831893921e-02,5.290000000000000000e+02
-8.738991398092684904e+01,-9.587995119972310931e+01,-3.991446098919141150e+01,6.408780150731217873e+00,-8.317599389657243592e+01,7.536289560733166581e+00,-1.994908849729245048e+01,-2.201260338376914660e+01,9.484992027282714844e+00,-3.059675097465515137e-01,-3.824593871831893921e-02,5.300000000000000000e+02
-8.834464298139027960e+01,-9.534664079074673282e+01,-3.982655429597252805e+01,8.271216022162207082e+00,-8.231886712018240360e+01,7.887246456441516784e+00,-1.911445312439491317e+01,-1.864736824789088132e+01,9.484992027282714844e+00,-3.059675097465515137e-01,-3.824593871831893921e-02,5.310000000000000000e+02
-8.970035001039013878e+01,-9.483028843499914728e+01,-3.932170175688497693e+01,9.978926478985158610e+00,-8.064752840608798579e+01,7.853355212261703855e+00,-1.890917558172168356e+01,-1.554923344647068006e+01,9.484992027282714844e+00,-3.059675097465515137e-01,-3.824593871831893921e-02,5.320000000000000000e+02
-9.063505066930565590e+01,-9.420481420587429966e+01,-3.868414468036235121e+01,1.151370357506357323e+01,-7.858239076268318968e+01,7.705521642155872541e+00,-1.921346201918913721e+01,-1.416167416441567184e+01,9.484992027282714844e+00,-3.059675097465515137e-01,-3.824593871831893921e-02,5.330000000000000000e+02
-9.058143861234839278e+01,-9.321252790746984829e+01,-3.825778445420291973e+01,1.291452044038487657e+01,-7.682822199339534563e+01,7.691701134086542879e+00,-1.976156367754992971e+01,-1.502026685519012972e+01,9.484992027282714844e+00,-3.059675097465515137e-01,-3.824593871831893921e-02,5.340000000000000000e+02
-8.956625986318340438e+01,-9.170401517340815190e+01,-3.819941416120082067e+01,1.412059102568127855e+01,-7.590442080630145938e+01,7.801989182100442122e+00,-2.021909934216137117e+01,-1.749677806009003689e+01,9.484992027282714844e+00,-3.059675097465515137e-01,-3.824593871831893921e-02,5.350000000000000000e+02
-8.809881593683121537e+01,-8.986417232128951582e+01,-3.840075837210724785e+01,1.498031957197372321e+01,-7.586250772395851527e+01,7.855559948431618977e+00,-2.027661045569539056e+01,-2.029804026730016631e+01,9.484992027282714844e+00,-3.059675097465515137e-01,-3.824593871831893921e-02,5.360000000000000000e+02
-8.671511651906894258e+01,-8.813261463891285530e+01,-3.854905840166884445e+01,1.540356061261763898e+01,-7.633855517057281759e+01,7.813537495761011087e+00,-1.974928110339533305e+01,-2.223355130958088921e+01,9.484992027282714844e+00,-3.059675097465515137e-01,-3.824593871831893921e-02,5.370000000000000000e+02
-8.557503643982317953e+01,-8.687204134198782413e+01,-3.823477091167978870e+01,1.544315708393332898e+01,-7.680733820808927703e+01,7.923285580309311626e+00,-1.866906370923197755e+01,-2.272289459806279410e+01,9.484992027282714844e+00,-3.059675097465515137e-01,-3.824593871831893921e-02,5.380000000000000000e+02
-8.444851129357903119e+01,-8.610242933521703890e+01,-3.709388674543015441e+01,1.520091569739452098e+01,-7.678129259297293174e+01,8.506550140533363447e+00,-1.730614788085676992e+01,-2.184341122661498957e+01,9.484992027282714844e+00,-3.059675097465515137e-01,-3.824593871831893921e-02,5.390000000000000000e+02
-8.306397304732035991e+01,-8.554667338613626271e+01,-3.501367562440009351e+01,1.470246413762652082e+01,-7.587880543650771870e+01,9.619670977900568687e+00,-1.606485214207395984e+01,-2.006747459719326798e+01,9.484992027282714844e+00,-3.059675097465515137e-01,-3.824593871831893921e-02,5.400000000000000000e+02
-8.146075507774730795e+01,-8.490069377231702674e+01,-3.232326462294713565e+01,1.393974923367204610e+01,-7.387919147422599053e+01,1.097220985418607597e+01,-1.526992382120943148e+01,-1.794412276402954376e+01,9.484992027282714844e+00,-3.059675097465515137e-01,-3.824593871831893921e-02,5.410000000000000000e+02
-7.999518153184544644e+01,-8.403109275793576671e+01,-2.975390202096605208e+01,1.307919207974282472e+01,-7.085537353638301283e+01,1.223877878587609302e+01,-1.495799887716293597e+01,-1.586282188800805670e+01,9.484992027282714844e+00,-3.059675097465515137e-01,-3.824593871831893921e-02,5.420000000000000000e+02
-7.899063316617684904e+01,-8.295159986521775863e+01,-2.805864287542863167e+01,1.256900225385379599e+01,-6.727192201739671873e+01,1.344980273548389960e+01,-1.485361560604906117e+01,-1.394628875172929838e+01,9.484992027282714844e+00,-3.059675097465515137e-01,-3.824593871831893921e-02,5.430000000000000000e+02
-7.838251703705373075e+01,-8.171987130373963737e+01,-2.751021448132996738e+01,1.290133533586413250e+01,-6.385171609938788606e+01,1.501984484711101686e+01,-1.460278528226444905e+01,-1.211083330774272326e+01,9.484992027282714844e+00,-3.059675097465515137e-01,-3.824593871831893921e-02,5.440000000000000000e+02
-7.773124307645230147e+01,-8.043658626946307777e+01,-2.770379161864639173e+01,1.415871942959256558e+01,-6.120678014766872366e+01,1.731907258389128401e+01,-1.409593304172085482e+01,-1.026679172983949684e+01,9.484992027282714844e+00,-3.059675097465515137e-01,-3.824593871831893921e-02,5.450000000000000000e+02
-7.661058161856999504e+01,-7.932266926762349613e+01,-2.788588389816686686e+01,1.578179452799213323e+01,-5.951346640528117860e+01,2.018667886625644314e+01,-1.358645841605448368e+01,-8.512914281190205656e+00,9.484992027282714844e+00,-3.059675097465515137e-01,-3.824593871831893921e-02,5.460000000000000000e+02
-7.501064484498328966e+01,-7.867004334482589911e+01,-2.756426205200659751e+01,1.687534398833031446e+01,-5.853853704246830603e+01,2.288989501069590915e+01,-1.345921854333391821e+01,-7.137364436962343461e+00,9.484992027282714844e+00,-2.294756323099136353e-01,-3.824593871831893921e-02,5.470000000000000000e+02
-7.337066918714754138e+01,-7.858089067609307676e+01,-2.685606683164678543e+01,1.688201972933529760e+01,-5.799348555124925042e+01,2.461780066855226323e+01,-1.382354794505044993e+01,-6.382039147885734565e+00,9.484992027282714844e+00,-2.294756323099136353e-01,-3.824593871831893921e-02,5.480000000000000000e+02
-7.220163772790328949e+01,-7.872329014112619916e+01,-2.625521424239286716e+01,1.605596015731043735e+01,-5.784441597234581423e+01,2.508866147254866519e+01,-1.429880129677894729e+01,-6.165540709584092838e+00,9.484992027282714844e+00,-2.294756323099136353e-01,-3.824593871831893921e-02,5.490000000000000000e+02
-7.163826556805906876e+01,-7.841666881070796080e+01,-2.604719305605522095e+01,1.529264131433956209e+01,-5.824485173276843852e+01,2.471514014388594660e+01,-1.422861701657166122e+01,-6.054007441473913786e+00,9.484992027282714844e+00,-2.294756323099136353e-01,-3.824593871831893921e-02,5.500000000000000000e+02
-7.131888073359459668e+01,-7.708207731766015058e+01,-2.596348287846376479e+01,1.543673424212101963e+01,-5.916633956940313510e+01,2.418496361542565865e+01,-1.316982802094389626e+01,-5.568831661010335665e+00,9.484992027282714844e+00,-2.294756323099136353e-01,-3.824593871831893921e-02,5.510000000000000000e+02
-7.069346263576426281e+01,-7.471248284292505559e+01,-2.542492918393600121e+01,1.665702326367136266e+01,-6.015623428267917916e+01,2.387810732525940693e+01,-1.124704397125788091e+01,-4.598255728919866669e+00,9.484992027282714844e+00,-2.294756323099136353e-01,-3.824593871831893921e-02,5.520000000000000000e+02
-6.948452754217032634e+01,-7.193051911416932853e+01,-2.412926257934577734e+01,1.841130395552318078e+01,-6.054325891637381574e+01,2.369297564523913024e+01,-9.080020361227070680e+00,-3.528603124484106957e+00,9.484992027282714844e+00,-2.294756323099136353e-01,-3.824593871831893921e-02,5.530000000000000000e+02
-6.791806583744619275e+01,-6.955113432593861944e+01,-2.240067572064981505e+01,1.997587484247742395e+01,-5.995018808997974702e+01,2.341780269191986008e+01,-7.366322041949388222e+00,-2.935912249524335493e+00,9.484992027282714844e+00,-2.294756323099136353e-01,-3.824593871831893921e-02,5.540000000000000000e+02
-6.655312547522771638e+01,-6.801367691051927977e+01,-2.093545920660744741e+01,2.101144930578902859e+01,-5.862905144400065183e+01,2.320985253404069226e+01,-6.459841707949635747e+00,-3.074040444140337058e+00,9.484992027282714844e+00,-2.294756323099136353e-01,-3.824593871831893921e-02,5.550000000000000000e+02
-6.585455456609906832e+01,-6.717195994219127897e+01,-2.017267964862003282e+01,2.166639112522352661e+01,-5.727147824057647085e+01,2.361227150472223002e+01,-6.231167570350407914e+00,-3.609446972327532421e+00,9.484992027282714844e+00,-2.294756323099136353e-01,-3.824593871831893921e-02,5.560000000000000000e+02
-6.583701714156723028e+01,-6.660078727578456892e+01,-1.988823857662646333e+01,2.221228940057517320e+01,-5.644445451368392241e+01,2.502302708591196279e+01,-6.230057515424050507e+00,-3.852796136078723066e+00,9.484992027282714844e+00,-2.294756323099136353e-01,-3.824593871831893921e-02,5.570000000000000000e+02
-6.603536562859699188e+01,-6.610171591747439379e+01,-1.939216718731586298e+01,2.264329755265316635e+01,-5.616349725785585179e+01,2.712994009735484724e+01,-5.978913183603253856e+00,-3.311852560630541120e+00,9.484992027282714844e+00,-2.294756323099136353e-01,-3.824593871831893921e-02,5.580000000000000000e+02
-6.581656455084430490e+01,-6.591652306428113661e+01,-1.815219395872372843e+01,2.265460541689935781e+01,-5.598728614952960925e+01,2.892314468027689145e+01,-5.228306250376590469e+00,-2.120612184944548062e+00,9.484992027282714844e+00,-2.294756323099136353e-01,-3.824593871831893921e-02,5.590000000000000000e+02
-6.480847395306227554e+01,-6.643624574375917291e+01,-1.628112498049267742e+01,2.200662810181893292e+01,-5.552573620145813038e+01,2.937686848690464103e+01,-4.082031679413375969e+00,-9.747154485194187146e-01,9.484992027282714844e+00,-2.294756323099136353e-01,-3.824593871831893921e-02,5.600000000000000000e+02
-6.315042755083959491e+01,-6.767998869918483251e+01,-1.449149841548205586e+01,2.087619165013165912e+01,-5.488257254249401740e+01,2.823784239773704030e+01,-2.975571369494900864e+00,-6.338291533975279890e-01,9.484992027282714844e+00,-2.294756323099136353e-01,-3.824593871831893921e-02,5.610000000000000000e+02
-6.141505538333876757e+01,-6.905796918556734454e+01,-1.360650356096084579e+01,1.982234024957688234e+01,-5.463027731796864828e+01,2.624438715453288751e+01,-2.504322960118770425e+00,-1.398149761109380051e+00,9.484992027282714844e+00,-2.294756323099136353e-01,-3.824593871831893921e-02,5.620000000000000000e+02
-6.026382270533940755e+01,-6.970427486144581053e+01,-1.403725595407013316e+01,1.938608564596506767e+01,-5.532385562551098701e+01,2.460319738591715577e+01,-3.122340435566002270e+00,-2.929709577101675677e+00,9.484992027282714844e+00,-2.294756323099136353e-01,-3.824593871831893921e-02,5.630000000000000000e+02
-6.007379764704819536e+01,-6.914210274526340072e+01,-1.557373500892208540e+01,1.968433175631071208e+01,-5.696155640523102193e+01,2.417429642673414492e+01,-4.843507638785013114e+00,-4.493644280228181742e+00,9.484992027282714844e+00,-2.294756323099136353e-01,-3.824593871831893921e-02,5.640000000000000000e+02
-6.076066052842361387e+01,-6.770318165125900123e+01,-1.752547949272229744e+01,2.035971028456515342e+01,-5.883730375595223450e+01,2.499559048758055724e+01,-7.138554906268836930e+00,-5.365508450267952867e+00,9.484992027282714844e+00,-2.294756323099136353e-01,-3.824593871831893921e-02,5.650000000000000000e+02
-6.187260475158836925e+01,-6.630935925240373763e+01,-1.905401269617141224e+01,2.090551805119685014e+01,-5.991650068205308344e+01,2.642834009616490221e+01,-9.150640039262725622e+00,-5.124010509074651054e+00,9.484992027282714844e+00,-2.294756323099136353e-01,-3.824593871831893921e-02,5.660000000000000000e+02
-6.283792505929341132e+01,-6.576963870857798611e+01,-1.953356899344180420e+01,2.105786352776340209e+01,-5.947742409211241466e+01,2.770283242692858039e+01,-1.012899440306682664e+01,-3.751056875011272496e+00,9.484992027282714844e+00,-2.294756323099136353e-01,-3.824593871831893921e-02,5.670000000000000000e+02
-6.318406278232214390e+01,-6.617000124255173432e+01,-1.881533380597284122e+01,2.092772037601753254e+01,-5.758402508988910995e+01,2.840017823604102887e+01,-9.812276394319269457e+00,-1.623626722892367980e+00,9.484992027282714844e+00,-2.294756323099136353e-01,-3.824593871831893921e-02,5.680000000000000000e+02
-6.264705536405381281e+01,-6.686908709758426994e+01,-1.728601950618940464e+01,2.080787943692848785e+01,-5.508315863646566868e+01,2.856494213189034781e+01,-8.518909486463599023e+00,5.570474175601702882e-01,9.484992027282714844e+00,-2.294756323099136353e-01,-3.824593871831893921e-02,5.690000000000000000e+02
-6.121475077154173050e+01,-6.707984258650685661e+01,-1.563771577588522632e+01,2.088482786230815691e+01,-5.313009955417328456e+01,2.847164688296288659e+01,-6.896459979649080196e+00,1.979924345969266142e+00,9.484992027282714844e+00,-2.294756323099136353e-01,-3.824593871831893921e-02,5.700000000000000000e+02
-5.916649262712780910e+01,-6.651027469508153445e+01,-1.442113776414043969e+01,2.113035270962791401e+01,-5.251982666995718319e+01,2.831535074398743745e+01,-5.491459755237883655e+00,2.145123650039749919e+00,9.484992027282714844e+00,-2.294756323099136353e-01,-3.824593871831893921e-02,5.710000000000000000e+02
-5.705939389506966108e+01,-6.549413430764070654e+01,-1.367942646642040927e+01,2.144572237565444084e+01,-5.321603387531467888e+01,2.810511020522244507e+01,-4.409615049677086063e+00,1.291706004671141272e+00,9.484992027282714844e+00,-2.294756323099136353e-01,-3.824593871831893921e-02,5.720000000000000000e+02
-5.555128055425848288e+01,-6.452842307194805471e+01,-1.297728482642378367e+01,2.188056201716062787e+01,-5.435180799053705414e+01,2.783568742851275601e+01,-3.277415363292675465e+00,4.384342996181658236e-01,9.484992027282714844e+00,-2.294756323099136353e-01,-3.824593871831893921e-02,5.730000000000000000e+02
-5.505213372762955260e+01,-6.369035393752710661e+01,-1.182375605265588092e+01,2.268286429799445614e+01,-5.470925496420022682e+01,2.775442146230125218e+01,-1.547554026274156058e+00,8.305573758807440754e-01,9.484992027282714844e+00,-2.294756323099136353e-01,-3.824593871831893921e-02,5.740000000000000000e+02
-5.539612243476221920e+01,-6.251133879468579835e+01,-1.010608809039695188e+01,2.409920588544991915e+01,-5.340300933639082359e+01,2.839094671974453377e+01,1.037002013745222939e+00,3.092351216906536138e+00,9.484992027282714844e+00,-2.294756323099136353e-01,-3.824593871831893921e-02,5.750000000000000000e+02
-5.582685993531958957e+01,-6.044169467585561506e+01,-8.128949923851905623e+00,2.609459672740194947e+01,-5.035359452654665802e+01,3.020189317518452299e+01,4.129451075546967331e+00,6.740518115690065315e+00,9.484992027282714844e+00,-2.294756323099136353e-01,-3.824593871831893921e-02,5.760000000000000000e+02
-5.541291548125627742e+01,-5.747701930917173740e+01,-6.259500138334260555e+00,2.826172335753108200e+01,-4.626595587332303694e+01,3.307792973536925274e+01,6.860048191747409874e+00,1.048392518309447041e+01,9.484992027282714844e+00,-2.294756323099136353e-01,-3.824593871831893921e-02,5.770000000000000000e+02
-5.368457898804808792e+01,-5.433497253746099886e+01,-4.612525138201817754e+00,3.004268918325942650e+01,-4.218105879910763178e+01,3.619731373064860236e+01,8.307071704299232806e+00,1.308993388342605613e+01,9.484992027282714844e+00,-2.677215635776519775e-01,0.000000000000000000e+00,5.780000000000000000e+02
-5.103317404081462882e+01,-5.196442093463883793e+01,-3.149978615565487416e+00,3.111023227192708873e+01,-3.896125098923766927e+01,3.847998283771084971e+01,8.054185347182283294e+00,1.409982232380025380e+01,9.484992027282714844e+00,-2.677215635776519775e-01,0.000000000000000000e+00,5.790000000000000000e+02
-4.852995940287473786e+01,-5.076908285796889686e+01,-2.058800222825084347e+00,3.160085745308060723e+01,-3.706157146156692761e+01,3.933986831281436025e+01,6.445075344301585574e+00,1.384462159364920808e+01,9.484992027282714844e+00,-2.677215635776519775e-01,0.000000000000000000e+00,5.800000000000000000e+02
-4.722884156299551250e+01,-5.022845612690434791e+01,-1.885720888507421478e+00,3.200110026794754958e+01,-3.662843619929844863e+01,3.908088704791225609e+01,4.360887691485913820e+00,1.287777305752933898e+01,9.484992027282714844e+00,-2.677215635776519775e-01,0.000000000000000000e+00,5.810000000000000000e+02
-4.743023187139260699e+01,-4.929510105720328283e+01,-3.119368344643589808e+00,3.276826250876729318e+01,-3.764586192245769780e+01,3.855095076573343249e+01,2.700835685316633317e+00,1.145453251057006128e+01,9.484992027282714844e+00,-2.677215635776519775e-01,0.000000000000000000e+00,5.820000000000000000e+02
-4.845990090063423850e+01,-4.728446270092717896e+01,-5.547671419499238255e+00,3.398100427785175270e+01,-3.988568524271977367e+01,3.835363243725078064e+01,1.949916097517416347e+00,9.556423990259645507e+00,9.484992027282714844e+00,-2.677215635776519775e-01,0.000000000000000000e+00,5.830000000000000000e+02
-4.915874658193388314e+01,-4.452925036843225826e+01,-8.089004788273086888e+00,3.528052513096918119e+01,-4.273999278431801940e+01,3.834419917058403371e+01,2.092440120082756039e+00,7.345400878690270474e+00,9.484992027282714844e+00,-2.677215635776519775e-01,0.000000000000000000e+00,5.840000000000000000e+02
-4.872058918538641592e+01,-4.222103364158465411e+01,-9.400961590550650726e+00,3.613968323711378616e+01,-4.525061952395481057e+01,3.785805564214388141e+01,2.829826955769021879e+00,5.473895094641193282e+00,9.484992027282714844e+00,-2.677215635776519775e-01,0.000000000000000000e+00,5.850000000000000000e+02
-4.723969735966238659e+01,-4.152665125020575942e+01,-8.812220553078077501e+00,3.624154658149927855e+01,-4.649907467406592332e+01,3.641077335108639090e+01,3.845944012249674415e+00,4.843536102973303059e+00,9.484992027282714844e+00,-2.677215635776519775e-01,0.000000000000000000e+00,5.860000000000000000e+02
-4.556206530481540540e+01,-4.268086969617797877e+01,-6.765281150583177805e+00,3.569318719222064829e+01,-4.611166537421377143e+01,3.419644786444405327e+01,4.922038965683896095e+00,5.978802168583570165e+00,9.484992027282714844e+00,-2.677215635776519775e-01,0.000000000000000000e+00,5.870000000000000000e+02
-4.458794120249694970e+01,-4.478312059634117759e+01,-4.400487894872640027e+00,3.494848415133310482e+01,-4.443295604972081492e+01,3.197228673787321895e+01,5.910649438956170343e+00,8.584862001413057442e+00,9.484992027282714844e+00,-2.677215635776519775e-01,0.000000000000000000e+00,5.880000000000000000e+02
-4.459182343407155713e+01,-4.644136922358848096e+01,-2.703273375460412353e+00,3.451894785794138443e+01,-4.220117968185513746e+01,3.051775656344761956e+01,6.687999974561535055e+00,1.168495780259036110e+01,9.484992027282714844e+00,-2.677215635776519775e-01,0.000000000000000000e+00,5.890000000000000000e+02
-4.507351253361048293e+01,-4.671243076848077180e+01,-1.978995363819194608e+00,3.467698406638737652e+01,-4.005843547712720465e+01,3.015749012586093158e+01,7.138256812646432081e+00,1.418441005038948788e+01,9.484992027282714844e+00,-2.677215635776519775e-01,0.000000000000000000e+00,5.900000000000000000e+02
-4.519138398407085333e+01,-4.559649432864353003e+01,-1.992202710196579574e+00,3.533518457306854543e+01,-3.836084285274409922e+01,3.065286179637769237e+01,7.143372909196841647e+00,1.537890084653008671e+01,9.484992027282714844e+00,-2.677215635776519775e-01,0.000000000000000000e+00,5.910000000000000000e+02
-4.436859691965219099e+01,-4.380413780312301242e+01,-2.420014302240815596e+00,3.614790006592011196e+01,-3.736316306599837844e+01,3.141382531973067671e+01,6.564491555385757238e+00,1.507981883452703187e+01,9.484992027282714844e+00,-2.677215635776519775e-01,0.000000000000000000e+00,5.920000000000000000e+02
-4.260633920845430112e+01,-4.213946433064120356e+01,-3.067579628474049969e+00,3.672065750536057749e+01,-3.739808109095247346e+01,3.180878131749705062e+01,5.271093889758049045e+00,1.345276874661612965e+01,9.484992027282714844e+00,-2.677215635776519775e-01,0.000000000000000000e+00,5.930000000000000000e+02
-4.036194771331065567e+01,-4.105209570276565501e+01,-3.710682273904239992e+00,3.677673282034083968e+01,-3.867818262631772086e+01,3.145500654981151456e+01,3.290417497199086938e+00,1.089227921473138849e+01,9.484992027282714844e+00,-2.677215635776519775e-01,0.000000000000000000e+00,5.940000000000000000e+02
-3.822173266193567542e+01,-4.060310010441753548e+01,-3.943350693909451365e+00,3.620743527971353615e+01,-4.087322704588223132e+01,3.043258631441858597e+01,1.007522772692027502e+00,8.056955996031319955e+00,9.484992027282714844e+00,-2.677215635776519775e-01,0.000000000000000000e+00,5.950000000000000000e+02
-3.665149980326532386e+01,-4.065396305039394065e+01,-3.381930424027814297e+00,3.506297356005597976e+01,-4.300020858662901446e+01,2.930480797990821884e+01,-8.050615614993148483e-01,5.852802308178070234e+00,9.484992027282714844e+00,-2.677215635776519775e-01,0.000000000000000000e+00,5.960000000000000000e+02
-3.590034885080240201e+01,-4.099003589397034375e+01,-2.081974933462333865e+00,3.356397626288162428e+01,-4.392480071687532472e+01,2.882875347076333128e+01,-1.308769748480699491e+00,5.112866041225061053e+00,9.484992027282714844e+00,-2.677215635776519775e-01,0.000000000000000000e+00,5.970000000000000000e+02
-3.595586729940623627e+01,-4.132182605110210716e+01,-6.722129799672984518e-01,3.212601216304028640e+01,-4.313685909353444004e+01,2.945868774279006175e+01,-1.650284069401095621e-01,6.065456117114081280e+00,9.484992027282714844e+00,-2.677215635776519775e-01,0.000000000000000000e+00,5.980000000000000000e+02
-3.648669506062287837e+01,-4.133069102304580156e+01,6.259261451486963779e-02,3.128241172564230510e+01,-4.111666099288413534e+01,3.101490109026781283e+01,2.070577776918071322e+00,8.031129707818763563e+00,9.523238182067871094e+00,-2.677215635776519775e-01,-7.649187743663787842e-02,5.990000000000000000e+02
-3.687758016514635528e+01,-4.085458399954586639e+01,-1.699019091283844318e-01,3.142972100369661348e+01,-3.896287097823733347e+01,3.283783261150529142e+01,4.122738446552830283e+00,9.736383698200370418e+00,9.523238182067871094e+00,-2.677215635776519775e-01,-7.649187743663787842e-02,6.000000000000000000e+02
-3.650442504399325117e+01,-4.006089754922140855e+01,-9.037167946589761414e-01,3.252168903523488552e+01,-3.763137361631015665e+01,3.433381945058499696e+01,4.749232869336992735e+00,1.014199418359567062e+01,9.523238182067871094e+00,-2.677215635776519775e-01,-7.649187743663787842e-02,6.010000000000000000e+02
-3.517548042018461274e+01,-3.937941430500723072e+01,-1.310338860574120190e+00,3.399577667573612416e+01,-3.742147596377253649e+01,3.542427577792477678e+01,3.599426239008607809e+00,9.180150020067230798e+00,9.523238182067871094e+00,-2.677215635776519775e-01,-7.649187743663787842e-02,6.020000000000000000e+02
-3.339993168941509794e+01,-3.919088061421280145e+01,-8.858599341619992629e-01,3.510074208271544194e+01,-3.800097778204508359e+01,3.648463274567257031e+01,1.537893256267125253e+00,7.805078086461435305e+00,9.523238182067871094e+00,-2.677215635776519775e-01,-7.649187743663787842e-02,6.030000000000000000e+02
-3.216333431127350195e+01,-3.954126800179437851e+01,2.134930727079336066e-01,3.543345143208352965e+01,-3.873490392389430781e+01,3.785747028592595598e+01,1.305333130621875171e-01,7.295625177379406523e+00,9.523238182067871094e+00,-2.677215635776519775e-01,-7.649187743663787842e-02,6.040000000000000000e+02
-3.226592620038354653e+01,-4.012731565845751902e+01,1.465044721269805450e+00,3.524471307703788625e+01,-3.896465718845865922e+01,3.945515495629297220e+01,6.142890637456730474e-01,8.356316755773150362e+00,9.523238182067871094e+00,-2.677215635776519775e-01,-7.649187743663787842e-02,6.050000000000000000e+02
-3.369119806892922497e+01,-4.052522738882180420e+01,2.553437778675288428e+00,3.522959586127399234e+01,-3.817042897692954284e+01,4.086196116729843197e+01,3.078744782658759505e+00,1.068533739243866876e+01,9.523238182067871094e+00,-2.677215635776519775e-01,-7.649187743663787842e-02,6.060000000000000000e+02
-3.552649703412680537e+01,-4.042122761878999881e+01,3.641649514644086594e+00,3.598138229884716566e+01,-3.616471687139710411e+01,4.181895079211608390e+01,6.444412200471560936e+00,1.326070629218156682e+01,9.523238182067871094e+00,-2.677215635776519775e-01,-7.649187743663787842e-02,6.070000000000000000e+02
-3.654665245989963296e+01,-3.968193717481699423e+01,5.112261583104555029e+00,3.760165173002678785e+01,-3.331911737030168297e+01,4.256143059837631881e+01,9.227951831555401441e+00,1.502805494270796771e+01,9.523238182067871094e+00,-2.677215635776519775e-01,-7.649187743663787842e-02,6.080000000000000000e+02
-3.603457146176515380e+01,-3.832224061827582773e+01,7.082154766831081361e+00,3.977678706727238023e+01,-3.055378316282076412e+01,4.361959311363170855e+01,1.050150714784103911e+01,1.545691680703748716e+01,9.523238182067871094e+00,-2.677215635776519775e-01,-7.649187743663787842e-02,6.090000000000000000e+02
-3.421160108194817440e+01,-3.650609808328954387e+01,9.190639756336167920e+00,4.214088203278515721e+01,-2.887508291527410620e+01,4.524343741470511304e+01,1.035689400866976939e+01,1.467933227115281625e+01,9.523238182067871094e+00,-2.677215635776519775e-01,-7.649187743663787842e-02,6.100000000000000000e+02
-3.196018043919684715e+01,-3.460136886820691871e+01,1.084702878151801997e+01,4.448063689153059386e+01,-2.869745138385769678e+01,4.702289667443983490e+01,9.608130958604306215e+00,1.328152750964727602e+01,9.523238182067871094e+00,-2.677215635776519775e-01,-7.649187743663787842e-02,6.110000000000000000e+02
-3.008606934057024773e+01,-3.312086053645543871e+01,1.167430727033206495e+01,4.659011994635511655e+01,-2.951552423142493353e+01,4.813573436078877421e+01,9.075151711142098065e+00,1.198222423439437989e+01,9.523238182067871094e+00,-2.677215635776519775e-01,-7.649187743663787842e-02,6.120000000000000000e+02
-2.874217312817199854e+01,-3.247126309694431257e+01,1.175099311325539020e+01,4.804109800347214332e+01,-3.027306072035207762e+01,4.806470411166083068e+01,9.057977357468189439e+00,1.135392588567265193e+01,9.523238182067871094e+00,-2.677215635776519775e-01,-7.649187743663787842e-02,6.130000000000000000e+02
