F3,F4,C3,C4,P3,P4,Cz,Pz,Accel_x,Accel_y,Accel_z,Sample
-3.819877747446298599e-11,-2.319211489520967007e-11,-4.456524038687348366e-11,-2.910383045673370361e-11,-4.638422979041934013e-11,-3.910827217623591423e-11,-4.820321919396519661e-11,-3.456079866737127304e-11,9.446745872497558594e+00,-8.796565532684326172e-01,3.824593871831893921e-02,2.020000000000000000e+02
-9.631377944128871604e+00,-2.518588830817861890e+00,-7.795127474018954672e-01,-4.621741274439955305e+00,-4.950079481970533379e+00,-7.886640515241197136e+00,-5.611148357712409052e+00,-1.018660457147143461e+01,9.446745872497558594e+00,-8.796565532684326172e-01,3.824593871831893921e-02,2.030000000000000000e+02
-1.985574703180827782e+01,-7.380294255588523811e+00,-3.985977548043592833e+00,-9.881275058019582502e+00,-1.212235025111112918e+01,-1.718025103871605097e+01,-1.189445021194023866e+01,-1.874094661232629733e+01,9.446745872497558594e+00,-8.796565532684326172e-01,3.824593871831893921e-02,2.040000000000000000e+02
-2.999438485434347967e+01,-1.428536890875466270e+01,-9.443100618537755508e+00,-1.514252389121520537e+01,-2.168525236558343749e+01,-2.765162301410327927e+01,-1.885735224009476951e+01,-2.473415260785259306e+01,9.446745872497558594e+00,-8.796565532684326172e-01,3.824593871831893921e-02,2.050000000000000000e+02
-3.845627773081105261e+01,-2.050204749660224479e+01,-1.453502331445452000e+01,-1.883925224567337864e+01,-3.170141403341040132e+01,-3.757557971042660938e+01,-2.584479324461881333e+01,-2.831541271515470726e+01,9.446745872497558594e+00,-8.796565532684326172e-01,3.824593871831893921e-02,2.060000000000000000e+02
-4.454179690488399501e+01,-2.382569759742682436e+01,-1.701471923829649313e+01,-2.023858431874532471e+01,-4.013376611834428331e+01,-4.557179685253959178e+01,-3.224309888948755543e+01,-3.067220582172831200e+01,9.446745872497558594e+00,-8.796565532684326172e-01,3.824593871831893921e-02,2.070000000000000000e+02
-4.974244097013797727e+01,-2.525516812611067508e+01,-1.752773809949030692e+01,-2.070835622769072870e+01,-4.693613586799892801e+01,-5.222940486356037582e+01,-3.821056181846597610e+01,-3.357422051340290636e+01,9.446745872497558594e+00,-8.796565532684326172e-01,3.824593871831893921e-02,2.080000000000000000e+02
-5.679280206692237698e+01,-2.842697523470360466e+01,-1.907047043323746038e+01,-2.282472199235053267e+01,-5.406781355497878394e+01,-5.965715463697324594e+01,-4.458432721452936676e+01,-3.844976865844637359e+01,9.446745872497558594e+00,-8.414105772972106934e-01,3.824593871831893921e-02,2.090000000000000000e+02
-6.689445087531385070e+01,-3.599443928320442865e+01,-2.366696564073481568e+01,-2.778066498542239060e+01,-6.322727229041993269e+01,-6.911546961137810285e+01,-5.182435074970999267e+01,-4.512859888252114615e+01,9.446745872497558594e+00,-8.414105772972106934e-01,3.824593871831893921e-02,2.100000000000000000e+02
-7.771397419158984121e+01,-4.634885452905837155e+01,-2.955682488802813168e+01,-3.353815533989518372e+01,-7.345517605448549148e+01,-7.901234869048130349e+01,-5.893194889322239760e+01,-5.110770118380241911e+01,9.446745872497558594e+00,-8.414105772972106934e-01,3.824593871831893921e-02,2.110000000000000000e+02
-8.469312126332533808e+01,-5.420021104363877384e+01,-3.212788532919330464e+01,-3.598186894932405266e+01,-8.125765483918257814e+01,-8.563821517420910823e+01,-6.368128431710192672e+01,-5.269889677784931337e+01,9.446745872497558594e+00,-8.414105772972106934e-01,3.824593871831893921e-02,2.120000000000000000e+02
-8.534934572809834208e+01,-5.513308042220933203e+01,-2.840272946148979827e+01,-3.271788295611713693e+01,-8.375625270377349807e+01,-8.662723233434371650e+01,-6.453516445365039544e+01,-4.825175880280630736e+01,9.446745872497558594e+00,-8.414105772972106934e-01,3.824593871831893921e-02,2.130000000000000000e+02
-8.301715767315272387e+01,-5.033393642008604729e+01,-2.119924132064716105e+01,-2.638718227041863429e+01,-8.234214173135114834e+01,-8.428229717164595058e+01,-6.286985140248452808e+01,-4.127015058713732287e+01,9.446745872497558594e+00,-8.414105772972106934e-01,3.824593871831893921e-02,2.140000000000000000e+02
-8.614949562602532751e+01,-4.704877836375317202e+01,-1.877435849193534523e+01,-2.419261239754450799e+01,-8.330392304898214206e+01,-8.543242909163654986e+01,-6.334206203145367908e+01,-4.009047176653484712e+01,9.446745872497558594e+00,-8.414105772972106934e-01,3.824593871831893921e-02,2.150000000000000000e+02
-1.026925409131454217e+02,-5.378038812552631498e+01,-2.939938563048508513e+01,-3.326842263992148219e+01,-9.412382751748737064e+01,-9.715853026454260544e+01,-7.140712384087692044e+01,-5.290305482362828116e+01,9.446745872497558594e+00,-8.414105772972106934e-01,3.824593871831893921e-02,2.160000000000000000e+02
-1.335537906285594545e+02,-7.383289761257583450e+01,-5.482175384708261845e+01,-5.519681122074462110e+01,-1.178945438775863295e+02,-1.214004318672668887e+02,-8.943820623470128339e+01,-8.119014029272739208e+01,9.446745872497558594e+00,-8.414105772972106934e-01,3.824593871831893921e-02,2.170000000000000000e+02
-1.706483118105070389e+02,-1.024507076817567395e+02,-8.795285312066243932e+01,-8.409901391809307825e+01,-1.502889416788393646e+02,-1.528236534973129892e+02,-1.144424497274249006e+02,-1.170746649886900741e+02,9.446745872497558594e+00,-8.414105772972106934e-01,3.824593871831893921e-02,2.180000000000000000e+02
-2.016505094334147543e+02,-1.298992160592524669e+02,-1.169098474899333269e+02,-1.100538598507055212e+02,-1.817383125166052196e+02,-1.819091622367832315e+02,-1.393962768819246776e+02,-1.476056876802640545e+02,9.446745872497558594e+00,-8.414105772972106934e-01,3.824593871831893921e-02,2.190000000000000000e+02
-2.180216566301942294e+02,-1.479468502651866402e+02,-1.324477927666039250e+02,-1.253215845922454719e+02,-2.033461743660263892e+02,-2.009881025462773323e+02,-1.574279453104272761e+02,-1.631661939744171832e+02,9.446745872497558594e+00,-8.414105772972106934e-01,3.824593871831893921e-02,2.200000000000000000e+02
-2.200206352872992284e+02,-1.545794864300924019e+02,-1.331653503062930213e+02,-1.285932715963158444e+02,-2.120667597300489433e+02,-2.085385537069641941e+02,-1.657846654762688559e+02,-1.633012962180710019e+02,9.446745872497558594e+00,-8.414105772972106934e-01,3.824593871831893921e-02,2.210000000000000000e+02
-2.149577089610470466e+02,-1.536058602819380212e+02,-1.248687728872623666e+02,-1.242776234292050503e+02,-2.114135485190990948e+02,-2.086712833392221000e+02,-1.667613131805273952e+02,-1.553571048681255888e+02,9.446745872497558594e+00,-8.414105772972106934e-01,3.824593871831893921e-02,2.220000000000000000e+02
-2.107049509622961523e+02,-1.503154680619354622e+02,-1.153408806647717029e+02,-1.180795111391362298e+02,-2.077468668562723906e+02,-2.068743342554880655e+02,-1.652799353271193468e+02,-1.476647563918672859e+02,9.446745872497558594e+00,-8.414105772972106934e-01,3.824593871831893921e-02,2.230000000000000000e+02
-2.102394055379741076e+02,-1.473824107577866016e+02,-1.091269848661190736e+02,-1.129368098694003493e+02,-2.055852110804680706e+02,-2.059723759849021008e+02,-1.652975900287310651e+02,-1.435717489383596330e+02,9.446745872497558594e+00,-8.414105772972106934e-01,3.824593871831893921e-02,2.240000000000000000e+02
-2.114444317812649388e+02,-1.443021869737549423e+02,-1.061560418544954700e+02,-1.084442117318862984e+02,-2.056101826504245764e+02,-2.054921795606587693e+02,-1.677430551166135047e+02,-1.411490657943490987e+02,9.446745872497558594e+00,-8.414105772972106934e-01,3.824593871831893921e-02,2.250000000000000000e+02
-2.112905162377155648e+02,-1.399835066181201455e+02,-1.042368877448220701e+02,-1.033823807312560348e+02,-2.062394037237099838e+02,-2.041857205245805744e+02,-1.710654443533021549e+02,-1.376732174034491436e+02,9.446745872497558594e+00,-8.414105772972106934e-01,3.824593871831893921e-02,2.260000000000000000e+02
-2.097906456384389458e+02,-1.353107636257250306e+02,-1.023075780382891935e+02,-9.826041442914493018e+01,-2.065348193557028935e+02,-2.026489441815183454e+02,-1.733302883542783093e+02,-1.336905653617259304e+02,9.446745872497558594e+00,-8.414105772972106934e-01,3.824593871831893921e-02,2.270000000000000000e+02
-2.100716986434445062e+02,-1.330277194315690394e+02,-1.014481468399758342e+02,-9.532589592417662061e+01,-2.075610489182945457e+02,-2.033794805935986005e+02,-1.739497781973122983e+02,-1.326909433583141436e+02,9.446745872497558594e+00,-8.414105772972106934e-01,3.824593871831893921e-02,2.280000000000000000e+02
-2.151193199179651856e+02,-1.352562148138943030e+02,-1.033827516022092823e+02,-9.637808228015046552e+01,-2.112811537827656139e+02,-2.084568953287352997e+02,-1.738954259158699642e+02,-1.373560339575706166e+02,9.446745872497558594e+00,-8.414105772972106934e-01,3.824593871831893921e-02,2.290000000000000000e+02
-2.248297206969450599e+02,-1.413093310544643373e+02,-1.085407794923671645e+02,-1.008792547364173515e+02,-2.185192138877619072e+02,-2.173779822784936187e+02,-1.746815820900692415e+02,-1.466281875214608590e+02,9.484992027282714844e+00,-9.179025292396545410e-01,0.000000000000000000e+00,2.300000000000000000e+02
-2.361627154497527954e+02,-1.480120920899726116e+02,-1.156193415021857618e+02,-1.062904921796598501e+02,-2.280947544805808320e+02,-2.272249182310820288e+02,-1.772188164763083478e+02,-1.564889588950595680e+02,9.484992027282714844e+00,-9.179025292396545410e-01,0.000000000000000000e+00,2.310000000000000000e+02
-2.457321269859526183e+02,-1.521452429406181182e+02,-1.226073251704256108e+02,-1.100825949276759275e+02,-2.377058001259283628e+02,-2.348683780338546967e+02,-1.813272264909292062e+02,-1.632328622033824104e+02,9.484992027282714844e+00,-9.179025292396545410e-01,0.000000000000000000e+00,2.320000000000000000e+02
-2.519931453512831467e+02,-1.526786739579765708e+02,-1.278710107320343923e+02,-1.113184469565280779e+02,-2.454166002671681781e+02,-2.390448741984323533e+02,-1.859787350996684836e+02,-1.657989672963935845e+02,9.484992027282714844e+00,-9.179025292396545410e-01,0.000000000000000000e+00,2.330000000000000000e+02
-2.552739406604264332e+02,-1.509780900942037078e+02,-1.304399650527684571e+02,-1.105402196517243283e+02,-2.504009114553778090e+02,-2.406141592110675447e+02,-1.899041570024155590e+02,-1.653901914082598523e+02,9.484992027282714844e+00,-9.179025292396545410e-01,0.000000000000000000e+00,2.340000000000000000e+02
-2.565615478586028075e+02,-1.493213354850317955e+02,-1.300164512777282653e+02,-1.087358873284588299e+02,-2.528139991081320659e+02,-2.413370938780226425e+02,-1.922689437651679327e+02,-1.637339878856396354e+02,9.484992027282714844e+00,-9.179025292396545410e-01,0.000000000000000000e+00,2.350000000000000000e+02
-2.569818177484157786e+02,-1.494716196787471745e+02,-1.274786593361932319e+02,-1.069396092532119837e+02,-2.535864355733988305e+02,-2.427693465589677544e+02,-1.932448572807697929e+02,-1.622865424964215890e+02,9.484992027282714844e+00,-9.179025292396545410e-01,0.000000000000000000e+00,2.360000000000000000e+02
-2.583678709702803644e+02,-1.524338673575289249e+02,-1.254531925618157402e+02,-1.067391772477462837e+02,-2.545306822726965947e+02,-2.461538060280231548e+02,-1.942158966322904234e+02,-1.627505401058811003e+02,9.484992027282714844e+00,-9.179025292396545410e-01,0.000000000000000000e+00,2.370000000000000000e+02
-2.633712301100936202e+02,-1.588750481837184907e+02,-1.276116644886524227e+02,-1.103751938303953466e+02,-2.581327459437770813e+02,-2.526559452247847730e+02,-1.972804769513463725e+02,-1.672017140415291578e+02,9.484992027282714844e+00,-9.179025292396545410e-01,0.000000000000000000e+00,2.380000000000000000e+02
-2.738891246414768830e+02,-1.690277340204443135e+02,-1.362881857625911834e+02,-1.193587312646282044e+02,-2.663157604477300993e+02,-2.628859785075042055e+02,-2.040452814709933591e+02,-1.766419798305378208e+02,9.484992027282714844e+00,-9.179025292396545410e-01,0.000000000000000000e+00,2.390000000000000000e+02
-2.889066743977800797e+02,-1.819197850064256272e+02,-1.501302026837092853e+02,-1.325281517449006969e+02,-2.787589421692887299e+02,-2.758935461683836365e+02,-2.144161301078420365e+02,-1.892433580155334312e+02,9.484992027282714844e+00,-9.179025292396545410e-01,0.000000000000000000e+00,2.400000000000000000e+02
-3.043301587688988548e+02,-1.950824239534820208e+02,-1.643157192139979088e+02,-1.458448819428540446e+02,-2.924953659637158125e+02,-2.890574811164578932e+02,-2.264219117151665159e+02,-2.007608364995221564e+02,9.484992027282714844e+00,-9.179025292396545410e-01,0.000000000000000000e+00,2.410000000000000000e+02
-3.158439709406834481e+02,-2.057626467684085583e+02,-1.739102154328447796e+02,-1.550060448124872892e+02,-3.038009523128184810e+02,-2.997323499756448655e+02,-2.374612214118087650e+02,-2.076650446980943343e+02,9.484992027282714844e+00,-9.179025292396545410e-01,0.000000000000000000e+00,2.420000000000000000e+02
-3.225405129270789075e+02,-2.129829304160641641e+02,-1.777773771367083100e+02,-1.589704619086824096e+02,-3.111256366415282173e+02,-3.074960449667810281e+02,-2.461112835506633019e+02,-2.103384481896896432e+02,9.484992027282714844e+00,-9.179025292396545410e-01,0.000000000000000000e+00,2.430000000000000000e+02
-3.276907729856452534e+02,-2.184224389746993893e+02,-1.794146672000833860e+02,-1.609958021474653833e+02,-3.163548496638563847e+02,-3.146778805241642658e+02,-2.529388717578672185e+02,-2.129704972856484346e+02,9.484992027282714844e+00,-9.179025292396545410e-01,0.000000000000000000e+00,2.440000000000000000e+02
-3.354547983662851038e+02,-2.248311249691510056e+02,-1.836360924498048917e+02,-1.657308564426771227e+02,-3.229215143998053463e+02,-3.241820654134680808e+02,-2.595310140591382151e+02,-2.197230719963718002e+02,9.484992027282714844e+00,-9.179025292396545410e-01,0.000000000000000000e+00,2.450000000000000000e+02
-3.464732485200470364e+02,-2.331118677328679496e+02,-1.919926506165047613e+02,-1.747359378301835022e+02,-3.323371136446639866e+02,-3.363841974250608473e+02,-2.666312759874203948e+02,-2.305737947140537472e+02,9.484992027282714844e+00,-9.179025292396545410e-01,0.000000000000000000e+00,2.460000000000000000e+02
-3.568364577772094890e+02,-2.409228540480614811e+02,-2.012971639740085266e+02,-1.847271890658121265e+02,-3.425357978212641683e+02,-3.482274545640470933e+02,-2.732330022310115965e+02,-2.410095322440070049e+02,9.484992027282714844e+00,-9.179025292396545410e-01,0.000000000000000000e+00,2.470000000000000000e+02
-3.619214368579660004e+02,-2.446106908869708150e+02,-2.068514057384877560e+02,-1.905747387351136695e+02,-3.498832275546869823e+02,-3.558158855044580378e+02,-2.776608212300670857e+02,-2.462501081970358427e+02,9.484992027282714844e+00,-9.179025292396545410e-01,0.000000000000000000e+00,2.480000000000000000e+02
-3.617160139646971402e+02,-2.431465425964922815e+02,-2.074740758921188899e+02,-1.905493746824970458e+02,-3.531106267113764261e+02,-3.583589062201381239e+02,-2.797189952948538121e+02,-2.462410279585310491e+02,9.484992027282714844e+00,-9.179025292396545410e-01,0.000000000000000000e+00,2.490000000000000000e+02
-3.624082435471070767e+02,-2.405142082516786104e+02,-2.076007650082274267e+02,-1.889578476819388015e+02,-3.554064221819999148e+02,-3.597647675510470435e+02,-2.818336089654271746e+02,-2.467097074675912154e+02,9.484992027282714844e+00,-9.179025292396545410e-01,0.000000000000000000e+00,2.500000000000000000e+02
-3.722524265288145671e+02,-2.439586418905248593e+02,-2.143488327023660531e+02,-1.935001514103978479e+02,-3.625260374914082604e+02,-3.661702636837767386e+02,-2.879409315837210670e+02,-2.550987415979948310e+02,9.484992027282714844e+00,-9.179025292396545410e-01,0.000000000000000000e+00,2.510000000000000000e+02
-3.950757617329163622e+02,-2.590293247921913462e+02,-2.320457539187209477e+02,-2.094585740809025083e+02,-3.785052271176573413e+02,-3.814265417826595694e+02,-3.009216226674720929e+02,-2.748566489531056050e+02,9.484992027282714844e+00,-9.179025292396545410e-01,0.000000000000000000e+00,2.520000000000000000e+02
-4.271279192419601713e+02,-2.853170501390002300e+02,-2.589444469345589823e+02,-2.356905567164421882e+02,-4.027220060537360951e+02,-4.044255281331452352e+02,-3.206801010728063375e+02,-3.029824912444498750e+02,9.484992027282714844e+00,-9.179025292396545410e-01,0.000000000000000000e+00,2.530000000000000000e+02
-4.600060208694767425e+02,-3.164216105506752683e+02,-2.887351287023084296e+02,-2.656855279550463820e+02,-4.306591874919945440e+02,-4.303690874616490873e+02,-3.443398035462705593e+02,-3.326493318041834755e+02,9.484992027282714844e+00,-9.179025292396545410e-01,0.000000000000000000e+00,2.540000000000000000e+02
-4.869247696606846603e+02,-3.442358588142594726e+02,-3.151770022781665830e+02,-2.924508587030652507e+02,-4.573066547389489642e+02,-4.545159366900784335e+02,-3.681686804107553144e+02,-3.582420425634111325e+02,9.446745872497558594e+00,-8.414105772972106934e-01,3.824593871831893921e-02,2.550000000000000000e+02
-5.068325943368433855e+02,-3.641359080594797888e+02,-3.357820770555249510e+02,-3.129410164434505077e+02,-4.800910738783163652e+02,-4.750311279774141440e+02,-3.895709367803206078e+02,-3.784488116459804132e+02,9.446745872497558594e+00,-8.414105772972106934e-01,3.824593871831893921e-02,2.560000000000000000e+02
-5.232387259517045095e+02,-3.771408359429024131e+02,-3.518875525339744854e+02,-3.287321758262651201e+02,-4.992251124603176322e+02,-4.928874709519495809e+02,-4.077972789935292894e+02,-3.953605208266474165e+02,9.446745872497558594e+00,-8.414105772972106934e-01,3.824593871831893921e-02,2.570000000000000000e+02
-5.396093700585124679e+02,-3.878056969984588704e+02,-3.659048656988827588e+02,-3.432708198926472960e+02,-5.159839061635211692e+02,-5.096759576593840393e+02,-4.233573583358206633e+02,-4.112664722751821955e+02,9.446745872497558594e+00,-8.414105772972106934e-01,3.824593871831893921e-02,2.580000000000000000e+02
-5.559636574682024275e+02,-4.000653340999410830e+02,-3.787118641609688439e+02,-3.587089648780458901e+02,-5.309976109549797911e+02,-5.257694210401255077e+02,-4.370841942972033394e+02,-4.264351545472779890e+02,9.446745872497558594e+00,-8.414105772972106934e-01,3.824593871831893921e-02,2.590000000000000000e+02
-5.695006813534146204e+02,-4.144774314012330478e+02,-3.893417608638178535e+02,-3.748677003507004883e+02,-5.439839777756865260e+02,-5.403154433627014441e+02,-4.496434348041148041e+02,-4.395138114936048623e+02,9.446745872497558594e+00,-8.414105772972106934e-01,3.824593871831893921e-02,2.600000000000000000e+02
-5.779335571586402693e+02,-4.286188512250025724e+02,-3.966327838433171564e+02,-3.903523782726640547e+02,-5.546154376654690168e+02,-5.524612033266307662e+02,-4.615158233403449231e+02,-4.494408733989434950e+02,9.446745872497558594e+00,-8.414105772972106934e-01,3.824593871831893921e-02,2.610000000000000000e+02
-5.819742153116562804e+02,-4.396611677311914264e+02,-4.009456541899278363e+02,-4.040781859301919212e+02,-5.633537675850525375e+02,-5.622760618122506457e+02,-4.730698999325027216e+02,-4.567284014006529560e+02,9.446745872497558594e+00,-8.414105772972106934e-01,3.824593871831893921e-02,2.620000000000000000e+02
-5.848352826189320695e+02,-4.467165209338830891e+02,-4.044352200039102172e+02,-4.158146384185718034e+02,-5.715197254914323821e+02,-5.706241246767817756e+02,-4.845078836488846719e+02,-4.631461388518869171e+02,9.446745872497558594e+00,-8.414105772972106934e-01,3.824593871831893921e-02,2.630000000000000000e+02
-5.897540400020645848e+02,-4.512745102529622727e+02,-4.098755513481789876e+02,-4.258492984915083071e+02,-5.807360008997629848e+02,-5.785122633386627058e+02,-4.958180238835384444e+02,-4.705418300674057264e+02,9.446745872497558594e+00,-8.414105772972106934e-01,3.824593871831893921e-02,2.640000000000000000e+02
-5.981230636515876995e+02,-4.558887445431610104e+02,-4.191110190291690856e+02,-4.346864359510876170e+02,-5.922410230666899906e+02,-5.867680708683647026e+02,-5.069090567338078017e+02,-4.800160716127032856e+02,9.446745872497558594e+00,-8.414105772972106934e-01,3.824593871831893921e-02,2.650000000000000000e+02
-6.096132339261307607e+02,-4.625264442553136632e+02,-4.321819566493238085e+02,-4.431833607317153678e+02,-6.063968920267498106e+02,-5.961960016190726037e+02,-5.178700634051016323e+02,-4.918631919041229139e+02,9.446745872497558594e+00,-8.414105772972106934e-01,3.824593871831893921e-02,2.660000000000000000e+02
-6.233993788846981943e+02,-4.717924833278142387e+02,-4.474861976509719739e+02,-4.526112007104281929e+02,-6.224946690643746479e+02,-6.076242886244301644e+02,-5.290799011625036883e+02,-5.057749953235078806e+02,9.446745872497558594e+00,-8.414105772972106934e-01,3.824593871831893921e-02,2.670000000000000000e+02
-6.388143777190540504e+02,-4.831870294312407168e+02,-4.627189569765660622e+02,-4.641118563231445933e+02,-6.389629016802289243e+02,-6.214344501668718976e+02,-5.409853585774930025e+02,-5.208826957303529070e+02,9.446745872497558594e+00,-8.414105772972106934e-01,3.824593871831893921e-02,2.680000000000000000e+02
-6.549572882392515112e+02,-4.957730028531944981e+02,-4.760521319602466974e+02,-4.778484187029596342e+02,-6.540410960144718047e+02,-6.369523035922195504e+02,-5.536885806423990743e+02,-5.358290054272356429e+02,9.446745872497558594e+00,-8.414105772972106934e-01,3.824593871831893921e-02,2.690000000000000000e+02
-6.702985671284698128e+02,-5.086591228510262113e+02,-4.869726147267892884e+02,-4.927437783853031874e+02,-6.666771674994362229e+02,-6.524515871820741495e+02,-5.666933956774917078e+02,-5.492399359553517115e+02,9.446745872497558594e+00,-8.414105772972106934e-01,3.824593871831893921e-02,2.700000000000000000e+02
-6.832966314240513839e+02,-5.211824389674883378e+02,-4.963384426873811321e+02,-5.072550590240508086e+02,-6.770925674475399774e+02,-6.660270711987027425e+02,-5.790814136717907559e+02,-5.604489238502317221e+02,9.446745872497558594e+00,-8.414105772972106934e-01,3.824593871831893921e-02,2.710000000000000000e+02
-6.936454107257285386e+02,-5.329986083240272592e+02,-5.056171873150824467e+02,-5.205692771486462789e+02,-6.865725019607818922e+02,-6.767318727933078435e+02,-5.900702360192565266e+02,-5.698238355154749115e+02,9.446745872497558594e+00,-8.414105772972106934e-01,3.824593871831893921e-02,2.720000000000000000e+02
-7.027814552181346244e+02,-5.441950730236283107e+02,-5.158542919145509131e+02,-5.331382821992270920e+02,-6.966156947217575635e+02,-6.850791852747429402e+02,-5.995749844443619168e+02,-5.783527740701026687e+02,9.446745872497558594e+00,-8.414105772972106934e-01,3.824593871831893921e-02,2.730000000000000000e+02
-7.128685016763074600e+02,-5.552814184557034878e+02,-5.271428343432352221e+02,-5.460950003642976753e+02,-7.080839902484391359e+02,-6.925637991578290666e+02,-6.083321872188470252e+02,-5.869003758574194762e+02,9.446745872497558594e+00,-8.414105772972106934e-01,3.824593871831893921e-02,2.740000000000000000e+02
-7.249976385828197181e+02,-5.668443138691937975e+02,-5.388707182555153850e+02,-5.601047189055071840e+02,-7.208784544443966524e+02,-7.006366563491244506e+02,-6.174220832055229948e+02,-5.958012561338128990e+02,9.446745872497558594e+00,-8.414105772972106934e-01,3.824593871831893921e-02,2.750000000000000000e+02
-7.381509886663985753e+02,-5.789341448745800562e+02,-5.502644375207653411e+02,-5.746379608574659414e+02,-7.341422040312805848e+02,-7.098834140893779932e+02,-6.274779380812283307e+02,-6.049412657427093336e+02,9.446745872497558594e+00,-8.414105772972106934e-01,3.824593871831893921e-02,2.760000000000000000e+02
-7.497389800751529947e+02,-5.905703673154922626e+02,-5.605093871093067719e+02,-5.881435717467370523e+02,-7.465914191944216327e+02,-7.198089861492726413e+02,-6.381217683354778956e+02,-6.138556800965729963e+02,9.446745872497558594e+00,-8.414105772972106934e-01,3.824593871831893921e-02,2.770000000000000000e+02
-7.571598154339355915e+02,-5.998341217980356532e+02,-5.683989970859579444e+02,-5.988147712382651662e+02,-7.567130070683386975e+02,-7.291336473879359801e+02,-6.480249443164634613e+02,-6.215411889387456768e+02,9.446745872497558594e+00,-8.414105772972106934e-01,3.824593871831893921e-02,2.780000000000000000e+02
-7.591962045138500343e+02,-6.047256281105265998e+02,-5.722997112646272626e+02,-6.053741093423203665e+02,-7.630163802476959063e+02,-7.363434430556806092e+02,-6.555753727419372581e+02,-6.264306503998141125e+02,9.446745872497558594e+00,-8.414105772972106934e-01,3.824593871831893921e-02,2.790000000000000000e+02
-7.565085084371393123e+02,-6.043988406446134150e+02,-5.710924879656182611e+02,-6.075520466695928690e+02,-7.646350175277107155e+02,-7.403293800274846035e+02,-6.597441858132651760e+02,-6.271708664178385106e+02,9.446745872497558594e+00,-8.414105772972106934e-01,3.824593871831893921e-02,2.800000000000000000e+02
-7.512647349922954163e+02,-5.999741156056237514e+02,-5.656058450770983654e+02,-6.062326045530226111e+02,-7.621170933167052226e+02,-7.409793787188357328e+02,-6.606481059233187807e+02,-6.239758484539386245e+02,9.446745872497558594e+00,-8.414105772972106934e-01,3.824593871831893921e-02,2.810000000000000000e+02
-7.462724063031163269e+02,-5.942318693386368977e+02,-5.590644181222671705e+02,-6.032531649775180540e+02,-7.577189385571671210e+02,-7.394369704631270679e+02,-6.595281648164063881e+02,-6.192971939297550534e+02,9.446745872497558594e+00,-8.414105772972106934e-01,3.824593871831893921e-02,2.820000000000000000e+02
-7.438638908403962660e+02,-5.901828669211238321e+02,-5.555561090767658925e+02,-6.007542270749165709e+02,-7.545754967776989588e+02,-7.376673414376364235e+02,-6.581719546680340045e+02,-6.166881810217247448e+02,9.446745872497558594e+00,-8.414105772972106934e-01,3.824593871831893921e-02,2.830000000000000000e+02
-7.448112211298257535e+02,-5.893708281703600278e+02,-5.573136865250055507e+02,-6.001845234944987624e+02,-7.549619417794990568e+02,-7.373448844116660439e+02,-6.580638445775335867e+02,-6.183183603777961252e+02,9.446745872497558594e+00,-8.414105772972106934e-01,3.824593871831893921e-02,2.840000000000000000e+02
-7.478723410862512537e+02,-5.911182238618252995e+02,-5.630425513510011797e+02,-6.015450651275425571e+02,-7.588196097435613865e+02,-7.387348561680423700e+02,-6.596914426090500001e+02,-6.231789903436116447e+02,9.446745872497558594e+00,-8.414105772972106934e-01,3.824593871831893921e-02,2.850000000000000000e+02
-7.505140267678877990e+02,-5.932941966637187079e+02,-5.689044992708851396e+02,-6.035042854969569817e+02,-7.637730895949964633e+02,-7.404748287554633634e+02,-6.624063905797061125e+02,-6.277232823480538855e+02,9.446745872497558594e+00,-8.414105772972106934e-01,3.824593871831893921e-02,2.860000000000000000e+02
-7.505532568298971228e+02,-5.939899823903238030e+02,-5.714570588042108739e+02,-6.043959662721714494e+02,-7.667805545449225519e+02,-7.405544138910108813e+02,-6.649317182892533538e+02,-6.285657776242439922e+02,9.446745872497558594e+00,-8.414105772972106934e-01,3.824593871831893921e-02,2.870000000000000000e+02
-7.475351301049201993e+02,-5.927279345608783387e+02,-5.700211283425895772e+02,-6.033182237418725435e+02,-7.661868178319259641e+02,-7.377763554260957335e+02,-6.661580936589678004e+02,-6.249351035379854693e+02,9.446745872497558594e+00,-8.414105772972106934e-01,3.824593871831893921e-02,2.880000000000000000e+02
-7.426929550936775968e+02,-5.902671709111442624e+02,-5.664936117156469209e+02,-6.004417498854122641e+02,-7.625731420358390551e+02,-7.325222801081281432e+02,-6.656536334144415150e+02,-6.187970053288993313e+02,9.446745872497558594e+00,-8.414105772972106934e-01,3.824593871831893921e-02,2.890000000000000000e+02
-7.375627362676686971e+02,-5.873780489405602339e+02,-5.630410660636900957e+02,-5.963976041936487036e+02,-7.578332534755450069e+02,-7.262432611380286289e+02,-6.635610788268771785e+02,-6.127718489494706091e+02,9.446745872497558594e+00,-8.414105772972106934e-01,3.824593871831893921e-02,2.900000000000000000e+02
-7.326468643359825137e+02,-5.839352208721153374e+02,-5.600751600515513928e+02,-5.915595455944355763e+02,-7.534726482876149021e+02,-7.202738863837862482e+02,-6.601580031635808155e+02,-6.080219113319716371e+02,9.446745872497558594e+00,-8.414105772972106934e-01,3.824593871831893921e-02,2.910000000000000000e+02
-7.274731419137422108e+02,-5.793239261723098252e+02,-5.564315032110262109e+02,-5.860875375134367005e+02,-7.497235304500316033e+02,-7.151443717059624987e+02,-6.556768694793257737e+02,-6.040966096958554772e+02,9.446745872497558594e+00,-8.414105772972106934e-01,3.824593871831893921e-02,2.920000000000000000e+02
-7.219034031858059279e+02,-5.737526101204902034e+02,-5.513017121684055155e+02,-5.806435711471754075e+02,-7.461144081942438788e+02,-7.109290434628962885e+02,-6.506152681516437042e+02,-6.005385145402076432e+02,9.446745872497558594e+00,-8.414105772972106934e-01,3.824593871831893921e-02,2.930000000000000000e+02
-7.171152836728381317e+02,-5.689755219165141398e+02,-5.456712714581477712e+02,-5.767475399934996858e+02,-7.426106452813999113e+02,-7.079813515623774265e+02,-6.460675357796221761e+02,-5.981672537587176066e+02,9.446745872497558594e+00,-8.414105772972106934e-01,3.824593871831893921e-02,2.940000000000000000e+02
-7.149519762457450724e+02,-5.673598082009841619e+02,-5.416537023219082130e+02,-5.759641983919127597e+02,-7.399385238325883165e+02,-7.069942109974448385e+02,-6.434111866222417575e+02,-5.984132760349882574e+02,9.446745872497558594e+00,-8.414105772972106934e-01,3.824593871831893921e-02,2.950000000000000000e+02
-7.161778545452332310e+02,-5.699310825926409052e+02,-5.405024554704524462e+02,-5.784553123854213936e+02,-7.387672721483259011e+02,-7.081901148001961701e+02,-6.433887480455082368e+02,-6.014197560504076137e+02,9.446745872497558594e+00,-8.414105772972106934e-01,3.824593871831893921e-02,2.960000000000000000e+02
-7.195368585683372658e+02,-5.752265417611574776e+02,-5.415318298777131076e+02,-5.824010610909264187e+02,-7.387949442132127160e+02,-7.105989757849087027e+02,-6.454486326453560423e+02,-6.051978051927159186e+02,9.446745872497558594e+00,-8.414105772972106934e-01,3.824593871831893921e-02,2.970000000000000000e+02
-7.228009821017579952e+02,-5.801733904185135771e+02,-5.431263377297402712e+02,-5.851708606149458092e+02,-7.389187491524695588e+02,-7.124602194431333828e+02,-6.481383527634154689e+02,-6.071253395270886131e+02,9.446745872497558594e+00,-8.414105772972106934e-01,3.824593871831893921e-02,2.980000000000000000e+02
-7.248872082560169474e+02,-5.823540410552584490e+02,-5.446992269497056895e+02,-5.854090552455693341e+02,-7.384338057745729884e+02,-7.126220476919415887e+02,-6.503261250508556941e+02,-6.065072930714402446e+02,9.446745872497558594e+00,-8.414105772972106934e-01,3.824593871831893921e-02,2.990000000000000000e+02
-7.268417300905867933e+02,-5.816745118850050176e+02,-5.473794753488743936e+02,-5.841185003897760453e+02,-7.379721462059611667e+02,-7.116205279366475906e+02,-6.520823258998442498e+02,-6.055206277932844614e+02,9.446745872497558594e+00,-8.414105772972106934e-01,3.824593871831893921e-02,3.000000000000000000e+02
-7.305159587283364999e+02,-5.799872455599032719e+02,-5.525680640760338065e+02,-5.836045685400068805e+02,-7.390550876341168305e+02,-7.112359165722575653e+02,-6.543021306133507551e+02,-6.072555539703248542e+02,9.446745872497558594e+00,-8.414105772972106934e-01,3.824593871831893921e-02,3.010000000000000000e+02
-7.361427426414581987e+02,-5.791047747502343555e+02,-5.598398334569689041e+02,-5.851483503220022158e+02,-7.425716946503251847e+02,-7.127636666878449887e+02,-6.574156907508357790e+02,-6.125066199041749542e+02,9.446745872497558594e+00,-8.414105772972106934e-01,3.824593871831893921e-02,3.020000000000000000e+02
-7.412983226564516599e+02,-5.790831116491146986e+02,-5.664646315965246686e+02,-5.875731309237602318e+02,-7.476605787060882449e+02,-7.155827621814197528e+02,-6.605199418904600179e+02,-6.184413142595940371e+02,9.446745872497558594e+00,-8.414105772972106934e-01,3.824593871831893921e-02,3.030000000000000000e+02
-7.424801241771201603e+02,-5.782804759902618343e+02,-5.692317033161261861e+02,-5.880925743827377801e+02,-7.521158506636140828e+02,-7.174118316428283606e+02,-6.618894908324183461e+02,-6.206329733134218714e+02,9.446745872497558594e+00,-8.414105772972106934e-01,3.824593871831893921e-02,3.040000000000000000e+02
-7.379649526876189611e+02,-5.749751344493611214e+02,-5.669240104825825028e+02,-5.846935794649937179e+02,-7.539515048728517286e+02,-7.160884004235905422e+02,-6.604295395807013165e+02,-6.167325388578424281e+02,9.446745872497558594e+00,-8.414105772972106934e-01,3.824593871831893921e-02,3.050000000000000000e+02
-7.293197823634777706e+02,-5.689656656381582707e+02,-5.611607804595198559e+02,-5.779218557686483564e+02,-7.527115039724570806e+02,-7.113289822324131819e+02,-6.566996799718790498e+02,-6.084705514310669514e+02,9.446745872497558594e+00,-8.414105772972106934e-01,3.824593871831893921e-02,3.060000000000000000e+02
-7.202076299327944753e+02,-5.617602178380134319e+02,-5.549469781304960634e+02,-5.705354208458272751e+02,-7.494630725228495294e+02,-7.049754743937060084e+02,-6.525630439855250415e+02,-6.002372695535819958e+02,9.446745872497558594e+00,-8.414105772972106934e-01,3.824593871831893921e-02,3.070000000000000000e+02
-7.136018270439022899e+02,-5.553239720981706569e+02,-5.503364665678341225e+02,-5.653821002546649197e+02,-7.456479436719091609e+02,-6.995803491123680260e+02,-6.497892988496914768e+02,-5.955835572708811014e+02,9.446745872497558594e+00,-8.414105772972106934e-01,3.824593871831893921e-02,3.080000000000000000e+02
-7.097818194425426555e+02,-5.505418413197469363e+02,-5.471794963528461722e+02,-5.632738056051539388e+02,-7.418616746402310582e+02,-6.965401573563594866e+02,-6.488115299855679723e+02,-5.946883363661752355e+02,9.446745872497558594e+00,-8.414105772972106934e-01,3.824593871831893921e-02,3.090000000000000000e+02
-7.065331563870740865e+02,-5.465853452799783554e+02,-5.436646980478103615e+02,-5.624157397124276940e+02,-7.374602210700669502e+02,-6.951789784204470379e+02,-6.485385905118644132e+02,-5.946633029327640543e+02,9.446745872497558594e+00,-8.414105772972106934e-01,3.824593871831893921e-02,3.100000000000000000e+02
-7.010052807508054684e+02,-5.415301779300937142e+02,-5.377955068798535194e+02,-5.595914321977412555e+02,-7.310841172010204900e+02,-6.932835106920490489e+02,-6.471417196257593787e+02,-5.919532385153523819e+02,9.446745872497558594e+00,-8.414105772972106934e-01,3.824593871831893921e-02,3.110000000000000000e+02
-6.916362195345936925e+02,-5.337051116227046350e+02,-5.285898232290629721e+02,-5.521519173525024371e+02,-7.216181713316975674e+02,-6.885674885167546790e+02,-6.431052288971336566e+02,-5.846619746427493283e+02,9.446745872497558594e+00,-8.414105772972106934e-01,3.824593871831893921e-02,3.120000000000000000e+02
-6.790318669720386424e+02,-5.229493148063312447e+02,-5.165477216205692912e+02,-5.396463793696134417e+02,-7.090410211722155509e+02,-6.801151481001018055e+02,-6.359529512443256181e+02,-5.733499681744316376e+02,9.484992027282714844e+00,-8.414105772972106934e-01,3.824593871831893921e-02,3.130000000000000000e+02
-6.656743356146682800e+02,-5.110937526654466865e+02,-5.035818727345633761e+02,-5.243380347528307084e+02,-6.947842615623815163e+02,-6.690378873453610140e+02,-6.264805781941383884e+02,-5.604065900459969498e+02,9.484992027282714844e+00,-8.414105772972106934e-01,3.824593871831893921e-02,3.140000000000000000e+02
-6.548131412258571800e+02,-5.013128187800043634e+02,-4.925073719311235436e+02,-5.103454067904157796e+02,-6.813617560226348360e+02,-6.580118020881192251e+02,-6.165164116456828651e+02,-5.488594362131252637e+02,9.484992027282714844e+00,-8.414105772972106934e-01,3.824593871831893921e-02,3.150000000000000000e+02
-6.488936928602818170e+02,-4.964580177798741261e+02,-4.859199238408863266e+02,-5.016355734619440909e+02,-6.712630380068300155e+02,-6.498529456522477403e+02,-6.082073876017885823e+02,-5.411324697521713460e+02,9.484992027282714844e+00,-8.414105772972106934e-01,3.824593871831893921e-02,3.160000000000000000e+02
-6.481001135225624239e+02,-4.971894302040531102e+02,-4.847147595101407660e+02,-4.997830555619170809e+02,-6.656220854884332994e+02,-6.458608137477301625e+02,-6.029969544724410753e+02,-5.379556766710375086e+02,9.484992027282714844e+00,-8.414105772972106934e-01,3.824593871831893921e-02,3.170000000000000000e+02
-6.500060690393843288e+02,-5.011936674903576545e+02,-4.872892452483540637e+02,-5.029144476400665553e+02,-6.635858965184288536e+02,-6.449983856972174863e+02,-6.008312625546863046e+02,-5.378981125638684944e+02,9.484992027282714844e+00,-8.414105772972106934e-01,3.824593871831893921e-02,3.180000000000000000e+02
-6.510389099130909472e+02,-5.043422450978563916e+02,-4.904404206774456725e+02,-5.068249838151104996e+02,-6.630132661342796609e+02,-6.446305844820176389e+02,-6.002436343202454054e+02,-5.381639529538443867e+02,9.484992027282714844e+00,-8.414105772972106934e-01,3.824593871831893921e-02,3.190000000000000000e+02
-6.490667097826504914e+02,-5.032665436512647830e+02,-4.916150052485264723e+02,-5.077164352213159759e+02,-6.620950202143222896e+02,-6.424254014341192942e+02,-5.994101631392521767e+02,-5.364950785530296571e+02,9.484992027282714844e+00,-8.414105772972106934e-01,3.824593871831893921e-02,3.200000000000000000e+02
-6.450205289914316609e+02,-4.974841598192202810e+02,-4.906522834607600885e+02,-5.045024933866052379e+02,-6.605713585032598303e+02,-6.379539206476265463e+02,-5.973929699090555232e+02,-5.327538166862613025e+02,9.484992027282714844e+00,-8.414105772972106934e-01,3.824593871831893921e-02,3.210000000000000000e+02
-6.418378645400362075e+02,-4.893169752752676800e+02,-4.892982515548820857e+02,-4.987891612222312006e+02,-6.594305167683845639e+02,-6.326105071162551212e+02,-5.944953902608023100e+02,-5.286013596918785424e+02,9.484992027282714844e+00,-8.414105772972106934e-01,3.824593871831893921e-02,3.220000000000000000e+02
-6.414074687547317808e+02,-4.816484159995101209e+02,-4.888517059305557950e+02,-4.926661444082337766e+02,-6.593434646937021171e+02,-6.279120332962348812e+02,-5.914189081872949600e+02,-5.253798334635596348e+02,9.484992027282714844e+00,-8.414105772972106934e-01,3.824593871831893921e-02,3.230000000000000000e+02
-6.424078913284211012e+02,-4.755595664617122225e+02,-4.883415321036250134e+02,-4.865679256668341282e+02,-6.593914219519222115e+02,-6.238346472073114910e+02,-5.881193784028155278e+02,-5.223286132670067445e+02,9.484992027282714844e+00,-8.414105772972106934e-01,3.824593871831893921e-02,3.240000000000000000e+02
-6.414258028800084048e+02,-4.700658874446030495e+02,-4.853368308199319472e+02,-4.794402716936139086e+02,-6.575046471898593836e+02,-6.189387980145068013e+02,-5.836515060879531802e+02,-5.172352353731225776e+02,9.484992027282714844e+00,-8.414105772972106934e-01,3.824593871831893921e-02,3.250000000000000000e+02
-6.366224861554869676e+02,-4.642137379083254700e+02,-4.788808028664105905e+02,-4.710984120530266637e+02,-6.524461826374093789e+02,-6.123474789871477242e+02,-5.773752471424327268e+02,-5.092376090456419320e+02,9.484992027282714844e+00,-8.414105772972106934e-01,3.824593871831893921e-02,3.260000000000000000e+02
-6.304220362066544112e+02,-4.593895632457681586e+02,-4.716357158960781817e+02,-4.642065764930588330e+02,-6.455567860945615166e+02,-6.056614149528149937e+02,-5.704160901366876715e+02,-5.010026766594589844e+02,9.484992027282714844e+00,-8.414105772972106934e-01,3.824593871831893921e-02,3.270000000000000000e+02
-6.282204859658946816e+02,-4.592475978518070860e+02,-4.687136795983864204e+02,-4.633552104387780446e+02,-6.404255319435617366e+02,-6.026350811478999958e+02,-5.657145054750144482e+02,-4.976526739089083549e+02,9.484992027282714844e+00,-8.414105772972106934e-01,3.824593871831893921e-02,3.280000000000000000e+02
-6.338338240359423708e+02,-4.668132613120866381e+02,-4.737351036183653150e+02,-4.714712426463640327e+02,-6.404014560919894166e+02,-6.064048282409846706e+02,-5.661443319670156598e+02,-5.028117159383598391e+02,9.484992027282714844e+00,-8.414105772972106934e-01,3.824593871831893921e-02,3.290000000000000000e+02
-6.457739364571089027e+02,-4.811917974778776284e+02,-4.855279537390044879e+02,-4.866807705573406224e+02,-6.459085133065726723e+02,-6.165392528476538700e+02,-5.720891542652611861e+02,-5.151975893641944140e+02,9.484992027282714844e+00,-8.414105772972106934e-01,3.824593871831893921e-02,3.300000000000000000e+02
-6.579424779255182330e+02,-4.970576772962559744e+02,-4.985815649515894847e+02,-5.027458015767534221e+02,-6.539032815006420378e+02,-6.286909350229282154e+02,-5.806761392349484368e+02,-5.290404306556316669e+02,9.484992027282714844e+00,-8.414105772972106934e-01,3.824593871831893921e-02,3.310000000000000000e+02
-6.642856842327620370e+02,-5.078040754919691153e+02,-5.070215494716061357e+02,-5.130910529403722649e+02,-6.600286241024472247e+02,-6.374517434425135889e+02,-5.875957723252272444e+02,-5.381825193096310613e+02,9.484992027282714844e+00,-8.414105772972106934e-01,3.824593871831893921e-02,3.320000000000000000e+02
-6.632649947612001142e+02,-5.099438793330562589e+02,-5.086769609501725427e+02,-5.151427066403762183e+02,-6.616725235813751169e+02,-6.401041384674568917e+02,-5.901243574608228073e+02,-5.403362625400060324e+02,9.484992027282714844e+00,-8.414105772972106934e-01,3.824593871831893921e-02,3.330000000000000000e+02
-6.582779498206269864e+02,-5.051630833160241423e+02,-5.058464021961458457e+02,-5.114130839592776283e+02,-6.594146787475264091e+02,-6.381141884903253185e+02,-5.888160935431444614e+02,-5.379326365721503862e+02,9.484992027282714844e+00,-8.796565532684326172e-01,3.824593871831893921e-02,3.340000000000000000e+02
-6.539944123446622370e+02,-4.984213689094032134e+02,-5.024700419772144642e+02,-5.066829385279618805e+02,-6.558477289198419840e+02,-6.352271896808991869e+02,-5.864708180468398950e+02,-5.351792759716015553e+02,9.484992027282714844e+00,-8.796565532684326172e-01,3.824593871831893921e-02,3.350000000000000000e+02
-6.522308210931477106e+02,-4.938646907297770667e+02,-5.005716376395630505e+02,-5.039932763524701045e+02,-6.530864117822811750e+02,-6.340503897643388882e+02,-5.854127246631467187e+02,-5.342704140192191744e+02,9.484992027282714844e+00,-8.796565532684326172e-01,3.824593871831893921e-02,3.360000000000000000e+02
-6.510406396677262819e+02,-4.920234943375039620e+02,-4.991538862232278007e+02,-5.028945627849681159e+02,-6.512800785161944077e+02,-6.342091069456080277e+02,-5.855790385020247868e+02,-5.341177414226890505e+02,9.484992027282714844e+00,-8.796565532684326172e-01,3.824593871831893921e-02,3.370000000000000000e+02
-6.473039495589105172e+02,-4.903171765487037419e+02,-4.960580292179384969e+02,-5.009474631868367851e+02,-6.491923079272726227e+02,-6.334180037337148406e+02,-5.849894930653551910e+02,-5.322316095057537950e+02,9.484992027282714844e+00,-8.796565532684326172e-01,3.824593871831893921e-02,3.380000000000000000e+02
-6.399155239073048733e+02,-4.859039759915490322e+02,-4.905361978239900509e+02,-4.965299389081942536e+02,-6.458805895429183010e+02,-6.300376176835512751e+02,-5.818819828701249435e+02,-5.274847569516483645e+02,9.484992027282714844e+00,-8.796565532684326172e-01,3.824593871831893921e-02,3.390000000000000000e+02
-6.305900760319788105e+02,-4.781568987720778523e+02,-4.839943834870329056e+02,-4.902436636331119644e+02,-6.416639006840289312e+02,-6.245420717362458163e+02,-5.763778069783443243e+02,-5.210859095048595009e+02,9.484992027282714844e+00,-8.796565532684326172e-01,3.824593871831893921e-02,3.400000000000000000e+02
-6.219919533010245232e+02,-4.688678201625217525e+02,-4.784946886959203312e+02,-4.839997826326343784e+02,-6.375779627133605345e+02,-6.187313927586839100e+02,-5.702398254850811554e+02,-5.151895827706704267e+02,9.484992027282714844e+00,-8.796565532684326172e-01,3.824593871831893921e-02,3.410000000000000000e+02
-6.154759552195723700e+02,-4.605855784127257948e+02,-4.748556740280150734e+02,-4.791784982241367743e+02,-6.341973291106578472e+02,-6.138800905757291275e+02,-5.652546588311707865e+02,-5.109096163509502730e+02,9.484992027282714844e+00,-8.796565532684326172e-01,3.824593871831893921e-02,3.420000000000000000e+02
-6.107489461235700219e+02,-4.549986291000205938e+02,-4.723935833503971935e+02,-4.758700953433685754e+02,-6.312662890624749252e+02,-6.099089419494459889e+02,-5.619857786193138054e+02,-5.078635756838853013e+02,9.484992027282714844e+00,-8.796565532684326172e-01,3.824593871831893921e-02,3.430000000000000000e+02
-6.074476961057002882e+02,-4.526807976612903985e+02,-4.704305682672624016e+02,-4.737434919041470494e+02,-6.285335764782969363e+02,-6.063301285981387991e+02,-5.599964352597871766e+02,-5.055293664973828527e+02,9.484992027282714844e+00,-8.796565532684326172e-01,3.824593871831893921e-02,3.440000000000000000e+02
-6.065621094075055453e+02,-4.538112936855388853e+02,-4.697810318714165305e+02,-4.732764401354854726e+02,-6.267484897860367710e+02,-6.037067172744632444e+02,-5.589975581791296690e+02,-5.047178048467095550e+02,9.484992027282714844e+00,-8.796565532684326172e-01,3.824593871831893921e-02,3.450000000000000000e+02
-6.098728759202464289e+02,-4.585336252401436923e+02,-4.724223073115979332e+02,-4.757702837817704449e+02,-6.274997430172966233e+02,-6.037974568957845349e+02,-5.594914555819224233e+02,-5.073121160364064508e+02,9.484992027282714844e+00,-8.796565532684326172e-01,3.824593871831893921e-02,3.460000000000000000e+02
-6.177041532675200415e+02,-4.662847915808699781e+02,-4.793791150460458539e+02,-4.819158688645381972e+02,-6.317404666570441805e+02,-6.079570665575110979e+02,-5.621412947934222757e+02,-5.142106803818024900e+02,9.484992027282714844e+00,-8.796565532684326172e-01,3.824593871831893921e-02,3.470000000000000000e+02
-6.272236800132503731e+02,-4.748992116338921505e+02,-4.887770442272376386e+02,-4.902843906709106250e+02,-6.382732420533827735e+02,-6.152562928218923162e+02,-5.665415693549889511e+02,-5.233936715913486069e+02,9.484992027282714844e+00,-8.796565532684326172e-01,3.824593871831893921e-02,3.480000000000000000e+02
-6.333252709315721631e+02,-4.808982817886322891e+02,-4.961428601221390409e+02,-4.974080556268033888e+02,-6.437597064925928407e+02,-6.222667546678568442e+02,-5.707823523946408386e+02,-5.302613311857302278e+02,9.484992027282714844e+00,-8.796565532684326172e-01,3.824593871831893921e-02,3.490000000000000000e+02
-6.318717456395775116e+02,-4.813477293565876494e+02,-4.971503945386650685e+02,-4.997578544518895569e+02,-6.445898334589716114e+02,-6.250096095460135075e+02,-5.724622006815616260e+02,-5.304748406816605666e+02,9.484992027282714844e+00,-8.796565532684326172e-01,3.824593871831893921e-02,3.500000000000000000e+02
-6.228069041247475752e+02,-4.759703647511017266e+02,-4.907634778027276070e+02,-4.961600780061265823e+02,-6.392924827996905606e+02,-6.215964608432707337e+02,-5.704040354660558023e+02,-5.231496101280877156e+02,9.484992027282714844e+00,-8.796565532684326172e-01,3.824593871831893921e-02,3.510000000000000000e+02
-6.104457006738272185e+02,-4.675993026506846491e+02,-4.801347607045494215e+02,-4.886421778668023990e+02,-6.295736273117108794e+02,-6.134158559192187568e+02,-5.655860869299335718e+02,-5.116657343938820759e+02,9.484992027282714844e+00,-8.796565532684326172e-01,3.824593871831893921e-02,3.520000000000000000e+02
-6.004723811059961918e+02,-4.603075494953542943e+02,-4.703665623397341733e+02,-4.809269420706320943e+02,-6.190884821059494243e+02,-6.039456674370460405e+02,-5.604083114349671177e+02,-5.012607097045097362e+02,9.484992027282714844e+00,-8.796565532684326172e-01,3.824593871831893921e-02,3.530000000000000000e+02
-5.959701194533910211e+02,-4.566104359584711574e+02,-4.648935371118981266e+02,-4.757756789574316372e+02,-6.109018065267946440e+02,-5.962624508299954869e+02,-5.568625043669612751e+02,-4.953560390244496148e+02,9.484992027282714844e+00,-8.796565532684326172e-01,3.824593871831893921e-02,3.540000000000000000e+02
-5.957098803063790911e+02,-4.560604064253635670e+02,-4.634750804796337889e+02,-4.733717064271478421e+02,-6.056916016854161171e+02,-5.913077109650762395e+02,-5.551610362571061614e+02,-4.936883484957821793e+02,9.484992027282714844e+00,-8.796565532684326172e-01,3.824593871831893921e-02,3.550000000000000000e+02
-5.960327942150553326e+02,-4.563712162098432827e+02,-4.633953530257126658e+02,-4.720000844974894108e+02,-6.021172206489534346e+02,-5.881340574600706077e+02,-5.539977953560110109e+02,-4.936473545597715429e+02,9.484992027282714844e+00,-8.796565532684326172e-01,3.824593871831893921e-02,3.560000000000000000e+02
-5.944679892947084454e+02,-4.558725256989814625e+02,-4.625624932477513767e+02,-4.701744721617328651e+02,-5.988214088131242079e+02,-5.855190893536071144e+02,-5.521256575304655598e+02,-4.932346674657824224e+02,9.484992027282714844e+00,-8.796565532684326172e-01,3.824593871831893921e-02,3.570000000000000000e+02
-5.916309516066542074e+02,-4.548185548851031399e+02,-4.614024758638107642e+02,-4.679920988901690180e+02,-5.959732433314102309e+02,-5.831637339362359853e+02,-5.496582951397783745e+02,-4.925780897722351028e+02,9.484992027282714844e+00,-8.796565532684326172e-01,3.824593871831893921e-02,3.580000000000000000e+02
-5.895195143728449239e+02,-4.541868399902165265e+02,-4.615613981162323398e+02,-4.662533250784998700e+02,-5.946394294632996207e+02,-5.812451343838797584e+02,-5.476831752908854014e+02,-4.924570326873907788e+02,9.484992027282714844e+00,-8.414105772972106934e-01,3.824593871831893921e-02,3.590000000000000000e+02
-5.877931811183616446e+02,-4.531332575307121715e+02,-4.625712821278226556e+02,-4.641562287102786968e+02,-5.944130979276026210e+02,-5.788317288431858287e+02,-5.463713920920963574e+02,-4.914005513859552821e+02,9.484992027282714844e+00,-8.414105772972106934e-01,3.824593871831893921e-02,3.600000000000000000e+02
-5.818249775466236997e+02,-4.478221993677400405e+02,-4.599086871537297156e+02,-4.580637656513124512e+02,-5.917241969441963647e+02,-5.729755831282718646e+02,-5.434018484038467705e+02,-4.846347598856946206e+02,9.484992027282714844e+00,-8.414105772972106934e-01,3.824593871831893921e-02,3.610000000000000000e+02
-5.650381570580813104e+02,-4.333183991759309492e+02,-4.469738568492372224e+02,-4.431662685956782752e+02,-5.810455849245208810e+02,-5.598641501973895629e+02,-5.345557670149946716e+02,-4.666631705015092848e+02,9.484992027282714844e+00,-8.414105772972106934e-01,3.824593871831893921e-02,3.620000000000000000e+02
-5.341593084729968268e+02,-4.074113776824414117e+02,-4.200054128719928030e+02,-4.172106860574195935e+02,-5.586706049868282662e+02,-5.375139617353513586e+02,-5.165081916258111505e+02,-4.357816067997368918e+02,9.484992027282714844e+00,-8.414105772972106934e-01,3.824593871831893921e-02,3.630000000000000000e+02
-4.930207324343884920e+02,-3.732251589388735056e+02,-3.819427868615287025e+02,-3.832254693248482909e+02,-5.260913893665444903e+02,-5.078439402077322029e+02,-4.897001579832103744e+02,-3.966366235960640552e+02,9.484992027282714844e+00,-8.414105772972106934e-01,3.824593871831893921e-02,3.640000000000000000e+02
-4.513043444762988656e+02,-3.381837239759749991e+02,-3.416742853644639126e+02,-3.485806358039990300e+02,-4.898823985248409372e+02,-4.761715256601999045e+02,-4.587688749559613370e+02,-3.582283266954465262e+02,9.484992027282714844e+00,-8.414105772972106934e-01,3.824593871831893921e-02,3.650000000000000000e+02
-4.187175117380947995e+02,-3.098320323004842294e+02,-3.088111375094858886e+02,-3.206606756932478675e+02,-4.577947263773955910e+02,-4.482200773276263135e+02,-4.299125966186097685e+02,-3.285444354326168650e+02,9.484992027282714844e+00,-8.414105772972106934e-01,3.824593871831893921e-02,3.660000000000000000e+02
-3.990002948442762545e+02,-2.915667707234857744e+02,-2.878903745521547535e+02,-3.023402010466542151e+02,-4.340254357932633411e+02,-4.268309634413205913e+02,-4.071443438433543633e+02,-3.099105222263237920e+02,9.484992027282714844e+00,-8.414105772972106934e-01,3.824593871831893921e-02,3.670000000000000000e+02
-3.883725125021704798e+02,-2.813172715826364083e+02,-2.763811789888447947e+02,-2.907163410846973193e+02,-4.173400655902894414e+02,-4.108355464567393938e+02,-3.903063110124846844e+02,-2.985410723596738762e+02,9.484992027282714844e+00,-8.414105772972106934e-01,3.824593871831893921e-02,3.680000000000000000e+02
-3.793579012145891056e+02,-2.737976386590516995e+02,-2.676925121135386689e+02,-2.799005141387128788e+02,-4.032384199888647345e+02,-3.967516046306432145e+02,-3.761721243243443951e+02,-2.882718801308582215e+02,9.484992027282714844e+00,-8.414105772972106934e-01,3.824593871831893921e-02,3.690000000000000000e+02
-3.665963845022938585e+02,-2.642911614035317598e+02,-2.563877327347913706e+02,-2.654325984461908092e+02,-3.879662716858413205e+02,-3.817001173473777271e+02,-3.614101619539515013e+02,-2.751551173788436699e+02,9.484992027282714844e+00,-8.414105772972106934e-01,3.824593871831893921e-02,3.700000000000000000e+02
-3.499766873066412245e+02,-2.511690239634540376e+02,-2.414208239697140925e+02,-2.468598621407807059e+02,-3.709522356807942742e+02,-3.651599100973569421e+02,-3.448875298716159250e+02,-2.593145224878278441e+02,9.484992027282714844e+00,-8.414105772972106934e-01,3.824593871831893921e-02,3.710000000000000000e+02
-3.330887770750809977e+02,-2.357736240953252036e+02,-2.253564239952111166e+02,-2.268970869913034676e+02,-3.540673072321774271e+02,-3.484492170808589435e+02,-3.277334459037510896e+02,-2.432145758083133842e+02,9.484992027282714844e+00,-8.414105772972106934e-01,3.824593871831893921e-02,3.720000000000000000e+02
-3.190879227969830936e+02,-2.204551575319001131e+02,-2.110863073967157106e+02,-2.085185137638960668e+02,-3.390547402041279383e+02,-3.328763970494674140e+02,-3.116713829582035942e+02,-2.286131375342500860e+02,9.484992027282714844e+00,-8.414105772972106934e-01,3.824593871831893921e-02,3.730000000000000000e+02
-3.079786936080681699e+02,-2.067001375626552999e+02,-1.993550301598020269e+02,-1.927593771455001388e+02,-3.258402937100308918e+02,-3.184871397482668272e+02,-2.974411192028117057e+02,-2.152172165108156605e+02,9.484992027282714844e+00,-8.414105772972106934e-01,3.824593871831893921e-02,3.740000000000000000e+02
-2.976175459267028600e+02,-1.947910254016878753e+02,-1.891798798843133227e+02,-1.789591883792556928e+02,-3.132136331855940625e+02,-3.045533595186207094e+02,-2.846973638184381343e+02,-2.020795485626410937e+02,9.484992027282714844e+00,-8.414105772972106934e-01,3.824593871831893921e-02,3.750000000000000000e+02
-2.871348462619764632e+02,-1.849564923942876931e+02,-1.803318593240678638e+02,-1.668174361906620788e+02,-3.009780615627319094e+02,-2.912186666465070175e+02,-2.732352422487049353e+02,-1.900469604262489156e+02,9.484992027282714844e+00,-8.414105772972106934e-01,3.824593871831893921e-02,3.760000000000000000e+02
-2.792865387356641804e+02,-1.786987404561291441e+02,-1.751563071537916585e+02,-1.580812334646037698e+02,-2.913338977059570425e+02,-2.806095026240664083e+02,-2.641920496072948481e+02,-1.826077077545405700e+02,9.484992027282714844e+00,-8.414105772972106934e-01,3.824593871831893921e-02,3.770000000000000000e+02
-2.792107404770229095e+02,-1.787831469754618183e+02,-1.776195594658183836e+02,-1.560861901719633806e+02,-2.879554290295543524e+02,-2.761113170427588557e+02,-2.599062989607477903e+02,-1.839434308224845154e+02,9.484992027282714844e+00,-8.414105772972106934e-01,3.824593871831893921e-02,3.780000000000000000e+02
-2.902937278626836815e+02,-1.874412308774226403e+02,-1.900245436503914789e+02,-1.632638557562167989e+02,-2.932580168015133495e+02,-2.800635142516221094e+02,-2.622907082177880511e+02,-1.955208909191956081e+02,9.484992027282714844e+00,-8.414105772972106934e-01,3.824593871831893921e-02,3.790000000000000000e+02
-3.105461891726345129e+02,-2.039626791002812070e+02,-2.101061438818389888e+02,-1.785484601191551519e+02,-3.059731271964515145e+02,-2.915601343345726946e+02,-2.709206377750867887e+02,-2.140000381862121230e+02,9.484992027282714844e+00,-8.414105772972106934e-01,3.824593871831893921e-02,3.800000000000000000e+02
-3.327076472596447729e+02,-2.237487065303201916e+02,-2.312072669223086905e+02,-1.968982862251760935e+02,-3.210781590027456787e+02,-3.061863234235327127e+02,-2.824565216029257044e+02,-2.323810607690522829e+02,9.484992027282714844e+00,-8.414105772972106934e-01,3.824593871831893921e-02,3.810000000000000000e+02
-3.483996546605296771e+02,-2.401577306883428946e+02,-2.459078270294824051e+02,-2.116854330635062524e+02,-3.324446636478428445e+02,-3.182045095084542936e+02,-2.921529450507114234e+02,-2.439106572365994907e+02,9.484992027282714844e+00,-8.414105772972106934e-01,3.824593871831893921e-02,3.820000000000000000e+02
-3.534327900095850055e+02,-2.483862586339221252e+02,-2.506793982727699586e+02,-2.185817225221053377e+02,-3.365261703077089805e+02,-3.238956484138448104e+02,-2.966411579500388598e+02,-2.461969433055639911e+02,9.484992027282714844e+00,-8.414105772972106934e-01,3.824593871831893921e-02,3.830000000000000000e+02
-3.503693357095371539e+02,-2.487166615364214977e+02,-2.481335620023969568e+02,-2.183163694005208981e+02,-3.345424777997543515e+02,-3.238198394648434260e+02,-2.960789950770285941e+02,-2.427398858989527071e+02,9.484992027282714844e+00,-8.414105772972106934e-01,3.824593871831893921e-02,3.840000000000000000e+02
-3.464405247815088842e+02,-2.465030551941281374e+02,-2.451097559965239725e+02,-2.162670313540227198e+02,-3.315794252929422328e+02,-3.223882982444026766e+02,-2.940476205147485871e+02,-2.407688721633749083e+02,9.484992027282714844e+00,-8.414105772972106934e-01,3.824593871831893921e-02,3.850000000000000000e+02
-3.483706076239695903e+02,-2.485518864493625415e+02,-2.479543645201401887e+02,-2.189750138495601277e+02,-3.331929476436857840e+02,-3.249729609146129405e+02,-2.951649756066854025e+02,-2.467209919454264764e+02,9.484992027282714844e+00,-8.796565532684326172e-01,0.000000000000000000e+00,3.860000000000000000e+02
-3.578997004078503323e+02,-2.584175329690408489e+02,-2.584410541093748179e+02,-2.298806905244427981e+02,-3.418692556067151145e+02,-3.344859266045821187e+02,-3.020785078024114227e+02,-2.622624867324075240e+02,9.484992027282714844e+00,-8.796565532684326172e-01,0.000000000000000000e+00,3.870000000000000000e+02
-3.711238490895977975e+02,-2.741177051412986430e+02,-2.731824457037016600e+02,-2.471906347507358532e+02,-3.557113282290013103e+02,-3.496771706906354211e+02,-3.139296523355160389e+02,-2.833989189008270841e+02,9.484992027282714844e+00,-8.796565532684326172e-01,0.000000000000000000e+00,3.880000000000000000e+02
-3.817782629130522309e+02,-2.898859742639010619e+02,-2.865862351098326144e+02,-2.652431567683261164e+02,-3.700038566161556446e+02,-3.661160087768432732e+02,-3.272054777939129053e+02,-3.030915938051714420e+02,9.484992027282714844e+00,-8.796565532684326172e-01,0.000000000000000000e+00,3.890000000000000000e+02
-3.857138341330967251e+02,-3.003773257417725517e+02,-2.947804841352010499e+02,-2.782042481056446377e+02,-3.802580693082556991e+02,-3.789453829429101006e+02,-3.380975938589729139e+02,-3.154491961628298213e+02,9.484992027282714844e+00,-8.796565532684326172e-01,0.000000000000000000e+00,3.900000000000000000e+02
-3.832548784535531468e+02,-3.039510842188685729e+02,-2.975681115165325537e+02,-2.833732327130242084e+02,-3.845469802801590049e+02,-3.854483114411730185e+02,-3.445708758156331442e+02,-3.186825425749404985e+02,9.484992027282714844e+00,-8.796565532684326172e-01,0.000000000000000000e+00,3.910000000000000000e+02
-3.780875260567197529e+02,-3.027295025505125068e+02,-2.974136047000636154e+02,-2.819541063517317525e+02,-3.838336328657587728e+02,-3.858944565708632126e+02,-3.468845756291068483e+02,-3.151447410624550685e+02,9.484992027282714844e+00,-8.796565532684326172e-01,0.000000000000000000e+00,3.920000000000000000e+02
-3.740767615555416796e+02,-2.999872146510666653e+02,-2.968960275895194627e+02,-2.772535847953051871e+02,-3.805996256059288498e+02,-3.825319258115441698e+02,-3.466548341578065902e+02,-3.089738036003573143e+02,9.484992027282714844e+00,-8.796565532684326172e-01,0.000000000000000000e+00,3.930000000000000000e+02
-3.727114388146303554e+02,-2.974762418149978203e+02,-2.969255176575604764e+02,-2.721264428885872348e+02,-3.770936497228296957e+02,-3.778228013431473755e+02,-3.455094216187628717e+02,-3.033943478782152852e+02,9.484992027282714844e+00,-8.796565532684326172e-01,0.000000000000000000e+00,3.940000000000000000e+02
-3.729286979205735406e+02,-2.948823059908747837e+02,-2.968929959139727544e+02,-2.676789244461281214e+02,-3.743819920643875321e+02,-3.732614939390805375e+02,-3.443388702213069337e+02,-2.995304024082322485e+02,9.484992027282714844e+00,-8.796565532684326172e-01,0.000000000000000000e+00,3.950000000000000000e+02
-3.729167486519966133e+02,-2.913760988814965458e+02,-2.960767118453061357e+02,-2.638252526431388105e+02,-3.724925436626579085e+02,-3.693658812988724094e+02,-3.434005594462216777e+02,-2.970443441571126186e+02,9.484992027282714844e+00,-8.796565532684326172e-01,0.000000000000000000e+00,3.960000000000000000e+02
-3.720378339543094626e+02,-2.873679750507449171e+02,-2.947583131450710425e+02,-2.606696649057078048e+02,-3.711275499436080736e+02,-3.664094551990287982e+02,-3.428197383889680623e+02,-2.954795853551745495e+02,9.484992027282714844e+00,-8.796565532684326172e-01,0.000000000000000000e+00,3.970000000000000000e+02
-3.713003450709886692e+02,-2.846808131789426852e+02,-2.941292416022879479e+02,-2.592150758857460460e+02,-3.702416734210196410e+02,-3.649800089444227069e+02,-3.428806752754371701e+02,-2.949709111609577121e+02,9.484992027282714844e+00,-8.796565532684326172e-01,0.000000000000000000e+00,3.980000000000000000e+02
-3.722407835537962910e+02,-2.850582383617592086e+02,-2.952804522360561350e+02,-2.607395579301169164e+02,-3.700822898479677860e+02,-3.657617368142887244e+02,-3.438396574338712526e+02,-2.958721557954161199e+02,9.484992027282714844e+00,-8.796565532684326172e-01,0.000000000000000000e+00,3.990000000000000000e+02
-3.753596018022135468e+02,-2.884978159136881004e+02,-2.982520816860953801e+02,-2.654644540767199032e+02,-3.707706971176623938e+02,-3.687406923221064972e+02,-3.454844088337845278e+02,-2.979051328170653505e+02,9.484992027282714844e+00,-8.796565532684326172e-01,0.000000000000000000e+00,4.000000000000000000e+02
-3.794693371712012322e+02,-2.930176838900517851e+02,-3.018904502939126360e+02,-2.718001241319275323e+02,-3.718846092012770441e+02,-3.726716222313136768e+02,-3.469417030594104290e+02,-2.998222612750498683e+02,9.484992027282714844e+00,-8.796565532684326172e-01,0.000000000000000000e+00,4.010000000000000000e+02
-3.824552749286572180e+02,-2.961060758807561797e+02,-3.045469070995914080e+02,-2.769827707418057798e+02,-3.725074521298645323e+02,-3.755154355777553974e+02,-3.470927090896479967e+02,-3.000606714263844879e+02,9.484992027282714844e+00,-8.796565532684326172e-01,0.000000000000000000e+00,4.020000000000000000e+02
-3.828092902952296299e+02,-2.966051469269669951e+02,-3.050863697591439632e+02,-2.787710684378446331e+02,-3.718106788764505382e+02,-3.757137798511171241e+02,-3.454228794402533822e+02,-2.979336934056252630e+02,9.484992027282714844e+00,-8.796565532684326172e-01,0.000000000000000000e+00,4.030000000000000000e+02
-3.807468447811140777e+02,-2.954577781073516007e+02,-3.035514715935044023e+02,-2.769688177191171690e+02,-3.697160825211112751e+02,-3.733115227749960923e+02,-3.426237447936709941e+02,-2.943453624731164382e+02,9.484992027282714844e+00,-8.796565532684326172e-01,0.000000000000000000e+00,4.040000000000000000e+02
-3.780629267351989711e+02,-2.947560459703739753e+02,-3.010929984304293612e+02,-2.735742895615810539e+02,-3.670170920626253519e+02,-3.699178124691568428e+02,-3.403012875886606707e+02,-2.912983547719477428e+02,9.484992027282714844e+00,-8.796565532684326172e-01,0.000000000000000000e+00,4.050000000000000000e+02
-3.768094914426219475e+02,-2.959490224939019072e+02,-2.991937453774221467e+02,-2.713479887397288621e+02,-3.647538969770262156e+02,-3.674260707561418258e+02,-3.398277562142811803e+02,-2.903937658467034453e+02,9.484992027282714844e+00,-8.796565532684326172e-01,0.000000000000000000e+00,4.060000000000000000e+02
-3.777221282029272516e+02,-2.986701204250809951e+02,-2.986298582279212042e+02,-2.717905189527764378e+02,-3.632991567239487267e+02,-3.664956685962820302e+02,-3.411691212854266269e+02,-2.914174092675486918e+02,9.484992027282714844e+00,-8.796565532684326172e-01,0.000000000000000000e+00,4.070000000000000000e+02
-3.794998360638735448e+02,-3.010011530865077702e+02,-2.988143310216112241e+02,-2.740094582615220133e+02,-3.619177886417637637e+02,-3.660572124888069538e+02,-3.426801485364817381e+02,-2.922103550150707179e+02,9.484992027282714844e+00,-8.796565532684326172e-01,0.000000000000000000e+00,4.080000000000000000e+02
-3.794652192647240554e+02,-3.007921799831159433e+02,-2.980169254322911456e+02,-2.753356258236499343e+02,-3.592082684697491004e+02,-3.642458814256629012e+02,-3.421393125096301446e+02,-2.900987036157437160e+02,9.484992027282714844e+00,-8.796565532684326172e-01,0.000000000000000000e+00,4.090000000000000000e+02
-3.751970942563123117e+02,-2.969503699964916450e+02,-2.944174161889814059e+02,-2.732424129184198591e+02,-3.540996502652656091e+02,-3.599346056343626969e+02,-3.382767076370264476e+02,-2.838727982647344561e+02,9.484992027282714844e+00,-8.796565532684326172e-01,0.000000000000000000e+00,4.100000000000000000e+02
-3.660392740325492014e+02,-2.898391368325568465e+02,-2.873220332079367836e+02,-2.670872110414488816e+02,-3.466179669700666182e+02,-3.535400197430790286e+02,-3.316067279601143127e+02,-2.747070054215987511e+02,9.484992027282714844e+00,-8.796565532684326172e-01,0.000000000000000000e+00,4.110000000000000000e+02
-3.534855184720765919e+02,-2.807564808461133907e+02,-2.776747590652082636e+02,-2.583481507528774728e+02,-3.378360127933783588e+02,-3.464686706601141850e+02,-3.239372686732467628e+02,-2.652081308022345638e+02,9.484992027282714844e+00,-8.796565532684326172e-01,0.000000000000000000e+00,4.120000000000000000e+02
-3.402674030867030979e+02,-2.711085329541695046e+02,-2.674770856524355622e+02,-2.492932942800512137e+02,-3.291063776270298149e+02,-3.398202880047663257e+02,-3.170065287306547361e+02,-2.573927913585625902e+02,9.484992027282714844e+00,-8.796565532684326172e-01,0.000000000000000000e+00,4.130000000000000000e+02
-3.289011992181604001e+02,-2.619318450503028544e+02,-2.585887950072562944e+02,-2.413463344742267509e+02,-3.212582510023980831e+02,-3.336275257219390369e+02,-3.113762344579763521e+02,-2.514055601205106996e+02,9.484992027282714844e+00,-8.796565532684326172e-01,0.000000000000000000e+00,4.140000000000000000e+02
-3.207431470553594863e+02,-2.539461787371005812e+02,-2.518738019759123290e+02,-2.345898234934848006e+02,-3.144063344565429361e+02,-3.273315618623362298e+02,-3.064334548046240343e+02,-2.461274222266795277e+02,9.484992027282714844e+00,-8.796565532684326172e-01,0.000000000000000000e+00,4.150000000000000000e+02
-3.160251185618456020e+02,-2.478417040612365554e+02,-2.472870813185718362e+02,-2.287040000316278565e+02,-3.084511501710439916e+02,-3.209683244926832231e+02,-3.013904580598746179e+02,-2.410133243231216511e+02,9.484992027282714844e+00,-8.796565532684326172e-01,0.000000000000000000e+00,4.160000000000000000e+02
-3.144796472048199121e+02,-2.443686964544640432e+02,-2.446230645471493972e+02,-2.242235209159885017e+02,-3.037322489301757287e+02,-3.158098887265020949e+02,-2.963531432311488061e+02,-2.372747609867037681e+02,9.446745872497558594e+00,-8.796565532684326172e-01,0.000000000000000000e+00,4.170000000000000000e+02
-3.157737504322326458e+02,-2.440574965297693097e+02,-2.440630583801971625e+02,-2.226640375285064692e+02,-3.011313097764139002e+02,-3.136722568652724021e+02,-2.925161914443951900e+02,-2.371156859728528161e+02,9.446745872497558594e+00,-8.796565532684326172e-01,0.000000000000000000e+00,4.180000000000000000e+02
-3.193260286411275501e+02,-2.467348582944563304e+02,-2.459029484346065146e+02,-2.251744065395703274e+02,-3.013879305035022753e+02,-3.153555791060998672e+02,-2.912892162236403237e+02,-2.415863647562487131e+02,9.446745872497558594e+00,-8.796565532684326172e-01,0.000000000000000000e+00,4.190000000000000000e+02
-3.238606405425696266e+02,-2.512085973859645947e+02,-2.497368349345867955e+02,-2.309163096986080745e+02,-3.041507322569182179e+02,-3.195805865706070108e+02,-2.930559961754047436e+02,-2.490282674679162938e+02,9.446745872497558594e+00,-8.796565532684326172e-01,0.000000000000000000e+00,4.200000000000000000e+02
-3.273906024882649035e+02,-2.554551827832327717e+02,-2.539940856540135883e+02,-2.368267487284397248e+02,-3.076506527327248932e+02,-3.234682067310113780e+02,-2.965911510061951049e+02,-2.556389404346771244e+02,9.446745872497558594e+00,-8.796565532684326172e-01,0.000000000000000000e+00,4.210000000000000000e+02
-3.279514512180398924e+02,-2.573461225343842216e+02,-2.564747649333701247e+02,-2.392732534486494842e+02,-3.094656814941536140e+02,-3.243005060006166786e+02,-2.996272443503353315e+02,-2.578075460398008545e+02,9.446745872497558594e+00,-8.796565532684326172e-01,0.000000000000000000e+00,4.220000000000000000e+02
-3.247380974164946110e+02,-2.556326677535265617e+02,-2.556860135215902119e+02,-2.364606841172021632e+02,-3.080042383649126805e+02,-3.212511302793172945e+02,-3.001868112738111449e+02,-2.544411191230092300e+02,9.446745872497558594e+00,-8.796565532684326172e-01,0.000000000000000000e+00,4.230000000000000000e+02
-3.188076509440011250e+02,-2.506448031812873296e+02,-2.519724121237613872e+02,-2.296862881341512548e+02,-3.036424154281678511e+02,-3.157873433207960261e+02,-2.977180178669673296e+02,-2.475808074289261640e+02,9.446745872497558594e+00,-8.796565532684326172e-01,0.000000000000000000e+00,4.240000000000000000e+02
-3.126653050063373485e+02,-2.441986115291153965e+02,-2.474422503828570825e+02,-2.224223548259346899e+02,-2.985781924326718126e+02,-3.105153703587398013e+02,-2.932447981094619536e+02,-2.409837272399104222e+02,9.446745872497558594e+00,-8.796565532684326172e-01,0.000000000000000000e+00,4.250000000000000000e+02
-3.088289108678782213e+02,-2.386473048528807794e+02,-2.445895316848166203e+02,-2.179364947180806666e+02,-2.954008051791931848e+02,-3.074302818755495537e+02,-2.885142026697308211e+02,-2.377936386178009798e+02,9.446745872497558594e+00,-8.796565532684326172e-01,0.000000000000000000e+00,4.260000000000000000e+02
-3.082787598599099965e+02,-2.356066866205499082e+02,-2.445705533015820947e+02,-2.172582405986699996e+02,-2.953528398482653756e+02,-3.068414506841954790e+02,-2.848503829367814433e+02,-2.388603569719127790e+02,9.446745872497558594e+00,-8.796565532684326172e-01,0.000000000000000000e+00,4.270000000000000000e+02
-3.098964853147815575e+02,-2.351817025240947032e+02,-2.464395223925530445e+02,-2.189073981557537536e+02,-2.975206453504870296e+02,-3.075698087803179988e+02,-2.825410093219161354e+02,-2.426114012793909751e+02,9.446745872497558594e+00,-8.796565532684326172e-01,0.000000000000000000e+00,4.280000000000000000e+02
-3.113794447283707996e+02,-2.362195850223042726e+02,-2.479778592595130249e+02,-2.203543535168555536e+02,-2.995181322458461182e+02,-3.080277846106855577e+02,-2.810881180200203744e+02,-2.463368252747090992e+02,9.446745872497558594e+00,-8.796565532684326172e-01,0.000000000000000000e+00,4.290000000000000000e+02
-3.110491382163183971e+02,-2.373774740513163124e+02,-2.475227166238230438e+02,-2.199508828693997202e+02,-2.991621025222118533e+02,-3.073012676365819971e+02,-2.799937814287418405e+02,-2.479933833380741817e+02,9.446745872497558594e+00,-8.796565532684326172e-01,0.000000000000000000e+00,4.300000000000000000e+02
-3.092084326582519225e+02,-2.381798532631814851e+02,-2.453786174321371618e+02,-2.179352366660643838e+02,-2.959758409067130742e+02,-3.056039081653866560e+02,-2.794026012002677817e+02,-2.474330477617409088e+02,9.446745872497558594e+00,-8.796565532684326172e-01,0.000000000000000000e+00,4.310000000000000000e+02
-3.079447972869606929e+02,-2.392729605875440484e+02,-2.436629434408769157e+02,-2.159835095182781970e+02,-2.914939633083768058e+02,-3.040085710798421132e+02,-2.800816625038328311e+02,-2.463119084839593143e+02,9.446745872497558594e+00,-8.796565532684326172e-01,0.000000000000000000e+00,4.320000000000000000e+02
-3.094495310197671643e+02,-2.417236088126012419e+02,-2.446459703063139841e+02,-2.158573869510039458e+02,-2.881757224855346067e+02,-3.037308576569485012e+02,-2.827183550284999001e+02,-2.467483344901806959e+02,9.446745872497558594e+00,-8.796565532684326172e-01,0.000000000000000000e+00,4.330000000000000000e+02
-3.141504224704342505e+02,-2.459569303825981024e+02,-2.488868809884254460e+02,-2.181952124048934820e+02,-2.877016548315862110e+02,-3.053632189645745711e+02,-2.870568374615236280e+02,-2.496726304371222795e+02,9.446745872497558594e+00,-8.796565532684326172e-01,0.000000000000000000e+00,4.340000000000000000e+02
-3.201724844164716615e+02,-2.511736453948310555e+02,-2.546902912375167034e+02,-2.221977338619810780e+02,-2.898832433615577884e+02,-3.084604571105817286e+02,-2.916131206173135979e+02,-2.541290641688831329e+02,9.446745872497558594e+00,-8.796565532684326172e-01,0.000000000000000000e+00,4.350000000000000000e+02
-3.246169338248867007e+02,-2.557032501286587376e+02,-2.593782258927872135e+02,-2.262824686321037007e+02,-2.930131975970293752e+02,-3.117694123648450386e+02,-2.943866522608059313e+02,-2.581537865145137403e+02,9.446745872497558594e+00,-8.796565532684326172e-01,0.000000000000000000e+00,4.360000000000000000e+02
-3.256982250148096227e+02,-2.580739321924658043e+02,-2.613884020150605920e+02,-2.291863149474004331e+02,-2.954009335371629277e+02,-3.140778028891315898e+02,-2.942329905964697900e+02,-2.605794002656207340e+02,9.446745872497558594e+00,-8.796565532684326172e-01,0.000000000000000000e+00,4.370000000000000000e+02
-3.240724370812513371e+02,-2.580892987583123386e+02,-2.615026847183528389e+02,-2.307897955915962029e+02,-2.968523981122534678e+02,-3.151705517658829194e+02,-2.918926247073814011e+02,-2.622424474771009955e+02,9.523238182067871094e+00,-9.179025292396545410e-01,3.824593871831893921e-02,4.380000000000000000e+02
-3.223385311167796772e+02,-2.571806219918896659e+02,-2.622011874559357238e+02,-2.321625389080834339e+02,-2.988100122058133365e+02,-3.161244561648072704e+02,-2.897244764659944849e+02,-2.654462642145463178e+02,9.523238182067871094e+00,-9.179025292396545410e-01,3.824593871831893921e-02,4.390000000000000000e+02
-3.231590330186604660e+02,-2.577560629442123172e+02,-2.656817293910557964e+02,-2.348443630190763542e+02,-3.029742483810250633e+02,-3.185682094346198028e+02,-2.901424437024852523e+02,-2.720156754973345414e+02,9.523238182067871094e+00,-9.179025292396545410e-01,3.824593871831893921e-02,4.400000000000000000e+02
-3.275139023226890913e+02,-2.619107316443314630e+02,-2.721960953123784748e+02,-2.398818400202669636e+02,-3.096240942435060788e+02,-3.234388806638094138e+02,-2.939294575297753909e+02,-2.816188328754742543e+02,9.523238182067871094e+00,-9.179025292396545410e-01,3.824593871831893921e-02,4.410000000000000000e+02
-3.343338131439859353e+02,-2.702375655939151784e+02,-2.800070154086906768e+02,-2.472415641667125783e+02,-3.171786178936279157e+02,-3.302639369418830029e+02,-2.998338067192944436e+02,-2.918573591758997736e+02,9.523238182067871094e+00,-9.179025292396545410e-01,3.824593871831893921e-02,4.420000000000000000e+02
-3.415689228488076878e+02,-2.814586397700047655e+02,-2.868622251095434876e+02,-2.559188681228599762e+02,-3.234348840625766570e+02,-3.375823448513485801e+02,-3.057871222785993268e+02,-3.000819793816126548e+02,9.523238182067871094e+00,-9.179025292396545410e-01,3.824593871831893921e-02,4.430000000000000000e+02
-3.476631470008658198e+02,-2.931127958288735726e+02,-2.916446711914991283e+02,-2.645458373572289474e+02,-3.273351679342183616e+02,-3.440723294555068605e+02,-3.106318587564114750e+02,-3.053210045285431988e+02,9.523238182067871094e+00,-9.179025292396545410e-01,3.824593871831893921e-02,4.440000000000000000e+02
-3.522719331504320053e+02,-3.028476536288845864e+02,-2.948504004239541700e+02,-2.719969265015097335e+02,-3.296187953216926871e+02,-3.492994964903050459e+02,-3.147849768724508976e+02,-3.086086918207570307e+02,9.523238182067871094e+00,-9.179025292396545410e-01,3.824593871831893921e-02,4.450000000000000000e+02
-3.558630380220256484e+02,-3.094738207681076574e+02,-2.976860267503195701e+02,-2.776226557666341250e+02,-3.318087930157628307e+02,-3.534353877582202585e+02,-3.193109793854291638e+02,-3.115072171352978785e+02,9.523238182067871094e+00,-9.179025292396545410e-01,3.824593871831893921e-02,4.460000000000000000e+02
-3.588177587827826756e+02,-3.131563556524739624e+02,-3.007954548254037945e+02,-2.811862803574799727e+02,-3.346201911242276310e+02,-3.564174519971804784e+02,-3.244435529465135915e+02,-3.143666092471621596e+02,9.523238182067871094e+00,-9.179025292396545410e-01,3.824593871831893921e-02,4.470000000000000000e+02
-3.609865692721893993e+02,-3.147962023120230697e+02,-3.038241272352452143e+02,-2.828503494885858345e+02,-3.374136606061417751e+02,-3.576519299233846141e+02,-3.291150200274164490e+02,-3.161287084438126840e+02,9.523238182067871094e+00,-9.179025292396545410e-01,3.824593871831893921e-02,4.480000000000000000e+02
-3.620765575040902604e+02,-3.152511865887109934e+02,-3.061063873170469378e+02,-2.833340930549470613e+02,-3.391911467775585152e+02,-3.567501028070876146e+02,-3.319785057895660429e+02,-3.158902780017508576e+02,9.523238182067871094e+00,-9.179025292396545410e-01,3.824593871831893921e-02,4.490000000000000000e+02
-3.623625717480338153e+02,-3.150197785944753832e+02,-3.076413783515386058e+02,-2.839286730378478296e+02,-3.400065002680580619e+02,-3.545539234051072981e+02,-3.328376298617320117e+02,-3.145656237694302035e+02,9.523238182067871094e+00,-9.179025292396545410e-01,3.824593871831893921e-02,4.500000000000000000e+02
-3.628048963294490932e+02,-3.143875646832618713e+02,-3.092361591940905328e+02,-2.859489329110717790e+02,-3.412027658419399359e+02,-3.531384850360520886e+02,-3.329334830355978738e+02,-3.146670593366297908e+02,9.523238182067871094e+00,-9.179025292396545410e-01,3.824593871831893921e-02,4.510000000000000000e+02
-3.641615674307849986e+02,-3.135266395222137135e+02,-3.115162207867849702e+02,-2.896882049197911329e+02,-3.440557101216277260e+02,-3.543214003664922984e+02,-3.336628422297817451e+02,-3.179907640486878790e+02,9.523238182067871094e+00,-9.179025292396545410e-01,3.824593871831893921e-02,4.520000000000000000e+02
-3.657434830630697888e+02,-3.121760876070815129e+02,-3.136697375613996428e+02,-2.936285448847265798e+02,-3.480389811812046901e+02,-3.577473720389982645e+02,-3.348942858093926134e+02,-3.232095991620212772e+02,9.523238182067871094e+00,-9.179025292396545410e-01,3.824593871831893921e-02,4.530000000000000000e+02
-3.650886931132019981e+02,-3.092386529143921052e+02,-3.132456505371985713e+02,-2.948178485518458274e+02,-3.504586062752996440e+02,-3.603513873473611966e+02,-3.345532513255284357e+02,-3.258488722155709638e+02,9.523238182067871094e+00,-9.179025292396545410e-01,3.824593871831893921e-02,4.540000000000000000e+02
-3.593121113303202492e+02,-3.030758198748787891e+02,-3.075628046808174076e+02,-2.905792091869298019e+02,-3.480710463377338328e+02,-3.580707569283297289e+02,-3.300485523353718236e+02,-3.212001748510135712e+02,9.523238182067871094e+00,-9.179025292396545410e-01,3.824593871831893921e-02,4.550000000000000000e+02
-3.474443470780918233e+02,-2.927669362974203295e+02,-2.958693572256438529e+02,-2.805437301903361913e+02,-3.395311566424625198e+02,-3.487644591785206103e+02,-3.204419987895535087e+02,-3.080184422364156944e+02,9.523238182067871094e+00,-9.179025292396545410e-01,3.824593871831893921e-02,4.560000000000000000e+02
-3.318997049538975261e+02,-2.794697988733017837e+02,-2.805270016498780024e+02,-2.674363815589879323e+02,-3.266919305792903288e+02,-3.340751921393546127e+02,-3.075421874059902621e+02,-2.898866132792452390e+02,9.523238182067871094e+00,-9.179025292396545410e-01,3.824593871831893921e-02,4.570000000000000000e+02
-3.175410147966720160e+02,-2.664814095346492877e+02,-2.660331313938181665e+02,-2.557628380990597634e+02,-3.136125844622486056e+02,-3.186194755295043706e+02,-2.949599345539845672e+02,-2.729460949473539131e+02,9.523238182067871094e+00,-9.179025292396545410e-01,3.824593871831893921e-02,4.580000000000000000e+02
-3.086459817292575281e+02,-2.574462661621987536e+02,-2.563472936995121927e+02,-2.491231736169922897e+02,-3.039533372180983406e+02,-3.069916778025778967e+02,-2.858309218342651548e+02,-2.617318889366581516e+02,9.523238182067871094e+00,-9.179025292396545410e-01,3.824593871831893921e-02,4.590000000000000000e+02
-3.059935747999820705e+02,-2.538596931398590186e+02,-2.524512572740695759e+02,-2.480627068725933668e+02,-2.987400682394402338e+02,-3.008566987369317758e+02,-2.809636514874309796e+02,-2.564566260218357456e+02,9.523238182067871094e+00,-9.179025292396545410e-01,3.824593871831893921e-02,4.600000000000000000e+02
-3.064581127859951266e+02,-2.539294385237782308e+02,-2.520377341382400118e+02,-2.500417841984933602e+02,-2.961993225021685703e+02,-2.983398953526830155e+02,-2.787645499814118466e+02,-2.537955461703691071e+02,9.523238182067871094e+00,-9.179025292396545410e-01,3.824593871831893921e-02,4.610000000000000000e+02
-3.055350390968253578e+02,-2.539062568836578748e+02,-2.515513357139952859e+02,-2.514804332975419356e+02,-2.936707056586235467e+02,-2.960294036062055056e+02,-2.768108265577350267e+02,-2.502247948328993061e+02,9.523238182067871094e+00,-9.179025292396545410e-01,3.824593871831893921e-02,4.620000000000000000e+02
-3.007472456529512783e+02,-2.508863503137977204e+02,-2.488860028420326671e+02,-2.502226484761406482e+02,-2.899105797368497406e+02,-2.917841355592399850e+02,-2.736745140066343538e+02,-2.449157254473489047e+02,9.523238182067871094e+00,-8.414105772972106934e-01,0.000000000000000000e+00,4.630000000000000000e+02
-2.931443574062645894e+02,-2.447757894398123426e+02,-2.445602557648942366e+02,-2.465671190335651772e+02,-2.858566971483282941e+02,-2.860409774204872519e+02,-2.695841904989240447e+02,-2.398630012607193294e+02,9.523238182067871094e+00,-8.414105772972106934e-01,0.000000000000000000e+00,4.640000000000000000e+02
-2.858953610841283535e+02,-2.379392567489585417e+02,-2.406615909735307923e+02,-2.424082084582661309e+02,-2.833966168873862443e+02,-2.808428145042860251e+02,-2.656786555250528181e+02,-2.375869084036911545e+02,9.523238182067871094e+00,-8.414105772972106934e-01,0.000000000000000000e+00,4.650000000000000000e+02
-2.815793979329860122e+02,-2.331858518814131003e+02,-2.388466841208344249e+02,-2.396419221553143188e+02,-2.834914649497516166e+02,-2.778464503041861917e+02,-2.628289562368008774e+02,-2.388063228903447452e+02,9.523238182067871094e+00,-8.414105772972106934e-01,0.000000000000000000e+00,4.660000000000000000e+02
-2.807146638209544562e+02,-2.320618799060737274e+02,-2.393332050874757897e+02,-2.393320050708639428e+02,-2.854935512949728036e+02,-2.772629222078242037e+02,-2.611835019744055444e+02,-2.421904792556638313e+02,9.523238182067871094e+00,-8.414105772972106934e-01,0.000000000000000000e+00,4.670000000000000000e+02
-2.825267876488358070e+02,-2.347291600825321893e+02,-2.415685620280460171e+02,-2.420047091882739778e+02,-2.881902385602088543e+02,-2.784658333292159114e+02,-2.606457150586375064e+02,-2.460828635149212005e+02,9.523238182067871094e+00,-8.414105772972106934e-01,0.000000000000000000e+00,4.680000000000000000e+02
-2.865570902444979993e+02,-2.408516626841255857e+02,-2.454182964834376435e+02,-2.480993863010598943e+02,-2.912818300461442504e+02,-2.811923507810884075e+02,-2.614595628193724224e+02,-2.501538243312987788e+02,9.523238182067871094e+00,-8.414105772972106934e-01,0.000000000000000000e+00,4.690000000000000000e+02
-2.929708336649547391e+02,-2.499386769982197620e+02,-2.512244692622841740e+02,-2.575016441232417037e+02,-2.955339572740122094e+02,-2.857272360435699738e+02,-2.640109339247942444e+02,-2.551178953613188014e+02,9.523238182067871094e+00,-8.414105772972106934e-01,0.000000000000000000e+00,4.700000000000000000e+02
-3.012046529066939229e+02,-2.606439970367574688e+02,-2.585694167042123581e+02,-2.684707025285121063e+02,-3.013442128072711057e+02,-2.917949828745182685e+02,-2.679649614587956421e+02,-2.608869033689722983e+02,9.523238182067871094e+00,-8.414105772972106934e-01,0.000000000000000000e+00,4.710000000000000000e+02
-3.088742361394370164e+02,-2.702601493049351120e+02,-2.653910085774770096e+02,-2.775533535850856879e+02,-3.073804217431737698e+02,-2.976173672227282623e+02,-2.718293419131541668e+02,-2.654651901029226337e+02,9.523238182067871094e+00,-8.414105772972106934e-01,0.000000000000000000e+00,4.720000000000000000e+02
-3.128866219307021765e+02,-2.758433204724452708e+02,-2.690249085750647282e+02,-2.814975760962265667e+02,-3.111092030903359955e+02,-3.006761409977084440e+02,-2.737824532290991328e+02,-2.662973576407721339e+02,9.523238182067871094e+00,-8.414105772972106934e-01,0.000000000000000000e+00,4.730000000000000000e+02
-3.122054023259198630e+02,-2.765594871296011661e+02,-2.686256440593136858e+02,-2.800130367560125251e+02,-3.110768045802254846e+02,-2.998932359327759514e+02,-2.732657368563645832e+02,-2.631156438154285979e+02,9.523238182067871094e+00,-8.414105772972106934e-01,0.000000000000000000e+00,4.740000000000000000e+02
-3.093489703157974873e+02,-2.749091711824930826e+02,-2.664674575989528194e+02,-2.766784617450714450e+02,-3.086887980848957795e+02,-2.970703387720167257e+02,-2.717842170234896457e+02,-2.592467051575886217e+02,9.523238182067871094e+00,-8.414105772972106934e-01,0.000000000000000000e+00,4.750000000000000000e+02
-3.082591058934644934e+02,-2.748345476821472744e+02,-2.661063147308620955e+02,-2.763004943956941588e+02,-3.072528480902728916e+02,-2.956179197820707714e+02,-2.717702180011381188e+02,-2.591823557179729960e+02,9.523238182067871094e+00,-8.414105772972106934e-01,0.000000000000000000e+00,4.760000000000000000e+02
-3.097135268103451153e+02,-2.775705887935737337e+02,-2.683467540476881368e+02,-2.802111619052109859e+02,-3.085308973480657642e+02,-2.970568621654265371e+02,-2.740781927978367776e+02,-2.637542636839810939e+02,9.523238182067871094e+00,-8.414105772972106934e-01,0.000000000000000000e+00,4.770000000000000000e+02
-3.085826592066272269e+02,-2.788511381075142026e+02,-2.686653025050724750e+02,-2.835197718619936040e+02,-3.097913203221870617e+02,-2.982898839957322252e+02,-2.761916573586003096e+02,-2.672648767716713110e+02,9.523238182067871094e+00,-8.414105772972106934e-01,0.000000000000000000e+00,4.780000000000000000e+02
-2.963107273260000056e+02,-2.706199795803818233e+02,-2.591243631632694928e+02,-2.773464008167025554e+02,-3.044523763110547634e+02,-2.925233736295330118e+02,-2.729540409456524230e+02,-2.599874272394558830e+02,9.523238182067871094e+00,-8.414105772972106934e-01,0.000000000000000000e+00,4.790000000000000000e+02
-2.674244244936055566e+02,-2.466665555938808438e+02,-2.340276104605595719e+02,-2.549822206502111612e+02,-2.864671299445216164e+02,-2.737639793546492797e+02,-2.596759899176235535e+02,-2.349601529084146705e+02,9.523238182067871094e+00,-8.414105772972106934e-01,0.000000000000000000e+00,4.800000000000000000e+02
-2.248139122545912301e+02,-2.078879251039732594e+02,-1.949558616659074914e+02,-2.172906992526180829e+02,-2.551848634939774456e+02,-2.415444991579379348e+02,-2.354597816509514132e+02,-1.938374353399744905e+02,9.523238182067871094e+00,-8.414105772972106934e-01,0.000000000000000000e+00,4.810000000000000000e+02
-1.789675454195982240e+02,-1.627052250811410659e+02,-1.507997814534034546e+02,-1.728634539371059304e+02,-2.166308627328880334e+02,-2.019700931109995281e+02,-2.041837425571227413e+02,-1.467319842643543950e+02,9.523238182067871094e+00,-8.414105772972106934e-01,0.000000000000000000e+00,4.820000000000000000e+02
-1.412878124763373933e+02,-1.219837316869405015e+02,-1.123384076033092640e+02,-1.325984071960464519e+02,-1.798826690892891520e+02,-1.640273001385989460e+02,-1.722672205957333631e+02,-1.057500683214530284e+02,9.523238182067871094e+00,-8.414105772972106934e-01,0.000000000000000000e+00,4.830000000000000000e+02
-1.167127014024249263e+02,-9.232762617908186087e+01,-8.543241600653814771e+01,-1.029177897772567860e+02,-1.512373651207877288e+02,-1.339498384921955676e+02,-1.447844821292411268e+02,-7.721869668474431592e+01,9.523238182067871094e+00,-8.414105772972106934e-01,0.000000000000000000e+00,4.840000000000000000e+02
-1.014343063916351184e+02,-7.284983093464117587e+01,-6.802744627801331490e+01,-8.277652091324787875e+01,-1.306543841033781064e+02,-1.119455352530955281e+02,-1.227352305511880388e+02,-5.865486021803511107e+01,9.523238182067871094e+00,-8.414105772972106934e-01,0.000000000000000000e+00,4.850000000000000000e+02
-8.707532491625158855e+01,-5.743626463888566036e+01,-5.293653600482619481e+01,-6.621806492468144256e+01,-1.130248400362066263e+02,-9.348827307521898433e+01,-1.033541920252315265e+02,-4.239046940293044941e+01,9.523238182067871094e+00,-8.414105772972106934e-01,0.000000000000000000e+00,4.860000000000000000e+02
-6.741283123279532674e+01,-4.006079514692260091e+01,-3.373763502816893833e+01,-4.771240905037439006e+01,-9.288309902606152946e+01,-7.362482385650309880e+01,-8.296926037622117178e+01,-2.226985357735065918e+01,9.523238182067871094e+00,-8.414105772972106934e-01,0.000000000000000000e+00,4.870000000000000000e+02
-4.225791076164901483e+01,-1.877167769990288093e+01,-9.096835074280306799e+00,-2.583498395034266082e+01,-6.864214465864839099e+01,-5.064565053177221898e+01,-6.005564349409621627e+01,2.118232845833830424e+00,9.523238182067871094e+00,-8.414105772972106934e-01,0.000000000000000000e+00,4.880000000000000000e+02
-1.623636360619309471e+01,4.153225585100813078e+00,1.724037477781655525e+01,-3.040876517162246273e+00,-4.328145329677715836e+01,-2.658340849521874816e+01,-3.622637341922177256e+01,2.635709019184355384e+01,9.523238182067871094e+00,-8.414105772972106934e-01,0.000000000000000000e+00,4.890000000000000000e+02
5.394373941518267657e+00,2.491160576014908656e+01,3.983965143666461017e+01,1.716140333551817321e+01,-2.157540983137226931e+01,-4.933674795944398284e+00,-1.473347563135195060e+01,4.540203104990399652e+01,9.523238182067871094e+00,-8.414105772972106934e-01,3.824593871831893921e-02,4.900000000000000000e+02
2.006034223177459808e+01,4.094587295918057634e+01,5.520390799899200829e+01,3.271611304558354050e+01,-6.570742652157377961e+00,1.197566140053766048e+01,1.981897028838432107e+00,5.709224270601771423e+01,9.523238182067871094e+00,-8.414105772972106934e-01,3.824593871831893921e-02,4.910000000000000000e+02
2.828768781855774250e+01,5.186931499866568629e+01,6.318933015728435976e+01,4.351856805282426421e+01,1.940088760620483299e+00,2.392859710968059517e+01,1.367138834828517702e+01,6.260610611160331018e+01,9.523238182067871094e+00,-8.414105772972106934e-01,3.824593871831893921e-02,4.920000000000000000e+02
3.210803196048459540e+01,5.874637130128900253e+01,6.607844853373308069e+01,5.046029964902680831e+01,6.360361437523351924e+00,3.200146167228308514e+01,2.179651419183801409e+01,6.461159433723719303e+01,9.523238182067871094e+00,-8.414105772972106934e-01,3.824593871831893921e-02,4.930000000000000000e+02
3.355068929717435822e+01,6.304981375271506749e+01,6.681744406473649178e+01,5.454353037104579016e+01,9.210634341384434265e+00,3.736443473582153274e+01,2.805582809520183218e+01,6.540773262391144272e+01,9.523238182067871094e+00,-8.414105772972106934e-01,3.824593871831893921e-02,4.940000000000000000e+02
3.422690910493054162e+01,6.609596913824043440e+01,6.776085415064903827e+01,5.675775237364905479e+01,1.190470802082040791e+01,4.086928054401732879e+01,3.338010212446715741e+01,6.638196279796773069e+01,9.523238182067871094e+00,-8.414105772972106934e-01,3.824593871831893921e-02,4.950000000000000000e+02
3.551897325241293402e+01,6.884298724704859751e+01,7.026531861623925579e+01,5.827290819373604336e+01,1.496010905720129358e+01,4.339850305966808719e+01,3.805601372943942806e+01,6.842426035122480243e+01,9.523238182067871094e+00,-8.414105772972106934e-01,3.824593871831893921e-02,4.960000000000000000e+02
3.859828396181410426e+01,7.179297120591286330e+01,7.483088627919255487e+01,6.037514241100484469e+01,1.884793341860017790e+01,4.619928109666943783e+01,4.247599070677051714e+01,7.232168329999512935e+01,9.523238182067871094e+00,-8.414105772972106934e-01,3.824593871831893921e-02,4.970000000000000000e+02
4.416399082998646008e+01,7.513189287921613868e+01,8.145264655210576166e+01,6.419822252273650065e+01,2.441542764697760504e+01,5.068416582129361814e+01,4.756743875184247372e+01,7.871317199904683548e+01,9.523238182067871094e+00,-8.414105772972106934e-01,3.824593871831893921e-02,4.980000000000000000e+02
5.229735423788361004e+01,7.922823334736222023e+01,8.997393518797503020e+01,7.060029536941271999e+01,3.252515099664856280e+01,5.786839657891005118e+01,5.446743348764653092e+01,8.784109105935488060e+01,9.523238182067871094e+00,-8.414105772972106934e-01,3.824593871831893921e-02,4.990000000000000000e+02
6.254773162574474554e+01,8.502643943938846860e+01,1.001827116972701788e+02,8.011692887692458953e+01,4.331604207003033480e+01,6.787834268603296550e+01,6.377904984649194375e+01,9.931181075265544678e+01,9.523238182067871094e+00,-8.414105772972106934e-01,3.824593871831893921e-02,5.000000000000000000e+02
7.390797964930652597e+01,9.356801573752306922e+01,1.114267305624050550e+02,9.254469858950233174e+01,5.566932867658397299e+01,7.972737777403017390e+01,7.501067663131243535e+01,1.117905733673933355e+02,9.523238182067871094e+00,-8.414105772972106934e-01,3.824593871831893921e-02,5.010000000000000000e+02
8.456222241023260722e+01,1.046336292126510443e+02,1.220208017581178410e+02,1.061732971906840248e+02,6.723819482263434111e+01,9.135258379628749026e+01,8.653512732640115246e+01,1.227357049310876391e+02,9.523238182067871094e+00,-8.414105772972106934e-01,3.824593871831893921e-02,5.020000000000000000e+02
9.191306929097959255e+01,1.157296637326754762e+02,1.292219785926286022e+02,1.175608312244576155e+02,7.513152133282824252e+01,1.000057461776234504e+02,9.605524929707939918e+01,1.287562887834615140e+02,9.523238182067871094e+00,-8.414105772972106934e-01,3.824593871831893921e-02,5.030000000000000000e+02
9.347239021521454561e+01,1.228088384690138355e+02,1.303346456619929086e+02,1.227580572166775710e+02,7.708767938066512215e+01,1.031615848106221165e+02,1.013934801376140058e+02,1.270250426400202741e+02,9.523238182067871094e+00,-8.414105772972106934e-01,3.824593871831893921e-02,5.040000000000000000e+02
8.836926500248091543e+01,1.226759003161694181e+02,1.244827270900743770e+02,1.196162542461897829e+02,7.266153310884169514e+01,9.974547192563750286e+01,1.013607152011627477e+02,1.171743696647408797e+02,9.523238182067871094e+00,-8.414105772972106934e-01,3.824593871831893921e-02,5.050000000000000000e+02
7.825414636363097998e+01,1.152349990450229598e+02,1.136171633875444513e+02,1.094194793716555978e+02,6.366365042300913046e+01,9.090321631580854955e+01,9.632591380367784950e+01,1.021553589774534885e+02,9.523238182067871094e+00,-8.414105772972106934e-01,3.824593871831893921e-02,5.060000000000000000e+02
6.656618041098363392e+01,1.035735294465400784e+02,1.016507896451062152e+02,9.625804051469140177e+01,5.335318174084568454e+01,7.955472995834088579e+01,8.810942346989850193e+01,8.695323140305185916e+01,9.523238182067871094e+00,-8.414105772972106934e-01,3.824593871831893921e-02,5.070000000000000000e+02
5.650177723188880918e+01,9.173414805216634704e+01,9.214446936976128200e+01,8.441917043875355375e+01,4.473660748466863879e+01,6.884527053550482378e+01,7.914629424652957823e+01,7.578781678848758929e+01,9.523238182067871094e+00,-8.414105772972106934e-01,3.824593871831893921e-02,5.080000000000000000e+02
4.926153847766681793e+01,8.212046997006723359e+01,8.629759667488815467e+01,7.589308223856642144e+01,3.909750701176926668e+01,6.058741769395692245e+01,7.138111742519095060e+01,6.987786378022633471e+01,9.523238182067871094e+00,-8.414105772972106934e-01,3.824593871831893921e-02,5.090000000000000000e+02
4.398480440792081936e+01,7.473147132672329462e+01,8.282130957218123513e+01,7.003137105073642488e+01,3.580433587024208464e+01,5.486987440371831326e+01,6.560828556259184552e+01,6.750958709982978689e+01,9.523238182067871094e+00,-8.414105772972106934e-01,3.824593871831893921e-02,5.100000000000000000e+02
3.927245165339672894e+01,6.854936896505091681e+01,7.964435476091148303e+01,6.534949001663653689e+01,3.340133745064258619e+01,5.094589941527101473e+01,6.161078839814354069e+01,6.613468569413225850e+01,9.523238182067871094e+00,-8.414105772972106934e-01,3.824593871831893921e-02,5.110000000000000000e+02
3.480810598480775298e+01,6.336381474415202320e+01,7.585013542307387979e+01,6.150686571059554808e+01,3.094816750765812685e+01,4.836673890598513026e+01,5.882096481915550612e+01,6.449743016386764793e+01,9.523238182067871094e+00,-8.414105772972106934e-01,3.824593871831893921e-02,5.120000000000000000e+02
3.179577699537912849e+01,6.027749573765936475e+01,7.235346761721939401e+01,5.968074263201515350e+01,2.862169620921758906e+01,4.736237123553883066e+01,5.695825862873698497e+01,6.315775440085553782e+01,9.523238182067871094e+00,-8.414105772972106934e-01,3.824593871831893921e-02,5.130000000000000000e+02
3.219805888729933940e+01,6.081117346802125212e+01,7.117687540968472604e+01,6.139581630788779876e+01,2.746232972047437215e+01,4.845820487142509592e+01,5.631737613969653466e+01,6.353338582106152899e+01,9.523238182067871094e+00,-8.414105772972106934e-01,3.824593871831893921e-02,5.140000000000000000e+02
3.775506107886667451e+01,6.596272889927104188e+01,7.434047502473094937e+01,6.740204259508755058e+01,2.889071816485466115e+01,5.214220053603639826e+01,5.775748745799637618e+01,6.693137960480180482e+01,9.523238182067871094e+00,-8.414105772972106934e-01,3.824593871831893921e-02,5.150000000000000000e+02
4.960015571802114209e+01,7.627086875205122851e+01,8.331880404209368862e+01,7.783426179746265916e+01,3.449410617075727714e+01,5.912711950358016111e+01,6.253836974140040184e+01,7.460365950839104698e+01,9.523238182067871094e+00,-8.414105772972106934e-01,3.824593871831893921e-02,5.160000000000000000e+02
6.830845763214574617e+01,9.241336033005677564e+01,9.901091524895628027e+01,9.314240888263157103e+01,4.587760903745265750e+01,7.074361611536824057e+01,7.197685291975813016e+01,8.824557467988643111e+01,9.523238182067871094e+00,-8.414105772972106934e-01,3.824593871831893921e-02,5.170000000000000000e+02
9.370329592876350944e+01,1.150566795510976590e+02,1.215424561500740310e+02,1.142600554930863836e+02,6.409475688794373127e+01,8.853961972848901496e+01,8.685513097636521707e+01,1.095800201751499117e+02,9.523238182067871094e+00,-8.414105772972106934e-01,3.824593871831893921e-02,5.180000000000000000e+02
1.243223885385427820e+02,1.436613258197749019e+02,1.497134174330171845e+02,1.413864834583646370e+02,8.874665031901213297e+01,1.129529581993829197e+02,1.068075051324776723e+02,1.387532535691657358e+02,9.523238182067871094e+00,-8.414105772972106934e-01,3.824593871831893921e-02,5.190000000000000000e+02
1.572523312076668844e+02,1.755282353815127863e+02,1.807703020957587796e+02,1.725598902303577233e+02,1.175514667069933239e+02,1.421657234078247711e+02,1.301876335547722192e+02,1.730008261601674349e+02,9.523238182067871094e+00,-8.414105772972106934e-01,3.824593871831893921e-02,5.200000000000000000e+02
1.890065381881454414e+02,2.065554372365263589e+02,2.112447111402989322e+02,2.038168369920335863e+02,1.470841764466495079e+02,1.724695819514081450e+02,1.547023460369491659e+02,2.073414493300801951e+02,9.484992027282714844e+00,-8.414105772972106934e-01,3.824593871831893921e-02,5.210000000000000000e+02
2.171356100958846582e+02,2.335613362925305410e+02,2.386170894828942437e+02,2.313254920303315885e+02,1.744211319346668461e+02,2.002335455203910897e+02,1.784930317273992841e+02,2.373068487823679789e+02,9.484992027282714844e+00,-8.414105772972106934e-01,3.824593871831893921e-02,5.220000000000000000e+02
2.413637516371218226e+02,2.562737483476284979e+02,2.625684570965750027e+02,2.538460794705633816e+02,1.985500195647291548e+02,2.240362051609672562e+02,2.009184859474135010e+02,2.616448724526881051e+02,9.484992027282714844e+00,-8.414105772972106934e-01,3.824593871831893921e-02,5.230000000000000000e+02
2.632694640386453102e+02,2.771263075507158646e+02,2.847112023182635312e+02,2.733346040577716849e+02,2.204975741887174081e+02,2.452034531650169811e+02,2.224850870946938812e+02,2.826671850482834998e+02,9.484992027282714844e+00,-8.414105772972106934e-01,3.824593871831893921e-02,5.240000000000000000e+02
2.847373350503185065e+02,2.989554229039849815e+02,3.069423244384779537e+02,2.930891577191787292e+02,2.421383158002381606e+02,2.663078818885896908e+02,2.440375136901320730e+02,3.039069299311154282e+02,9.484992027282714844e+00,-8.414105772972106934e-01,3.824593871831893921e-02,5.250000000000000000e+02
3.064405624365404037e+02,3.226133097701222141e+02,3.297478129528772115e+02,3.150150975703118092e+02,2.646286536228553814e+02,2.889088264633628569e+02,2.658591685973542553e+02,3.271035089286906441e+02,9.484992027282714844e+00,-8.414105772972106934e-01,3.824593871831893921e-02,5.260000000000000000e+02
3.274014753363580894e+02,3.464194349768135908e+02,3.517181909720602562e+02,3.381904584024860014e+02,2.875076137214591654e+02,3.122920267783338204e+02,2.872767953557950023e+02,3.508857237790866748e+02,9.484992027282714844e+00,-8.414105772972106934e-01,3.824593871831893921e-02,5.270000000000000000e+02
3.456621465023936253e+02,3.675471715113185383e+02,3.704299571659357753e+02,3.596040592885665319e+02,3.088665733630978139e+02,3.339698153868903319e+02,3.069056489159984267e+02,3.718550132456662141e+02,9.484992027282714844e+00,-8.414105772972106934e-01,3.824593871831893921e-02,5.280000000000000000e+02
3.593344336308300626e+02,3.838084777345043221e+02,3.838285045958764385e+02,3.761153333698880488e+02,3.262871463211331502e+02,3.512557919133314499e+02,3.232708506819089962e+02,3.868139658954869446e+02,9.484992027282714844e+00,-8.414105772972106934e-01,3.824593871831893921e-02,5.290000000000000000e+02
3.673396841378698809e+02,3.943623788327709008e+02,3.911314410908335049e+02,3.860131198452977515e+02,3.379426044932624791e+02,3.626138135947276169e+02,3.354264468078572463e+02,3.943687824156495481e+02,9.484992027282714844e+00,-8.414105772972106934e-01,3.824593871831893921e-02,5.300000000000000000e+02
3.696219174101752287e+02,3.992656350837523860e+02,3.928861055233701336e+02,3.893180642166735197e+02,3.433211375280807260e+02,3.680009196994833474e+02,3.432670263229101693e+02,3.951196560244879947e+02,9.484992027282714844e+00,-8.414105772972106934e-01,3.824593871831893921e-02,5.310000000000000000e+02
3.669041572946671295e+02,3.988251833477679611e+02,3.904089532487305405e+02,3.871213430255202184e+02,3.432629288811658625e+02,3.683388183233955715e+02,3.473642088535743824e+02,3.908279762678912448e+02,9.484992027282714844e+00,-8.414105772972106934e-01,3.824593871831893921e-02,5.320000000000000000e+02
3.601049426674808274e+02,3.934491150341368666e+02,3.850101947825041862e+02,3.807329102695903202e+02,3.393117399793418372e+02,3.647448085350260953e+02,3.483972392424720965e+02,3.833295137757822886e+02,9.484992027282714844e+00,-8.414105772972106934e-01,3.824593871831893921e-02,5.330000000000000000e+02
3.496730732837559117e+02,3.838163452787339338e+02,3.773446030149916623e+02,3.711324528553477649e+02,3.327682142195881170e+02,3.580246576166227896e+02,3.465516376630312152e+02,3.737093049876802979e+02,9.484992027282714844e+00,-8.414105772972106934e-01,3.824593871831893921e-02,5.340000000000000000e+02
3.354046888556831618e+02,3.708652319872976477e+02,3.672438197305218637e+02,3.588516898115494769e+02,3.241153264277008930e+02,3.486020789367876205e+02,3.414168638997607559e+02,3.620575288749496394e+02,9.484992027282714844e+00,-8.414105772972106934e-01,3.824593871831893921e-02,5.350000000000000000e+02
3.172028997508314205e+02,3.555834326493159097e+02,3.542912087354343385e+02,3.442818068141905314e+02,3.132871250987818712e+02,3.368255173182033104e+02,3.326118738319746626e+02,3.480381769078248908e+02,9.484992027282714844e+00,-8.414105772972106934e-01,3.824593871831893921e-02,5.360000000000000000e+02
2.963632411701801175e+02,3.390276335067305808e+02,3.388937401877401498e+02,3.282504089880376341e+02,3.005596774878385986e+02,3.234340298270808489e+02,3.207215902935631675e+02,3.320422354099464428e+02,9.484992027282714844e+00,-8.414105772972106934e-01,3.824593871831893921e-02,5.370000000000000000e+02
2.760441996590179770e+02,3.226247081995347799e+02,3.229196139601672257e+02,3.123826653456817439e+02,2.871748298156899182e+02,3.097831689226131857e+02,3.076584265984238300e+02,3.159423203263613686e+02,9.484992027282714844e+00,-8.414105772972106934e-01,3.824593871831893921e-02,5.380000000000000000e+02
2.598578145220126316e+02,3.081404785439476655e+02,3.089965852940149489e+02,2.986610766210324073e+02,2.749342550146902795e+02,2.974570622048886435e+02,2.958744044434188254e+02,3.023974592827744345e+02,9.484992027282714844e+00,-8.414105772972106934e-01,3.824593871831893921e-02,5.390000000000000000e+02
2.492306813772238456e+02,2.968041267822864029e+02,2.986607435905552848e+02,2.881728144289036209e+02,2.649354984080964641e+02,2.873262940585309480e+02,2.868286273190551583e+02,2.928397726510229404e+02,9.484992027282714844e+00,-8.414105772972106934e-01,3.824593871831893921e-02,5.400000000000000000e+02
2.418532230301962045e+02,2.881626775418922080e+02,2.908923141003315322e+02,2.800298734190901087e+02,2.565794027554939021e+02,2.787636871571539814e+02,2.799312771497898211e+02,2.858762140868193455e+02,9.484992027282714844e+00,-8.414105772972106934e-01,3.824593871831893921e-02,5.410000000000000000e+02
2.331746202896056275e+02,2.800558972149442525e+02,2.827108283267425577e+02,2.717632996716247362e+02,2.479823783966749033e+02,2.699303679726617702e+02,2.730154044145729131e+02,2.780378014040043126e+02,9.446745872497558594e+00,-8.414105772972106934e-01,0.000000000000000000e+00,5.420000000000000000e+02
2.202972628966290358e+02,2.703741142389271772e+02,2.718390776717051267e+02,2.613971926785134201e+02,2.377502121309735230e+02,2.593089252699901408e+02,2.641879462389024411e+02,2.668453385135362623e+02,9.446745872497558594e+00,-8.414105772972106934e-01,0.000000000000000000e+00,5.430000000000000000e+02
2.050882359442057350e+02,2.594097028351725385e+02,2.593287917347261100e+02,2.496890024194908619e+02,2.267040320870964933e+02,2.474478114848971018e+02,2.536645532441689284e+02,2.536976350138165799e+02,9.446745872497558594e+00,-8.414105772972106934e-01,0.000000000000000000e+00,5.440000000000000000e+02
1.935144471192252240e+02,2.505436527273386673e+02,2.496073750469931838e+02,2.404131833389765234e+02,2.179256924667479325e+02,2.373337014976114006e+02,2.440345658527821797e+02,2.437023669396994592e+02,9.446745872497558594e+00,-8.414105772972106934e-01,0.000000000000000000e+00,5.450000000000000000e+02
1.913283377682628270e+02,2.481513322341070307e+02,2.474425665786766331e+02,2.379796417050438322e+02,2.148031614455248928e+02,2.327070017492624174e+02,2.386012044130366121e+02,2.420819604499856723e+02,9.446745872497558594e+00,-8.414105772972106934e-01,0.000000000000000000e+00,5.460000000000000000e+02
1.995528234126350071e+02,2.541616550621938586e+02,2.541424974257770373e+02,2.440744515888709429e+02,2.185225165001957066e+02,2.354002384038794844e+02,2.390416419077319006e+02,2.500055897816700963e+02,9.446745872497558594e+00,-8.414105772972106934e-01,0.000000000000000000e+00,5.470000000000000000e+02
2.134955911478755297e+02,2.661536209496553056e+02,2.661831974500173601e+02,2.560689155447871599e+02,2.270312044421843893e+02,2.437755965670949081e+02,2.442164626733538171e+02,2.633998617634933908e+02,9.446745872497558594e+00,-8.414105772972106934e-01,0.000000000000000000e+00,5.480000000000000000e+02
2.259634915449196342e+02,2.786638337936656171e+02,2.774597899300406425e+02,2.685336875964394494e+02,2.362956631879915221e+02,2.535576575495542784e+02,2.509917160590957792e+02,2.757098725050518624e+02,9.446745872497558594e+00,-8.414105772972106934e-01,0.000000000000000000e+00,5.490000000000000000e+02
2.318315834752402225e+02,2.866039026324988299e+02,2.832502711778961384e+02,2.765939856963368584e+02,2.427700810281094164e+02,2.604161818275206315e+02,2.562819463666201045e+02,2.821611838615599481e+02,9.446745872497558594e+00,-8.414105772972106934e-01,0.000000000000000000e+00,5.500000000000000000e+02
2.303215341290815559e+02,2.879468720341983499e+02,2.826266824799076858e+02,2.784034182879686341e+02,2.450555150197487819e+02,2.622294958606289583e+02,2.586031132865573454e+02,2.819802311851417471e+02,9.446745872497558594e+00,-8.414105772972106934e-01,0.000000000000000000e+00,5.510000000000000000e+02
2.237248784756975510e+02,2.837142278308492678e+02,2.776246209254550195e+02,2.749982927578203089e+02,2.436176929259090684e+02,2.593752853196110664e+02,2.580415428567921481e+02,2.771679499563624631e+02,9.446745872497558594e+00,-8.414105772972106934e-01,0.000000000000000000e+00,5.520000000000000000e+02
2.144542803802869457e+02,2.758642767477067537e+02,2.704376645275478950e+02,2.682221250825123207e+02,2.392563464016857324e+02,2.532440629868560791e+02,2.550596023982670886e+02,2.696176068810045763e+02,9.446745872497558594e+00,-8.414105772972106934e-01,0.000000000000000000e+00,5.530000000000000000e+02
2.032938245696186641e+02,2.653848431483138484e+02,2.614462598821592110e+02,2.589316997393743804e+02,2.320196360550762620e+02,2.446669321453682642e+02,2.495306775921708322e+02,2.595359616032219492e+02,9.446745872497558594e+00,-8.414105772972106934e-01,0.000000000000000000e+00,5.540000000000000000e+02
1.899453086804460327e+02,2.522113331274977099e+02,2.496648688168843364e+02,2.469766314252028678e+02,2.215257902110643045e+02,2.336912266249019012e+02,2.409394772170908254e+02,2.463342706860512408e+02,9.446745872497558594e+00,-8.414105772972106934e-01,0.000000000000000000e+00,5.550000000000000000e+02
1.746422300687554525e+02,2.365547850779930741e+02,2.347102687304213759e+02,2.325056942473647723e+02,2.080911638168636273e+02,2.205667350485764473e+02,2.293822734757141006e+02,2.305586163818061323e+02,9.446745872497558594e+00,-8.414105772972106934e-01,0.000000000000000000e+00,5.560000000000000000e+02
1.589187948338276328e+02,2.199268565830379885e+02,2.180966430769331055e+02,2.169496465439242456e+02,1.932932338563987287e+02,2.065868460657347896e+02,2.161848500890919240e+02,2.145795240429306432e+02,9.446745872497558594e+00,-8.414105772972106934e-01,0.000000000000000000e+00,5.570000000000000000e+02
1.448505195805482799e+02,2.047043863483277164e+02,2.025844376479217317e+02,2.025888847394853656e+02,1.792975067533352558e+02,1.937113333994857385e+02,2.033879027542898257e+02,2.012390724302567833e+02,9.446745872497558594e+00,-8.414105772972106934e-01,0.000000000000000000e+00,5.580000000000000000e+02
1.337128524516028847e+02,1.926614023457786971e+02,1.903068704511133546e+02,1.911592009282740037e+02,1.675951219349917665e+02,1.832888870865244826e+02,1.925104410511303286e+02,1.918235048541573633e+02,9.446745872497558594e+00,-8.414105772972106934e-01,0.000000000000000000e+00,5.590000000000000000e+02
1.254215141176882753e+02,1.838943266829110144e+02,1.814958083690216881e+02,1.828927794623541558e+02,1.583677774990628677e+02,1.752044401693983673e+02,1.837227201693858660e+02,1.853828112148403306e+02,9.446745872497558594e+00,-8.414105772972106934e-01,0.000000000000000000e+00,5.600000000000000000e+02
1.191469786170546286e+02,1.770893583195393148e+02,1.748670304734878300e+02,1.768547657577819336e+02,1.509785531043035007e+02,1.683478979057199467e+02,1.761421457236119750e+02,1.800120187670909218e+02,9.446745872497558594e+00,-8.414105772972106934e-01,0.000000000000000000e+00,5.610000000000000000e+02
1.143646265411734930e+02,1.708145390255276652e+02,1.691194942437996360e+02,1.721384888323791529e+02,1.449685403718940506e+02,1.619502465755467711e+02,1.689206742291680712e+02,1.748035649131288665e+02,9.446745872497558594e+00,-8.414105772972106934e-01,0.000000000000000000e+00,5.620000000000000000e+02
1.113920717725522991e+02,1.647398796619099812e+02,1.641558061423638719e+02,1.687683394804989803e+02,1.405918775970221759e+02,1.564852387697119411e+02,1.621623016554513015e+02,1.706468725603172061e+02,9.446745872497558594e+00,-8.414105772972106934e-01,0.000000000000000000e+00,5.630000000000000000e+02
1.110265869689173996e+02,1.598367119401073069e+02,1.610369969234307064e+02,1.675166976186010288e+02,1.384790830240399373e+02,1.532398558768582006e+02,1.569193126749196381e+02,1.691675116654769226e+02,9.446745872497558594e+00,-8.414105772972106934e-01,0.000000000000000000e+00,5.640000000000000000e+02
1.136257735519993730e+02,1.574221794870527447e+02,1.608376685148050456e+02,1.688552762162507861e+02,1.388380555878466112e+02,1.529269108415137453e+02,1.543128918571255781e+02,1.708232630325092032e+02,9.446745872497558594e+00,-8.414105772972106934e-01,0.000000000000000000e+00,5.650000000000000000e+02
1.183628478366790659e+02,1.577969303139443582e+02,1.634193914248389774e+02,1.720245821474400145e+02,1.409288152243261720e+02,1.546296121359300741e+02,1.544985865262460720e+02,1.739446306048503175e+02,9.446745872497558594e+00,-8.414105772972106934e-01,0.000000000000000000e+00,5.660000000000000000e+02
1.231943553442742996e+02,1.595132711738897342e+02,1.670604093041674787e+02,1.750478967368981102e+02,1.432064989295431587e+02,1.560633429298741248e+02,1.562537632808707713e+02,1.756050402020773618e+02,9.484992027282714844e+00,-9.179025292396545410e-01,3.824593871831893921e-02,5.670000000000000000e+02
1.255999865736721404e+02,1.598809563093482211e+02,1.691607088879227376e+02,1.756974385804624035e+02,1.439848979338403296e+02,1.549677488224097033e+02,1.574877302107561263e+02,1.735705778383180586e+02,9.484992027282714844e+00,-9.179025292396545410e-01,3.824593871831893921e-02,5.680000000000000000e+02
1.236841735551952297e+02,1.564320531655748709e+02,1.674993258661561413e+02,1.726547238489802112e+02,1.421565251508181973e+02,1.504677367767762917e+02,1.563165205400509876e+02,1.676735864312231570e+02,9.484992027282714844e+00,-9.179025292396545410e-01,3.824593871831893921e-02,5.690000000000000000e+02
1.169857394386199303e+02,1.483312630006821564e+02,1.612413998648116831e+02,1.660168530825940252e+02,1.375531129627215705e+02,1.433362351084742841e+02,1.519732995989143092e+02,1.595417780670704815e+02,9.484992027282714844e+00,-9.179025292396545410e-01,3.824593871831893921e-02,5.700000000000000000e+02
1.065149838466750225e+02,1.367137505104346928e+02,1.511328598598211101e+02,1.568836693724988436e+02,1.307707949510204344e+02,1.350667095570861420e+02,1.449612966628410504e+02,1.510621600639042299e+02,9.484992027282714844e+00,-9.179025292396545410e-01,3.824593871831893921e-02,5.710000000000000000e+02
9.406103843676100951e+01,1.237578114548423400e+02,1.388868068723331817e+02,1.464937501757813152e+02,1.226180872859149531e+02,1.266456479266853421e+02,1.364250831078497868e+02,1.429653806111473386e+02,9.484992027282714844e+00,-9.179025292396545410e-01,3.824593871831893921e-02,5.720000000000000000e+02
8.130458997924142750e+01,1.112975879679615900e+02,1.262519045284334425e+02,1.356466880489260802e+02,1.136071569102678041e+02,1.180458977904527273e+02,1.273090889889281243e+02,1.346388075197701255e+02,9.484992027282714844e+00,-9.179025292396545410e-01,3.824593871831893921e-02,5.730000000000000000e+02
6.929343285566756094e+01,1.000492698090092745e+02,1.143419549227073730e+02,1.247397505301942147e+02,1.038542474394198507e+02,1.086933541982980387e+02,1.179599735953561321e+02,1.250646649296577380e+02,9.484992027282714844e+00,-9.179025292396545410e-01,3.824593871831893921e-02,5.740000000000000000e+02
5.837612737880044733e+01,8.979612033639750734e+01,1.034505801107297884e+02,1.140642961892262974e+02,9.335681923303855001e+01,9.825848236395177082e+01,1.083296688790360349e+02,1.137945132234563062e+02,9.484992027282714844e+00,-9.179025292396545410e-01,3.824593871831893921e-02,5.750000000000000000e+02
4.825712786524127296e+01,7.993412191490278929e+01,9.314663224290416110e+01,1.037772443657631811e+02,8.220842004707083106e+01,8.691734638359776000e+01,9.832981423534147325e+01,1.010209892910970666e+02,9.484992027282714844e+00,-9.179025292396545410e-01,3.824593871831893921e-02,5.760000000000000000e+02
3.799677320054615848e+01,6.968719187659189629e+01,8.243903387489081069e+01,9.349095633923570858e+01,7.043490181495144498e+01,7.491780220852524508e+01,8.785618695399898570e+01,8.692033367340445693e+01,9.484992027282714844e+00,-9.179025292396545410e-01,3.824593871831893921e-02,5.770000000000000000e+02
2.623560097333756858e+01,5.804274062056720140e+01,7.008368029695520818e+01,8.208479524291033158e+01,5.768804924340292928e+01,6.209413433477311628e+01,7.656413257727763266e+01,7.123589441686635837e+01,9.484992027282714844e+00,-9.179025292396545410e-01,3.824593871831893921e-02,5.780000000000000000e+02
1.193814624774495314e+01,4.401444670915407187e+01,5.518515284000204701e+01,6.828978565546458412e+01,4.333855866943122237e+01,4.799658271097359830e+01,6.389069850484884228e+01,5.371172683280383353e+01,9.484992027282714844e+00,-9.179025292396545410e-01,3.824593871831893921e-02,5.790000000000000000e+02
-4.644887575561369886e+00,2.745102785009294166e+01,3.793571475834505691e+01,5.179133765520418820e+01,2.714061873500759248e+01,3.255296384299799684e+01,4.956783131166594103e+01,3.492723753067184589e+01,9.484992027282714844e+00,-9.179025292396545410e-01,3.824593871831893921e-02,5.800000000000000000e+02
-2.171221004614017147e+01,9.658645700917986687e+00,1.987120405488349206e+01,3.382997519293712685e+01,9.865883727557957172e+00,1.647735213907071739e+01,3.417130349147555535e+01,1.645938304405171948e+01,9.484992027282714844e+00,-9.179025292396545410e-01,3.824593871831893921e-02,5.810000000000000000e+02
-3.694564108209851838e+01,-7.118620948871466680e+00,3.147962719447605195e+00,1.653971818374884606e+01,-6.885418700101581635e+00,8.532895096504944377e-01,1.900019739038179978e+01,-5.430484527823864482e-02,9.484992027282714844e+00,-9.179025292396545410e-01,3.824593871831893921e-02,5.820000000000000000e+02
-4.921541323842939164e+01,-2.127557481617259327e+01,-1.081984609046776313e+01,1.468579974658496212e+00,-2.171119938765696133e+01,-1.372122603186289780e+01,5.227308082077797735e+00,-1.410987669955102319e+01,9.484992027282714844e+00,-9.179025292396545410e-01,3.824593871831893921e-02,5.830000000000000000e+02
-5.940901505506190006e+01,-3.309846729232958751e+01,-2.224160743916581850e+01,-1.134671009881094506e+01,-3.431426949958404293e+01,-2.745498778314504307e+01,-6.886535442135937046e+00,-2.649157106683196616e+01,9.484992027282714844e+00,-9.179025292396545410e-01,3.824593871831893921e-02,5.840000000000000000e+02
-6.940570863998982531e+01,-4.434438202797173290e+01,-3.244723015354975360e+01,-2.281724905812006909e+01,-4.532826828526231111e+01,-4.069034266859671334e+01,-1.788048690892901504e+01,-3.807375437239716121e+01,9.484992027282714844e+00,-9.179025292396545410e-01,3.824593871831893921e-02,5.850000000000000000e+02
-8.002625655683004879e+01,-5.638302063282753807e+01,-4.237661075849246117e+01,-3.333863083486721735e+01,-5.524201901674678084e+01,-5.294197972830079379e+01,-2.820972698946570745e+01,-4.849662049495964311e+01,9.484992027282714844e+00,-9.179025292396545410e-01,3.824593871831893921e-02,5.860000000000000000e+02
-9.002475614544346172e+01,-6.871484591823355004e+01,-5.155915791374718538e+01,-4.204939162214759563e+01,-6.366322693495749263e+01,-6.285879769782695803e+01,-3.761370490351691842e+01,-5.631160539269694709e+01,9.484992027282714844e+00,-9.179025292396545410e-01,3.824593871831893921e-02,5.870000000000000000e+02
-9.731332676765305223e+01,-7.942115716383705148e+01,-5.870787930321603199e+01,-4.774930962901089515e+01,-6.985490024389582686e+01,-6.942375935596282943e+01,-4.551096911279819324e+01,-6.075500877763624885e+01,9.484992027282714844e+00,-9.179025292396545410e-01,3.824593871831893921e-02,5.880000000000000000e+02
-1.013182463318662485e+02,-8.713228250286192633e+01,-6.340309780196548672e+01,-5.059781166743414360e+01,-7.400714921825419879e+01,-7.327392915894233738e+01,-5.198409799088403815e+01,-6.338677217475014913e+01,9.484992027282714844e+00,-9.179025292396545410e-01,3.824593871831893921e-02,5.890000000000000000e+02
-1.040154675101439352e+02,-9.248204497723600070e+01,-6.708083568711663247e+01,-5.269592228903638897e+01,-7.772360571132594487e+01,-7.665862729237778694e+01,-5.813415200406234362e+01,-6.759299351676963852e+01,9.484992027282714844e+00,-9.179025292396545410e-01,3.824593871831893921e-02,5.900000000000000000e+02
-1.083559493392349395e+02,-9.751543864769155334e+01,-7.209086234224014333e+01,-5.665908372150261130e+01,-8.291797173000304610e+01,-8.179956834268887178e+01,-6.521007895973889390e+01,-7.591040474466717569e+01,9.484992027282714844e+00,-9.179025292396545410e-01,3.824593871831893921e-02,5.910000000000000000e+02
