F3,F4,C3,C4,P3,P4,Cz,Pz,Accel_x,Accel_y,Accel_z,Sample
-3.819877747446298599e-11,-2.273736754432320595e-11,-3.365130396559834480e-11,-2.546585164964199066e-11,-5.366018740460276604e-11,-6.275513442233204842e-11,-5.275069270282983780e-11,-3.001332515850663185e-11,9.446745872497558594e+00,-8.414105772972106934e-01,3.824593871831893921e-02,2.270000000000000000e+02
1.394441862632447737e+00,2.071936533320285889e+01,1.584758209354640712e+01,1.688228249523217528e+01,2.840705204763344227e+01,2.055508553902473068e+01,2.611370425997847633e+01,3.258247050655882049e+00,9.446745872497558594e+00,-8.414105772972106934e-01,3.824593871831893921e-02,2.280000000000000000e+02
3.074582231845852220e+00,3.597001508278935944e+01,2.745018877363690990e+01,2.900956846385906829e+01,4.174648479006191337e+01,3.261101552180025465e+01,3.966142715914975270e+01,8.840367985377270088e+00,9.446745872497558594e+00,-8.414105772972106934e-01,3.824593871831893921e-02,2.290000000000000000e+02
4.784675837119721109e+00,4.427583160212179791e+01,3.369363493091077544e+01,3.480815903820894164e+01,3.735693555049238057e+01,3.422097637487786415e+01,3.880546144170693879e+01,1.638420293425133423e+01,9.446745872497558594e+00,-8.414105772972106934e-01,3.824593871831893921e-02,2.300000000000000000e+02
5.477109189351722307e+00,4.838903506685892353e+01,3.667233438579842186e+01,3.622830487613009609e+01,2.545714072418923024e+01,3.037081743975159043e+01,3.265731972530193161e+01,2.275452731501900416e+01,9.446745872497558594e+00,-8.414105772972106934e-01,3.824593871831893921e-02,2.310000000000000000e+02
3.461266280178278976e+00,5.174068780044535742e+01,3.876874155447876547e+01,3.613783094569498644e+01,1.796130389595145971e+01,2.722376314050325163e+01,3.130850944629219157e+01,2.450192613505623740e+01,9.446745872497558594e+00,-8.414105772972106934e-01,3.824593871831893921e-02,2.320000000000000000e+02
-3.102460540368156217e+00,5.474598361770540578e+01,3.980303004805682576e+01,3.538470909540228604e+01,1.737156247561961209e+01,2.620300276884245250e+01,3.613884039951881277e+01,2.034437059175252216e+01,9.446745872497558594e+00,-8.414105772972106934e-01,3.824593871831893921e-02,2.330000000000000000e+02
-1.545418697567765776e+01,5.450475345156701223e+01,3.712907086941595480e+01,3.224070405853672128e+01,1.634788319862673234e+01,2.350268307597070816e+01,3.976260178039774473e+01,1.150788411192752392e+01,9.446745872497558594e+00,-8.414105772972106934e-01,3.824593871831893921e-02,2.340000000000000000e+02
-3.341652716886983399e+01,4.791882116521674106e+01,2.846942394106190477e+01,2.446778791293127142e+01,6.885504442936507985e+00,1.475737144419599645e+01,3.453501605934252439e+01,1.594550205591076519e-01,9.446745872497558594e+00,-8.414105772972106934e-01,3.824593871831893921e-02,2.350000000000000000e+02
-5.496565304592058965e+01,3.496538359387341188e+01,1.454605484458352294e+01,1.174221807266712858e+01,-1.134073934057596489e+01,-3.882355550058491644e-01,2.017306520864894992e+01,-1.217363196856513241e+01,9.523238182067871094e+00,-8.796565532684326172e-01,0.000000000000000000e+00,2.360000000000000000e+02
-7.674626919868205732e+01,1.901489866687870744e+01,-1.092069081748377357e+00,-3.889636608618729952e+00,-3.160671121698942443e+01,-1.824657295846191118e+01,3.135478987299393339e+00,-2.489596509083912679e+01,9.523238182067871094e+00,-8.796565532684326172e-01,0.000000000000000000e+00,2.370000000000000000e+02
-9.561267036798108165e+01,4.161172514489862806e+00,-1.477157450919003168e+01,-1.970331672114343746e+01,-4.762745577690748178e+01,-3.489011607017800998e+01,-1.033302076820382354e+01,-3.777249702789140429e+01,9.523238182067871094e+00,-8.796565532684326172e-01,0.000000000000000000e+00,2.380000000000000000e+02
-1.103442091505312419e+02,-7.756769269697542768e+00,-2.529363436988478497e+01,-3.428064386705909783e+01,-5.924468768718361389e+01,-4.943054116415532917e+01,-1.963636246273199504e+01,-5.057825310701537092e+01,9.523238182067871094e+00,-8.796565532684326172e-01,0.000000000000000000e+00,2.390000000000000000e+02
-1.222206587492837571e+02,-1.786583493958869440e+01,-3.415953770150372293e+01,-4.793853074757817012e+01,-7.094483461038544192e+01,-6.368588548435945995e+01,-2.874124720732470450e+01,-6.324490548387075251e+01,9.523238182067871094e+00,-8.796565532684326172e-01,0.000000000000000000e+00,2.400000000000000000e+02
-1.338638660489596077e+02,-2.852297110083600273e+01,-4.359731851070864650e+01,-6.153052281653390310e+01,-8.610776658889153623e+01,-7.928936467056155379e+01,-4.098724428179048118e+01,-7.589302799618508288e+01,9.523238182067871094e+00,-8.796565532684326172e-01,0.000000000000000000e+00,2.410000000000000000e+02
-1.471613227771945276e+02,-4.102732338548594271e+01,-5.447699866353104881e+01,-7.508711673049629098e+01,-1.036933258618810214e+02,-9.564601358639720274e+01,-5.581473757331968955e+01,-8.839796599654528109e+01,9.523238182067871094e+00,-8.796565532684326172e-01,0.000000000000000000e+00,2.420000000000000000e+02
-1.619303237149247252e+02,-5.468387829778703235e+01,-6.589135537367565121e+01,-8.763277069847072198e+01,-1.202016908380837776e+02,-1.106351981759362388e+02,-7.018436440143977961e+01,-1.000806135386592359e+02,9.523238182067871094e+00,-8.796565532684326172e-01,0.000000000000000000e+00,2.430000000000000000e+02
-1.763181989996410266e+02,-6.757950171829043029e+01,-7.631249452274641953e+01,-9.810266999578334435e+01,-1.336989949174467256e+02,-1.228069365839128295e+02,-8.210753044141074497e+01,-1.101244802627861645e+02,9.523238182067871094e+00,-8.796565532684326172e-01,0.000000000000000000e+00,2.440000000000000000e+02
-1.883635897523081439e+02,-7.799695518680800888e+01,-8.484531477846667258e+01,-1.061820236703274531e+02,-1.451745317750655886e+02,-1.325057617787288109e+02,-9.212574449259227549e+01,-1.183084737101139581e+02,9.523238182067871094e+00,-8.796565532684326172e-01,0.000000000000000000e+00,2.450000000000000000e+02
-1.972130318325043845e+02,-8.523553585581248626e+01,-9.140658066288051486e+01,-1.121756546152305418e+02,-1.563206391273815825e+02,-1.409306426349221510e+02,-1.016822521568037700e+02,-1.250259439012011171e+02,9.523238182067871094e+00,-8.796565532684326172e-01,0.000000000000000000e+00,2.460000000000000000e+02
-2.030758236034903348e+02,-8.947441533436267491e+01,-9.602072844273425289e+01,-1.162099661709421525e+02,-1.669000809766585007e+02,-1.484535542166286177e+02,-1.108789928589458214e+02,-1.303422433678470043e+02,9.523238182067871094e+00,-8.796565532684326172e-01,0.000000000000000000e+00,2.470000000000000000e+02
-2.063957828965471890e+02,-9.117647378177662176e+01,-9.830215779514492169e+01,-1.178248060695073036e+02,-1.747660273368719572e+02,-1.540958056111430778e+02,-1.182233232848229818e+02,-1.332602846470012992e+02,9.523238182067871094e+00,-8.796565532684326172e-01,0.000000000000000000e+00,2.480000000000000000e+02
-2.073684484448954208e+02,-9.072623336114929771e+01,-9.780231261824474132e+01,-1.165539460685354243e+02,-1.782573004321866392e+02,-1.566553787029206433e+02,-1.223469611508699018e+02,-1.324355429818961056e+02,9.523238182067871094e+00,-8.796565532684326172e-01,0.000000000000000000e+00,2.490000000000000000e+02
-2.062736019104413572e+02,-8.855076849408987982e+01,-9.481734987366326095e+01,-1.129450134482649446e+02,-1.781610965240597579e+02,-1.562507574043511340e+02,-1.235819398051053213e+02,-1.279708146746929742e+02,9.523238182067871094e+00,-8.796565532684326172e-01,0.000000000000000000e+00,2.500000000000000000e+02
-2.039781424535349288e+02,-8.539204490964448269e+01,-9.067493699842998467e+01,-1.088481528788684045e+02,-1.772392145113090010e+02,-1.546985870196176620e+02,-1.237796451186923150e+02,-1.223260284380489793e+02,9.523238182067871094e+00,-8.796565532684326172e-01,0.000000000000000000e+00,2.510000000000000000e+02
-2.017228179686749172e+02,-8.221545526260069892e+01,-8.701793718814315071e+01,-1.063906640968966713e+02,-1.779935091934767115e+02,-1.543181088894825734e+02,-1.247605344810772294e+02,-1.188850451038765641e+02,9.523238182067871094e+00,-8.796565532684326172e-01,0.000000000000000000e+00,2.520000000000000000e+02
-2.002474222851692502e+02,-7.964868805456899281e+01,-8.464451087429506515e+01,-1.063633353676605111e+02,-1.808527455007797471e+02,-1.561937584311244791e+02,-1.269407282425909216e+02,-1.191508485667754940e+02,9.523238182067871094e+00,-8.796565532684326172e-01,0.000000000000000000e+00,2.530000000000000000e+02
-1.992684900270382968e+02,-7.747925504020895460e+01,-8.301380240805428912e+01,-1.075040058509339360e+02,-1.842580035127257361e+02,-1.594318254294566941e+02,-1.292562098211583361e+02,-1.212951426708345934e+02,9.523238182067871094e+00,-8.796565532684326172e-01,0.000000000000000000e+00,2.540000000000000000e+02
-1.980798989435779731e+02,-7.489615001279980788e+01,-8.097191125894642028e+01,-1.075301980877870847e+02,-1.862864452263911517e+02,-1.620939584851303152e+02,-1.302532574731976638e+02,-1.217847911489570834e+02,9.523238182067871094e+00,-8.796565532684326172e-01,0.000000000000000000e+00,2.550000000000000000e+02
-1.967756545607949192e+02,-7.151397412292499212e+01,-7.809924925611539948e+01,-1.051950182079208389e+02,-1.863368301145956138e+02,-1.630417825323502257e+02,-1.294001848437073932e+02,-1.187904145902843993e+02,9.523238182067871094e+00,-8.796565532684326172e-01,0.000000000000000000e+00,2.560000000000000000e+02
-1.967414708885594337e+02,-6.829792531485145446e+01,-7.541021790159311422e+01,-1.015772506880571200e+02,-1.856270861291777692e+02,-1.630913290177913950e+02,-1.276957830312776423e+02,-1.141154141514680305e+02,9.523238182067871094e+00,-8.796565532684326172e-01,0.000000000000000000e+00,2.570000000000000000e+02
-1.996746572362608276e+02,-6.729144465666558972e+01,-7.465788338641186783e+01,-9.934636363105801138e+01,-1.862416729737051355e+02,-1.643758089305256362e+02,-1.271296848267356836e+02,-1.116741995185830092e+02,9.523238182067871094e+00,-8.796565532684326172e-01,0.000000000000000000e+00,2.580000000000000000e+02
-2.058895055482898897e+02,-7.002834626576327537e+01,-7.676168380205808717e+01,-1.005007176054318734e+02,-1.894982646959369958e+02,-1.683754454324512153e+02,-1.293026419747475302e+02,-1.138131901830656716e+02,9.523238182067871094e+00,-8.796565532684326172e-01,0.000000000000000000e+00,2.590000000000000000e+02
-2.135650716617756188e+02,-7.590904298243640369e+01,-8.075808011726030600e+01,-1.045264973479706896e+02,-1.948645938639551787e+02,-1.743516951827309640e+02,-1.341447388484193652e+02,-1.189324032886829627e+02,9.523238182067871094e+00,-8.796565532684326172e-01,0.000000000000000000e+00,2.600000000000000000e+02
-2.199190834588039252e+02,-8.221635306463053894e+01,-8.437150010770710651e+01,-1.087186362491252112e+02,-2.003512042370593917e+02,-1.797473402192667891e+02,-1.398170737013497273e+02,-1.227934400960048151e+02,9.523238182067871094e+00,-8.796565532684326172e-01,0.000000000000000000e+00,2.610000000000000000e+02
-2.234701722465324565e+02,-8.610451216307228606e+01,-8.588252741889709796e+01,-1.105001723467908050e+02,-2.041909531101578068e+02,-1.823787566785426861e+02,-1.440939274799302439e+02,-1.224129628671053069e+02,9.523238182067871094e+00,-8.796565532684326172e-01,0.000000000000000000e+00,2.620000000000000000e+02
-2.253933238108456862e+02,-8.696010019905315858e+01,-8.570570791608633954e+01,-1.097028013549911520e+02,-2.064298954400701405e+02,-1.824931640856575541e+02,-1.462100932347420894e+02,-1.189680016980546498e+02,9.523238182067871094e+00,-8.796565532684326172e-01,0.000000000000000000e+00,2.630000000000000000e+02
-2.286958522047480074e+02,-8.700829101722047199e+01,-8.625707097449640059e+01,-1.087837077313747614e+02,-2.090220639609697173e+02,-1.828041982257241216e+02,-1.476219389763973595e+02,-1.170291530002373293e+02,9.523238182067871094e+00,-8.796565532684326172e-01,0.000000000000000000e+00,2.640000000000000000e+02
-2.358358528314665818e+02,-8.953315908785202737e+01,-9.011897120320054455e+01,-1.107965914714218343e+02,-2.142377631651129377e+02,-1.864108007763406931e+02,-1.509139279590581282e+02,-1.207952675124352027e+02,9.523238182067871094e+00,-8.796565532684326172e-01,0.000000000000000000e+00,2.650000000000000000e+02
-2.467650966332689677e+02,-9.627336784448948492e+01,-9.798405097657632723e+01,-1.169465389186643733e+02,-2.227387194295693007e+02,-1.944405019956916476e+02,-1.577018763592432151e+02,-1.306920160167383074e+02,9.523238182067871094e+00,-8.796565532684326172e-01,0.000000000000000000e+00,2.660000000000000000e+02
-2.589730144031559576e+02,-1.062770306291836278e+02,-1.080666179709041899e+02,-1.258478736009105887e+02,-2.330520667668829446e+02,-2.054596731762048876e+02,-1.673326058507591370e+02,-1.432507252822374539e+02,9.484992027282714844e+00,-8.031646609306335449e-01,0.000000000000000000e+00,2.670000000000000000e+02
-2.693671825017568153e+02,-1.170386194167836038e+02,-1.174097337428538594e+02,-1.349317557481876975e+02,-2.428528049968249434e+02,-2.169439799667734405e+02,-1.774549280751980405e+02,-1.541471492303367086e+02,9.484992027282714844e+00,-8.031646609306335449e-01,0.000000000000000000e+00,2.680000000000000000e+02
-2.763420123465134566e+02,-1.266075227161281873e+02,-1.239524879744903956e+02,-1.424957023723827660e+02,-2.508076295624173326e+02,-2.272282321703064554e+02,-1.858997192384354094e+02,-1.614952236821450242e+02,9.484992027282714844e+00,-8.031646609306335449e-01,0.000000000000000000e+00,2.690000000000000000e+02
-2.804534832248118619e+02,-1.346476325962562441e+02,-1.277089668388043719e+02,-1.485325607435984239e+02,-2.572818943122883866e+02,-2.361552705860449350e+02,-1.922017446502218263e+02,-1.665788177019981049e+02,9.484992027282714844e+00,-8.031646609306335449e-01,0.000000000000000000e+00,2.700000000000000000e+02
-2.834544294549059487e+02,-1.417228836560339005e+02,-1.302731035627443816e+02,-1.538699731048873218e+02,-2.634188010707252943e+02,-2.441612546295950779e+02,-1.975434373829471042e+02,-1.717653795747351069e+02,9.484992027282714844e+00,-8.031646609306335449e-01,0.000000000000000000e+00,2.710000000000000000e+02
-2.867743923618709232e+02,-1.479565707984697838e+02,-1.332957852100707896e+02,-1.588315790759379524e+02,-2.697518093963253705e+02,-2.511354703703718769e+02,-2.034263078916064842e+02,-1.778942621104633872e+02,9.484992027282714844e+00,-8.031646609306335449e-01,0.000000000000000000e+00,2.720000000000000000e+02
-2.907607979054432690e+02,-1.526811627294464415e+02,-1.373132420731585626e+02,-1.629045006191640823e+02,-2.757946101309908045e+02,-2.563898189592382550e+02,-2.103773642938385819e+02,-1.836701443021675004e+02,9.484992027282714844e+00,-8.031646609306335449e-01,0.000000000000000000e+00,2.730000000000000000e+02
-2.950238553478957328e+02,-1.553595538630074770e+02,-1.417519775422106250e+02,-1.655865891917051158e+02,-2.808539376628268656e+02,-2.596397626823304563e+02,-2.177156614878995242e+02,-1.873428539802303021e+02,9.484992027282714844e+00,-8.031646609306335449e-01,0.000000000000000000e+00,2.740000000000000000e+02
-2.991913876665407770e+02,-1.565573965663186300e+02,-1.458049075879130214e+02,-1.672617858779178732e+02,-2.850533862670431517e+02,-2.617336067159544655e+02,-2.243514091339739025e+02,-1.886844296598505935e+02,9.484992027282714844e+00,-8.031646609306335449e-01,0.000000000000000000e+00,2.750000000000000000e+02
-3.032075616171168804e+02,-1.576911112012928697e+02,-1.491945191416953094e+02,-1.689940306048601997e+02,-2.894057154968954819e+02,-2.641726098787589763e+02,-2.297220101563243588e+02,-1.891874650783420293e+02,9.484992027282714844e+00,-8.031646609306335449e-01,0.000000000000000000e+00,2.760000000000000000e+02
-3.069916016363076778e+02,-1.596609338591165397e+02,-1.521283352944819853e+02,-1.713885798904905187e+02,-2.947923348982026255e+02,-2.678034939216631756e+02,-2.340092573984411501e+02,-1.903927774903800128e+02,9.484992027282714844e+00,-8.031646609306335449e-01,0.000000000000000000e+00,2.770000000000000000e+02
-3.099951102611653369e+02,-1.617762342641522082e+02,-1.546229493303817435e+02,-1.737351003178503106e+02,-3.008296808192758363e+02,-2.719603193288653529e+02,-2.375748870284201075e+02,-1.921669122581947704e+02,9.484992027282714844e+00,-8.031646609306335449e-01,0.000000000000000000e+00,2.780000000000000000e+02
-3.112494564722378527e+02,-1.621906892171498384e+02,-1.559860820467788471e+02,-1.744006118496117779e+02,-3.057465677427039736e+02,-2.749048714479567934e+02,-2.403090695654091178e+02,-1.926902162875248905e+02,9.484992027282714844e+00,-8.031646609306335449e-01,0.000000000000000000e+00,2.790000000000000000e+02
-3.099578386951561697e+02,-1.595606321258039770e+02,-1.550799494140978823e+02,-1.721744731921583025e+02,-3.075115676595819423e+02,-2.751809683469928132e+02,-2.416346785857199393e+02,-1.901366784026690766e+02,9.484992027282714844e+00,-8.031646609306335449e-01,0.000000000000000000e+00,2.800000000000000000e+02
-3.061546568005651352e+02,-1.544175683101661889e+02,-1.512427021702305865e+02,-1.673489662212739404e+02,-3.053469720085045083e+02,-2.727150587636501768e+02,-2.412021212899803686e+02,-1.844171772019626587e+02,9.484992027282714844e+00,-8.031646609306335449e-01,0.000000000000000000e+00,2.810000000000000000e+02
-3.009326809585729734e+02,-1.490166581240857795e+02,-1.451298427602901029e+02,-1.616450054567771986e+02,-3.004488423449483889e+02,-2.688622992783989503e+02,-2.395701901250927222e+02,-1.774663307307357627e+02,9.484992027282714844e+00,-8.031646609306335449e-01,0.000000000000000000e+00,2.820000000000000000e+02
-2.961096377723902151e+02,-1.458349844417987242e+02,-1.387377327963304197e+02,-1.571848870052187976e+02,-2.953708343703174251e+02,-2.655664274084469980e+02,-2.381230225177496322e+02,-1.720021735845364219e+02,9.484992027282714844e+00,-8.031646609306335449e-01,0.000000000000000000e+00,2.830000000000000000e+02
-2.935252652115375440e+02,-1.460282637261873333e+02,-1.344554584280153904e+02,-1.553952636287565383e+02,-2.925273767143298755e+02,-2.643532659902684827e+02,-2.381671943211163125e+02,-1.698639699167163144e+02,9.484992027282714844e+00,-8.031646609306335449e-01,0.000000000000000000e+00,2.840000000000000000e+02
-2.942386012491135716e+02,-1.489856390404700051e+02,-1.337095192385199880e+02,-1.564927848912418540e+02,-2.928542216336154524e+02,-2.657129575241096973e+02,-2.399555569608842234e+02,-1.710655236608322411e+02,9.484992027282714844e+00,-8.031646609306335449e-01,0.000000000000000000e+00,2.850000000000000000e+02
-2.979240366343017286e+02,-1.530198307905538968e+02,-1.360888679511763257e+02,-1.595450372724819772e+02,-2.954354425617607376e+02,-2.689565584642905378e+02,-2.424874827290091162e+02,-1.739056462204378022e+02,9.484992027282714844e+00,-8.031646609306335449e-01,0.000000000000000000e+00,2.860000000000000000e+02
-3.028596995891864481e+02,-1.564064387832941065e+02,-1.395766427986955023e+02,-1.628431120294142147e+02,-2.982264901646858561e+02,-2.724777749234485782e+02,-2.442597453935491103e+02,-1.758680609171785818e+02,9.484992027282714844e+00,-8.031646609306335449e-01,0.000000000000000000e+00,2.870000000000000000e+02
-3.067572954699539878e+02,-1.580908720677778092e+02,-1.418331763865248831e+02,-1.645351957743966977e+02,-2.993733478627614204e+02,-2.744676473008908033e+02,-2.443467124853277710e+02,-1.749450546757652774e+02,9.484992027282714844e+00,-8.414105772972106934e-01,0.000000000000000000e+00,2.880000000000000000e+02
-3.081134657057161803e+02,-1.579426765126113423e+02,-1.417169492907430595e+02,-1.635390865323408889e+02,-2.983329750892717129e+02,-2.739730177829092099e+02,-2.429581369606239605e+02,-1.708872084172244286e+02,9.484992027282714844e+00,-8.414105772972106934e-01,0.000000000000000000e+00,2.890000000000000000e+02
-3.071817246270430246e+02,-1.567324561607547366e+02,-1.399882870337144141e+02,-1.603616891270324345e+02,-2.961653342375212787e+02,-2.717226897391917646e+02,-2.411527751020931873e+02,-1.656428384178458373e+02,9.484992027282714844e+00,-8.414105772972106934e-01,0.000000000000000000e+00,2.900000000000000000e+02
-3.057085433132776302e+02,-1.558394785613045315e+02,-1.386657837290557040e+02,-1.570789245119976272e+02,-2.948342968709307570e+02,-2.699268925472986211e+02,-2.400770213782760720e+02,-1.623927974473560880e+02,9.484992027282714844e+00,-8.414105772972106934e-01,0.000000000000000000e+00,2.910000000000000000e+02
-3.054935804800015831e+02,-1.565784451163931976e+02,-1.394797992948010688e+02,-1.560985069762550097e+02,-2.959076548065234533e+02,-2.708311996239038990e+02,-2.403400218440592084e+02,-1.634783771207881955e+02,9.484992027282714844e+00,-8.414105772972106934e-01,0.000000000000000000e+00,2.920000000000000000e+02
-3.069904730398328638e+02,-1.593961440125727620e+02,-1.426487090049539574e+02,-1.584576417513936804e+02,-2.995088329495711150e+02,-2.749970089530125961e+02,-2.418993189207954515e+02,-1.687172633786032634e+02,9.484992027282714844e+00,-8.414105772972106934e-01,0.000000000000000000e+00,2.930000000000000000e+02
-3.093184358912013181e+02,-1.636230209435699408e+02,-1.470156543256842951e+02,-1.631224216152121471e+02,-3.043338471583708724e+02,-2.808341638183426880e+02,-2.444115795912571798e+02,-1.756540210397043325e+02,9.484992027282714844e+00,-8.414105772972106934e-01,0.000000000000000000e+00,2.940000000000000000e+02
-3.117488567496853307e+02,-1.682033555099544344e+02,-1.514159306828015588e+02,-1.680580429280838644e+02,-3.088105843548891016e+02,-2.859951805990602338e+02,-2.477294228597794472e+02,-1.817243043848975503e+02,9.484992027282714844e+00,-8.414105772972106934e-01,0.000000000000000000e+00,2.950000000000000000e+02
-3.151306765643467998e+02,-1.728779795749731818e+02,-1.559612991190825824e+02,-1.721870852724082397e+02,-3.124785079868728417e+02,-2.895020265254584046e+02,-2.521569906165931911e+02,-1.864386012759918003e+02,9.484992027282714844e+00,-8.414105772972106934e-01,0.000000000000000000e+00,2.960000000000000000e+02
-3.215619343623932309e+02,-1.786135522084102831e+02,-1.619127605871052538e+02,-1.763495426906656860e+02,-3.163294898995606559e+02,-2.926044597957106248e+02,-2.582073533707801971e+02,-1.914611078670073141e+02,9.484992027282714844e+00,-8.414105772972106934e-01,0.000000000000000000e+00,2.970000000000000000e+02
-3.322762773216725805e+02,-1.865960716740759722e+02,-1.701435678987357960e+02,-1.822297788387267587e+02,-3.216848495480244310e+02,-2.974398565887104269e+02,-2.659462372861808035e+02,-1.984324996028670114e+02,9.484992027282714844e+00,-8.414105772972106934e-01,0.000000000000000000e+00,2.980000000000000000e+02
-3.456803942452774550e+02,-1.965741645935628981e+02,-1.796756038557364832e+02,-1.902375101580531123e+02,-3.286041086108172067e+02,-3.047048551951828586e+02,-2.744327701743220018e+02,-2.067122826959084136e+02,9.484992027282714844e+00,-8.414105772972106934e-01,0.000000000000000000e+00,2.990000000000000000e+02
-3.576728292316548163e+02,-2.062558497609154244e+02,-1.878859863443827294e+02,-1.985015582217266967e+02,-3.354439732429308378e+02,-3.126505693450443459e+02,-2.819035501354448456e+02,-2.134714369728000634e+02,9.484992027282714844e+00,-8.414105772972106934e-01,0.000000000000000000e+00,3.000000000000000000e+02
-3.643642201420960305e+02,-2.126838581738373932e+02,-1.924499063527102294e+02,-2.041613761539274776e+02,-3.401855359436256094e+02,-3.185186033897991820e+02,-2.868230287651298340e+02,-2.162842821709987220e+02,9.484992027282714844e+00,-8.414105772972106934e-01,0.000000000000000000e+00,3.010000000000000000e+02
-3.649715266943730967e+02,-2.146277089519468291e+02,-1.933326146558839298e+02,-2.058879250129292586e+02,-3.423697246360260351e+02,-3.211176833776169133e+02,-2.890802383199697374e+02,-2.157406383094894124e+02,9.484992027282714844e+00,-8.414105772972106934e-01,0.000000000000000000e+00,3.020000000000000000e+02
-3.623362227189695091e+02,-2.138390026909248434e+02,-1.929407207934314670e+02,-2.052450870555391589e+02,-3.437256772316073352e+02,-3.220299683148739405e+02,-2.902486054337488213e+02,-2.153733858105436241e+02,9.484992027282714844e+00,-8.414105772972106934e-01,0.000000000000000000e+00,3.030000000000000000e+02
-3.606431528458888351e+02,-2.138746700632158309e+02,-1.942277024855291359e+02,-2.055205976934477690e+02,-3.467523260489187464e+02,-3.242267139168624226e+02,-2.924975385070595166e+02,-2.187438430439272565e+02,9.484992027282714844e+00,-8.414105772972106934e-01,0.000000000000000000e+00,3.040000000000000000e+02
-3.624532180947604729e+02,-2.174063474837074352e+02,-1.985142383411365472e+02,-2.090693957937441496e+02,-3.525721933034703284e+02,-3.294275177056606481e+02,-2.970004595323227932e+02,-2.264014942672753534e+02,9.484992027282714844e+00,-8.414105772972106934e-01,0.000000000000000000e+00,3.050000000000000000e+02
-3.676493413744134386e+02,-2.243900457443179448e+02,-2.050308579139344829e+02,-2.156221315543773756e+02,-3.601708087584049167e+02,-3.367731696752659900e+02,-3.032475805420701818e+02,-2.356851841137631993e+02,9.484992027282714844e+00,-8.414105772972106934e-01,0.000000000000000000e+00,3.060000000000000000e+02
-3.749109286574169460e+02,-2.327068834955473449e+02,-2.124717425060803180e+02,-2.230873515366352535e+02,-3.677865494990255684e+02,-3.440858532138078658e+02,-3.098959688766516365e+02,-2.436459785339984023e+02,9.484992027282714844e+00,-8.414105772972106934e-01,0.000000000000000000e+00,3.070000000000000000e+02
-3.838978985962767183e+02,-2.405941327887758519e+02,-2.208665771298189213e+02,-2.300015707634908324e+02,-3.750377599153182473e+02,-3.504380982270603795e+02,-3.163397460819896878e+02,-2.503183408938698449e+02,9.484992027282714844e+00,-8.414105772972106934e-01,0.000000000000000000e+00,3.080000000000000000e+02
-3.957940545746187126e+02,-2.485078710410415965e+02,-2.317787072111603095e+02,-2.372113226992267982e+02,-3.835770630282676734e+02,-3.574539417828127625e+02,-3.234575189758706983e+02,-2.590850137520168346e+02,9.484992027282714844e+00,-8.414105772972106934e-01,0.000000000000000000e+00,3.090000000000000000e+02
-4.116462886581304019e+02,-2.586088537443332598e+02,-2.465072831659940675e+02,-2.471042153612827974e+02,-3.954823235047065282e+02,-3.679785148317334347e+02,-3.327716384242805816e+02,-2.735474523744269959e+02,9.484992027282714844e+00,-8.414105772972106934e-01,0.000000000000000000e+00,3.100000000000000000e+02
-4.301646937575338825e+02,-2.723059729391558221e+02,-2.639682514740044326e+02,-2.610247737916708388e+02,-4.108174483224448750e+02,-3.832539250972197920e+02,-3.447725761612896918e+02,-2.936191019264888382e+02,9.484992027282714844e+00,-8.414105772972106934e-01,0.000000000000000000e+00,3.110000000000000000e+02
-4.472121379516494244e+02,-2.881147718197591985e+02,-2.803193351972479377e+02,-2.771940274577258947e+02,-4.266416293132990631e+02,-4.011180328237256845e+02,-3.579413310335264669e+02,-3.143716927980179321e+02,9.484992027282714844e+00,-8.414105772972106934e-01,0.000000000000000000e+00,3.120000000000000000e+02
-4.577036750621856527e+02,-3.018448890222136924e+02,-2.908708148512179150e+02,-2.910597595951981589e+02,-4.384488499899185854e+02,-4.168180691790764740e+02,-3.693519577067634714e+02,-3.288057428225508829e+02,9.484992027282714844e+00,-8.031646609306335449e-01,0.000000000000000000e+00,3.130000000000000000e+02
-4.585952172891685450e+02,-3.091128996436002012e+02,-2.928984452692254195e+02,-2.979677300587601962e+02,-4.429417315944405118e+02,-4.258207052766622382e+02,-3.763789377688253239e+02,-3.323913862618561552e+02,9.484992027282714844e+00,-8.031646609306335449e-01,0.000000000000000000e+00,3.140000000000000000e+02
-4.507954382808388232e+02,-3.082160841508419367e+02,-2.872953281443118385e+02,-2.961175129222169176e+02,-4.400287419261350124e+02,-4.264735378593900350e+02,-3.782022732541175856e+02,-3.258286387001141975e+02,9.484992027282714844e+00,-8.031646609306335449e-01,0.000000000000000000e+00,3.150000000000000000e+02
-4.386584148534265069e+02,-3.010975527849284390e+02,-2.779214256824741938e+02,-2.875344485183110237e+02,-4.326463378751632263e+02,-4.206171774023697481e+02,-3.760624414330881109e+02,-3.140352113130364842e+02,9.484992027282714844e+00,-8.031646609306335449e-01,0.000000000000000000e+00,3.160000000000000000e+02
-4.274167890918478747e+02,-2.917180202691559430e+02,-2.691672691089493128e+02,-2.763717176742567858e+02,-4.246794511284514329e+02,-4.119103507198454395e+02,-3.722065985506810648e+02,-3.024097242557776895e+02,9.484992027282714844e+00,-8.031646609306335449e-01,0.000000000000000000e+00,3.170000000000000000e+02
-4.202450028612154824e+02,-2.832463469628802386e+02,-2.634200027147014680e+02,-2.659693596743406943e+02,-4.185431003122597531e+02,-4.033176444482791680e+02,-3.683656967161984994e+02,-2.934300913907593440e+02,9.484992027282714844e+00,-8.031646609306335449e-01,0.000000000000000000e+00,3.180000000000000000e+02
-4.168511244891128058e+02,-2.763824248472810723e+02,-2.601141564635001941e+02,-2.570831814497194046e+02,-4.141067746534876051e+02,-3.956980296485783128e+02,-3.648589168396181890e+02,-2.861215904775970102e+02,9.484992027282714844e+00,-8.031646609306335449e-01,0.000000000000000000e+00,3.190000000000000000e+02
-4.144816700103240237e+02,-2.700578011850141138e+02,-2.569204588717790898e+02,-2.486477692787729552e+02,-4.096197097053619700e+02,-3.884304814154469341e+02,-3.609315202376235447e+02,-2.784279834711011858e+02,9.484992027282714844e+00,-8.031646609306335449e-01,0.000000000000000000e+00,3.200000000000000000e+02
-4.106475983791240196e+02,-2.636918291085239048e+02,-2.521976272778300086e+02,-2.402619619979241463e+02,-4.038742462392056041e+02,-3.813597093461023064e+02,-3.560527401087915109e+02,-2.702675085456374973e+02,9.484992027282714844e+00,-8.031646609306335449e-01,0.000000000000000000e+00,3.210000000000000000e+02
-4.056153954822084415e+02,-2.588620770013081369e+02,-2.469013475679853400e+02,-2.340279290095071474e+02,-3.979077020009793841e+02,-3.762343580779041190e+02,-3.511482204360803507e+02,-2.646374276278582443e+02,9.484992027282714844e+00,-8.031646609306335449e-01,0.000000000000000000e+00,3.220000000000000000e+02
-4.026260087689468605e+02,-2.587099898251473178e+02,-2.443698943404268391e+02,-2.337579174056144211e+02,-3.947561939269969002e+02,-3.761335827461419967e+02,-3.486356644351496925e+02,-2.657350690676857994e+02,9.484992027282714844e+00,-8.031646609306335449e-01,0.000000000000000000e+00,3.230000000000000000e+02
-4.053724351854154975e+02,-2.653656491847402776e+02,-2.478745492252212443e+02,-2.418172292875097469e+02,-3.972007897890039203e+02,-3.830357596569945144e+02,-3.509420468686201957e+02,-2.754360552096475772e+02,9.484992027282714844e+00,-8.031646609306335449e-01,0.000000000000000000e+00,3.240000000000000000e+02
-4.145096179099004416e+02,-2.774805257751496015e+02,-2.576336165861604286e+02,-2.561549836680462704e+02,-4.051638169010365118e+02,-3.954319424336432576e+02,-3.584493938270220497e+02,-2.908710144073813808e+02,9.484992027282714844e+00,-8.031646609306335449e-01,0.000000000000000000e+00,3.250000000000000000e+02
-4.260813894047387294e+02,-2.900756477671934022e+02,-2.696908633041880421e+02,-2.703340326282476553e+02,-4.149539144845684291e+02,-4.082095980893057572e+02,-3.685116484663936376e+02,-3.052270559120308917e+02,9.484992027282714844e+00,-8.031646609306335449e-01,0.000000000000000000e+00,3.260000000000000000e+02
-4.335191484957438206e+02,-2.971659008442106824e+02,-2.778659898188591342e+02,-2.771134870305797904e+02,-4.212547667114195633e+02,-4.153832562786586777e+02,-3.765603678904486173e+02,-3.115749936670675311e+02,9.484992027282714844e+00,-8.031646609306335449e-01,0.000000000000000000e+00,3.270000000000000000e+02
-4.320065382908704237e+02,-2.953892617898449089e+02,-2.776107451788313938e+02,-2.731202969776451255e+02,-4.205132382573019640e+02,-4.138534294821336630e+02,-3.787164811856130200e+02,-3.071666103412264306e+02,9.484992027282714844e+00,-8.031646609306335449e-01,0.000000000000000000e+00,3.280000000000000000e+02
-4.218573591290602280e+02,-2.859955690590845165e+02,-2.689642863328348312e+02,-2.609999510176002104e+02,-4.131442327875404885e+02,-4.053288005291003628e+02,-3.740691146872664490e+02,-2.950856560105838184e+02,9.484992027282714844e+00,-8.031646609306335449e-01,0.000000000000000000e+00,3.290000000000000000e+02
-4.081728996598769754e+02,-2.737731945229108419e+02,-2.563747556696246761e+02,-2.473159537998846531e+02,-4.028977781182976514e+02,-3.948809192960532073e+02,-3.649974674439347950e+02,-2.819774605266985645e+02,9.484992027282714844e+00,-8.031646609306335449e-01,0.000000000000000000e+00,3.300000000000000000e+02
-3.970704105039631600e+02,-2.638102931169458429e+02,-2.455833669568060031e+02,-2.378802290476930352e+02,-3.940562037970041160e+02,-3.872848407021087382e+02,-3.554273353526821779e+02,-2.735364504769824521e+02,9.484992027282714844e+00,-8.031646609306335449e-01,0.000000000000000000e+00,3.310000000000000000e+02
-3.915598763143908627e+02,-2.584969451428189018e+02,-2.399952184545888940e+02,-2.341841323712740177e+02,-3.887758516434894887e+02,-3.840344432426893491e+02,-3.484195611062114040e+02,-2.711253395076257675e+02,9.484992027282714844e+00,-8.031646609306335449e-01,0.000000000000000000e+00,3.320000000000000000e+02
-3.902970755854493632e+02,-2.567978906777406110e+02,-2.391859150567719894e+02,-2.335175940985859029e+02,-3.865047773359190160e+02,-3.832321838780358121e+02,-3.447981159404130267e+02,-2.719450916577885096e+02,9.484992027282714844e+00,-8.031646609306335449e-01,0.000000000000000000e+00,3.330000000000000000e+02
-3.898358762531913726e+02,-2.559644619142464421e+02,-2.403005913784085124e+02,-2.322001263772804123e+02,-3.854802859803937736e+02,-3.820684238190542601e+02,-3.435180200429214210e+02,-2.722581650404040374e+02,9.484992027282714844e+00,-8.031646609306335449e-01,0.000000000000000000e+00,3.340000000000000000e+02
-3.880101789289806220e+02,-2.540402912989137576e+02,-2.407753395464493451e+02,-2.288808241846650731e+02,-3.846377891558630608e+02,-3.795126947184138544e+02,-3.430867212258231120e+02,-2.707123543095009381e+02,9.484992027282714844e+00,-8.031646609306335449e-01,0.000000000000000000e+00,3.350000000000000000e+02
-3.854448505389589172e+02,-2.511772791238531681e+02,-2.400693754538938265e+02,-2.252086984171620543e+02,-3.842598433543405463e+02,-3.769472605071748035e+02,-3.427569352776479832e+02,-2.689916869160921351e+02,9.484992027282714844e+00,-8.031646609306335449e-01,0.000000000000000000e+00,3.360000000000000000e+02
-3.842452894181518559e+02,-2.489952492071186896e+02,-2.393221278123165234e+02,-2.237424764263500947e+02,-3.850962323164984014e+02,-3.764685358717747476e+02,-3.426956288347225836e+02,-2.695453196319274980e+02,9.484992027282714844e+00,-8.031646609306335449e-01,0.000000000000000000e+00,3.370000000000000000e+02
-3.855590057285189687e+02,-2.488458940822467866e+02,-2.397531637926881558e+02,-2.253476717248209980e+02,-3.870968980705104627e+02,-3.786300507860878497e+02,-3.433239059484773179e+02,-2.727564233367011184e+02,9.484992027282714844e+00,-8.031646609306335449e-01,0.000000000000000000e+00,3.380000000000000000e+02
-3.884725210265154942e+02,-2.505878096174118639e+02,-2.414943431144122314e+02,-2.284702242993440677e+02,-3.890928385353305430e+02,-3.817293062968575441e+02,-3.446366152585046621e+02,-2.762618077662557425e+02,9.484992027282714844e+00,-8.031646609306335449e-01,0.000000000000000000e+00,3.390000000000000000e+02
-3.910675696847670224e+02,-2.528287366360361546e+02,-2.437589903939388591e+02,-2.306898004096167938e+02,-3.897132171533449991e+02,-3.832138744321202353e+02,-3.461253985535304309e+02,-2.769869260464819263e+02,9.484992027282714844e+00,-8.414105772972106934e-01,3.824593871831893921e-02,3.400000000000000000e+02
-3.922602121269354143e+02,-2.542148632901686369e+02,-2.457973648568992644e+02,-2.308544402099307149e+02,-3.886004382636865557e+02,-3.818545138557641963e+02,-3.472303148553911569e+02,-2.739052840656624994e+02,9.484992027282714844e+00,-8.414105772972106934e-01,3.824593871831893921e-02,3.410000000000000000e+02
-3.924488624700188666e+02,-2.544600544781836788e+02,-2.474307336435196021e+02,-2.297692053819487796e+02,-3.867023302517550292e+02,-3.787020240660285708e+02,-3.477315033115108918e+02,-2.689178640230368273e+02,9.484992027282714844e+00,-8.414105772972106934e-01,3.824593871831893921e-02,3.420000000000000000e+02
-3.924183731162035542e+02,-2.541905756398805352e+02,-2.486070213955786130e+02,-2.289567542684525279e+02,-3.852871492433191634e+02,-3.760170576969032936e+02,-3.476358041650923951e+02,-2.650616894235184873e+02,9.484992027282714844e+00,-8.414105772972106934e-01,3.824593871831893921e-02,3.430000000000000000e+02
-3.918941228660999059e+02,-2.539213739852484082e+02,-2.486739756905360537e+02,-2.288920452016682248e+02,-3.845949549032616233e+02,-3.752362440733455742e+02,-3.467594099285414586e+02,-2.638196521368449226e+02,9.484992027282714844e+00,-8.414105772972106934e-01,3.824593871831893921e-02,3.440000000000000000e+02
-3.895626502845085497e+02,-2.533748812664283037e+02,-2.465286085799066882e+02,-2.285455659472261232e+02,-3.835145476571093468e+02,-3.758796886063774991e+02,-3.446565279876341492e+02,-2.641272990142224444e+02,9.484992027282714844e+00,-8.414105772972106934e-01,3.824593871831893921e-02,3.450000000000000000e+02
-3.847439454911400958e+02,-2.519267821767481337e+02,-2.418471196898294693e+02,-2.266505481151399408e+02,-3.807417505331446819e+02,-3.763382783208810451e+02,-3.411850939930480990e+02,-2.639268713780962230e+02,9.484992027282714844e+00,-8.414105772972106934e-01,3.824593871831893921e-02,3.460000000000000000e+02
-3.789807749131102810e+02,-2.496925578405719648e+02,-2.362345144736499378e+02,-2.233479112171766019e+02,-3.764010909505415157e+02,-3.756594167251321323e+02,-3.371918126317061706e+02,-2.626050950030481772e+02,9.484992027282714844e+00,-8.414105772972106934e-01,3.824593871831893921e-02,3.470000000000000000e+02
-3.755836046838039692e+02,-2.479541063500452083e+02,-2.328061137920159922e+02,-2.204323402585227427e+02,-3.724602739592603484e+02,-3.744986191327261622e+02,-3.344043029623802568e+02,-2.617423364402536663e+02,9.484992027282714844e+00,-8.414105772972106934e-01,3.824593871831893921e-02,3.480000000000000000e+02
-3.770445142268584391e+02,-2.482007825801365470e+02,-2.340026915823641502e+02,-2.197666258033530653e+02,-3.712488334641152505e+02,-3.742573530851066153e+02,-3.342414517082099792e+02,-2.632795843918889318e+02,9.484992027282714844e+00,-8.414105772972106934e-01,3.824593871831893921e-02,3.490000000000000000e+02
-3.825079727490734740e+02,-2.505706907379607173e+02,-2.393052543603772619e+02,-2.213152622068306528e+02,-3.732449493168975323e+02,-3.753024624784382013e+02,-3.364408340282952850e+02,-2.669216664608795782e+02,9.484992027282714844e+00,-8.414105772972106934e-01,3.824593871831893921e-02,3.500000000000000000e+02
-3.878474450713806618e+02,-2.533446425657109558e+02,-2.450587990865121810e+02,-2.228173108417490766e+02,-3.762331026382089476e+02,-3.761942850439536414e+02,-3.388902224969114059e+02,-2.696259605223045810e+02,9.484992027282714844e+00,-8.414105772972106934e-01,3.824593871831893921e-02,3.510000000000000000e+02
-3.887732900017779230e+02,-2.543362215329461833e+02,-2.470565065982436863e+02,-2.217373098102406175e+02,-3.769036519764413242e+02,-3.749515786542129945e+02,-3.391562700734068585e+02,-2.681722782847490407e+02,9.484992027282714844e+00,-8.414105772972106934e-01,3.824593871831893921e-02,3.520000000000000000e+02
-3.845746753640971178e+02,-2.531576848601529832e+02,-2.440504335704172263e+02,-2.179495884671192698e+02,-3.737374343220054698e+02,-3.713307802655770047e+02,-3.366119395669602454e+02,-2.627042527075022349e+02,9.484992027282714844e+00,-8.414105772972106934e-01,3.824593871831893921e-02,3.530000000000000000e+02
-3.791664188856466353e+02,-2.521842345335920186e+02,-2.391831481485951372e+02,-2.146295531910601539e+02,-3.686206572263504313e+02,-3.678521888747316098e+02,-3.332751449194945508e+02,-2.576997067653651925e+02,9.484992027282714844e+00,-8.414105772972106934e-01,3.824593871831893921e-02,3.540000000000000000e+02
-3.781351197586997159e+02,-2.548931686301324930e+02,-2.377511968392342396e+02,-2.160792948029312583e+02,-3.655248082393674167e+02,-3.681786880594695504e+02,-3.323816847217817667e+02,-2.587510832355528692e+02,9.484992027282714844e+00,-8.414105772972106934e-01,3.824593871831893921e-02,3.550000000000000000e+02
-3.839978694355240805e+02,-2.626431468833249028e+02,-2.428411720921545793e+02,-2.239383998133316140e+02,-3.671698521181342585e+02,-3.738992109940214732e+02,-3.357022553533714699e+02,-2.675158954761383256e+02,9.484992027282714844e+00,-8.414105772972106934e-01,3.824593871831893921e-02,3.560000000000000000e+02
-3.936551277250414387e+02,-2.726522421157285407e+02,-2.523979518642238418e+02,-2.349451597522696034e+02,-3.724788132486024779e+02,-3.824774311998467056e+02,-3.418242017742611552e+02,-2.793266393340438754e+02,9.484992027282714844e+00,-8.414105772972106934e-01,3.824593871831893921e-02,3.570000000000000000e+02
-4.003320136931040452e+02,-2.792125792133028881e+02,-2.602838399164922976e+02,-2.424528105349363045e+02,-3.770695433609758993e+02,-3.883949329720305741e+02,-3.468890911551029603e+02,-2.860165799649264500e+02,9.484992027282714844e+00,-8.414105772972106934e-01,3.824593871831893921e-02,3.580000000000000000e+02
-3.985746239811312535e+02,-2.775603328399816974e+02,-2.606643284569286152e+02,-2.409388106904517599e+02,-3.764992972633915542e+02,-3.869124221320495280e+02,-3.472789350676300728e+02,-2.820401372416824870e+02,9.484992027282714844e+00,-8.414105772972106934e-01,3.824593871831893921e-02,3.590000000000000000e+02
-3.882215358986386491e+02,-2.674391797855267896e+02,-2.522326757306555010e+02,-2.301060800061338796e+02,-3.696134189063428721e+02,-3.775519747295961679e+02,-3.421360942666469782e+02,-2.688173771967120729e+02,9.484992027282714844e+00,-8.414105772972106934e-01,3.824593871831893921e-02,3.600000000000000000e+02
-3.741377298966301623e+02,-2.534284244555087184e+02,-2.389042403475178844e+02,-2.152388846848830326e+02,-3.592423821240898860e+02,-3.644574345277701468e+02,-3.337621568291262975e+02,-2.535371215730973518e+02,9.484992027282714844e+00,-8.414105772972106934e-01,3.824593871831893921e-02,3.610000000000000000e+02
-3.621360960050499216e+02,-2.416590378032059903e+02,-2.265700501195879042e+02,-2.033797010345278977e+02,-3.497532217620737356e+02,-3.532838755562599999e+02,-3.256859616400571440e+02,-2.433889371389000189e+02,9.484992027282714844e+00,-8.414105772972106934e-01,3.824593871831893921e-02,3.620000000000000000e+02
-3.547372120521259831e+02,-2.355496617279996485e+02,-2.187898093419353245e+02,-1.983368788882365834e+02,-3.436425414713301052e+02,-3.471547286253232869e+02,-3.200724561900653953e+02,-2.402360272391331364e+02,9.484992027282714844e+00,-8.414105772972106934e-01,3.824593871831893921e-02,3.630000000000000000e+02
-3.503727279938665333e+02,-2.340166262094541025e+02,-2.150371080970207913e+02,-1.985276501234469606e+02,-3.401042725494605747e+02,-3.449827817388404583e+02,-3.165969005917654613e+02,-2.402902834452427214e+02,9.484992027282714844e+00,-8.414105772972106934e-01,3.824593871831893921e-02,3.640000000000000000e+02
-3.464201723074914980e+02,-2.335191264331966750e+02,-2.127001578509790534e+02,-1.993041581221625620e+02,-3.367020672770199781e+02,-3.434153462506280903e+02,-3.135926821937312070e+02,-2.388008689590565155e+02,9.484992027282714844e+00,-8.414105772972106934e-01,3.824593871831893921e-02,3.650000000000000000e+02
-3.430194843318859057e+02,-2.320514536847710474e+02,-2.107289733685263400e+02,-1.976567545941409207e+02,-3.325278994519270555e+02,-3.405749246359071094e+02,-3.103510664339783034e+02,-2.353340325327960727e+02,9.484992027282714844e+00,-8.414105772972106934e-01,3.824593871831893921e-02,3.660000000000000000e+02
-3.439845787196936726e+02,-2.315521308118422894e+02,-2.114675965657681900e+02,-1.952091969470228605e+02,-3.299026675450467110e+02,-3.382492769281067240e+02,-3.084869773809389244e+02,-2.347999119141272786e+02,9.484992027282714844e+00,-8.414105772972106934e-01,3.824593871831893921e-02,3.670000000000000000e+02
-3.538002379007749596e+02,-2.365878947221607973e+02,-2.189337238792237486e+02,-1.969399868187231277e+02,-3.329413561652852422e+02,-3.405598076333501467e+02,-3.110747588244564668e+02,-2.432748825142707574e+02,9.484992027282714844e+00,-8.414105772972106934e-01,3.824593871831893921e-02,3.680000000000000000e+02
-3.732356607763597367e+02,-2.503823564354560176e+02,-2.350136806769880877e+02,-2.067712989042502159e+02,-3.440621461383784663e+02,-3.502406840955460439e+02,-3.201675496113671215e+02,-2.622945896622502460e+02,9.484992027282714844e+00,-8.414105772972106934e-01,3.824593871831893921e-02,3.690000000000000000e+02
-3.973791469725571233e+02,-2.715108598404150939e+02,-2.568457099467474336e+02,-2.237923818406916325e+02,-3.613393198150298531e+02,-3.657206049218722228e+02,-3.347134487944897501e+02,-2.864971810318223788e+02,9.484992027282714844e+00,-8.414105772972106934e-01,3.824593871831893921e-02,3.700000000000000000e+02
-4.178874954023217470e+02,-2.939799956270472308e+02,-2.776310488082954180e+02,-2.422501616177978576e+02,-3.789386408646746531e+02,-3.814966742871749830e+02,-3.505924841072928757e+02,-3.065297728089308293e+02,9.523238182067871094e+00,-8.414105772972106934e-01,0.000000000000000000e+00,3.710000000000000000e+02
-4.277692447119260351e+02,-3.105824222457266046e+02,-2.902985906301302066e+02,-2.551942936154912331e+02,-3.903483440074387545e+02,-3.914887462811639125e+02,-3.627877119712061358e+02,-3.147846394677973194e+02,9.523238182067871094e+00,-8.414105772972106934e-01,0.000000000000000000e+00,3.720000000000000000e+02
-4.251221142283799281e+02,-3.168667488680880524e+02,-2.912954640755092441e+02,-2.587323713448552098e+02,-3.919532098082272569e+02,-3.926622855687797937e+02,-3.680396827049428339e+02,-3.095683333871260174e+02,9.523238182067871094e+00,-8.414105772972106934e-01,0.000000000000000000e+00,3.730000000000000000e+02
-4.133718366263730104e+02,-3.129330400761630244e+02,-2.820040341779231312e+02,-2.537220268619898889e+02,-3.845063477054292207e+02,-3.862711529500950292e+02,-3.661468125300500560e+02,-2.950855835987101727e+02,9.523238182067871094e+00,-8.414105772972106934e-01,0.000000000000000000e+00,3.740000000000000000e+02
-3.984209401917520381e+02,-3.023267539735579703e+02,-2.672878203707216471e+02,-2.441478822097271859e+02,-3.719191520476060759e+02,-3.762467198545712108e+02,-3.593384391840077114e+02,-2.780688274987553541e+02,9.523238182067871094e+00,-8.414105772972106934e-01,0.000000000000000000e+00,3.750000000000000000e+02
-3.851502165689187223e+02,-2.894874791987748495e+02,-2.525871457342852864e+02,-2.340430619424221277e+02,-3.586924631179051630e+02,-3.664352476468334316e+02,-3.505837036375717162e+02,-2.639646068191608492e+02,9.523238182067871094e+00,-8.414105772972106934e-01,0.000000000000000000e+00,3.760000000000000000e+02
-3.755592532812883064e+02,-2.777302245177147597e+02,-2.414777386284223439e+02,-2.254527081923511105e+02,-3.478215448568485044e+02,-3.587926307529235146e+02,-3.421539221998395988e+02,-2.550296285685242310e+02,9.523238182067871094e+00,-8.414105772972106934e-01,0.000000000000000000e+00,3.770000000000000000e+02
-3.690545011941435405e+02,-2.685870961099913075e+02,-2.347156534705934519e+02,-2.184235984058118447e+02,-3.400788136105563808e+02,-3.532794720248941758e+02,-3.350882826509414372e+02,-2.505956351812701541e+02,9.523238182067871094e+00,-8.414105772972106934e-01,0.000000000000000000e+00,3.780000000000000000e+02
-3.638862767369422500e+02,-2.620883607247985765e+02,-2.307550456639351069e+02,-2.121955905605709631e+02,-3.344833258534631568e+02,-3.487852926155921978e+02,-3.293839706948506318e+02,-2.484110285755584755e+02,9.523238182067871094e+00,-8.414105772972106934e-01,0.000000000000000000e+00,3.790000000000000000e+02
-3.585408532754579483e+02,-2.573301621504682544e+02,-2.271953182167799241e+02,-2.062554100678569284e+02,-3.293713291383460273e+02,-3.441132623279331710e+02,-3.244797326136938409e+02,-2.460518304420154436e+02,9.523238182067871094e+00,-8.414105772972106934e-01,0.000000000000000000e+00,3.800000000000000000e+02
-3.525279896903394956e+02,-2.531238128444026643e+02,-2.224303897626426760e+02,-2.006322808578797776e+02,-3.235513673036089131e+02,-3.386199402916727195e+02,-3.197752226337202046e+02,-2.420425557018322706e+02,9.523238182067871094e+00,-8.414105772972106934e-01,0.000000000000000000e+00,3.810000000000000000e+02
-3.465083701060196972e+02,-2.487437469120103515e+02,-2.166689360602484840e+02,-1.956858245520629680e+02,-3.170789333309296580e+02,-3.325448695086079169e+02,-3.150621310976243876e+02,-2.365411185038026360e+02,9.523238182067871094e+00,-8.414105772972106934e-01,0.000000000000000000e+00,3.820000000000000000e+02
-3.417642573864735596e+02,-2.444398682530438691e+02,-2.116241231060428163e+02,-1.917888048739592932e+02,-3.111828441506081617e+02,-3.269358493739664482e+02,-3.106535476698977618e+02,-2.311898085992265806e+02,9.523238182067871094e+00,-8.414105772972106934e-01,0.000000000000000000e+00,3.830000000000000000e+02
-3.391304933338217324e+02,-2.411502327981914959e+02,-2.089282327000514670e+02,-1.890031891122567913e+02,-3.072397413888438678e+02,-3.229613223201934034e+02,-3.070209540983428269e+02,-2.279098426679641989e+02,9.523238182067871094e+00,-8.414105772972106934e-01,0.000000000000000000e+00,3.840000000000000000e+02
-3.380357679687014070e+02,-2.394627759391612472e+02,-2.084800156972146397e+02,-1.868487347841272594e+02,-3.055343864019628199e+02,-3.209140341710674420e+02,-3.041907101914166560e+02,-2.273765992860440974e+02,9.523238182067871094e+00,-8.414105772972106934e-01,0.000000000000000000e+00,3.850000000000000000e+02
-3.366264487838498098e+02,-2.387901570694951943e+02,-2.082992723376855793e+02,-1.844827813644600383e+02,-3.049637566978587984e+02,-3.198268861372353058e+02,-3.015428631620920896e+02,-2.285585944338013178e+02,9.523238182067871094e+00,-8.414105772972106934e-01,0.000000000000000000e+00,3.860000000000000000e+02
-3.332985879533731577e+02,-2.377826823772286389e+02,-2.063234969765912865e+02,-1.814886450916280864e+02,-3.041431323334286390e+02,-3.183792783555536516e+02,-2.984012112104896914e+02,-2.299728372061435948e+02,9.523238182067871094e+00,-8.414105772972106934e-01,0.000000000000000000e+00,3.870000000000000000e+02
-3.285574974029176474e+02,-2.358280813682140433e+02,-2.026906017890239582e+02,-1.787845240591992706e+02,-3.029866132297249806e+02,-3.165076781850998486e+02,-2.949784047410798848e+02,-2.315652770873923600e+02,9.523238182067871094e+00,-8.414105772972106934e-01,0.000000000000000000e+00,3.880000000000000000e+02
-3.253077073029003259e+02,-2.341374553196712895e+02,-2.002050300515948038e+02,-1.785601797399523321e+02,-3.030997491164716848e+02,-3.160381525773807425e+02,-2.926539491157236625e+02,-2.351029192266101973e+02,9.523238182067871094e+00,-8.414105772972106934e-01,0.000000000000000000e+00,3.890000000000000000e+02
-3.267098795788372172e+02,-2.349962213400808650e+02,-2.020778929405594226e+02,-1.826655273307002290e+02,-3.062535924114922636e+02,-3.192136087461838088e+02,-2.929926979303486405e+02,-2.421370684494296484e+02,9.523238182067871094e+00,-8.414105772972106934e-01,0.000000000000000000e+00,3.900000000000000000e+02
-3.330568641543377453e+02,-2.394967551372542403e+02,-2.086606082526996033e+02,-1.904350794935980957e+02,-3.121201845360894822e+02,-3.260414000647926969e+02,-2.961350190301100156e+02,-2.512115997132929124e+02,9.523238182067871094e+00,-8.414105772972106934e-01,0.000000000000000000e+00,3.910000000000000000e+02
-3.404792727130741241e+02,-2.458091211135543972e+02,-2.162002979276803671e+02,-1.979656311376937765e+02,-3.174553601296011038e+02,-3.329642330628576019e+02,-3.000061457448430247e+02,-2.573048966127341828e+02,9.561484336853027344e+00,-8.414105772972106934e-01,7.649187743663787842e-02,3.920000000000000000e+02
-3.430632741327299300e+02,-2.498545359688914687e+02,-2.191129750940508529e+02,-2.000434740941102518e+02,-3.178438442073668284e+02,-3.345962145132982641e+02,-3.012758837227415825e+02,-2.548167478202271923e+02,9.561484336853027344e+00,-8.414105772972106934e-01,7.649187743663787842e-02,3.930000000000000000e+02
-3.370364251392475126e+02,-2.481552169931659364e+02,-2.141398293708948586e+02,-1.936677301400984561e+02,-3.108368180375298380e+02,-3.275664259782561203e+02,-2.975294558723308000e+02,-2.420427244797542699e+02,9.561484336853027344e+00,-8.414105772972106934e-01,7.649187743663787842e-02,3.940000000000000000e+02
-3.237171548388084830e+02,-2.406018826100248589e+02,-2.029525457026238655e+02,-1.804788003349874543e+02,-2.979700681463402816e+02,-3.133949812952669163e+02,-2.890316453875393563e+02,-2.233090262248717863e+02,9.561484336853027344e+00,-8.414105772972106934e-01,7.649187743663787842e-02,3.950000000000000000e+02
-3.088769640975715447e+02,-2.308593745596245981e+02,-1.910822087977517185e+02,-1.660715667552785817e+02,-2.840158224401586722e+02,-2.979151277138641944e+02,-2.787498352410625557e+02,-2.067154267570535922e+02,9.561484336853027344e+00,-8.414105772972106934e-01,7.649187743663787842e-02,3.960000000000000000e+02
-2.991310918500914795e+02,-2.241271796460723635e+02,-1.842028221487346400e+02,-1.566758523919954769e+02,-2.741028079179018278e+02,-2.876386600388868828e+02,-2.706593818346200351e+02,-1.991772344609237280e+02,9.561484336853027344e+00,-8.414105772972106934e-01,7.649187743663787842e-02,3.970000000000000000e+02
-2.981641321665947544e+02,-2.240410069302139391e+02,-1.848076670907694279e+02,-1.556846508572255061e+02,-2.709246719424982075e+02,-2.859205475587805267e+02,-2.675642627120928410e+02,-2.025997765371839705e+02,9.561484336853027344e+00,-8.414105772972106934e-01,7.649187743663787842e-02,3.980000000000000000e+02
-3.052146698639544411e+02,-2.308208429987544150e+02,-1.914871882335703503e+02,-1.622993771319123653e+02,-2.738425900810827898e+02,-2.916423017596778209e+02,-2.697899145855519691e+02,-2.136934612592785925e+02,9.561484336853027344e+00,-8.414105772972106934e-01,7.649187743663787842e-02,3.990000000000000000e+02
-3.161104698281387755e+02,-2.414410261791733774e+02,-2.005431768511477912e+02,-1.726377130775981641e+02,-2.799565761429012127e+02,-3.007591702079405422e+02,-2.752960162135841529e+02,-2.267081452356208047e+02,9.561484336853027344e+00,-8.414105772972106934e-01,7.649187743663787842e-02,4.000000000000000000e+02
-3.255599413963407187e+02,-2.512379087672268270e+02,-2.081293798255574075e+02,-1.820010068233855236e+02,-2.858955167357573828e+02,-3.089253803502322171e+02,-2.808623316489979516e+02,-2.365269931427108077e+02,9.561484336853027344e+00,-8.414105772972106934e-01,7.649187743663787842e-02,4.010000000000000000e+02
-3.294423524146477575e+02,-2.560338824754719553e+02,-2.116476488331220480e+02,-1.869202263673587368e+02,-2.891725548842427997e+02,-3.133236919877915625e+02,-2.836511389217405394e+02,-2.404018814651144567e+02,9.561484336853027344e+00,-8.414105772972106934e-01,7.649187743663787842e-02,4.020000000000000000e+02
-3.265290834401023403e+02,-2.541042781478849975e+02,-2.104206153705511042e+02,-1.864212100033548722e+02,-2.888467193351468723e+02,-3.132249109159972704e+02,-2.825126272562895338e+02,-2.383976951366071262e+02,9.561484336853027344e+00,-8.414105772972106934e-01,7.649187743663787842e-02,4.030000000000000000e+02
-3.191965818813130227e+02,-2.472959697877726057e+02,-2.060014278059886692e+02,-1.824061083366702860e+02,-2.857259851114131379e+02,-3.098592819891150612e+02,-2.785246739412905299e+02,-2.332039671813872701e+02,9.561484336853027344e+00,-8.414105772972106934e-01,7.649187743663787842e-02,4.040000000000000000e+02
-3.124439410147917897e+02,-2.404374198449322648e+02,-2.018115336095836483e+02,-1.789011362268429366e+02,-2.821122846889777520e+02,-3.059594626725297530e+02,-2.744403696258921173e+02,-2.292367463499440419e+02,9.561484336853027344e+00,-8.414105772972106934e-01,7.649187743663787842e-02,4.050000000000000000e+02
-3.110450652317779259e+02,-2.387309254222426489e+02,-2.015080969757727871e+02,-1.799945612632175198e+02,-2.807845976604944553e+02,-3.046776436956793077e+02,-2.731362883063179652e+02,-2.305629753807334055e+02,9.561484336853027344e+00,-8.414105772972106934e-01,7.649187743663787842e-02,4.060000000000000000e+02
-3.163063511166039916e+02,-2.443808125002635734e+02,-2.065845265738519174e+02,-1.872829376934782886e+02,-2.833837385682868444e+02,-3.078458530805389728e+02,-2.758548699648304137e+02,-2.383154197693465903e+02,9.561484336853027344e+00,-8.414105772972106934e-01,7.649187743663787842e-02,4.070000000000000000e+02
-3.250383591158906711e+02,-2.549656644761834059e+02,-2.151044680551292458e+02,-1.986815839113851325e+02,-2.892541196713277714e+02,-3.146355133231563741e+02,-2.814630540874838971e+02,-2.496622884855701159e+02,9.561484336853027344e+00,-8.414105772972106934e-01,7.649187743663787842e-02,4.080000000000000000e+02
-3.321531572730307289e+02,-2.652890055343857512e+02,-2.231923373261927281e+02,-2.099982769646173892e+02,-2.959760058413421575e+02,-3.221009642881745094e+02,-2.874677579997351131e+02,-2.599035606613804248e+02,9.561484336853027344e+00,-8.414105772972106934e-01,7.649187743663787842e-02,4.090000000000000000e+02
-3.351633767705297942e+02,-2.716471868468202047e+02,-2.285398105204394597e+02,-2.184478412207993188e+02,-3.015840879330467033e+02,-3.277203709083087233e+02,-2.921964928218433215e+02,-2.665427746265095266e+02,9.561484336853027344e+00,-8.414105772972106934e-01,7.649187743663787842e-02,4.100000000000000000e+02
-3.366985887156765784e+02,-2.749876956311229605e+02,-2.328985527530933268e+02,-2.251969696108153585e+02,-3.067086790551716149e+02,-3.319201982831632449e+02,-2.963954134499913380e+02,-2.718125431238343026e+02,9.561484336853027344e+00,-8.414105772972106934e-01,7.649187743663787842e-02,4.110000000000000000e+02
-3.424584450067216039e+02,-2.799747780865704954e+02,-2.409229203918221174e+02,-2.344100878770004783e+02,-3.144790243323620871e+02,-3.380316721486876759e+02,-3.027353322228559591e+02,-2.809282450690045607e+02,9.561484336853027344e+00,-8.414105772972106934e-01,7.649187743663787842e-02,4.120000000000000000e+02
-3.559674657362102153e+02,-2.904455895552598577e+02,-2.558490367024787702e+02,-2.491931068874519042e+02,-3.277270129898577125e+02,-3.491579728838139545e+02,-3.133617634074553280e+02,-2.970155789962425388e+02,9.561484336853027344e+00,-8.414105772972106934e-01,7.649187743663787842e-02,4.130000000000000000e+02
-3.745599372117756047e+02,-3.051437440217529229e+02,-2.755919815891081726e+02,-2.678130748825067258e+02,-3.455731300152485801e+02,-3.644304147808879861e+02,-3.274001990798533370e+02,-3.169674084968269199e+02,9.561484336853027344e+00,-8.414105772972106934e-01,7.649187743663787842e-02,4.140000000000000000e+02
-3.901917535318514183e+02,-3.176361126321318125e+02,-2.928423457722033163e+02,-2.836692450824350544e+02,-3.624590296321146070e+02,-3.781313331695691886e+02,-3.405933939488243141e+02,-3.320872907574075725e+02,9.561484336853027344e+00,-8.414105772972106934e-01,7.649187743663787842e-02,4.150000000000000000e+02
-3.946022542326072653e+02,-3.207536851970559155e+02,-2.994440589381997597e+02,-2.894112314860665265e+02,-3.709237519661132865e+02,-3.829286521377707686e+02,-3.476058790119952846e+02,-3.334791967001369812e+02,9.561484336853027344e+00,-8.414105772972106934e-01,7.649187743663787842e-02,4.160000000000000000e+02
-3.847823639025195916e+02,-3.119539642137802957e+02,-2.917524052412366018e+02,-2.820665561290641108e+02,-3.663316919630237862e+02,-3.749048692684309572e+02,-3.453686496526038354e+02,-3.181741707644509916e+02,9.446745872497558594e+00,-8.796565532684326172e-01,0.000000000000000000e+00,4.170000000000000000e+02
-3.646749990961438925e+02,-2.952198756859743298e+02,-2.729157736393783580e+02,-2.651613988178858108e+02,-3.500114907148517887e+02,-3.564109493867845231e+02,-3.349869495324373929e+02,-2.913661691916042855e+02,9.446745872497558594e+00,-8.796565532684326172e-01,0.000000000000000000e+00,4.180000000000000000e+02
-3.422926407737600130e+02,-2.781517669478816970e+02,-2.506529562422906565e+02,-2.463548612160373068e+02,-3.284783166419672398e+02,-3.345772967719610733e+02,-3.209152612638044957e+02,-2.632910874195665656e+02,9.446745872497558594e+00,-8.796565532684326172e-01,0.000000000000000000e+00,4.190000000000000000e+02
-3.248727855301137879e+02,-2.668682758428825537e+02,-2.325814652314500108e+02,-2.326685419334594371e+02,-3.094839328921200376e+02,-3.168495443843817156e+02,-3.082171711924434021e+02,-2.432930173588558773e+02,9.446745872497558594e+00,-8.796565532684326172e-01,0.000000000000000000e+00,4.200000000000000000e+02
-3.154982728744762426e+02,-2.627172347349865049e+02,-2.225101189325487212e+02,-2.268811115011374113e+02,-2.978505548725042900e+02,-3.069850512181651538e+02,-2.999272241489838962e+02,-2.352058706199593416e+02,9.446745872497558594e+00,-8.796565532684326172e-01,0.000000000000000000e+00,4.210000000000000000e+02
-3.128059443569920859e+02,-2.627680189804981410e+02,-2.197114174337125405e+02,-2.271994136467199041e+02,-2.937571607668608067e+02,-3.040437096575860778e+02,-2.960776443758468304e+02,-2.366017914687429311e+02,9.446745872497558594e+00,-8.796565532684326172e-01,0.000000000000000000e+00,4.220000000000000000e+02
-3.130155676442532240e+02,-2.628491253204397253e+02,-2.207373434975033888e+02,-2.295828619446258472e+02,-2.939730029565705536e+02,-3.042585017324695400e+02,-2.945278221109683727e+02,-2.414982296650198350e+02,9.446745872497558594e+00,-8.796565532684326172e-01,0.000000000000000000e+00,4.230000000000000000e+02
-3.124401586065444008e+02,-2.603603832844971748e+02,-2.219300220243856074e+02,-2.305081488485593582e+02,-2.945085107713814523e+02,-3.037821433303508911e+02,-2.926359804173080192e+02,-2.441682469773181765e+02,9.446745872497558594e+00,-8.796565532684326172e-01,0.000000000000000000e+00,4.240000000000000000e+02
-3.091195174913068513e+02,-2.550844410015722588e+02,-2.210892112635385729e+02,-2.284403832059354045e+02,-2.927702768893886969e+02,-3.004488379975261978e+02,-2.887030338013028086e+02,-2.417743961529156422e+02,9.446745872497558594e+00,-8.796565532684326172e-01,0.000000000000000000e+00,4.250000000000000000e+02
-3.032192531419507304e+02,-2.482857781677940920e+02,-2.178938414622587061e+02,-2.237973846140928345e+02,-2.883084168157345175e+02,-2.940927738018419859e+02,-2.826356752595434045e+02,-2.349151329525261644e+02,9.446745872497558594e+00,-8.796565532684326172e-01,0.000000000000000000e+00,4.260000000000000000e+02
-2.964439769609859923e+02,-2.415037670099542311e+02,-2.134616354064191910e+02,-2.181743362338245333e+02,-2.823699892809897847e+02,-2.860301345242185107e+02,-2.757658026570475158e+02,-2.264926295380091688e+02,9.446745872497558594e+00,-8.796565532684326172e-01,0.000000000000000000e+00,4.270000000000000000e+02
-2.909031109235231725e+02,-2.359786973556329031e+02,-2.095256456652427914e+02,-2.135319860334018358e+02,-2.769086197409319539e+02,-2.783204557063781976e+02,-2.700314314856987039e+02,-2.198750896570611530e+02,9.446745872497558594e+00,-8.796565532684326172e-01,0.000000000000000000e+00,4.280000000000000000e+02
-2.879259499497454726e+02,-2.325880031033620980e+02,-2.075042756380660194e+02,-2.114795645575259186e+02,-2.735436993393302600e+02,-2.729377065858914193e+02,-2.668956273923190565e+02,-2.172142320303337328e+02,9.446745872497558594e+00,-8.796565532684326172e-01,0.000000000000000000e+00,4.290000000000000000e+02
-2.873678895772832220e+02,-2.317200551534738224e+02,-2.077221152111683296e+02,-2.125965441387038481e+02,-2.727809239044813694e+02,-2.708901582993671582e+02,-2.665462658061733237e+02,-2.185048459027386798e+02,9.446745872497558594e+00,-8.796565532684326172e-01,0.000000000000000000e+00,4.300000000000000000e+02
-2.877755893203529922e+02,-2.329573217615186422e+02,-2.091363240471068821e+02,-2.160266641257353513e+02,-2.737790172881395847e+02,-2.716489638791820198e+02,-2.678332376726575603e+02,-2.217125441780460733e+02,9.446745872497558594e+00,-8.796565532684326172e-01,0.000000000000000000e+00,4.310000000000000000e+02
-2.873361483518062869e+02,-2.350284136355908231e+02,-2.098533817107181676e+02,-2.197939125260957098e+02,-2.748575459327012140e+02,-2.734077094422841583e+02,-2.689758865679636983e+02,-2.239622008660610391e+02,9.446745872497558594e+00,-8.796565532684326172e-01,0.000000000000000000e+00,4.320000000000000000e+02
-2.850944787460957741e+02,-2.364567161427487463e+02,-2.083335826630632255e+02,-2.219493244984528246e+02,-2.745886985079296210e+02,-2.742469513949595239e+02,-2.685874675504601328e+02,-2.232892771417687072e+02,9.446745872497558594e+00,-8.796565532684326172e-01,0.000000000000000000e+00,4.330000000000000000e+02
-2.817333601277857724e+02,-2.366512155919094766e+02,-2.046462222773236590e+02,-2.219211367844891356e+02,-2.728551831581357874e+02,-2.734980176390704401e+02,-2.663995108757162598e+02,-2.199768158179865623e+02,9.446745872497558594e+00,-8.796565532684326172e-01,0.000000000000000000e+00,4.340000000000000000e+02
-2.793845575760014981e+02,-2.365493908551977711e+02,-2.008739644488059639e+02,-2.210444278950899388e+02,-2.711394337024885317e+02,-2.722801470267777404e+02,-2.633465400194286303e+02,-2.165220222090638345e+02,9.446745872497558594e+00,-8.796565532684326172e-01,0.000000000000000000e+00,4.350000000000000000e+02
-2.804234828868675322e+02,-2.380674671877588935e+02,-2.001201937228781844e+02,-2.216833393498363876e+02,-2.717039638120204472e+02,-2.726865890754042994e+02,-2.610484202049606210e+02,-2.160330870075733856e+02,9.446745872497558594e+00,-8.796565532684326172e-01,0.000000000000000000e+00,4.360000000000000000e+02
-2.858325443789167366e+02,-2.425594111936234185e+02,-2.045025817518221629e+02,-2.254323955475965704e+02,-2.760733391249941633e+02,-2.761283814949442785e+02,-2.609690114442551021e+02,-2.200198496472683019e+02,9.446745872497558594e+00,-8.796565532684326172e-01,0.000000000000000000e+00,4.370000000000000000e+02
-2.941205619103384379e+02,-2.494044392983435046e+02,-2.133968330003651772e+02,-2.317033243041141759e+02,-2.837792013806520117e+02,-2.820271843189466381e+02,-2.635869891929746700e+02,-2.271196723309160461e+02,9.446745872497558594e+00,-8.796565532684326172e-01,0.000000000000000000e+00,4.380000000000000000e+02
-3.016508483330633226e+02,-2.559042757643408095e+02,-2.232710576889478489e+02,-2.378137779694448000e+02,-2.922598441753953011e+02,-2.878369154163192434e+02,-2.679428146282575653e+02,-2.337413342069960436e+02,9.446745872497558594e+00,-8.796565532684326172e-01,0.000000000000000000e+00,4.390000000000000000e+02
-3.044660084331953840e+02,-2.587578126612766027e+02,-2.294996081789258824e+02,-2.406178909299494535e+02,-2.981107579558079124e+02,-2.904595680352217641e+02,-2.719158983213719694e+02,-2.362494729983518482e+02,9.446745872497558594e+00,-8.796565532684326172e-01,0.000000000000000000e+00,4.400000000000000000e+02
-3.005591641483633794e+02,-2.561054718387902085e+02,-2.290436073805274191e+02,-2.385075184540889950e+02,-2.989216103426615518e+02,-2.880918857281408236e+02,-2.732393329887872824e+02,-2.331181855806503336e+02,9.446745872497558594e+00,-8.796565532684326172e-01,0.000000000000000000e+00,4.410000000000000000e+02
-2.910336030945222774e+02,-2.486121517278454576e+02,-2.221245810007446835e+02,-2.323071757095826797e+02,-2.944915390890341769e+02,-2.812181673100617445e+02,-2.707163892043149644e+02,-2.255539847699408256e+02,9.446745872497558594e+00,-8.796565532684326172e-01,0.000000000000000000e+00,4.420000000000000000e+02
-2.793008260476419764e+02,-2.388375107850090444e+02,-2.117650785891921714e+02,-2.244841972425429049e+02,-2.866832854800913992e+02,-2.721237958086035178e+02,-2.648397289061949778e+02,-2.163546437377722214e+02,9.446745872497558594e+00,-8.796565532684326172e-01,0.000000000000000000e+00,4.430000000000000000e+02
-2.689523924624534175e+02,-2.295408373633317751e+02,-2.017432706298955054e+02,-2.174469716514379343e+02,-2.782027912435710277e+02,-2.634100514412007215e+02,-2.573936473479257074e+02,-2.081240207497050960e+02,9.523238182067871094e+00,-7.649186849594116211e-01,0.000000000000000000e+00,4.440000000000000000e+02
-2.619378606167679209e+02,-2.223253501279848479e+02,-1.946276884164894909e+02,-2.123086057095779324e+02,-2.712979151872423245e+02,-2.566545730725529211e+02,-2.504053233341464875e+02,-2.022194943257818522e+02,9.523238182067871094e+00,-7.649186849594116211e-01,0.000000000000000000e+00,4.450000000000000000e+02
-2.582613619795004070e+02,-2.174867353818267475e+02,-1.911615147310524208e+02,-2.088898047732127452e+02,-2.671507479992405933e+02,-2.520608322288398995e+02,-2.452450725640692326e+02,-1.988703206829250121e+02,9.523238182067871094e+00,-7.649186849594116211e-01,0.000000000000000000e+00,4.460000000000000000e+02
-2.569557409716444454e+02,-2.147145922649526710e+02,-1.908615736092942825e+02,-2.065702496115775375e+02,-2.659369689410768842e+02,-2.490330213093825478e+02,-2.423662949380081955e+02,-1.978089803204402415e+02,9.523238182067871094e+00,-7.649186849594116211e-01,0.000000000000000000e+00,4.470000000000000000e+02
-2.570315893131837583e+02,-2.135773609319173829e+02,-1.927063966140563025e+02,-2.049240577769355696e+02,-2.669856900635318198e+02,-2.468837227496219384e+02,-2.414700828120785445e+02,-1.984740452668409034e+02,9.523238182067871094e+00,-7.649186849594116211e-01,0.000000000000000000e+00,4.480000000000000000e+02
-2.575093073788452784e+02,-2.132797262069730095e+02,-1.952075359331574873e+02,-2.035738775463678394e+02,-2.687789143172135482e+02,-2.450296867540741914e+02,-2.416283592680279071e+02,-1.996618820688697724e+02,9.523238182067871094e+00,-7.649186849594116211e-01,0.000000000000000000e+00,4.490000000000000000e+02
-2.569529165361238938e+02,-2.123014265153196902e+02,-1.963166233038880364e+02,-2.017370541666882673e+02,-2.691893905661372628e+02,-2.427929315412579854e+02,-2.413309068339599435e+02,-1.994241259216187245e+02,9.523238182067871094e+00,-7.649186849594116211e-01,0.000000000000000000e+00,4.500000000000000000e+02
-2.535989333704274031e+02,-2.088392143994665275e+02,-1.940033003413116148e+02,-1.983146697433255667e+02,-2.663612072115788578e+02,-2.393807266135786449e+02,-2.388561138977838709e+02,-1.958702424414045709e+02,9.523238182067871094e+00,-7.649186849594116211e-01,0.000000000000000000e+00,4.510000000000000000e+02
-2.464407844837539869e+02,-2.020630799024233966e+02,-1.874789646819017435e+02,-1.927060030202551388e+02,-2.598575941458025227e+02,-2.343003546309255398e+02,-2.331434471739935361e+02,-1.884801265784105908e+02,9.523238182067871094e+00,-7.649186849594116211e-01,0.000000000000000000e+00,4.520000000000000000e+02
-2.363264031742496627e+02,-1.930648218939097660e+02,-1.779951100869425318e+02,-1.855727045248549985e+02,-2.510701713474718417e+02,-2.278286745934365172e+02,-2.246567708373663663e+02,-1.787475019458640872e+02,9.523238182067871094e+00,-7.649186849594116211e-01,0.000000000000000000e+00,4.530000000000000000e+02
-2.257600341505340111e+02,-1.843424721724425126e+02,-1.681928717147895895e+02,-1.786085975674352539e+02,-2.422788525297028173e+02,-2.209385653592275958e+02,-2.153834832942720823e+02,-1.693354865013172912e+02,9.523238182067871094e+00,-7.649186849594116211e-01,0.000000000000000000e+00,4.540000000000000000e+02
-2.172533243032576138e+02,-1.779694881998007077e+02,-1.602930657839945070e+02,-1.732894677683132159e+02,-2.349856705017937202e+02,-2.145939766972455800e+02,-2.076927510983086904e+02,-1.622467517311849861e+02,9.523238182067871094e+00,-7.649186849594116211e-01,0.000000000000000000e+00,4.550000000000000000e+02
-2.115421295129965529e+02,-1.739680368832503063e+02,-1.546159628858645192e+02,-1.696481566848906368e+02,-2.289277215868464737e+02,-2.090111717641843825e+02,-2.027890973458866029e+02,-1.574888797229284592e+02,9.523238182067871094e+00,-7.649186849594116211e-01,0.000000000000000000e+00,4.560000000000000000e+02
-2.072321462852546574e+02,-1.703740692279804989e+02,-1.496801290401897404e+02,-1.662154678169958970e+02,-2.225978852653270224e+02,-2.035708534406203398e+02,-1.999430557757114002e+02,-1.533486082842850919e+02,9.523238182067871094e+00,-7.649186849594116211e-01,0.000000000000000000e+00,4.570000000000000000e+02
-2.021947280172134924e+02,-1.650090493377178973e+02,-1.437155372662186892e+02,-1.612613397224160963e+02,-2.147393154099140702e+02,-1.974822782416831615e+02,-1.971113058617411298e+02,-1.480096648266435295e+02,9.523238182067871094e+00,-7.649186849594116211e-01,0.000000000000000000e+00,4.580000000000000000e+02
-1.954944591201003732e+02,-1.574452782210471469e+02,-1.362372253549258403e+02,-1.543228007779791824e+02,-2.054890320814265579e+02,-1.906477393170953292e+02,-1.924749762143860607e+02,-1.411623008932629091e+02,9.523238182067871094e+00,-7.649186849594116211e-01,0.000000000000000000e+00,4.590000000000000000e+02
-1.882428904040036741e+02,-1.495244378461034103e+02,-1.284788460606450826e+02,-1.467884742413839376e+02,-1.963530756377872422e+02,-1.840466103400008251e+02,-1.857736266580241136e+02,-1.343903708715770335e+02,9.523238182067871094e+00,-7.649186849594116211e-01,0.000000000000000000e+00,4.600000000000000000e+02
-1.827951838112173846e+02,-1.440806895848422755e+02,-1.225886082347390129e+02,-1.411247713081293114e+02,-1.892871075362982083e+02,-1.793578430154584566e+02,-1.785422876880797958e+02,-1.301836568767280369e+02,9.523238182067871094e+00,-7.649186849594116211e-01,0.000000000000000000e+00,4.610000000000000000e+02
-1.810323356376520678e+02,-1.429678526544926171e+02,-1.203456958601395854e+02,-1.393347358581695516e+02,-1.856862525003734845e+02,-1.780396282530518874e+02,-1.731500674538128806e+02,-1.303655156723905293e+02,9.523238182067871094e+00,-7.649186849594116211e-01,0.000000000000000000e+00,4.620000000000000000e+02
-1.830454508823206652e+02,-1.458972262734430387e+02,-1.222129708298398327e+02,-1.417091996587871563e+02,-1.858049007595450348e+02,-1.803896592669138954e+02,-1.713169743807270606e+02,-1.349493436644484063e+02,9.523238182067871094e+00,-7.649186849594116211e-01,0.000000000000000000e+00,4.630000000000000000e+02
-1.870265363273638286e+02,-1.507380308069816692e+02,-1.270363137417764392e+02,-1.465806375079614554e+02,-1.886004541417678411e+02,-1.850919806218889789e+02,-1.730385904722625128e+02,-1.419410589119661381e+02,9.523238182067871094e+00,-7.649186849594116211e-01,0.000000000000000000e+00,4.640000000000000000e+02
-1.902944246249790012e+02,-1.548122886974085759e+02,-1.324093293217599694e+02,-1.511435949171741413e+02,-1.919539801169407838e+02,-1.896055097462935919e+02,-1.765778923063639922e+02,-1.481224692291214069e+02,9.523238182067871094e+00,-7.649186849594116211e-01,0.000000000000000000e+00,4.650000000000000000e+02
-1.907996007049450782e+02,-1.562463968822376046e+02,-1.356916995236322236e+02,-1.528910608154553756e+02,-1.934240336313077933e+02,-1.913812054011891632e+02,-1.795306215178570710e+02,-1.505409184755562819e+02,9.523238182067871094e+00,-7.649186849594116211e-01,0.000000000000000000e+00,4.660000000000000000e+02
-1.882258494903067003e+02,-1.546772267339551945e+02,-1.353622730083836814e+02,-1.509091033976494600e+02,-1.914491833524771209e+02,-1.892975974258001770e+02,-1.802465687200929096e+02,-1.480463293519528634e+02,9.523238182067871094e+00,-7.649186849594116211e-01,0.000000000000000000e+00,4.670000000000000000e+02
-1.839869935909312062e+02,-1.511102637520202734e+02,-1.318959342067053058e+02,-1.462759346153220577e+02,-1.862963318917800279e+02,-1.843196311860087917e+02,-1.786059890602509768e+02,-1.419423545974661920e+02,9.523238182067871094e+00,-7.649186849594116211e-01,0.000000000000000000e+00,4.680000000000000000e+02
-1.800183372294914079e+02,-1.471169945725621346e+02,-1.273433451792354845e+02,-1.412335911801810653e+02,-1.798788732491868814e+02,-1.787460278299752190e+02,-1.756323170271725758e+02,-1.351215946421666558e+02,9.523238182067871094e+00,-7.649186849594116211e-01,0.000000000000000000e+00,4.690000000000000000e+02
-1.771363532194250183e+02,-1.437909734194804514e+02,-1.236894072402790243e+02,-1.375850405399453393e+02,-1.743574258853600440e+02,-1.744691466536094140e+02,-1.723576737324792703e+02,-1.300774551669601351e+02,9.523238182067871094e+00,-7.649186849594116211e-01,0.000000000000000000e+00,4.700000000000000000e+02
-1.743497141412267410e+02,-1.410984037617158720e+02,-1.213250433489067746e+02,-1.355290333253478821e+02,-1.706521705349516651e+02,-1.716685751893974157e+02,-1.690111584249270891e+02,-1.273371621708713519e+02,9.523238182067871094e+00,-7.649186849594116211e-01,0.000000000000000000e+00,4.710000000000000000e+02
-1.699717927588017119e+02,-1.381638848366535512e+02,-1.191402082498841537e+02,-1.339827736852021189e+02,-1.682545912063756077e+02,-1.691668501685958290e+02,-1.652866378404760326e+02,-1.257630909399288157e+02,9.523238182067871094e+00,-7.649186849594116211e-01,0.000000000000000000e+00,4.720000000000000000e+02
-1.637867719431233127e+02,-1.344023259838040758e+02,-1.162803549633345028e+02,-1.321931323983092170e+02,-1.664952064084416179e+02,-1.661877757127244877e+02,-1.613593051156562979e+02,-1.244930558830460541e+02,9.523238182067871094e+00,-7.649186849594116211e-01,0.000000000000000000e+00,4.730000000000000000e+02
-1.582232744537141116e+02,-1.305792945207297180e+02,-1.137862903856268986e+02,-1.311001535289551612e+02,-1.658660655970084008e+02,-1.637870408767728350e+02,-1.584832871342559883e+02,-1.245065744081180128e+02,9.523238182067871094e+00,-7.649186849594116211e-01,0.000000000000000000e+00,4.740000000000000000e+02
-1.570109543538649177e+02,-1.287074204180782999e+02,-1.141814582986301048e+02,-1.329125573219630496e+02,-1.678278151421768598e+02,-1.643450689566332130e+02,-1.583399975915895084e+02,-1.279327189847901991e+02,9.484992027282714844e+00,-8.796565532684326172e-01,3.824593871831893921e-02,4.750000000000000000e+02
-1.620719193644963525e+02,-1.305618905653026331e+02,-1.190478198916634938e+02,-1.389810770034164307e+02,-1.730855910098368895e+02,-1.693212680384579016e+02,-1.615458585942678837e+02,-1.354667784630389633e+02,9.484992027282714844e+00,-8.796565532684326172e-01,3.824593871831893921e-02,4.760000000000000000e+02
-1.713229921615545663e+02,-1.359114279943739803e+02,-1.268464604535035960e+02,-1.478549939261210966e+02,-1.800535099606531730e+02,-1.772862582039260815e+02,-1.666780570258329135e+02,-1.444659014546480194e+02,9.484992027282714844e+00,-8.796565532684326172e-01,3.824593871831893921e-02,4.770000000000000000e+02
-1.796069367059699289e+02,-1.420808610762247781e+02,-1.333281865728069988e+02,-1.555518588100774195e+02,-1.852714052588999039e+02,-1.842378239956660764e+02,-1.708544859838498269e+02,-1.500167694151325577e+02,9.484992027282714844e+00,-8.796565532684326172e-01,3.824593871831893921e-02,4.780000000000000000e+02
-1.822791819828553344e+02,-1.455252140440935591e+02,-1.345463097538731745e+02,-1.581922243632379832e+02,-1.857432701304394413e+02,-1.862574138748445876e+02,-1.715762994491581139e+02,-1.485352008154409305e+02,9.484992027282714844e+00,-8.796565532684326172e-01,3.824593871831893921e-02,4.790000000000000000e+02
-1.784908262471112721e+02,-1.443488190248879164e+02,-1.299104600405619294e+02,-1.549008216295826514e+02,-1.812354433251350656e+02,-1.823865189342388931e+02,-1.684054851398714163e+02,-1.407875498073956351e+02,9.484992027282714844e+00,-8.796565532684326172e-01,3.824593871831893921e-02,4.800000000000000000e+02
-1.713999193472368461e+02,-1.397385281308045251e+02,-1.225220112904567031e+02,-1.484509687476881936e+02,-1.744583261733130257e+02,-1.752898942471304053e+02,-1.631418139764709849e+02,-1.314666769051939355e+02,9.484992027282714844e+00,-8.796565532684326172e-01,3.824593871831893921e-02,4.810000000000000000e+02
-1.653054798335451778e+02,-1.350599384608833589e+02,-1.165144646878886761e+02,-1.430512991623543257e+02,-1.689453733157288298e+02,-1.691613913689625406e+02,-1.584104127188047642e+02,-1.255620463126101640e+02,9.484992027282714844e+00,-8.796565532684326172e-01,3.824593871831893921e-02,4.820000000000000000e+02
-1.623824346203930418e+02,-1.332849611867794692e+02,-1.138712023728505756e+02,-1.411826288372176350e+02,-1.665107333857304184e+02,-1.666863130655899568e+02,-1.558440797904081592e+02,-1.247190026614073304e+02,9.484992027282714844e+00,-8.796565532684326172e-01,3.824593871831893921e-02,4.830000000000000000e+02
-1.617337077060119555e+02,-1.347864117938240724e+02,-1.134996695733930210e+02,-1.421073265995260044e+02,-1.664111702245118067e+02,-1.674992246879728555e+02,-1.552435791108021022e+02,-1.266471467030914937e+02,9.484992027282714844e+00,-8.796565532684326172e-01,3.824593871831893921e-02,4.840000000000000000e+02
-1.610322607248099303e+02,-1.371577141271475284e+02,-1.130052551987382685e+02,-1.430098038272246868e+02,-1.666196782250624437e+02,-1.690566058214287750e+02,-1.551545905140226296e+02,-1.276578906269862728e+02,9.484992027282714844e+00,-8.796565532684326172e-01,3.824593871831893921e-02,4.850000000000000000e+02
-1.587240779548644696e+02,-1.370304549631927102e+02,-1.111009897564608764e+02,-1.414151647733938262e+02,-1.657187218975509495e+02,-1.687757494711770505e+02,-1.541358757152854650e+02,-1.256603152958205101e+02,9.484992027282714844e+00,-8.796565532684326172e-01,3.824593871831893921e-02,4.860000000000000000e+02
-1.547684004735997405e+02,-1.323618651623050937e+02,-1.083277292954717268e+02,-1.367318248162359851e+02,-1.636445132453077349e+02,-1.655396617452809096e+02,-1.516159872207497301e+02,-1.210024840968094395e+02,9.484992027282714844e+00,-8.796565532684326172e-01,3.824593871831893921e-02,4.870000000000000000e+02
-1.498227935654642806e+02,-1.235683862974767635e+02,-1.057914609344791188e+02,-1.300083799385366774e+02,-1.609593867030207548e+02,-1.597078235124849925e+02,-1.478453166484614485e+02,-1.150776298547266379e+02,9.484992027282714844e+00,-8.796565532684326172e-01,3.824593871831893921e-02,4.880000000000000000e+02
-1.443067642492080722e+02,-1.129935910181796999e+02,-1.036221396888747677e+02,-1.227252605785510013e+02,-1.578219931955372886e+02,-1.522578011349914959e+02,-1.433143964464247802e+02,-1.087173171819408708e+02,9.484992027282714844e+00,-8.796565532684326172e-01,3.824593871831893921e-02,4.890000000000000000e+02
-1.384588400674256263e+02,-1.034491175583264067e+02,-1.008731633316365333e+02,-1.160013810805521643e+02,-1.539011386004272026e+02,-1.441810892692644757e+02,-1.383533452510532697e+02,-1.020930814646244471e+02,9.484992027282714844e+00,-8.796565532684326172e-01,3.824593871831893921e-02,4.900000000000000000e+02
-1.330277527175742307e+02,-9.696076101319124518e+01,-9.684905196290719687e+01,-1.106976384628396772e+02,-1.492188049237222458e+02,-1.365301301954643804e+02,-1.332341576196083679e+02,-9.584204629675230080e+01,9.484992027282714844e+00,-8.796565532684326172e-01,3.824593871831893921e-02,4.910000000000000000e+02
-1.294091831370108139e+02,-9.430397818875701432e+01,-9.228703082872766572e+01,-1.077365037489362294e+02,-1.447717396887624091e+02,-1.305742213503096991e+02,-1.284712909320321614e+02,-9.168573613397700228e+01,9.484992027282714844e+00,-8.796565532684326172e-01,3.824593871831893921e-02,4.920000000000000000e+02
-1.287470790711560085e+02,-9.515573529809569209e+01,-8.902712541887285624e+01,-1.078229213762930385e+02,-1.420211955142326588e+02,-1.274241022491214608e+02,-1.247961363621961937e+02,-9.144827765060142610e+01,9.484992027282714844e+00,-8.796565532684326172e-01,3.824593871831893921e-02,4.930000000000000000e+02
-1.307962310352561417e+02,-9.838176643508359120e+01,-8.840943210720024581e+01,-1.106221473671796502e+02,-1.416218714775418448e+02,-1.272395282640309233e+02,-1.226648956183628343e+02,-9.524052417340601551e+01,9.484992027282714844e+00,-8.796565532684326172e-01,3.824593871831893921e-02,4.940000000000000000e+02
-1.337467940004079310e+02,-1.022608739888936498e+02,-8.995878137610566228e+01,-1.143143714334737524e+02,-1.426957509869278056e+02,-1.288210961836989554e+02,-1.217428571026814552e+02,-1.006826093461528444e+02,9.484992027282714844e+00,-8.796565532684326172e-01,3.824593871831893921e-02,4.950000000000000000e+02
-1.353197045835887593e+02,-1.048486654690613022e+02,-9.164586942451376217e+01,-1.162859527231184984e+02,-1.434758754479544223e+02,-1.301780927329091355e+02,-1.209448116464552641e+02,-1.041938625483280703e+02,9.484992027282714844e+00,-8.796565532684326172e-01,0.000000000000000000e+00,4.960000000000000000e+02
-1.342288664759973926e+02,-1.046435374996368637e+02,-9.148860997332951683e+01,-1.146647200022106290e+02,-1.427454688703293186e+02,-1.297425294687404858e+02,-1.191191129318106050e+02,-1.034402057739166594e+02,9.484992027282714844e+00,-8.796565532684326172e-01,0.000000000000000000e+00,4.970000000000000000e+02
-1.308606935763452839e+02,-1.013450309918533208e+02,-8.907576613724972958e+01,-1.095566192605352853e+02,-1.407287016063182818e+02,-1.272812723186436870e+02,-1.158759996511535064e+02,-9.894320940825753041e+01,9.484992027282714844e+00,-8.796565532684326172e-01,0.000000000000000000e+00,4.980000000000000000e+02
-1.267531881763597994e+02,-9.612993852371613457e+01,-8.569756397500668754e+01,-1.029483389277763763e+02,-1.386319495845862093e+02,-1.237759184985188767e+02,-1.118704249452416661e+02,-9.348471227988932242e+01,9.484992027282714844e+00,-8.796565532684326172e-01,0.000000000000000000e+00,4.990000000000000000e+02
-1.233445021334526928e+02,-9.100013756892769834e+01,-8.298569026702466545e+01,-9.725393022739115167e+01,-1.373028971884962175e+02,-1.204006384949278754e+02,-1.082459068206276243e+02,-8.973915555586006576e+01,9.484992027282714844e+00,-8.796565532684326172e-01,0.000000000000000000e+00,5.000000000000000000e+02
-1.209140191375548739e+02,-8.744560798552038250e+01,-8.125510820002079981e+01,-9.358875872212161084e+01,-1.362539920099150095e+02,-1.174658737162112629e+02,-1.056299442981160155e+02,-8.804464844446738425e+01,9.484992027282714844e+00,-8.796565532684326172e-01,0.000000000000000000e+00,5.010000000000000000e+02
-1.184508950042061315e+02,-8.538170466480892173e+01,-7.902006485803985925e+01,-9.111067802664672399e+01,-1.339022773568165121e+02,-1.141948140861139791e+02,-1.034888748008263519e+02,-8.616435730448881714e+01,9.484992027282714844e+00,-8.796565532684326172e-01,0.000000000000000000e+00,5.020000000000000000e+02
-1.145556621829285859e+02,-8.330003118540719242e+01,-7.421100006495032630e+01,-8.794980555957482693e+01,-1.287964108374886791e+02,-1.094902219676944242e+02,-1.004322155417060003e+02,-8.129387779903231603e+01,9.484992027282714844e+00,-8.796565532684326172e-01,0.000000000000000000e+00,5.030000000000000000e+02
-1.087189515544657183e+02,-7.959665554840319146e+01,-6.612580037501697916e+01,-8.290889657939464996e+01,-1.208066292716072212e+02,-1.029909489462954753e+02,-9.528946495819968732e+01,-7.263061314308242800e+01,9.484992027282714844e+00,-8.796565532684326172e-01,0.000000000000000000e+00,5.040000000000000000e+02
-1.018888134038999169e+02,-7.391454679256497684e+01,-5.634091398549276164e+01,-7.638200271563852084e+01,-1.113238691853753153e+02,-9.543403280325162541e+01,-8.807695821049082952e+01,-6.219721381588624354e+01,9.484992027282714844e+00,-8.796565532684326172e-01,0.000000000000000000e+00,5.050000000000000000e+02
-9.565164917403569689e+01,-6.720667857467478257e+01,-4.756224759798647028e+01,-6.960391214705271068e+01,-1.022991609889537017e+02,-8.792813636707228397e+01,-7.997885229826061959e+01,-5.306132055748179255e+01,9.484992027282714844e+00,-8.796565532684326172e-01,0.000000000000000000e+00,5.060000000000000000e+02
-9.060108985722450825e+01,-6.047097755167334299e+01,-4.128842914141705478e+01,-6.298759222551043990e+01,-9.485862859696277383e+01,-8.079160063245240053e+01,-7.230751248500303063e+01,-4.652152798849209603e+01,9.484992027282714844e+00,-8.796565532684326172e-01,0.000000000000000000e+00,5.070000000000000000e+02
-8.555000478402973840e+01,-5.360347659624804351e+01,-3.651563605674206769e+01,-5.542140390967298913e+01,-8.862662196627485400e+01,-7.320746669852218247e+01,-6.543542026590466776e+01,-4.103707258501270871e+01,9.484992027282714844e+00,-8.796565532684326172e-01,0.000000000000000000e+00,5.080000000000000000e+02
-7.881880966725933035e+01,-4.591470724761909139e+01,-3.103709801607652707e+01,-4.568374935965834993e+01,-8.244546445774454924e+01,-6.436798596695456354e+01,-5.886464982984608696e+01,-3.426160991068073258e+01,9.484992027282714844e+00,-8.796565532684326172e-01,0.000000000000000000e+00,5.090000000000000000e+02
-7.082511733614569494e+01,-3.814134718293720994e+01,-2.444393165100780152e+01,-3.495460055724777249e+01,-7.607368050181008812e+01,-5.531953630316507997e+01,-5.255221926587864800e+01,-2.649532293084189405e+01,9.484992027282714844e+00,-8.796565532684326172e-01,0.000000000000000000e+00,5.100000000000000000e+02
-6.540912615119628981e+01,-3.382579778429050066e+01,-1.992158261716303969e+01,-2.780056699108081375e+01,-7.141279092174994503e+01,-4.964034107363698922e+01,-4.819521317109001757e+01,-2.207015849036815780e+01,9.484992027282714844e+00,-8.796565532684326172e-01,0.000000000000000000e+00,5.110000000000000000e+02
-6.785769827732951853e+01,-3.793668257269990818e+01,-2.256379986458409803e+01,-2.986644817555028908e+01,-7.186223064200260069e+01,-5.168112282853479655e+01,-4.885278200538220972e+01,-2.665603796417667581e+01,9.484992027282714844e+00,-8.796565532684326172e-01,0.000000000000000000e+00,5.120000000000000000e+02
-8.054965585686755958e+01,-5.305503461916137553e+01,-3.506485950256862338e+01,-4.348192554483205186e+01,-7.983608816097179783e+01,-6.321803145043685390e+01,-5.668330941560697056e+01,-4.226592342596603658e+01,9.484992027282714844e+00,-8.796565532684326172e-01,0.000000000000000000e+00,5.130000000000000000e+02
-9.987849441730401168e+01,-7.615688392279656682e+01,-5.445578346198462327e+01,-6.477094370774312893e+01,-9.424221031550246153e+01,-8.116220917148928038e+01,-7.054678561797391012e+01,-6.427870833590060329e+01,9.484992027282714844e+00,-8.796565532684326172e-01,0.000000000000000000e+00,5.140000000000000000e+02
-1.176010386155945753e+02,-9.915590911433719157e+01,-7.308258371682029519e+01,-8.510585707050097426e+01,-1.101659138391923989e+02,-9.857174530288665437e+01,-8.576539116150740938e+01,-8.346086988107208526e+01,9.484992027282714844e+00,-8.796565532684326172e-01,0.000000000000000000e+00,5.150000000000000000e+02
-1.260393548716766077e+02,-1.133859886070978291e+02,-8.340474406071530211e+01,-9.620535267377721311e+01,-1.213960204916118073e+02,-1.085995521764918976e+02,-9.664656716666456759e+01,-9.171793106490747505e+01,9.484992027282714844e+00,-8.796565532684326172e-01,0.000000000000000000e+00,5.160000000000000000e+02
-1.229875094015354762e+02,-1.147097185426737838e+02,-8.273677734528234851e+01,-9.497164823820378388e+01,-1.240335451043986268e+02,-1.084503412231373431e+02,-9.989871294416661840e+01,-8.701948143749160636e+01,9.484992027282714844e+00,-8.796565532684326172e-01,0.000000000000000000e+00,5.170000000000000000e+02
-1.123346909762892665e+02,-1.053197297425330135e+02,-7.414669078945416913e+01,-8.441280073817154062e+01,-1.184653087214915104e+02,-1.003512279513864769e+02,-9.622108335422512937e+01,-7.375655204622069050e+01,9.484992027282714844e+00,-8.796565532684326172e-01,0.000000000000000000e+00,5.180000000000000000e+02
-1.002914010448670297e+02,-9.120883545393604663e+01,-6.328143966895129324e+01,-7.047960059437718883e+01,-1.084067579384131932e+02,-8.913052987643811775e+01,-8.900536083423878608e+01,-5.885065330072507095e+01,9.484992027282714844e+00,-8.796565532684326172e-01,0.000000000000000000e+00,5.190000000000000000e+02
-9.095808482736856604e+01,-7.795200687432628683e+01,-5.440828192710341682e+01,-5.802604284533867940e+01,-9.820976393873138477e+01,-7.884945322813086932e+01,-8.163948273412165690e+01,-4.736742511057718730e+01,9.484992027282714844e+00,-8.796565532684326172e-01,0.000000000000000000e+00,5.200000000000000000e+02
-8.506156577030276367e+01,-6.839292340039776263e+01,-4.904806521281147980e+01,-4.923659974665929440e+01,-9.080211118869488018e+01,-7.133600761534069079e+01,-7.587176731819931774e+01,-4.107937736186670463e+01,9.484992027282714844e+00,-8.796565532684326172e-01,3.824593871831893921e-02,5.210000000000000000e+02
-8.207670538132265392e+01,-6.335812712599044971e+01,-4.742888193339490499e+01,-4.488096079533909233e+01,-8.746578966166543978e+01,-6.717470172508183168e+01,-7.221295354328299254e+01,-4.002027399160033383e+01,9.484992027282714844e+00,-8.796565532684326172e-01,3.824593871831893921e-02,5.220000000000000000e+02
-8.254577128776941208e+01,-6.338961800425374804e+01,-5.011069420490468929e+01,-4.589619487758454852e+01,-8.861956053600601990e+01,-6.718150820827167991e+01,-7.115057042753119276e+01,-4.423447272626822269e+01,9.484992027282714844e+00,-8.796565532684326172e-01,3.824593871831893921e-02,5.230000000000000000e+02
-8.768112416124540687e+01,-6.894374538645865869e+01,-5.749508351255008165e+01,-5.296410802615832836e+01,-9.403745044059564862e+01,-7.221769600381139753e+01,-7.335892343793216241e+01,-5.341959037908804930e+01,9.484992027282714844e+00,-8.796565532684326172e-01,3.824593871831893921e-02,5.240000000000000000e+02
-9.676060504706038046e+01,-7.880889956922283091e+01,-6.786191511667652776e+01,-6.452547108000067055e+01,-1.021445018143517700e+02,-8.143063926322474799e+01,-7.857844445598720995e+01,-6.514001201870814839e+01,9.484992027282714844e+00,-8.796565532684326172e-01,3.824593871831893921e-02,5.250000000000000000e+02
-1.056446433112685099e+02,-8.899317071829989345e+01,-7.670878653523118373e+01,-7.589369693527260097e+01,-1.096112339167730170e+02,-9.114187188231881009e+01,-8.463164133792361099e+01,-7.434916473523207969e+01,9.484992027282714844e+00,-8.796565532684326172e-01,3.824593871831893921e-02,5.260000000000000000e+02
-1.088283965429895943e+02,-9.420561041194673635e+01,-7.907323248242710179e+01,-8.133855152145815737e+01,-1.125331225765507952e+02,-9.628843541647756865e+01,-8.812718648630971074e+01,-7.584293693158224414e+01,9.484992027282714844e+00,-8.796565532684326172e-01,3.824593871831893921e-02,5.270000000000000000e+02
-1.037475783212910301e+02,-9.136904709969758187e+01,-7.331420307171583772e+01,-7.797363705597012995e+01,-1.088602253925257628e+02,-9.380247738701768867e+01,-8.668879340862667959e+01,-6.811683704930806016e+01,9.484992027282714844e+00,-8.796565532684326172e-01,3.824593871831893921e-02,5.280000000000000000e+02
-9.347204366993582880e+01,-8.223432809978760361e+01,-6.297968688925561764e+01,-6.817132656936473722e+01,-1.001869091005821701e+02,-8.515485952280801030e+01,-8.087890989853804058e+01,-5.522499450400437127e+01,9.484992027282714844e+00,-8.796565532684326172e-01,3.824593871831893921e-02,5.290000000000000000e+02
-8.510737169753747366e+01,-7.259873696882164040e+01,-5.484219263000431965e+01,-5.823563161818924527e+01,-9.120983896555526371e+01,-7.571970673635541971e+01,-7.410085185540401653e+01,-4.465374969626327584e+01,9.484992027282714844e+00,-8.796565532684326172e-01,3.824593871831893921e-02,5.300000000000000000e+02
-8.498152081264925073e+01,-6.850397266773620686e+01,-5.448909085234936356e+01,-5.423308609259652258e+01,-8.699765208131066174e+01,-7.126555762172711184e+01,-7.046486328978335223e+01,-4.259497799858399958e+01,9.484992027282714844e+00,-8.796565532684326172e-01,3.824593871831893921e-02,5.310000000000000000e+02
-9.445057903618067030e+01,-7.237580165641861640e+01,-6.287000409164966186e+01,-5.823869555039550505e+01,-8.998761111648627775e+01,-7.428825633193719113e+01,-7.226232219534040269e+01,-5.020009057112952178e+01,9.484992027282714844e+00,-8.796565532684326172e-01,3.824593871831893921e-02,5.320000000000000000e+02
-1.094056748814919047e+02,-8.197327659098846198e+01,-7.617004299489872210e+01,-6.768530148795957757e+01,-9.876338282119377254e+01,-8.288047573116500644e+01,-7.883114732181456930e+01,-6.343768846634452530e+01,9.484992027282714844e+00,-8.796565532684326172e-01,3.824593871831893921e-02,5.330000000000000000e+02
-1.233335536680276618e+02,-9.251460534469947561e+01,-8.856833704399650742e+01,-7.777560957625337323e+01,-1.092171596322441474e+02,-9.260511863326519233e+01,-8.732243625083356164e+01,-7.616313818763319432e+01,9.484992027282714844e+00,-8.796565532684326172e-01,3.824593871831893921e-02,5.340000000000000000e+02
-1.311948906853735934e+02,-9.988118073187229129e+01,-9.551071823775009761e+01,-8.463390803847369170e+01,-1.170257680335512305e+02,-9.952979376307484927e+01,-9.449265279709106835e+01,-8.374828528518173698e+01,9.484992027282714844e+00,-8.796565532684326172e-01,3.824593871831893921e-02,5.350000000000000000e+02
-1.314308554411445584e+02,-1.024284184220491625e+02,-9.540485199597060273e+01,-8.685879199491046165e+01,-1.197206594016379313e+02,-1.020908604396017836e+02,-9.820235075901018718e+01,-8.482116271326276546e+01,9.484992027282714844e+00,-8.796565532684326172e-01,3.824593871831893921e-02,5.360000000000000000e+02
-1.254562815762460559e+02,-1.006022199035426183e+02,-8.932883480494183459e+01,-8.495983473902242622e+01,-1.172663580687953981e+02,-1.008797167021498353e+02,-9.788455272622150005e+01,-8.065606223788336138e+01,9.484992027282714844e+00,-8.796565532684326172e-01,3.824593871831893921e-02,5.370000000000000000e+02
-1.158675203669563416e+02,-9.544953954795050777e+01,-7.967235897393038613e+01,-7.989590260976729041e+01,-1.112312233105208179e+02,-9.719751484528887886e+01,-9.410960855886742138e+01,-7.345702832422102802e+01,9.484992027282714844e+00,-8.796565532684326172e-01,3.824593871831893921e-02,5.380000000000000000e+02
-1.049290819511315931e+02,-8.761541743203747501e+01,-6.880636581320095502e+01,-7.221422540458070216e+01,-1.034510261162399729e+02,-9.186092158271048902e+01,-8.786262501658848123e+01,-6.499586071700559842e+01,9.484992027282714844e+00,-8.796565532684326172e-01,3.824593871831893921e-02,5.390000000000000000e+02
-9.398714568585364759e+01,-7.743574409847656170e+01,-5.828935140697376482e+01,-6.223596271161795812e+01,-9.512145666615469963e+01,-8.502014556051881300e+01,-8.005869916784104134e+01,-5.615393077181306580e+01,9.484992027282714844e+00,-8.796565532684326172e-01,3.824593871831893921e-02,5.400000000000000000e+02
-8.355859896006359122e+01,-6.553355669884331292e+01,-4.865704497552633256e+01,-5.064830426980051925e+01,-8.669422048636533873e+01,-7.667828844927953469e+01,-7.143442075283746817e+01,-4.712060527685480338e+01,9.484992027282714844e+00,-8.796565532684326172e-01,3.824593871831893921e-02,5.410000000000000000e+02
-7.366767362653172313e+01,-5.304436136172694205e+01,-3.971509242069168977e+01,-3.870298020075370005e+01,-7.831680657012566371e+01,-6.719417126124653805e+01,-6.263168878533178940e+01,-3.787102235054362609e+01,9.484992027282714844e+00,-8.796565532684326172e-01,3.824593871831893921e-02,5.420000000000000000e+02
-6.419429435947949969e+01,-4.120764084948405070e+01,-3.112396871367491258e+01,-2.781543616874841973e+01,-7.024938627806068325e+01,-5.736279238811812320e+01,-5.421030618118311395e+01,-2.866984493114705401e+01,9.484992027282714844e+00,-8.796565532684326172e-01,3.824593871831893921e-02,5.430000000000000000e+02
-5.516953671832197870e+01,-3.082881906250941029e+01,-2.293144553260890461e+01,-1.900233514248066058e+01,-6.292157519852844416e+01,-4.820667337803661212e+01,-4.654056859641150368e+01,-2.038614736219915358e+01,9.484992027282714844e+00,-8.796565532684326172e-01,3.824593871831893921e-02,5.440000000000000000e+02
-4.691796313214672409e+01,-2.216641843686420543e+01,-1.568333343305539529e+01,-1.262922245049412595e+01,-5.671302202799324732e+01,-4.073071795488158386e+01,-3.973841010704381915e+01,-1.429254362899746411e+01,9.484992027282714844e+00,-8.796565532684326172e-01,3.824593871831893921e-02,5.450000000000000000e+02
-3.995785795452593447e+01,-1.524278137038345449e+01,-1.003879218113661409e+01,-8.505092952650556981e+00,-5.174131305950504611e+01,-3.564467096027965454e+01,-3.377500724839683244e+01,-1.125086604173611704e+01,9.484992027282714844e+00,-8.796565532684326172e-01,3.824593871831893921e-02,5.460000000000000000e+02
-3.477908818839978267e+01,-1.014698026110318096e+01,-6.284968763078722986e+00,-6.096446707817449351e+00,-4.785986072691139270e+01,-3.300532469185054651e+01,-2.869444627988923457e+01,-1.085228676994120178e+01,9.484992027282714844e+00,-8.796565532684326172e-01,3.824593871831893921e-02,5.470000000000000000e+02
-3.173267981748085731e+01,-7.014328637920243636e+00,-4.247421200824646803e+00,-4.705548055077088065e+00,-4.483612357525089465e+01,-3.198402767577863415e+01,-2.472152621714212728e+01,-1.140938400678442122e+01,9.484992027282714844e+00,-8.414105772972106934e-01,7.649187743663787842e-02,5.480000000000000000e+02
-3.107687438321454465e+01,-5.816445364998799050e+00,-3.668262979424071091e+00,-3.685406664239053498e+00,-4.255575631658030034e+01,-3.116917682594885264e+01,-2.214837853454355354e+01,-1.112848964365412030e+01,9.484992027282714844e+00,-8.414105772972106934e-01,7.649187743663787842e-02,5.490000000000000000e+02
-3.295354213625341799e+01,-6.299018737579444860e+00,-4.600678076443728060e+00,-2.756400999220659287e+00,-4.114533994080284174e+01,-2.948830263095533155e+01,-2.112521706676216127e+01,-9.633709682502285432e+00,9.484992027282714844e+00,-8.414105772972106934e-01,7.649187743663787842e-02,5.500000000000000000e+02
-3.707409825971535611e+01,-8.135013675181198778e+00,-7.276644353355550265e+00,-2.215164765763347532e+00,-4.092760841283416084e+01,-2.711690897830521862e+01,-2.154528437658336770e+01,-8.401036714798465255e+00,9.484992027282714844e+00,-8.414105772972106934e-01,7.649187743663787842e-02,5.510000000000000000e+02
-4.232010207115035882e+01,-1.101355911419159384e+01,-1.146564733889681520e+01,-2.707359899062794284e+00,-4.215987785222387174e+01,-2.545892728272519889e+01,-2.305779826004345523e+01,-9.456343689273126074e+00,9.484992027282714844e+00,-8.414105772972106934e-01,7.649187743663787842e-02,5.520000000000000000e+02
-4.684566075670863938e+01,-1.447548224706270048e+01,-1.600583599366564158e+01,-4.581939773740032251e+00,-4.465475018807592278e+01,-2.597169926753304026e+01,-2.511734387593969586e+01,-1.334497944867234764e+01,9.484992027282714844e+00,-8.414105772972106934e-01,7.649187743663787842e-02,5.530000000000000000e+02
-4.902963891749368486e+01,-1.775702472047305491e+01,-1.922039242158371053e+01,-7.372815860995615367e+00,-4.760288251921247138e+01,-2.876821312523679808e+01,-2.705913636155491986e+01,-1.828502571127864940e+01,9.484992027282714844e+00,-8.414105772972106934e-01,7.649187743663787842e-02,5.540000000000000000e+02
-4.880174566418918403e+01,-2.009268100598455931e+01,-2.016805373299575876e+01,-1.003781230820914061e+01,-4.993921434523872449e+01,-3.236108444978617626e+01,-2.833872305698969285e+01,-2.151407747598204878e+01,9.484992027282714844e+00,-8.414105772972106934e-01,7.649187743663787842e-02,5.550000000000000000e+02
-4.820085000173912704e+01,-2.145338845793776272e+01,-1.974323699285014300e+01,-1.192143677227977605e+01,-5.116525372189698828e+01,-3.495811884805061709e+01,-2.895833760851382976e+01,-2.180297664593672380e+01,9.484992027282714844e+00,-8.414105772972106934e-01,7.649187743663787842e-02,5.560000000000000000e+02
-5.033323601280244475e+01,-2.299274533342168070e+01,-2.047456963818785880e+01,-1.357491632545952598e+01,-5.196555799445013690e+01,-3.616554220363104832e+01,-2.974528398988877598e+01,-2.083165720744273131e+01,9.484992027282714844e+00,-8.414105772972106934e-01,7.649187743663787842e-02,5.570000000000000000e+02
-5.716657801028668473e+01,-2.644702310870843576e+01,-2.483530782381967583e+01,-1.649525810690556682e+01,-5.390584342883630597e+01,-3.742271603824610793e+01,-3.202442195521325630e+01,-2.199595645352655993e+01,9.484992027282714844e+00,-8.414105772972106934e-01,7.649187743663787842e-02,5.580000000000000000e+02
-6.783691746575459547e+01,-3.272098225358786294e+01,-3.327855941630241432e+01,-2.183891837749251863e+01,-5.827448800880665658e+01,-4.067918686111988791e+01,-3.670813784488473175e+01,-2.760443450880848104e+01,9.484992027282714844e+00,-8.414105772972106934e-01,7.649187743663787842e-02,5.590000000000000000e+02
-7.903900010751567606e+01,-4.092556015937543634e+01,-4.370152301465896016e+01,-2.928978091632689029e+01,-6.504827714040038700e+01,-4.660750830138204037e+01,-4.352379868054231338e+01,-3.702198297542781802e+01,9.484992027282714844e+00,-8.414105772972106934e-01,7.649187743663787842e-02,5.600000000000000000e+02
-8.743509574029485520e+01,-4.897063571630269507e+01,-5.297418018802818551e+01,-3.725644754505083256e+01,-7.297923085421643918e+01,-5.411674790173765359e+01,-5.116907306727262039e+01,-4.745693245509482949e+01,9.484992027282714844e+00,-8.414105772972106934e-01,7.649187743663787842e-02,5.610000000000000000e+02
-9.218791960971975641e+01,-5.537866230376675958e+01,-5.934555921050468896e+01,-4.431659290297375264e+01,-8.073893843830046535e+01,-6.158603035984560847e+01,-5.837182463536373689e+01,-5.654636529190247529e+01,9.484992027282714844e+00,-8.414105772972106934e-01,7.649187743663787842e-02,5.620000000000000000e+02
-9.544820053408329841e+01,-6.066968442041479648e+01,-6.366572013730274193e+01,-5.052347734195427620e+01,-8.797170777804149111e+01,-6.845563354323257954e+01,-6.489034406881000905e+01,-6.418058910411946272e+01,9.484992027282714844e+00,-8.414105772972106934e-01,7.649187743663787842e-02,5.630000000000000000e+02
-1.003403332065454379e+02,-6.690182207108045986e+01,-6.834629682286322350e+01,-5.723695471091741638e+01,-9.516993126832039707e+01,-7.547579348657382070e+01,-7.146392962926984183e+01,-7.183373290647159592e+01,9.484992027282714844e+00,-8.414105772972106934e-01,7.649187743663787842e-02,5.640000000000000000e+02
-1.082186958630982190e+02,-7.570495124308217783e+01,-7.503622859481492924e+01,-6.560577238788391696e+01,-1.025669467943098425e+02,-8.342351263691853092e+01,-7.877430968967018998e+01,-8.027824697195683257e+01,9.484992027282714844e+00,-8.414105772972106934e-01,7.649187743663787842e-02,5.650000000000000000e+02
-1.176268098333275702e+02,-8.666194689619169367e+01,-8.316428855765207118e+01,-7.521401826804958546e+01,-1.093440355476723198e+02,-9.177970488714709063e+01,-8.651967395650353865e+01,-8.824439465169598407e+01,9.484992027282714844e+00,-8.414105772972106934e-01,7.649187743663787842e-02,5.660000000000000000e+02
-1.257637919891649290e+02,-9.756685765134443500e+01,-9.062444546536880807e+01,-8.424423836591631698e+01,-1.141410945201878349e+02,-9.889067295099812327e+01,-9.359842902634591155e+01,-9.354018634604017279e+01,9.484992027282714844e+00,-8.414105772972106934e-01,7.649187743663787842e-02,5.670000000000000000e+02
-1.308838149454286395e+02,-1.062037658401723093e+02,-9.576428443868280738e+01,-9.093968590371423488e+01,-1.163945035587712482e+02,-1.034713941943809914e+02,-9.918928619761572918e+01,-9.542470192849305022e+01,9.484992027282714844e+00,-8.414105772972106934e-01,7.649187743663787842e-02,5.680000000000000000e+02
-1.333123444050679609e+02,-1.118318759448766286e+02,-9.862951197170332307e+01,-9.484319608504665666e+01,-1.170228215860097407e+02,-1.058116871901438572e+02,-1.035173120957679203e+02,-9.559780096729446086e+01,9.484992027282714844e+00,-8.414105772972106934e-01,7.649187743663787842e-02,5.690000000000000000e+02
-1.343337059358182159e+02,-1.150433206597444951e+02,-1.003280543536766345e+02,-9.664657936729417997e+01,-1.176066290501312324e+02,-1.073678199945570668e+02,-1.074273802183452062e+02,-9.658752449112125760e+01,9.484992027282714844e+00,-8.414105772972106934e-01,7.649187743663787842e-02,5.700000000000000000e+02
-1.344632750091950584e+02,-1.164960555017842125e+02,-1.014281771393270901e+02,-9.706241890583260101e+01,-1.188471514805933111e+02,-1.091931729981715762e+02,-1.112215811865207797e+02,-9.916848053619742132e+01,9.484992027282714844e+00,-8.414105772972106934e-01,7.649187743663787842e-02,5.710000000000000000e+02
-1.331271630170513163e+02,-1.161624295885485481e+02,-1.012914895982085000e+02,-9.613572646589454962e+01,-1.199374555347549176e+02,-1.109345528238300176e+02,-1.140679729913535994e+02,-1.016114875438297531e+02,9.484992027282714844e+00,-8.414105772972106934e-01,7.649187743663787842e-02,5.720000000000000000e+02
-1.299375289405516014e+02,-1.138769951733438575e+02,-9.902744380667718360e+01,-9.367652702093710104e+01,-1.195009968324102374e+02,-1.114082824402594269e+02,-1.146611035435962549e+02,-1.015472811880199515e+02,9.484992027282714844e+00,-8.414105772972106934e-01,7.649187743663787842e-02,5.730000000000000000e+02
-1.258390952521785948e+02,-1.102805128029958723e+02,-9.485943358226541022e+01,-9.005303020420342364e+01,-1.170838841083514126e+02,-1.100070159077240532e+02,-1.124463510850600869e+02,-9.841986527032622689e+01,9.484992027282714844e+00,-8.414105772972106934e-01,7.649187743663787842e-02,5.740000000000000000e+02
-1.225845174895566743e+02,-1.067657354625434891e+02,-9.026200228714515106e+01,-8.619152510512503795e+01,-1.136473167993735842e+02,-1.073753538014498190e+02,-1.081522079639635194e+02,-9.394906096668819373e+01,9.484992027282714844e+00,-8.414105772972106934e-01,7.649187743663787842e-02,5.750000000000000000e+02
-1.210378133857957437e+02,-1.042956466382847793e+02,-8.667222931209289527e+01,-8.271488687497731007e+01,-1.106164891503103718e+02,-1.047019861922817654e+02,-1.031480292120450031e+02,-9.024861851248351741e+01,9.484992027282714844e+00,-8.414105772972106934e-01,7.649187743663787842e-02,5.760000000000000000e+02
-1.203965660288704385e+02,-1.025131949126607651e+02,-8.430610182666350738e+01,-7.939899473559853504e+01,-1.086081460436435009e+02,-1.025839000370233407e+02,-9.841151946667196171e+01,-8.787236983492039144e+01,9.484992027282714844e+00,-8.414105772972106934e-01,7.649187743663787842e-02,5.770000000000000000e+02
-1.195284590776063851e+02,-1.004331650102367348e+02,-8.255690472496462462e+01,-7.589605191734153777e+01,-1.072721184092624753e+02,-1.008709995349072415e+02,-9.425470299522203277e+01,-8.605510989314461767e+01,9.484992027282714844e+00,-8.414105772972106934e-01,7.649187743663787842e-02,5.780000000000000000e+02
-1.190632400728900393e+02,-9.817833728464211163e+01,-8.156364579190267250e+01,-7.307169400772545487e+01,-1.063555005363050441e+02,-9.964805744945988408e+01,-9.100359762555490306e+01,-8.473568476904256386e+01,9.408499717712402344e+00,-8.796565532684326172e-01,0.000000000000000000e+00,5.790000000000000000e+02
-1.215652732114504033e+02,-9.771546194446091249e+01,-8.292412139098451007e+01,-7.315207206763079739e+01,-1.066103709620747395e+02,-1.000086002817261033e+02,-8.963279003940624534e+01,-8.564009548701687891e+01,9.408499717712402344e+00,-8.796565532684326172e-01,0.000000000000000000e+00,5.800000000000000000e+02
-1.289177638503460912e+02,-1.012894019673749426e+02,-8.823468731172943080e+01,-7.784978923122253036e+01,-1.092376023911692755e+02,-1.033341587302384141e+02,-9.130870706384484947e+01,-9.062153726782889862e+01,9.408499717712402344e+00,-8.796565532684326172e-01,0.000000000000000000e+00,5.810000000000000000e+02
-1.392728763594350312e+02,-1.087175254874846360e+02,-9.661616502729884814e+01,-8.594347671062678273e+01,-1.141965526029071043e+02,-1.094833672317145101e+02,-9.602974746255313221e+01,-9.873023607576578797e+01,9.408499717712402344e+00,-8.796565532684326172e-01,0.000000000000000000e+00,5.820000000000000000e+02
-1.469319930850615492e+02,-1.162370442406545408e+02,-1.038662908520327619e+02,-9.284654379954372416e+01,-1.191074651674389315e+02,-1.157241339322627027e+02,-1.017090729400915734e+02,-1.053022278851130977e+02,9.408499717712402344e+00,-8.796565532684326172e-01,0.000000000000000000e+00,5.830000000000000000e+02
-1.459711149504146306e+02,-1.184451312475666782e+02,-1.046458980258121301e+02,-9.316855197169206804e+01,-1.201549786025825597e+02,-1.178373157511632598e+02,-1.048668305029677867e+02,-1.046503265024202847e+02,9.408499717712402344e+00,-8.796565532684326172e-01,0.000000000000000000e+00,5.840000000000000000e+02
-1.347081937699422269e+02,-1.120119826215031935e+02,-9.620599829829916416e+01,-8.443522220753038710e+01,-1.145684210221261310e+02,-1.128373646289619501e+02,-1.026700635652541678e+02,-9.431053316506768169e+01,9.408499717712402344e+00,-8.796565532684326172e-01,0.000000000000000000e+00,5.850000000000000000e+02
-1.170112666769764473e+02,-9.806957495392543933e+01,-8.048371814221900422e+01,-6.881325502620529733e+01,-1.026528801006697904e+02,-1.011124418471208628e+02,-9.473303269423195161e+01,-7.701378077440858760e+01,9.408499717712402344e+00,-8.796565532684326172e-01,0.000000000000000000e+00,5.860000000000000000e+02
-9.928257303072132345e+01,-8.129035011675296118e+01,-6.274831337472096493e+01,-5.138233461536765390e+01,-8.763297898096061544e+01,-8.617479140039358754e+01,-8.320855947777818074e+01,-5.861832533905544551e+01,9.408499717712402344e+00,-8.796565532684326172e-01,0.000000000000000000e+00,5.870000000000000000e+02
-8.588898605463509739e+01,-6.657004089173187822e+01,-4.801432358569400094e+01,-3.652973814076540293e+01,-7.346374936772190267e+01,-7.224518014607019722e+01,-7.116146346215282392e+01,-4.393271169670515519e+01,9.408499717712402344e+00,-8.796565532684326172e-01,0.000000000000000000e+00,5.880000000000000000e+02
-7.693393408261363220e+01,-5.608705096462654183e+01,-3.817430373962815793e+01,-2.549524623641627841e+01,-6.241372538939140213e+01,-6.164399959047477751e+01,-6.061057115682342555e+01,-3.400814552447809547e+01,9.408499717712402344e+00,-8.796565532684326172e-01,0.000000000000000000e+00,5.890000000000000000e+02
-6.972269483086165565e+01,-4.879801272924487421e+01,-3.181220723145816009e+01,-1.673587293294076517e+01,-5.420563633383790147e+01,-5.389987322885644971e+01,-5.172655402998861973e+01,-2.671918596390605671e+01,9.408499717712402344e+00,-8.796565532684326172e-01,0.000000000000000000e+00,5.900000000000000000e+02
-6.188235600963889738e+01,-4.217791878117895976e+01,-2.620508374284690944e+01,-8.171519094341419986e+00,-4.701144561193177651e+01,-4.689723649065672362e+01,-4.352786474920867477e+01,-1.939078177280134696e+01,9.408499717712402344e+00,-8.796565532684326172e-01,0.000000000000000000e+00,5.910000000000000000e+02
-5.314637105615474866e+01,-3.441439986258319550e+01,-1.950744094907895487e+01,9.409095391420123633e-01,-3.915876995025610086e+01,-3.884375464935328637e+01,-3.518530581147933844e+01,-1.093867149885954859e+01,9.408499717712402344e+00,-8.796565532684326172e-01,0.000000000000000000e+00,5.920000000000000000e+02
-4.476934353501019359e+01,-2.548775107864275924e+01,-1.162969492912088754e+01,9.827151010467787273e+00,-3.022048719489976065e+01,-2.955740484028683568e+01,-2.679739259304551524e+01,-2.182797668636339949e+00,9.408499717712402344e+00,-8.796565532684326172e-01,0.000000000000000000e+00,5.930000000000000000e+02
-3.792288565667877265e+01,-1.683167616780701792e+01,-3.782064410637758556e+00,1.723777926861475862e+01,-2.101677654032209830e+01,-2.041092740402018535e+01,-1.921001575563423103e+01,5.156945506383635802e+00,9.408499717712402344e+00,-8.796565532684326172e-01,0.000000000000000000e+00,5.940000000000000000e+02
-3.280113186615926679e+01,-1.017489028750424040e+01,2.541019752086867811e+00,2.249293065811434644e+01,-1.290152515283989487e+01,-1.324658609534890275e+01,-1.326575280332690454e+01,9.662179671202466125e+00,9.408499717712402344e+00,-8.796565532684326172e-01,0.000000000000000000e+00,5.950000000000000000e+02
-2.879925510610883066e+01,-6.299244429201280582e+00,6.517982790070163901e+00,2.586934033358011220e+01,-6.910153293785697315e+00,-9.056721299984928919e+00,-9.125609653932770016e+00,1.104373840914195171e+01,9.408499717712402344e+00,-8.796565532684326172e-01,0.000000000000000000e+00,5.960000000000000000e+02
-2.501893966629722854e+01,-4.323845654233082314e+00,8.590570443442629767e+00,2.845947720002732240e+01,-3.154482719968655147e+00,-7.215244332477595890e+00,-6.067622023801959585e+00,1.049203834299260052e+01,9.408499717712402344e+00,-8.796565532684326172e-01,0.000000000000000000e+00,5.970000000000000000e+02
-2.063005996924766805e+01,-2.046731316957448144e+00,1.033483266360235575e+01,3.172258142950886395e+01,-7.361340335664863233e-01,-5.782704766475944780e+00,-2.857420381005795207e+00,1.028894348913308932e+01,9.408499717712402344e+00,-8.796565532684326172e-01,0.000000000000000000e+00,5.980000000000000000e+02
-1.531914382968534483e+01,2.549391806118364912e+00,1.339265915088071779e+01,3.671511847858164401e+01,1.659686330480326433e+00,-2.821313363860099344e+00,1.469265808806085261e+00,1.248265791524318047e+01,9.408499717712402344e+00,-8.796565532684326172e-01,0.000000000000000000e+00,5.990000000000000000e+02
-9.828186263310271897e+00,9.539441935461582034e+00,1.805446737200873031e+01,4.325056264690829266e+01,4.790739616786595434e+00,2.156645195609598886e+00,6.874572484139207518e+00,1.736901445938747202e+01,9.484992027282714844e+00,-8.031646609306335449e-01,0.000000000000000000e+00,6.000000000000000000e+02
-5.811211087611809489e+00,1.666169670639828837e+01,2.284900529910919431e+01,4.977032079177479318e+01,8.341779243113705888e+00,7.863396910815936280e+00,1.227904020723872236e+01,2.327482717775455967e+01,9.484992027282714844e+00,-8.031646609306335449e-01,0.000000000000000000e+00,6.010000000000000000e+02
-4.411560801339874160e+00,2.111578291751902725e+01,2.596411444639488764e+01,5.450546875069085218e+01,1.155279569578124210e+01,1.257036174230961478e+01,1.651500666817810270e+01,2.832425088879244868e+01,9.484992027282714844e+00,-8.031646609306335449e-01,0.000000000000000000e+00,6.020000000000000000e+02
-4.504581765240800451e+00,2.229520596349539119e+01,2.746096786591260752e+01,5.724271921295621723e+01,1.457112759248411749e+01,1.607529559813337983e+01,1.965000938751836657e+01,3.274988427679818415e+01,9.484992027282714844e+00,-8.031646609306335449e-01,0.000000000000000000e+00,6.030000000000000000e+02
-2.745447621886341949e+00,2.278609149819203594e+01,2.989011248160386458e+01,5.989097911277349340e+01,1.900278972090382013e+01,2.029160245572347776e+01,2.335843152229062980e+01,3.910705652736032789e+01,9.484992027282714844e+00,-8.031646609306335449e-01,0.000000000000000000e+00,6.040000000000000000e+02
3.628277205431004404e+00,2.614176597545520053e+01,3.601022959886904573e+01,6.472543616854636639e+01,2.653905976598616689e+01,2.742824190591272782e+01,2.954530447144134087e+01,4.942546676112760906e+01,9.484992027282714844e+00,-8.031646609306335449e-01,0.000000000000000000e+00,6.050000000000000000e+02
1.327218418373195163e+01,3.306756398004472430e+01,4.528452174265112262e+01,7.149951732654699299e+01,3.650446121204731753e+01,3.710971639404669986e+01,3.809541104768868536e+01,6.166356837923922285e+01,9.484992027282714844e+00,-8.031646609306335449e-01,0.000000000000000000e+00,6.060000000000000000e+02
2.016075069118232932e+01,3.969254626191650459e+01,5.271812720027446630e+01,7.629925503051163105e+01,4.482038992830712232e+01,4.529163585679998505e+01,4.588447331440329435e+01,6.934411761448973266e+01,9.484992027282714844e+00,-8.031646609306335449e-01,0.000000000000000000e+00,6.070000000000000000e+02
1.758115806098066969e+01,4.013651009041677753e+01,5.200707242731004953e+01,7.394030917994678020e+01,4.615335327069260529e+01,4.662532477383865626e+01,4.848484247092346777e+01,6.581207006888507749e+01,9.484992027282714844e+00,-8.031646609306335449e-01,0.000000000000000000e+00,6.080000000000000000e+02
3.922436577980988659e+00,3.159032136889072717e+01,4.089058628715429222e+01,6.240355881111827330e+01,3.808916768810740905e+01,3.873514335250001750e+01,4.360067333958068048e+01,5.002309057714046503e+01,9.484992027282714844e+00,-8.031646609306335449e-01,0.000000000000000000e+00,6.090000000000000000e+02
-1.488892178390233312e+01,1.741013597853270767e+01,2.399087085065912106e+01,4.544710730977385538e+01,2.379799924302278669e+01,2.475714867905116989e+01,3.335873394926238689e+01,2.867899914709778386e+01,9.484992027282714844e+00,-8.031646609306335449e-01,0.000000000000000000e+00,6.100000000000000000e+02
-2.889701329841409461e+01,5.269789703073911369e+00,1.027297082489167224e+01,3.078508783380675595e+01,1.054004163977515418e+01,1.174786402413883479e+01,2.329045392181069474e+01,1.238037814513154444e+01,9.484992027282714844e+00,-8.031646609306335449e-01,0.000000000000000000e+00,6.110000000000000000e+02
-3.093000491936982144e+01,1.805546655985381221e+00,6.960682545617601136e+00,2.505696223541417567e+01,4.927250493608880788e+00,6.131033860554452986e+00,1.868451349200404366e+01,8.680922644794918597e+00,9.484992027282714844e+00,-8.031646609306335449e-01,0.000000000000000000e+00,6.120000000000000000e+02
-2.113243031152524054e+01,8.238584221149721998e+00,1.488078882495028665e+01,2.965159283661523659e+01,8.760400723589555128e+00,9.873123082179517951e+00,2.128433722585759824e+01,1.762318988253537100e+01,9.484992027282714844e+00,-8.031646609306335449e-01,0.000000000000000000e+00,6.130000000000000000e+02
-5.803331252693169517e+00,2.035552431975338550e+01,2.880206771451412351e+01,4.058302020769042429e+01,1.867537400702349260e+01,2.019685382035459043e+01,2.886450812142356881e+01,3.295518503375205910e+01,9.484992027282714844e+00,-8.031646609306335449e-01,0.000000000000000000e+00,6.140000000000000000e+02
