F3,F4,C3,C4,P3,P4,Cz,Pz,Accel_x,Accel_y,Accel_z,Sample
-3.910827217623591423e-11,-2.364686224609613419e-11,-2.637534635141491890e-11,-4.547473508864641190e-11,-6.093614501878619194e-11,-4.456524038687348366e-11,-5.729816621169447899e-11,-3.365130396559834480e-11,9.484992027282714844e+00,-7.649186849594116211e-01,1.529837548732757568e-01,2.260000000000000000e+02
-2.873947304522062041e+01,-1.565636629972686933e+01,-1.173181203343119705e+01,-1.418584472095972160e+01,-1.470264802156452788e+01,-2.613531989549119317e+01,-1.007014419834104046e+01,-2.605868748795273859e+01,9.484992027282714844e+00,-7.649186849594116211e-01,1.529837548732757568e-01,2.270000000000000000e+02
-5.493197294961828447e+01,-3.151932853061680362e+01,-2.492574449539461057e+01,-2.663052370933974089e+01,-4.061434178194940614e+01,-5.505733528890050366e+01,-3.005516282579537801e+01,-4.634804372728467570e+01,9.484992027282714844e+00,-7.649186849594116211e-01,1.529837548732757568e-01,2.280000000000000000e+02
-7.857780550090228644e+01,-4.729265818955445866e+01,-3.976969503966392949e+01,-3.674196807093085226e+01,-7.853549118701084808e+01,-8.615503251026711951e+01,-6.034912772346342535e+01,-5.967878950804424676e+01,9.484992027282714844e+00,-7.649186849594116211e-01,1.529837548732757568e-01,2.290000000000000000e+02
-1.022999485802138224e+02,-6.249700030456324384e+01,-5.526705690994367615e+01,-4.544665701545955017e+01,-1.188492216609811294e+02,-1.158488639928345947e+02,-9.199222499548159249e+01,-6.976207178760569150e+01,9.484992027282714844e+00,-7.649186849594116211e-01,1.529837548732757568e-01,2.300000000000000000e+02
-1.289722857371716600e+02,-7.737566010820273732e+01,-7.055821212727460079e+01,-5.459549882811370480e+01,-1.514360625968874956e+02,-1.414271737080189268e+02,-1.159807080915197730e+02,-8.135565093784589408e+01,9.484992027282714844e+00,-7.649186849594116211e-01,1.529837548732757568e-01,2.310000000000000000e+02
-1.592605823737349056e+02,-9.326796426495229753e+01,-8.598572706248251052e+01,-6.587824702855095893e+01,-1.749901056368371428e+02,-1.640946947705988350e+02,-1.318004383700217659e+02,-9.632502372057933826e+01,9.484992027282714844e+00,-7.649186849594116211e-01,1.529837548732757568e-01,2.320000000000000000e+02
-1.912212683069537889e+02,-1.117163869999658345e+02,-1.026662849538060982e+02,-7.991846580636001818e+01,-1.966379636747888071e+02,-1.879250507169354023e+02,-1.467343564117663846e+02,-1.131639057463967220e+02,9.446745872497558594e+00,-8.414105772972106934e-01,1.147378161549568176e-01,2.330000000000000000e+02
-2.219356808718612228e+02,-1.329308109290418543e+02,-1.209908189711613886e+02,-9.599565640046284898e+01,-2.234268034578590232e+02,-2.158635757546635432e+02,-1.675913400565750635e+02,-1.295794775210320040e+02,9.446745872497558594e+00,-8.414105772972106934e-01,1.147378161549568176e-01,2.340000000000000000e+02
-2.494529894676952608e+02,-1.551147850389588712e+02,-1.397459241035448940e+02,-1.124863179357648733e+02,-2.553203141546118786e+02,-2.470262770024464771e+02,-1.940576721946581529e+02,-1.449346468620724409e+02,9.446745872497558594e+00,-8.414105772972106934e-01,1.147378161549568176e-01,2.350000000000000000e+02
-2.735134809226128709e+02,-1.754453180124801293e+02,-1.569063039458942512e+02,-1.277339583165517070e+02,-2.865502819793346134e+02,-2.779182693513939739e+02,-2.201230949845057694e+02,-1.602038629529988611e+02,9.446745872497558594e+00,-8.414105772972106934e-01,1.147378161549568176e-01,2.360000000000000000e+02
-2.949819876553729046e+02,-1.919174249183151915e+02,-1.712924018319617971e+02,-1.408091630561675629e+02,-3.125464217998878667e+02,-3.058970485873069265e+02,-2.408722473718025867e+02,-1.761449537067096571e+02,9.446745872497558594e+00,-8.414105772972106934e-01,1.147378161549568176e-01,2.370000000000000000e+02
-3.149146224678029284e+02,-2.044696826168706139e+02,-1.833262724891819744e+02,-1.516861519357621546e+02,-3.342833133885360439e+02,-3.310969766621838062e+02,-2.568514594424723327e+02,-1.920078531642730013e+02,9.446745872497558594e+00,-8.414105772972106934e-01,1.147378161549568176e-01,2.380000000000000000e+02
-3.339796539787689653e+02,-2.145377608750068248e+02,-1.940859120732311567e+02,-1.607674765297838348e+02,-3.558424212641639315e+02,-3.551274195453770517e+02,-2.719612245281214200e+02,-2.059843472378429396e+02,9.446745872497558594e+00,-8.414105772972106934e-01,1.147378161549568176e-01,2.390000000000000000e+02
-3.523610506297686698e+02,-2.237209082032113656e+02,-2.038100902315859457e+02,-1.682886886101673554e+02,-3.789547842745359958e+02,-3.785481762396939303e+02,-2.883294685349828796e+02,-2.166238766675660372e+02,9.446745872497558594e+00,-8.414105772972106934e-01,1.147378161549568176e-01,2.400000000000000000e+02
-3.700526707352664744e+02,-2.329442624304870151e+02,-2.117204464477404144e+02,-1.743189969131749422e+02,-4.011594168052160967e+02,-4.002244563388430834e+02,-3.043423968913411954e+02,-2.238895248786793672e+02,9.446745872497558594e+00,-8.414105772972106934e-01,1.147378161549568176e-01,2.410000000000000000e+02
-3.873640172668151536e+02,-2.426797325738384643e+02,-2.175164484994475060e+02,-1.794017644342734457e+02,-4.193388769279508779e+02,-4.191374578769809887e+02,-3.175500338814254064e+02,-2.293392924702611708e+02,9.446745872497558594e+00,-8.414105772972106934e-01,1.147378161549568176e-01,2.420000000000000000e+02
-4.051903283123192523e+02,-2.535147756041124012e+02,-2.228084666366389683e+02,-1.849937353649388569e+02,-4.341113110671940376e+02,-4.362570697338605896e+02,-3.284677201109952875e+02,-2.355364454132204628e+02,9.446745872497558594e+00,-8.414105772972106934e-01,1.147378161549568176e-01,2.430000000000000000e+02
-4.245399944197697550e+02,-2.660595400429210713e+02,-2.305214380781922046e+02,-1.928076870345612406e+02,-4.498917449410109839e+02,-4.540353037047480029e+02,-3.406755098492922116e+02,-2.448460478014526416e+02,9.446745872497558594e+00,-8.414105772972106934e-01,1.147378161549568176e-01,2.440000000000000000e+02
-4.454742542846656761e+02,-2.802027418921531989e+02,-2.424590813264785538e+02,-2.033197047150524668e+02,-4.706134409860142114e+02,-4.739452088489415473e+02,-3.572057993529833766e+02,-2.579645946538062162e+02,9.446745872497558594e+00,-8.414105772972106934e-01,1.147378161549568176e-01,2.450000000000000000e+02
-4.666217107010465952e+02,-2.948445498675544059e+02,-2.575251306587128965e+02,-2.150022486082930300e+02,-4.959339479369073160e+02,-4.949131219710807272e+02,-3.774167359287021100e+02,-2.732491540855044150e+02,9.446745872497558594e+00,-8.414105772972106934e-01,1.147378161549568176e-01,2.460000000000000000e+02
-4.863832757803811546e+02,-3.089611226150993843e+02,-2.728135102909650413e+02,-2.256106019163512428e+02,-5.219853031332741011e+02,-5.146681244875881021e+02,-3.977596436968851776e+02,-2.880202555078981277e+02,9.446745872497558594e+00,-8.414105772972106934e-01,1.147378161549568176e-01,2.470000000000000000e+02
-5.052731738457205211e+02,-3.233385889875232806e+02,-2.869091348481692876e+02,-2.348756415322068278e+02,-5.457647018995398867e+02,-5.328813032501875568e+02,-4.155466576383942083e+02,-3.014245066194266656e+02,9.446745872497558594e+00,-8.414105772972106934e-01,1.147378161549568176e-01,2.480000000000000000e+02
-5.270574092014621783e+02,-3.411315788979429726e+02,-3.021495466602614215e+02,-2.460611412930111328e+02,-5.685372292650636155e+02,-5.528181546703967797e+02,-4.317917070637577126e+02,-3.163712212923378502e+02,9.446745872497558594e+00,-8.414105772972106934e-01,1.147378161549568176e-01,2.490000000000000000e+02
-5.567785670797807143e+02,-3.660921840459523082e+02,-3.232084682863378475e+02,-2.643148199609663607e+02,-5.948690791552480732e+02,-5.794602812787984476e+02,-4.504244719482703658e+02,-3.380668788535699605e+02,9.446745872497558594e+00,-8.414105772972106934e-01,1.147378161549568176e-01,2.500000000000000000e+02
-5.965807685853287694e+02,-3.994731726998868453e+02,-3.528437065134726254e+02,-2.925629524901019067e+02,-6.283397497987207316e+02,-6.154400830777440206e+02,-4.748651373580987638e+02,-3.695609647229339316e+02,9.446745872497558594e+00,-8.414105772972106934e-01,1.147378161549568176e-01,2.510000000000000000e+02
-6.427833799063419065e+02,-4.380933009705295262e+02,-3.885396589136762486e+02,-3.282523466029911106e+02,-6.679185530426384503e+02,-6.582614711626538337e+02,-5.051264885072432662e+02,-4.079573108438517011e+02,9.446745872497558594e+00,-8.414105772972106934e-01,1.147378161549568176e-01,2.520000000000000000e+02
-6.870365438479807381e+02,-4.753216536656805147e+02,-4.231304101607497614e+02,-3.638856806304947895e+02,-7.080075180624226050e+02,-7.011884044360581356e+02,-5.376536038598596861e+02,-4.449125619355304480e+02,9.446745872497558594e+00,-8.414105772972106934e-01,1.147378161549568176e-01,2.530000000000000000e+02
-7.209377657258273757e+02,-5.043619414053698620e+02,-4.489351646174527559e+02,-3.911585987927996939e+02,-7.417376531567415441e+02,-7.370153881981159429e+02,-5.674789236858800905e+02,-4.714481345670801602e+02,9.446745872497558594e+00,-8.414105772972106934e-01,1.147378161549568176e-01,2.540000000000000000e+02
-7.405019714595355254e+02,-5.214396771080894268e+02,-4.619991358210877479e+02,-4.055175902639662127e+02,-7.647165473579107129e+02,-7.617576089233434686e+02,-5.907086198604533820e+02,-4.833165900216540649e+02,9.446745872497558594e+00,-8.414105772972106934e-01,1.147378161549568176e-01,2.550000000000000000e+02
-7.473907991082010085e+02,-5.269473522208743361e+02,-4.635027441066681604e+02,-4.079580587518089487e+02,-7.768353771126076026e+02,-7.759218849215794762e+02,-6.058843352480002977e+02,-4.829452943757196408e+02,9.446745872497558594e+00,-8.414105772972106934e-01,1.147378161549568176e-01,2.560000000000000000e+02
-7.470155075567954555e+02,-5.245573770944647549e+02,-4.583153075796385565e+02,-4.035502398752178124e+02,-7.817654717515406446e+02,-7.833618224520441800e+02,-6.141249369620968537e+02,-4.773070083085594888e+02,9.446745872497558594e+00,-8.414105772972106934e-01,1.147378161549568176e-01,2.570000000000000000e+02
-7.459246186103823675e+02,-5.196472798784159295e+02,-4.527314365029951659e+02,-3.986341773918879881e+02,-7.852557931061669478e+02,-7.893132914670964055e+02,-6.186384548366572744e+02,-4.741513191569110859e+02,9.446745872497558594e+00,-8.414105772972106934e-01,1.147378161549568176e-01,2.580000000000000000e+02
-7.501928871138024988e+02,-5.179380775581257694e+02,-4.528302723843289641e+02,-3.986630406145620782e+02,-7.932178712549780357e+02,-7.988192948462515233e+02,-6.238210872453241791e+02,-4.791884926775160238e+02,9.446745872497558594e+00,-8.414105772972106934e-01,1.147378161549568176e-01,2.590000000000000000e+02
-7.643015769999647091e+02,-5.240724024815826851e+02,-4.630613061240960633e+02,-4.069632609872480771e+02,-8.098236890847692848e+02,-8.154652698125305506e+02,-6.337366248253856611e+02,-4.947457032398142474e+02,9.523238182067871094e+00,-8.031646609306335449e-01,1.147378161549568176e-01,2.600000000000000000e+02
-7.893638116165502652e+02,-5.397484230566924452e+02,-4.843058636597793338e+02,-4.236893980528116117e+02,-8.357470606543906797e+02,-8.399914666996692176e+02,-6.501716873636469245e+02,-5.190898127856885367e+02,9.523238182067871094e+00,-8.031646609306335449e-01,1.147378161549568176e-01,2.610000000000000000e+02
-8.213714415674271550e+02,-5.622453889366088333e+02,-5.122875694873609973e+02,-4.451294680573664664e+02,-8.673115812510200158e+02,-8.693329935058391129e+02,-6.713262855702128036e+02,-5.464602294896908461e+02,9.523238182067871094e+00,-8.031646609306335449e-01,1.147378161549568176e-01,2.620000000000000000e+02
-8.518456212847891038e+02,-5.850751249808008652e+02,-5.385023286143496080e+02,-4.646756996238689226e+02,-8.976700136787007978e+02,-8.974451623189306702e+02,-6.924448980234624287e+02,-5.689197690227415478e+02,9.523238182067871094e+00,-8.031646609306335449e-01,1.147378161549568176e-01,2.630000000000000000e+02
-8.720613909859530395e+02,-6.013658410253488000e+02,-5.544821324480203657e+02,-4.760856643731924578e+02,-9.200977688135230892e+02,-9.183294055118412871e+02,-7.085032505536255485e+02,-5.802516941903450061e+02,9.523238182067871094e+00,-8.031646609306335449e-01,1.147378161549568176e-01,2.640000000000000000e+02
-8.784936534777525594e+02,-6.080466582386959544e+02,-5.569602035802467981e+02,-4.773083046056792682e+02,-9.316367928926702007e+02,-9.295672720613533784e+02,-7.172922120444650318e+02,-5.797095241481918038e+02,9.523238182067871094e+00,-8.031646609306335449e-01,1.147378161549568176e-01,2.650000000000000000e+02
-8.750934189467457145e+02,-6.075756553453061315e+02,-5.498471476686677306e+02,-4.717598571472924505e+02,-9.345340518621137562e+02,-9.336296199709709072e+02,-7.205846143549474618e+02,-5.724461705421185798e+02,9.523238182067871094e+00,-8.031646609306335449e-01,1.147378161549568176e-01,2.660000000000000000e+02
-8.701309402265094377e+02,-6.056197296170323625e+02,-5.411002715155418628e+02,-4.655889749069669961e+02,-9.342628374215560143e+02,-9.357248864124380816e+02,-7.223948193878759412e+02,-5.657582451844914431e+02,9.523238182067871094e+00,-8.031646609306335449e-01,1.147378161549568176e-01,2.670000000000000000e+02
-8.700274408855941601e+02,-6.065534844176036131e+02,-5.369069514520056146e+02,-4.629857399903182795e+02,-9.356076117968532344e+02,-9.398808707336688713e+02,-7.257664301378163145e+02,-5.639413287928675800e+02,9.523238182067871094e+00,-8.031646609306335449e-01,1.147378161549568176e-01,2.680000000000000000e+02
-8.753002379587617270e+02,-6.105408609469668590e+02,-5.379229879308945783e+02,-4.634823909512829232e+02,-9.398310970010138590e+02,-9.464673908338290858e+02,-7.307415028677050941e+02,-5.659318030536423976e+02,9.523238182067871094e+00,-8.031646609306335449e-01,1.147378161549568176e-01,2.690000000000000000e+02
-8.816922050359976311e+02,-6.144229980150953452e+02,-5.402965689931188535e+02,-4.633929743298122048e+02,-9.449057136398841976e+02,-9.529512559760282784e+02,-7.350459918607734835e+02,-5.673801983037176342e+02,9.523238182067871094e+00,-8.031646609306335449e-01,1.147378161549568176e-01,2.700000000000000000e+02
-8.848166385307006294e+02,-6.151490906313395044e+02,-5.399023842005649385e+02,-4.597134037443490797e+02,-9.481671888133719222e+02,-9.567559901733802690e+02,-7.366158957123566324e+02,-5.648390758992650262e+02,9.523238182067871094e+00,-8.031646609306335449e-01,1.147378161549568176e-01,2.710000000000000000e+02
-8.838424419692544234e+02,-6.123892698860431665e+02,-5.357149555105097534e+02,-4.527260964371084810e+02,-9.487811371502825750e+02,-9.574238943602772451e+02,-7.354828551370087553e+02,-5.582795463282716355e+02,9.523238182067871094e+00,-8.031646609306335449e-01,1.147378161549568176e-01,2.720000000000000000e+02
-8.813121451446802439e+02,-6.081984321552846495e+02,-5.297408547261297826e+02,-4.451825346428825014e+02,-9.480023495966479459e+02,-9.564090739151920388e+02,-7.333907840295833012e+02,-5.502752424539185085e+02,9.523238182067871094e+00,-8.031646609306335449e-01,1.147378161549568176e-01,2.730000000000000000e+02
-8.801328548878602760e+02,-6.046647960100286809e+02,-5.244977186160085694e+02,-4.394175294057235988e+02,-9.475826770016510636e+02,-9.553519620485903943e+02,-7.319118681207182817e+02,-5.434101560104497821e+02,9.523238182067871094e+00,-8.031646609306335449e-01,1.147378161549568176e-01,2.740000000000000000e+02
-8.810825152972206524e+02,-6.021839117399609904e+02,-5.209563205710830971e+02,-4.354840606023669807e+02,-9.482486384182561778e+02,-9.548824926724846591e+02,-7.311726681840973470e+02,-5.386182694657952652e+02,9.523238182067871094e+00,-8.031646609306335449e-01,1.147378161549568176e-01,2.750000000000000000e+02
-8.829810172129737111e+02,-5.998774980740347473e+02,-5.186680782965888739e+02,-4.318952451287159420e+02,-9.496197521794856584e+02,-9.549270529206396532e+02,-7.303717352899116122e+02,-5.355719658435994006e+02,9.523238182067871094e+00,-8.031646609306335449e-01,1.147378161549568176e-01,2.760000000000000000e+02
-8.847107578287675551e+02,-5.972485847845848639e+02,-5.172338839184510562e+02,-4.277269982292259556e+02,-9.511986497722491549e+02,-9.556369161142092707e+02,-7.292361065748873443e+02,-5.339899900888092361e+02,9.523238182067871094e+00,-8.031646609306335449e-01,1.147378161549568176e-01,2.770000000000000000e+02
-8.866579986700289737e+02,-5.950569424410322199e+02,-5.171335743404135883e+02,-4.236875008000624803e+02,-9.531038761515001170e+02,-9.575814219380399663e+02,-7.286702082315987354e+02,-5.341824269251746955e+02,9.523238182067871094e+00,-8.031646609306335449e-01,1.147378161549568176e-01,2.780000000000000000e+02
-8.902083671413404318e+02,-5.945485478531702483e+02,-5.190913305583267174e+02,-4.212365258261677354e+02,-9.558610328603008384e+02,-9.610378572690506189e+02,-7.299296179023144759e+02,-5.364407975295907818e+02,9.523238182067871094e+00,-8.031646609306335449e-01,1.147378161549568176e-01,2.790000000000000000e+02
-8.961126997947130803e+02,-5.960626387833327726e+02,-5.229173943459545626e+02,-4.210011312446119973e+02,-9.597347540063140059e+02,-9.654170346870137109e+02,-7.332989962643819126e+02,-5.402503690409653245e+02,9.523238182067871094e+00,-8.031646609306335449e-01,1.147378161549568176e-01,2.800000000000000000e+02
-9.035336520736486818e+02,-5.986071457107822198e+02,-5.272376008632065805e+02,-4.222736424540119060e+02,-9.644433217111459271e+02,-9.696767385543582805e+02,-7.377027539418709239e+02,-5.443435502671557060e+02,9.523238182067871094e+00,-8.031646609306335449e-01,1.147378161549568176e-01,2.810000000000000000e+02
-9.106610922263596422e+02,-6.008076489477766700e+02,-5.304286330823374556e+02,-4.239729021815364831e+02,-9.694660019800967348e+02,-9.733311879076034074e+02,-7.415811033035029141e+02,-5.475688274037693191e+02,9.523238182067871094e+00,-8.031646609306335449e-01,1.147378161549568176e-01,2.820000000000000000e+02
-9.161682377800916584e+02,-6.021762131087828038e+02,-5.318433804657850033e+02,-4.258566751648525042e+02,-9.744798745642324320e+02,-9.769379699414912466e+02,-7.440828173723134569e+02,-5.497189192398041087e+02,9.523238182067871094e+00,-8.031646609306335449e-01,1.147378161549568176e-01,2.830000000000000000e+02
-9.201407765580361229e+02,-6.034454991645661721e+02,-5.322630408230304511e+02,-4.286760847057087176e+02,-9.795066276498212119e+02,-9.815367719342593773e+02,-7.455013881765798942e+02,-5.515925520098098787e+02,9.523238182067871094e+00,-8.031646609306335449e-01,1.147378161549568176e-01,2.840000000000000000e+02
-9.238009413301715540e+02,-6.057911116835520033e+02,-5.333186207740161535e+02,-4.332316321418006737e+02,-9.847940920967052989e+02,-9.876571378605717655e+02,-7.467874091472872351e+02,-5.543243940861254941e+02,9.523238182067871094e+00,-8.031646609306335449e-01,1.147378161549568176e-01,2.850000000000000000e+02
-9.284688100861180828e+02,-6.098396592392164166e+02,-5.364339931954111762e+02,-4.394107885489918317e+02,-9.906488818187151537e+02,-9.948925691149761406e+02,-7.487884602535468730e+02,-5.585478411190206316e+02,9.523238182067871094e+00,-8.031646609306335449e-01,1.147378161549568176e-01,2.860000000000000000e+02
-9.346823096073835586e+02,-6.153602908303419099e+02,-5.419915887887502777e+02,-4.461323428946448075e+02,-9.972511404264239445e+02,-1.002322617924406131e+03,-7.518379536717370684e+02,-5.639369693464050215e+02,9.523238182067871094e+00,-8.031646609306335449e-01,1.147378161549568176e-01,2.870000000000000000e+02
-9.420549103248019946e+02,-6.216941845803910383e+02,-5.491300409757438956e+02,-4.521118493373689944e+02,-1.004402362335910539e+03,-1.009208859754659215e+03,-7.557844673931404031e+02,-5.693883089498499430e+02,9.523238182067871094e+00,-8.031646609306335449e-01,1.147378161549568176e-01,2.880000000000000000e+02
-9.497749120642147318e+02,-6.282922353232653450e+02,-5.562456597882940059e+02,-4.566607307857511273e+02,-1.011410284923307017e+03,-1.015331542265328380e+03,-7.602422735572420152e+02,-5.737678138472851970e+02,9.523238182067871094e+00,-8.031646609306335449e-01,1.147378161549568176e-01,2.890000000000000000e+02
-9.572143885595908159e+02,-6.348104767736681424e+02,-5.619404373075275316e+02,-4.598853244855520757e+02,-1.017413755269895773e+03,-1.020885496064501808e+03,-7.648830357409278804e+02,-5.767937046850544220e+02,9.523238182067871094e+00,-8.031646609306335449e-01,1.147378161549568176e-01,2.900000000000000000e+02
-9.642186930380815966e+02,-6.408578770942719984e+02,-5.658780754267994553e+02,-4.623508944511460754e+02,-1.022060366650434162e+03,-1.026274709952725289e+03,-7.696877058818623709e+02,-5.794296096245502667e+02,9.484992027282714844e+00,-8.414105772972106934e-01,1.147378161549568176e-01,2.910000000000000000e+02
-9.710074247397072895e+02,-6.459039386693532379e+02,-5.689626820574351314e+02,-4.646773190340894644e+02,-1.025934170403621920e+03,-1.031999730762899162e+03,-7.750096412000850705e+02,-5.833678921531661672e+02,9.484992027282714844e+00,-8.414105772972106934e-01,1.147378161549568176e-01,2.920000000000000000e+02
-9.778842949983308017e+02,-6.495978743942268920e+02,-5.726435099765743644e+02,-4.673432965870136968e+02,-1.030186796175613608e+03,-1.038484724270171682e+03,-7.812700847428673114e+02,-5.898131830402636524e+02,9.484992027282714844e+00,-8.414105772972106934e-01,1.147378161549568176e-01,2.930000000000000000e+02
-9.850480561710888878e+02,-6.522185351479819246e+02,-5.778764045958507722e+02,-4.706551752733234366e+02,-1.035632743142679374e+03,-1.045784365354705187e+03,-7.884393560272136483e+02,-5.984996443731135969e+02,9.484992027282714844e+00,-8.414105772972106934e-01,1.147378161549568176e-01,2.940000000000000000e+02
-9.926525386898974830e+02,-6.547632142256803718e+02,-5.846369190749819609e+02,-4.747724719481697093e+02,-1.042215236891800259e+03,-1.053460378630123614e+03,-7.958193327152000620e+02,-6.078711403998729566e+02,9.484992027282714844e+00,-8.414105772972106934e-01,1.147378161549568176e-01,2.950000000000000000e+02
-1.000990143543890326e+03,-6.585135647693614374e+02,-5.923932490728594757e+02,-4.797954880470151693e+02,-1.049405852916696404e+03,-1.060936728498110142e+03,-8.025125910686479074e+02,-6.163980104037894989e+02,9.484992027282714844e+00,-8.414105772972106934e-01,1.147378161549568176e-01,2.960000000000000000e+02
-1.010527873502043121e+03,-6.644121812967473488e+02,-6.009796635491804864e+02,-4.859234068319710786e+02,-1.057059673815163478e+03,-1.068146956195986604e+03,-8.082909322671605423e+02,-6.239074651893091641e+02,9.484992027282714844e+00,-8.414105772972106934e-01,1.147378161549568176e-01,2.970000000000000000e+02
-1.021625209536878856e+03,-6.727185894933998043e+02,-6.108570771809918369e+02,-4.935281768761989269e+02,-1.065667291022167092e+03,-1.075796864467448131e+03,-8.140261344525039249e+02,-6.316555112747530529e+02,9.484992027282714844e+00,-8.414105772972106934e-01,1.147378161549568176e-01,2.980000000000000000e+02
-1.034071817291933939e+03,-6.831140530607132177e+02,-6.223948630673502294e+02,-5.029546079576996362e+02,-1.075627440866664301e+03,-1.084832313996473658e+03,-8.211383289700956993e+02,-6.410298338643519855e+02,9.484992027282714844e+00,-8.414105772972106934e-01,1.147378161549568176e-01,2.990000000000000000e+02
-1.046823035811221416e+03,-6.949794765151536922e+02,-6.349025092237840227e+02,-5.140830210763507466e+02,-1.086342920675909909e+03,-1.095526682940856062e+03,-8.304269708876182676e+02,-6.521078056280588271e+02,9.484992027282714844e+00,-8.414105772972106934e-01,1.147378161549568176e-01,3.000000000000000000e+02
-1.058263793569664358e+03,-7.075036460971991801e+02,-6.465282214912043628e+02,-5.260341078454405306e+02,-1.096276246713590581e+03,-1.107085185027583748e+03,-8.412950014197996325e+02,-6.634809735358155649e+02,9.484992027282714844e+00,-8.414105772972106934e-01,1.147378161549568176e-01,3.010000000000000000e+02
-1.066972505231026844e+03,-7.196246738701488539e+02,-6.553443212360771213e+02,-5.374068489998606992e+02,-1.104107965968139069e+03,-1.118207969941816827e+03,-8.520709369538582223e+02,-6.735123410715530099e+02,9.484992027282714844e+00,-8.414105772972106934e-01,1.147378161549568176e-01,3.020000000000000000e+02
-1.072529471329400167e+03,-7.301357330708447080e+02,-6.607392142117610092e+02,-5.469994319006798378e+02,-1.109893263204740833e+03,-1.128083278920152452e+03,-8.611497344211388736e+02,-6.817768552618921376e+02,9.484992027282714844e+00,-8.414105772972106934e-01,1.147378161549568176e-01,3.030000000000000000e+02
-1.075809664577178410e+03,-7.381767993017258505e+02,-6.638834596832188026e+02,-5.544800084397330693e+02,-1.115031874060422751e+03,-1.136845344178191453e+03,-8.680187894723981117e+02,-6.892884784055958107e+02,9.484992027282714844e+00,-8.414105772972106934e-01,1.147378161549568176e-01,3.040000000000000000e+02
-1.078533571859707990e+03,-7.438512138126592390e+02,-6.668801284869958863e+02,-5.604282964570804779e+02,-1.121035923052935232e+03,-1.145092114391853784e+03,-8.734084146844786574e+02,-6.973529904940322695e+02,9.484992027282714844e+00,-8.414105772972106934e-01,1.147378161549568176e-01,3.050000000000000000e+02
-1.082372708913381075e+03,-7.483816212394292506e+02,-6.713849041280820984e+02,-5.657154781266871169e+02,-1.128285634365974374e+03,-1.153044976514569271e+03,-8.785935559843336478e+02,-7.062451646384436117e+02,9.484992027282714844e+00,-8.414105772972106934e-01,1.147378161549568176e-01,3.060000000000000000e+02
-1.088246820241603473e+03,-7.535412571486835986e+02,-6.778749266074690922e+02,-5.708455969879416898e+02,-1.135952215190438892e+03,-1.160311828151964164e+03,-8.845188400723018276e+02,-7.150574005746814237e+02,9.484992027282714844e+00,-8.414105772972106934e-01,1.147378161549568176e-01,3.070000000000000000e+02
-1.096233457266495407e+03,-7.607331977924658304e+02,-6.859754590735969941e+02,-5.759119446817821881e+02,-1.143063816472624467e+03,-1.166525191743099185e+03,-8.913801843467241497e+02,-7.227806072925419585e+02,9.484992027282714844e+00,-8.414105772972106934e-01,1.147378161549568176e-01,3.080000000000000000e+02
-1.105944172313284525e+03,-7.703742883585468917e+02,-6.952155985156191491e+02,-5.811411063936297978e+02,-1.149569686744148839e+03,-1.172127327646545382e+03,-8.987962399815711478e+02,-7.293980060367247233e+02,9.484992027282714844e+00,-8.414105772972106934e-01,1.147378161549568176e-01,3.090000000000000000e+02
-1.116882237554981202e+03,-7.819378175612889663e+02,-7.053745922169528058e+02,-5.873545301981151852e+02,-1.156357170674317558e+03,-1.178383952095375207e+03,-9.062588710076458938e+02,-7.358900376774228107e+02,9.484992027282714844e+00,-8.414105772972106934e-01,1.147378161549568176e-01,3.100000000000000000e+02
-1.128485302446552623e+03,-7.944392806544458381e+02,-7.162451287806804885e+02,-5.957139055721431760e+02,-1.164301675873302884e+03,-1.186493302324047818e+03,-9.134878383331308669e+02,-7.432706263733973628e+02,9.484992027282714844e+00,-8.414105772972106934e-01,1.147378161549568176e-01,3.110000000000000000e+02
-1.140004839728916522e+03,-8.068827585212955000e+02,-7.273236317803468864e+02,-6.068122729240009221e+02,-1.173356254081455518e+03,-1.196597270792831750e+03,-9.205260470420936372e+02,-7.517186624944002915e+02,9.446745872497558594e+00,-8.031646609306335449e-01,1.529837548732757568e-01,3.120000000000000000e+02
-1.150562183541755985e+03,-8.184551818076183736e+02,-7.378984352341856265e+02,-6.198955543822816026e+02,-1.182543976446980196e+03,-1.207617504319947784e+03,-9.276249105420381511e+02,-7.606009574213596807e+02,9.446745872497558594e+00,-8.031646609306335449e-01,1.529837548732757568e-01,3.130000000000000000e+02
-1.159475148391908988e+03,-8.286163919134796743e+02,-7.474202682558998276e+02,-6.329761660389136750e+02,-1.190771639831393713e+03,-1.218032537546100684e+03,-9.350391580222320727e+02,-7.691310333737706060e+02,9.446745872497558594e+00,-8.031646609306335449e-01,1.529837548732757568e-01,3.140000000000000000e+02
-1.166569071079336481e+03,-8.372339949540894395e+02,-7.556670892761666209e+02,-6.438443601330579895e+02,-1.197613782757085346e+03,-1.226822112318550808e+03,-9.428190808666977318e+02,-7.768144581962476423e+02,9.446745872497558594e+00,-8.031646609306335449e-01,1.529837548732757568e-01,3.150000000000000000e+02
-1.172135176679441884e+03,-8.446294381146985870e+02,-7.625401212910330742e+02,-6.512276559030133285e+02,-1.203364749209458296e+03,-1.233751360061766718e+03,-9.506739815925462835e+02,-7.833076235346104568e+02,9.446745872497558594e+00,-8.031646609306335449e-01,1.529837548732757568e-01,3.160000000000000000e+02
-1.176590078117585563e+03,-8.513358364465767636e+02,-7.678740297062309992e+02,-6.553123385466150239e+02,-1.208477578601073219e+03,-1.238966355719710236e+03,-9.580045806977312850e+02,-7.881914437325351628e+02,9.446745872497558594e+00,-8.031646609306335449e-01,1.529837548732757568e-01,3.170000000000000000e+02
-1.180279602264876303e+03,-8.577002005372276017e+02,-7.716931444010981522e+02,-6.574388148168518455e+02,-1.213097721792279572e+03,-1.242581525477271953e+03,-9.641773702205746304e+02,-7.912747660189261296e+02,9.446745872497558594e+00,-8.031646609306335449e-01,1.529837548732757568e-01,3.180000000000000000e+02
-1.183669046435407836e+03,-8.637565891177497406e+02,-7.747153996829572407e+02,-6.593825067185164244e+02,-1.217182829139787827e+03,-1.244811174325317552e+03,-9.689660665834792326e+02,-7.932483668468621545e+02,9.446745872497558594e+00,-8.031646609306335449e-01,1.529837548732757568e-01,3.190000000000000000e+02
-1.187570709043747684e+03,-8.695355520342242244e+02,-7.783576995868523909e+02,-6.626690955460034047e+02,-1.220938877604850404e+03,-1.246378719341393889e+03,-9.728483692240158689e+02,-7.957757946977618531e+02,9.446745872497558594e+00,-8.031646609306335449e-01,1.529837548732757568e-01,3.200000000000000000e+02
-1.192831075882736741e+03,-8.753720587154900841e+02,-7.838259693777445136e+02,-6.680371150801761360e+02,-1.224882721264698375e+03,-1.248438193119515745e+03,-9.768075561036569070e+02,-8.004716570660934849e+02,9.446745872497558594e+00,-8.031646609306335449e-01,1.529837548732757568e-01,3.210000000000000000e+02
-1.199471243390354175e+03,-8.816617155737126268e+02,-7.909266806766370337e+02,-6.750674266577764229e+02,-1.229302118756593927e+03,-1.251752131183162874e+03,-9.816455938064386828e+02,-8.074711191253688867e+02,9.446745872497558594e+00,-8.031646609306335449e-01,1.529837548732757568e-01,3.220000000000000000e+02
-1.206127771730680024e+03,-8.881990874779655769e+02,-7.978446448538018103e+02,-6.822306037736968847e+02,-1.233702944635167569e+03,-1.255867346344140969e+03,-9.873159161322786304e+02,-8.150304316393214776e+02,9.446745872497558594e+00,-8.031646609306335449e-01,1.529837548732757568e-01,3.230000000000000000e+02
-1.210728184125580128e+03,-8.939602874541169513e+02,-8.024582056091555842e+02,-6.876862700245262658e+02,-1.237057890820516604e+03,-1.259315658811650110e+03,-9.929279411839547720e+02,-8.208374296446560265e+02,9.446745872497558594e+00,-8.031646609306335449e-01,1.529837548732757568e-01,3.240000000000000000e+02
-1.212240436288092042e+03,-8.979411219204969257e+02,-8.042653987162287876e+02,-6.906285208586937188e+02,-1.238879546932619178e+03,-1.260928903320123027e+03,-9.975418005657340927e+02,-8.240558473698692978e+02,9.446745872497558594e+00,-8.031646609306335449e-01,1.529837548732757568e-01,3.250000000000000000e+02
-1.212024001488240856e+03,-9.004780023036923922e+02,-8.051680894978660490e+02,-6.922157854896286153e+02,-1.240107528433061361e+03,-1.261123071817269647e+03,-1.001077088977126778e+03,-8.262364956006538250e+02,9.446745872497558594e+00,-8.031646609306335449e-01,1.529837548732757568e-01,3.260000000000000000e+02
-1.213278347716041026e+03,-9.036191668063692077e+02,-8.081987869580937058e+02,-6.950848669908048123e+02,-1.242718047749789093e+03,-1.261819608899622381e+03,-1.004439263379382965e+03,-8.301072595104222955e+02,9.446745872497558594e+00,-8.031646609306335449e-01,1.529837548732757568e-01,3.270000000000000000e+02
-1.218614464960583973e+03,-9.097194919258097343e+02,-8.150860384866322192e+02,-7.014575667237045309e+02,-1.248094478737532654e+03,-1.264883545995590566e+03,-1.008621523134745303e+03,-8.371436351832878699e+02,9.446745872497558594e+00,-8.031646609306335449e-01,1.529837548732757568e-01,3.280000000000000000e+02
-1.227592156135118785e+03,-9.191891252483524113e+02,-8.246419592976267268e+02,-7.111677513851627737e+02,-1.255500675589799357e+03,-1.270406562512544951e+03,-1.013544568803537118e+03,-8.459572160482869094e+02,9.446745872497558594e+00,-8.031646609306335449e-01,1.529837548732757568e-01,3.290000000000000000e+02
-1.236382204248606740e+03,-9.294295870097050738e+02,-8.332741253211879666e+02,-7.212400053310776684e+02,-1.262079431560842522e+03,-1.276345451476413473e+03,-1.017727054090544925e+03,-8.528618288061201156e+02,9.446745872497558594e+00,-8.031646609306335449e-01,1.529837548732757568e-01,3.300000000000000000e+02
-1.240060529416319014e+03,-9.361667717347470443e+02,-8.371607040508679347e+02,-7.275117820908856174e+02,-1.264511051994148147e+03,-1.279788595862243938e+03,-1.019154053684165206e+03,-8.541827101968488023e+02,9.446745872497558594e+00,-8.031646609306335449e-01,1.529837548732757568e-01,3.310000000000000000e+02
-1.235857161578193427e+03,-9.362676498106409326e+02,-8.344277738185376165e+02,-7.271365449299755710e+02,-1.261041567479340301e+03,-1.278715550499784058e+03,-1.016654665095450241e+03,-8.485593309702549050e+02,9.446745872497558594e+00,-8.031646609306335449e-01,1.529837548732757568e-01,3.320000000000000000e+02
-1.224900405018610172e+03,-9.297531301258942449e+02,-8.259553510186625545e+02,-7.201234635700698163e+02,-1.252378179146079674e+03,-1.272897075927981859e+03,-1.010702453788911498e+03,-8.376778587969644150e+02,9.446745872497558594e+00,-8.031646609306335449e-01,1.529837548732757568e-01,3.330000000000000000e+02
-1.211267635449656382e+03,-9.194559092003994465e+02,-8.146578610610329179e+02,-7.089556240096065949e+02,-1.241032344839257348e+03,-1.263586270287286425e+03,-1.003123518606740959e+03,-8.251642314214140015e+02,9.446745872497558594e+00,-8.031646609306335449e-01,1.529837548732757568e-01,3.340000000000000000e+02
-1.199242050239552100e+03,-9.088417922959165480e+02,-8.039770916388340538e+02,-6.968599023083079373e+02,-1.229859923610667465e+03,-1.252643622324346779e+03,-9.960534976894290367e+02,-8.145601188824774681e+02,9.446745872497558594e+00,-8.031646609306335449e-01,1.529837548732757568e-01,3.350000000000000000e+02
-1.190812511440461549e+03,-8.999081324341004802e+02,-7.963797905846056437e+02,-6.861104820878344981e+02,-1.220792862515016850e+03,-1.241795887284552691e+03,-9.908720048926650179e+02,-8.075915256059115563e+02,9.446745872497558594e+00,-8.031646609306335449e-01,1.529837548732757568e-01,3.360000000000000000e+02
-1.184950323735241909e+03,-8.926465022703587238e+02,-7.923308071179282024e+02,-6.773469223384206543e+02,-1.214204038424303235e+03,-1.232148590511096018e+03,-9.876240160291024495e+02,-8.035029931739686617e+02,9.408499717712402344e+00,-9.179025292396545410e-01,1.912296712398529053e-01,3.370000000000000000e+02
-1.178797185009593250e+03,-8.859913075499564457e+02,-7.901080092509422457e+02,-6.699502188865853896e+02,-1.208903058833774594e+03,-1.223828219329092008e+03,-9.850702756384112035e+02,-7.996714823568939892e+02,9.408499717712402344e+00,-9.179025292396545410e-01,1.912296712398529053e-01,3.380000000000000000e+02
-1.169758270841556396e+03,-8.790924569764647458e+02,-7.867649614355016183e+02,-6.629287971061962708e+02,-1.202775094772660395e+03,-1.215966278445624084e+03,-9.813460499052494015e+02,-7.932453582212789343e+02,9.408499717712402344e+00,-9.179025292396545410e-01,1.912296712398529053e-01,3.390000000000000000e+02
-1.157228129739339693e+03,-8.719191472528327722e+02,-7.800364954634162586e+02,-6.557838048622587621e+02,-1.194056371110865257e+03,-1.207421796977657777e+03,-9.750588627434376576e+02,-7.830963629308821510e+02,9.408499717712402344e+00,-9.179025292396545410e-01,1.912296712398529053e-01,3.400000000000000000e+02
-1.143075305259601464e+03,-8.650838240034115643e+02,-7.701013608916503017e+02,-6.490183718438088363e+02,-1.182734985326209880e+03,-1.198035829510946314e+03,-9.663207729202194969e+02,-7.709518782140069106e+02,9.408499717712402344e+00,-9.179025292396545410e-01,1.912296712398529053e-01,3.410000000000000000e+02
-1.130646899597478296e+03,-8.593303288300412532e+02,-7.597644393713330828e+02,-6.440186895479921532e+02,-1.171000901136075981e+03,-1.189328214622721134e+03,-9.569526575751519886e+02,-7.606965164888868003e+02,9.408499717712402344e+00,-9.179025292396545410e-01,1.912296712398529053e-01,3.420000000000000000e+02
-1.122812929986580457e+03,-8.550703496905484826e+02,-7.525966218205358018e+02,-6.421853917840218173e+02,-1.162011165731212259e+03,-1.183634808365442950e+03,-9.494505733679944797e+02,-7.559128957697099622e+02,9.408499717712402344e+00,-9.179025292396545410e-01,1.912296712398529053e-01,3.430000000000000000e+02
-1.120158327568544792e+03,-8.521001619314987465e+02,-7.502815625766139647e+02,-6.436747025589882014e+02,-1.157595721248808786e+03,-1.182042446144115956e+03,-9.452545563194220222e+02,-7.571823966848226064e+02,9.408499717712402344e+00,-9.179025292396545410e-01,1.912296712398529053e-01,3.440000000000000000e+02
-1.120467814232838919e+03,-8.495551910532981310e+02,-7.512502612689397665e+02,-6.466507444977186196e+02,-1.156673354921841565e+03,-1.182881864715425536e+03,-9.435930994041075337e+02,-7.612296350232441000e+02,9.408499717712402344e+00,-9.179025292396545410e-01,1.912296712398529053e-01,3.450000000000000000e+02
-1.119879517075768035e+03,-8.461710182102228828e+02,-7.516851706517729781e+02,-6.478411100382446648e+02,-1.155755845750210938e+03,-1.182336009818894581e+03,-9.418614722568701154e+02,-7.627710749796558503e+02,9.408499717712402344e+00,-9.179025292396545410e-01,1.912296712398529053e-01,3.460000000000000000e+02
-1.114892526616640680e+03,-8.407395976977320515e+02,-7.479665091119101135e+02,-6.442114886004236496e+02,-1.151162100403053728e+03,-1.176854287172247268e+03,-9.372706296160940838e+02,-7.577395001821701044e+02,9.408499717712402344e+00,-9.179025292396545410e-01,1.912296712398529053e-01,3.470000000000000000e+02
-1.103845455006750853e+03,-8.324193811961871461e+02,-7.385482917056910992e+02,-6.345526631943065468e+02,-1.141106296224904781e+03,-1.165332286950823345e+03,-9.284695056547727745e+02,-7.453849343784972916e+02,9.408499717712402344e+00,-9.179025292396545410e-01,1.912296712398529053e-01,3.480000000000000000e+02
-1.087071639377264773e+03,-8.206652855969375651e+02,-7.240405289569780507e+02,-6.197532374492562894e+02,-1.126099242173727134e+03,-1.149222952806802368e+03,-9.159701438879677653e+02,-7.277645018771614787e+02,9.408499717712402344e+00,-9.179025292396545410e-01,1.912296712398529053e-01,3.490000000000000000e+02
-1.066104194189840882e+03,-8.050061989831717710e+02,-7.060209602782006186e+02,-6.016583569871438613e+02,-1.107760370124885867e+03,-1.130724845459573771e+03,-9.012977714892947461e+02,-7.074720794248696620e+02,9.408499717712402344e+00,-9.179025292396545410e-01,1.912296712398529053e-01,3.500000000000000000e+02
-1.042901707017165108e+03,-7.851835363313547305e+02,-6.860114303469009656e+02,-5.816723339743318775e+02,-1.087458973311613818e+03,-1.110967226218483347e+03,-8.857808641627849511e+02,-6.858964233715008731e+02,9.408499717712402344e+00,-9.179025292396545410e-01,1.912296712398529053e-01,3.510000000000000000e+02
-1.019562426810539591e+03,-7.617909144171883327e+02,-6.653511357762265561e+02,-5.603708736769792722e+02,-1.065959889315224245e+03,-1.089872967534351119e+03,-8.699299200182528011e+02,-6.634232226206329415e+02,9.408499717712402344e+00,-9.179025292396545410e-01,1.912296712398529053e-01,3.520000000000000000e+02
-9.981312725122094207e+02,-7.368168431815702206e+02,-6.454567940556122494e+02,-5.382641898311640034e+02,-1.043937526994562631e+03,-1.067497188740613183e+03,-8.536270370257076365e+02,-6.408260701488970881e+02,9.408499717712402344e+00,-9.179025292396545410e-01,1.912296712398529053e-01,3.530000000000000000e+02
-9.800049242937748204e+02,-7.132860817416402597e+02,-6.276448791463642465e+02,-5.166699144256398313e+02,-1.022393150627571686e+03,-1.045153911914733499e+03,-8.366948900183936075e+02,-6.199325998395861461e+02,9.408499717712402344e+00,-9.179025292396545410e-01,1.912296712398529053e-01,3.540000000000000000e+02
-9.652294869461163671e+02,-6.939379538005414361e+02,-6.125353568230408428e+02,-4.976386518184854708e+02,-1.002413157246051696e+03,-1.025038505941016865e+03,-8.193383946836894438e+02,-6.027022338135433301e+02,9.408499717712402344e+00,-9.179025292396545410e-01,1.912296712398529053e-01,3.550000000000000000e+02
-9.525733396930654635e+02,-6.798880718734103539e+02,-5.998334984018366640e+02,-4.829352494456680915e+02,-9.846687053156630327e+02,-1.008755437055530706e+03,-8.022673995140106626e+02,-5.897972760977947928e+02,9.408499717712402344e+00,-9.179025292396545410e-01,1.912296712398529053e-01,3.560000000000000000e+02
-9.407060511025579217e+02,-6.703969209688636965e+02,-5.889746709628764165e+02,-4.730812073148866830e+02,-9.693742846857749100e+02,-9.963046622992239918e+02,-7.865575963142247247e+02,-5.803817562410497430e+02,9.408499717712402344e+00,-9.179025292396545410e-01,1.912296712398529053e-01,3.570000000000000000e+02
-9.295522612002148435e+02,-6.638989352953927892e+02,-5.800342652695522929e+02,-4.673379278936311039e+02,-9.567585195514767520e+02,-9.864967550042836137e+02,-7.733095921362870513e+02,-5.734568413298757150e+02,9.408499717712402344e+00,-9.179025292396545410e-01,1.912296712398529053e-01,3.580000000000000000e+02
-9.204176291144912057e+02,-6.592789355778114668e+02,-5.738196603712206070e+02,-4.644949201622459896e+02,-9.473670794396203974e+02,-9.782514335139574086e+02,-7.631730150313455852e+02,-5.692084586796684107e+02,9.408499717712402344e+00,-9.179025292396545410e-01,1.912296712398529053e-01,3.590000000000000000e+02
-9.145867493477996959e+02,-6.562449141693957699e+02,-5.708894523962409266e+02,-4.636038982464040146e+02,-9.416484609218823607e+02,-9.714266575589228978e+02,-7.559478404595357688e+02,-5.687439809362408596e+02,9.408499717712402344e+00,-9.179025292396545410e-01,1.912296712398529053e-01,3.600000000000000000e+02
-9.117247384607958338e+02,-6.546419780879336940e+02,-5.704785344286365216e+02,-4.640396272956714938e+02,-9.391253890881996540e+02,-9.664551149699702819e+02,-7.505805266247995178e+02,-5.723575288407122343e+02,9.408499717712402344e+00,-9.179025292396545410e-01,1.912296712398529053e-01,3.610000000000000000e+02
-9.097754724086179294e+02,-6.536409011917858152e+02,-5.705627417607078087e+02,-4.651167134074344176e+02,-9.380548894453738740e+02,-9.633674539957246452e+02,-7.456919353267426231e+02,-5.781963264355226784e+02,9.408499717712402344e+00,-9.179025292396545410e-01,1.912296712398529053e-01,3.620000000000000000e+02
-9.065916331730491038e+02,-6.517879804381359463e+02,-5.691709063351688656e+02,-4.659363734642739701e+02,-9.361149866489237183e+02,-9.613048270198300997e+02,-7.403556151125915221e+02,-5.829118163879882104e+02,9.408499717712402344e+00,-9.179025292396545410e-01,1.912296712398529053e-01,3.630000000000000000e+02
-9.017222674817145389e+02,-6.479214840763102075e+02,-5.657475201147806274e+02,-4.657400299686714789e+02,-9.316897901833153810e+02,-9.589693361141167998e+02,-7.345822717502696833e+02,-5.838706290822891560e+02,9.408499717712402344e+00,-8.031646609306335449e-01,7.649187743663787842e-02,3.640000000000000000e+02
-8.965798641957031805e+02,-6.420347335826131712e+02,-5.613123156151887088e+02,-4.644046614794441439e+02,-9.247420601436051584e+02,-9.554899236921457941e+02,-7.291482993312783947e+02,-5.809340919321352885e+02,9.408499717712402344e+00,-8.031646609306335449e-01,7.649187743663787842e-02,3.650000000000000000e+02
-8.928628124521005702e+02,-6.352667373821761885e+02,-5.573844322034185552e+02,-4.625548251835914471e+02,-9.166335136540637905e+02,-9.508840328036590108e+02,-7.249167051905453718e+02,-5.762711630466919814e+02,9.408499717712402344e+00,-8.031646609306335449e-01,7.649187743663787842e-02,3.660000000000000000e+02
-8.908736322123945683e+02,-6.291188416622867408e+02,-5.548056506167723683e+02,-4.611977775957783479e+02,-9.091640220049276877e+02,-9.458381937655281035e+02,-7.222018203604696964e+02,-5.725713835100133338e+02,9.408499717712402344e+00,-8.031646609306335449e-01,7.649187743663787842e-02,3.670000000000000000e+02
-8.894146008668824379e+02,-6.246958643861997871e+02,-5.535460446991879735e+02,-4.612616553417294654e+02,-9.036650071720616779e+02,-9.411896138159323755e+02,-7.206735862066971094e+02,-5.713771593637842443e+02,9.408499717712402344e+00,-8.031646609306335449e-01,7.649187743663787842e-02,3.680000000000000000e+02
-8.872757070336548395e+02,-6.225802830573582014e+02,-5.534694384859465117e+02,-4.633913865694634069e+02,-9.007542985247878278e+02,-9.376108799853491291e+02,-7.198442538417058358e+02,-5.728237434849457941e+02,9.408499717712402344e+00,-8.031646609306335449e-01,7.649187743663787842e-02,3.690000000000000000e+02
-8.847604034914016893e+02,-6.231768835024354303e+02,-5.551011788612648843e+02,-4.679714132957085440e+02,-9.006537707821653385e+02,-9.355923402039525172e+02,-7.196831044640581467e+02,-5.765408050418093353e+02,9.408499717712402344e+00,-8.031646609306335449e-01,7.649187743663787842e-02,3.700000000000000000e+02
-8.837623913793005386e+02,-6.269055581642210200e+02,-5.595668066164938637e+02,-4.750919151524303743e+02,-9.035197168397919540e+02,-9.354624947988870645e+02,-7.208018017436304490e+02,-5.824825033186750716e+02,9.408499717712402344e+00,-8.031646609306335449e-01,7.649187743663787842e-02,3.710000000000000000e+02
-8.863635159907541947e+02,-6.338997542342208362e+02,-5.677640824529854626e+02,-4.843767395387216084e+02,-9.094092760524331425e+02,-9.372830466184342413e+02,-7.240176648596270752e+02,-5.908788606607822658e+02,9.408499717712402344e+00,-8.031646609306335449e-01,7.649187743663787842e-02,3.720000000000000000e+02
-8.931943110341810552e+02,-6.434823395512919433e+02,-5.794940964187196641e+02,-4.949070009275787925e+02,-9.179822329541113959e+02,-9.407350938642539404e+02,-7.296210447857910140e+02,-6.015541744484860374e+02,9.408499717712402344e+00,-8.031646609306335449e-01,7.649187743663787842e-02,3.730000000000000000e+02
-9.027958283451123407e+02,-6.539704625623917309e+02,-5.931709509506399627e+02,-5.054565392518936733e+02,-9.282922362714264182e+02,-9.451754207000731185e+02,-7.369204798512814705e+02,-6.134129176833805559e+02,9.408499717712402344e+00,-8.031646609306335449e-01,7.649187743663787842e-02,3.740000000000000000e+02
-9.122794702477501687e+02,-6.631143959900520031e+02,-6.062431981610072853e+02,-5.149643256889775103e+02,-9.388967203689759344e+02,-9.498493760290011778e+02,-7.444239267662635484e+02,-6.246250301001555272e+02,9.408499717712402344e+00,-8.031646609306335449e-01,7.649187743663787842e-02,3.750000000000000000e+02
-9.186988096139073150e+02,-6.689798792124822739e+02,-6.160817269632497073e+02,-5.228974883637906714e+02,-9.481973264060890187e+02,-9.540502531415812655e+02,-7.505073769820730831e+02,-6.333382554053317790e+02,9.408499717712402344e+00,-8.031646609306335449e-01,7.649187743663787842e-02,3.760000000000000000e+02
-9.203577524062154680e+02,-6.707640382316150180e+02,-6.209834709942821291e+02,-5.292480819101422185e+02,-9.547874222613681923e+02,-9.571155847672939672e+02,-7.540771216641051069e+02,-6.383853574611736121e+02,9.408499717712402344e+00,-8.031646609306335449e-01,7.649187743663787842e-02,3.770000000000000000e+02
-9.175258363643386019e+02,-6.690983916173056514e+02,-6.209148559888234331e+02,-5.342380159093866041e+02,-9.577180729219323894e+02,-9.584070203899882472e+02,-7.548344249895724261e+02,-6.396012286623938508e+02,9.408499717712402344e+00,-8.031646609306335449e-01,7.649187743663787842e-02,3.780000000000000000e+02
-9.122212518106869084e+02,-6.656473324916867114e+02,-6.175334413053296885e+02,-5.379910650002317425e+02,-9.566992734941165963e+02,-9.574405951921364704e+02,-7.531192618075101564e+02,-6.376406495285236815e+02,9.408499717712402344e+00,-8.031646609306335449e-01,7.649187743663787842e-02,3.790000000000000000e+02
-9.070058033392051584e+02,-6.621409637965205093e+02,-6.132344667215086247e+02,-5.403530589344114787e+02,-9.521743597104100445e+02,-9.540897351868027272e+02,-7.495659284212924831e+02,-6.334479803678797225e+02,9.408499717712402344e+00,-8.031646609306335449e-01,7.649187743663787842e-02,3.800000000000000000e+02
-9.033286487546328090e+02,-6.593317028888038749e+02,-6.096372518532550657e+02,-5.408901907063103636e+02,-9.451301105190675571e+02,-9.485967631256742152e+02,-7.447917079210419615e+02,-6.276911852315733995e+02,9.408499717712402344e+00,-8.031646609306335449e-01,7.649187743663787842e-02,3.810000000000000000e+02
-9.005268909691264980e+02,-6.565609520304002444e+02,-6.065758612381185912e+02,-5.390822397788101625e+02,-9.366653089475435081e+02,-9.413124104913399606e+02,-7.392072986239211332e+02,-6.205540829876031239e+02,9.408499717712402344e+00,-8.031646609306335449e-01,7.649187743663787842e-02,3.820000000000000000e+02
-8.963956773122014283e+02,-6.523674466250081423e+02,-6.024966908984667953e+02,-5.347475076402849936e+02,-9.276122661697875174e+02,-9.324706124682181780e+02,-7.329897254415855059e+02,-6.120866838660770100e+02,9.408499717712402344e+00,-8.031646609306335449e-01,7.649187743663787842e-02,3.830000000000000000e+02
-8.890431408347579918e+02,-6.458349907630949929e+02,-5.960453140491632666e+02,-5.285508547035348101e+02,-9.185253003788391197e+02,-9.223401029256692709e+02,-7.262603455224632398e+02,-6.028231118127408763e+02,9.408499717712402344e+00,-8.031646609306335449e-01,7.649187743663787842e-02,3.840000000000000000e+02
-8.785263216130877026e+02,-6.376648337271003584e+02,-5.874741639729248845e+02,-5.221502803582484376e+02,-9.099416892407994055e+02,-9.116184397035160600e+02,-7.193679233082684732e+02,-5.939974553272799085e+02,9.408499717712402344e+00,-8.031646609306335449e-01,7.649187743663787842e-02,3.850000000000000000e+02
-8.668117512886034319e+02,-6.299829263809646136e+02,-5.785467593852517894e+02,-5.175594465977952723e+02,-9.024402532073497696e+02,-9.014940515478092493e+02,-7.129832781107370465e+02,-5.869219340650278127e+02,9.408499717712402344e+00,-8.031646609306335449e-01,7.649187743663787842e-02,3.860000000000000000e+02
-8.560916772321429562e+02,-6.248502259855371221e+02,-5.709953706902065278e+02,-5.159113365194190237e+02,-8.962255106822112793e+02,-8.930154737743350779e+02,-7.077712426376551775e+02,-5.819282779722401528e+02,9.408499717712402344e+00,-8.031646609306335449e-01,7.649187743663787842e-02,3.870000000000000000e+02
-8.470632508556890343e+02,-6.225948701424533738e+02,-5.650286194286720729e+02,-5.165214077804872659e+02,-8.906462270177062237e+02,-8.861976771739180094e+02,-7.038004049480232425e+02,-5.778917298927542561e+02,9.408499717712402344e+00,-8.031646609306335449e-01,7.649187743663787842e-02,3.880000000000000000e+02
-8.388230599810142394e+02,-6.213792937912514844e+02,-5.594226111704099367e+02,-5.171974727759883308e+02,-8.844428053134242873e+02,-8.798395569465124026e+02,-7.002630525292420316e+02,-5.730601083413139349e+02,9.408499717712402344e+00,-8.031646609306335449e-01,7.649187743663787842e-02,3.890000000000000000e+02
-8.304181636478260771e+02,-6.184645174898878395e+02,-5.531811543639629463e+02,-5.158119393910947110e+02,-8.769038470643174605e+02,-8.725280218304383197e+02,-6.959500112377997993e+02,-5.667364369952456400e+02,9.408499717712402344e+00,-8.031646609306335449e-01,7.649187743663787842e-02,3.900000000000000000e+02
-8.224155612525561310e+02,-6.122265991620085970e+02,-5.471173019514430962e+02,-5.119744437531709309e+02,-8.689817255280377140e+02,-8.640913440121241820e+02,-6.902332567501575795e+02,-5.603509557530818483e+02,9.408499717712402344e+00,-8.031646609306335449e-01,7.649187743663787842e-02,3.910000000000000000e+02
-8.168035891416650429e+02,-6.033506630944316385e+02,-5.436282108734925487e+02,-5.073628390667641952e+02,-8.630416197182585165e+02,-8.560717701181906705e+02,-6.837055684876152100e+02,-5.566859194810582494e+02,9.408499717712402344e+00,-8.031646609306335449e-01,7.649187743663787842e-02,3.920000000000000000e+02
-8.152115180050145682e+02,-5.943203972435113656e+02,-5.446349457417659323e+02,-5.043422783979701762e+02,-8.610154038194373243e+02,-8.505427258933436860e+02,-6.778114576227087582e+02,-5.575749564881150491e+02,9.408499717712402344e+00,-8.031646609306335449e-01,7.649187743663787842e-02,3.930000000000000000e+02
-8.171585767013473287e+02,-5.877073396353281396e+02,-5.495200411391954276e+02,-5.040386857414330279e+02,-8.624431671142783671e+02,-8.482112735405034982e+02,-6.737271355817331369e+02,-5.619532195821548157e+02,9.408499717712402344e+00,-8.031646609306335449e-01,7.649187743663787842e-02,3.940000000000000000e+02
-8.201071417391017349e+02,-5.846455780655194303e+02,-5.550978708231240262e+02,-5.055755319559619920e+02,-8.643683110488848342e+02,-8.475972873379610064e+02,-6.714867133095374356e+02,-5.661619096346898914e+02,9.523238182067871094e+00,-8.796565532684326172e-01,1.912296712398529053e-01,3.950000000000000000e+02
-8.213330922497525535e+02,-5.845241103517840884e+02,-5.578406280068625165e+02,-5.070882156081654557e+02,-8.635118568188388508e+02,-8.461757101479722678e+02,-6.701094578170429941e+02,-5.665477449441750650e+02,9.523238182067871094e+00,-8.796565532684326172e-01,1.912296712398529053e-01,3.960000000000000000e+02
-8.198504913614929137e+02,-5.858168062653331845e+02,-5.564562392615041517e+02,-5.074558517904565633e+02,-8.589302678551907775e+02,-8.424793003913573557e+02,-6.684993260237595223e+02,-5.622759570324201377e+02,9.523238182067871094e+00,-8.796565532684326172e-01,1.912296712398529053e-01,3.970000000000000000e+02
-8.165962752765517507e+02,-5.871333756183270225e+02,-5.525240592524125987e+02,-5.070396731918776823e+02,-8.526857818125599806e+02,-8.371703772163643862e+02,-6.661889808280304806e+02,-5.558512145997659673e+02,9.523238182067871094e+00,-8.796565532684326172e-01,1.912296712398529053e-01,3.980000000000000000e+02
-8.127578387926139385e+02,-5.876122350825670537e+02,-5.486161480809610111e+02,-5.067439553701349269e+02,-8.477664211284970861e+02,-8.320318118800732918e+02,-6.632799545405885056e+02,-5.507094131164360533e+02,9.523238182067871094e+00,-8.796565532684326172e-01,1.912296712398529053e-01,3.990000000000000000e+02
-8.079536852211226687e+02,-5.865657207265235229e+02,-5.456590175337394157e+02,-5.064410597834976215e+02,-8.450824604118947718e+02,-8.278599229732299136e+02,-6.598233654757852946e+02,-5.479409833667356224e+02,9.523238182067871094e+00,-8.796565532684326172e-01,1.912296712398529053e-01,4.000000000000000000e+02
-8.001482657613842093e+02,-5.830337289316062197e+02,-5.420006061782817142e+02,-5.044660516410644959e+02,-8.423207842929034541e+02,-8.233388530127899685e+02,-6.554175868847105448e+02,-5.451404368208693541e+02,9.523238182067871094e+00,-8.796565532684326172e-01,1.912296712398529053e-01,4.010000000000000000e+02
-7.874762161787625701e+02,-5.759048295218340172e+02,-5.350055321174156688e+02,-4.987958327657080417e+02,-8.357423787830666697e+02,-8.159989088619688573e+02,-6.494338484982604314e+02,-5.384810877043521486e+02,9.523238182067871094e+00,-8.796565532684326172e-01,1.912296712398529053e-01,4.020000000000000000e+02
-7.702452424722903288e+02,-5.646311247339234569e+02,-5.236033407625211566e+02,-4.888040062928695306e+02,-8.232965959416078476e+02,-8.043331216099002177e+02,-6.415327077781637399e+02,-5.261380126742576522e+02,9.523238182067871094e+00,-8.796565532684326172e-01,1.912296712398529053e-01,4.030000000000000000e+02
-7.511821322419441458e+02,-5.499099464648372759e+02,-5.093689562031481728e+02,-4.758751888217063879e+02,-8.062880216831747475e+02,-7.890701590347257479e+02,-6.318727599355747770e+02,-5.099343956402353797e+02,9.523238182067871094e+00,-8.796565532684326172e-01,1.912296712398529053e-01,4.040000000000000000e+02
-7.336204829967887235e+02,-5.336286004147448239e+02,-4.951636412304433179e+02,-4.622811299954681772e+02,-7.882299362491387456e+02,-7.724801710103940877e+02,-6.208405473718789835e+02,-4.937882897903325556e+02,9.523238182067871094e+00,-8.796565532684326172e-01,1.912296712398529053e-01,4.050000000000000000e+02
-7.191998690734012598e+02,-5.179523867264682622e+02,-4.826932925251862798e+02,-4.494175656602556046e+02,-7.720619869008999103e+02,-7.564900560567341472e+02,-6.087012450505285415e+02,-4.805182077402723735e+02,9.523238182067871094e+00,-8.796565532684326172e-01,1.912296712398529053e-01,4.060000000000000000e+02
-7.070227645624827346e+02,-5.041691478794175509e+02,-4.712849781617555891e+02,-4.370651921184357889e+02,-7.581974854059189965e+02,-7.414193188313604423e+02,-5.956025695015748624e+02,-4.699547111480706008e+02,9.523238182067871094e+00,-8.796565532684326172e-01,1.912296712398529053e-01,4.070000000000000000e+02
-6.948489596188610449e+02,-4.921844775138865771e+02,-4.589503829457376014e+02,-4.242785695232468015e+02,-7.449096467068015954e+02,-7.264011777052896832e+02,-5.818917652956001803e+02,-4.598829229390719320e+02,9.523238182067871094e+00,-8.796565532684326172e-01,1.912296712398529053e-01,4.080000000000000000e+02
-6.811376807803533211e+02,-4.810699957549171586e+02,-4.446114192441082196e+02,-4.109121326797547908e+02,-7.304249151213389268e+02,-7.108852174329877016e+02,-5.683064499592962875e+02,-4.486068810782280707e+02,9.523238182067871094e+00,-8.796565532684326172e-01,1.912296712398529053e-01,4.090000000000000000e+02
-6.661856846247219437e+02,-4.701757492554745568e+02,-4.293405813220031177e+02,-3.982302875707453040e+02,-7.147276031767071345e+02,-6.956591450453333891e+02,-5.557099129035709666e+02,-4.366062282885411605e+02,9.523238182067871094e+00,-8.796565532684326172e-01,1.912296712398529053e-01,4.100000000000000000e+02
-6.516263913717043579e+02,-4.598189064831311725e+02,-4.155427146239853755e+02,-3.880101054285343025e+02,-6.995903314483234681e+02,-6.824188157813823636e+02,-5.445559487644993624e+02,-4.259373727306624460e+02,9.523238182067871094e+00,-8.796565532684326172e-01,1.912296712398529053e-01,4.110000000000000000e+02
-6.390103814318231343e+02,-4.509305345998650409e+02,-4.049876133483210197e+02,-3.810213142528664321e+02,-6.870481438712613453e+02,-6.723685436993505391e+02,-5.346064753382397612e+02,-4.182900519689021621e+02,9.523238182067871094e+00,-8.796565532684326172e-01,1.912296712398529053e-01,4.120000000000000000e+02
-6.287486901254774239e+02,-4.440035327331183908e+02,-3.975460537731328259e+02,-3.763058956429210866e+02,-6.777862221091756965e+02,-6.651774102724705244e+02,-5.252148741740982132e+02,-4.136293621225922834e+02,9.523238182067871094e+00,-8.796565532684326172e-01,1.912296712398529053e-01,4.130000000000000000e+02
-6.200887483448948387e+02,-4.383499136445873319e+02,-3.916336085948230448e+02,-3.718623821800279075e+02,-6.707645320428459854e+02,-6.591779392940284197e+02,-5.159504835797545184e+02,-4.104311648991808852e+02,9.523238182067871094e+00,-8.796565532684326172e-01,1.912296712398529053e-01,4.140000000000000000e+02
-6.118665638240729550e+02,-4.324443885100135958e+02,-3.857298803457072154e+02,-3.661018872099672308e+02,-6.642045496052139697e+02,-6.525422209295959419e+02,-5.070064886202555954e+02,-4.069655004927301434e+02,9.523238182067871094e+00,-8.796565532684326172e-01,1.912296712398529053e-01,4.150000000000000000e+02
-6.033863198224808002e+02,-4.251692382015619387e+02,-3.795537552358966877e+02,-3.589042402913570413e+02,-6.569748574953132447e+02,-6.444349071526635271e+02,-4.990471075266216303e+02,-4.024244848124701548e+02,9.484992027282714844e+00,-8.414105772972106934e-01,7.649187743663787842e-02,4.160000000000000000e+02
-5.949162210294066426e+02,-4.168826420959680945e+02,-3.740254293642565244e+02,-3.515482677794877873e+02,-6.492548575218802398e+02,-6.353246057056121572e+02,-4.926481129648268507e+02,-3.971794644261885878e+02,9.484992027282714844e+00,-8.414105772972106934e-01,7.649187743663787842e-02,4.170000000000000000e+02
-5.875719353410208896e+02,-4.092684149670902798e+02,-3.702731365727477169e+02,-3.456749303998396954e+02,-6.420835445512461774e+02,-6.263876705535490146e+02,-4.878030041792108022e+02,-3.922449927379213932e+02,9.484992027282714844e+00,-8.414105772972106934e-01,7.649187743663787842e-02,4.180000000000000000e+02
-5.825967059674353550e+02,-4.039502427069230635e+02,-3.685829387387836960e+02,-3.420561928318413720e+02,-6.362990515535670966e+02,-6.185668372911677579e+02,-4.838491146080421004e+02,-3.884079963675028466e+02,9.484992027282714844e+00,-8.414105772972106934e-01,7.649187743663787842e-02,4.190000000000000000e+02
-5.803894748964935388e+02,-4.010234937018094570e+02,-3.680501709282150387e+02,-3.400069512156164819e+02,-6.317579937155171592e+02,-6.119565360459780550e+02,-4.798101942147047794e+02,-3.855351049320033781e+02,9.484992027282714844e+00,-8.414105772972106934e-01,7.649187743663787842e-02,4.200000000000000000e+02
-5.799968545670458298e+02,-3.988790416956750278e+02,-3.671205009382706521e+02,-3.378803380130827918e+02,-6.274413356136535640e+02,-6.058971792198158255e+02,-4.749044117098499100e+02,-3.825477316474850795e+02,9.484992027282714844e+00,-8.414105772972106934e-01,7.649187743663787842e-02,4.210000000000000000e+02
-5.796450324454983729e+02,-3.956311404128025515e+02,-3.646602467956504370e+02,-3.343825349889198151e+02,-6.223487479802111011e+02,-5.996720094856814285e+02,-4.689597432502694119e+02,-3.782778250324336113e+02,9.484992027282714844e+00,-8.414105772972106934e-01,7.649187743663787842e-02,4.220000000000000000e+02
-5.780371178693922047e+02,-3.909438309950478470e+02,-3.608334107764535474e+02,-3.297663045892888931e+02,-6.164383409469705839e+02,-5.932619054730753305e+02,-4.625821948891316424e+02,-3.726819784658589469e+02,9.484992027282714844e+00,-8.414105772972106934e-01,7.649187743663787842e-02,4.230000000000000000e+02
-5.752523419554941029e+02,-3.864890079205649727e+02,-3.570393025895805295e+02,-3.258375618860504801e+02,-6.107653309176923813e+02,-5.874861859137893134e+02,-4.569628282495755229e+02,-3.672411265003315748e+02,9.484992027282714844e+00,-8.414105772972106934e-01,7.649187743663787842e-02,4.240000000000000000e+02
-5.722742299749756967e+02,-3.844004593457354986e+02,-3.547321129638403363e+02,-3.245040245142304229e+02,-6.065571908930710379e+02,-5.832557262124466888e+02,-4.532690265613671272e+02,-3.638083139218615543e+02,9.484992027282714844e+00,-8.414105772972106934e-01,7.649187743663787842e-02,4.250000000000000000e+02
-5.695827861945524546e+02,-3.850337665139070396e+02,-3.539678251973941769e+02,-3.259412853159858514e+02,-6.039340135353090773e+02,-5.805035143447855717e+02,-4.518416257211708853e+02,-3.627246992520779258e+02,9.484992027282714844e+00,-8.414105772972106934e-01,7.649187743663787842e-02,4.260000000000000000e+02
-5.664353559537958063e+02,-3.862333907027018540e+02,-3.530899776536064110e+02,-3.280908728763913587e+02,-6.014873442031616833e+02,-5.778630775037381682e+02,-4.517629561965247831e+02,-3.621360728710217245e+02,9.484992027282714844e+00,-8.414105772972106934e-01,7.649187743663787842e-02,4.270000000000000000e+02
-5.618606199256792024e+02,-3.850551779408741595e+02,-3.501697676458968544e+02,-3.282217714406519917e+02,-5.973240769442118108e+02,-5.736598953681573221e+02,-4.513055271981061196e+02,-3.595626120823003475e+02,9.484992027282714844e+00,-8.414105772972106934e-01,7.649187743663787842e-02,4.280000000000000000e+02
-5.563620802698451371e+02,-3.804453600792535326e+02,-3.450360916605211514e+02,-3.252787208550744253e+02,-5.907799789328546467e+02,-5.674673080057887091e+02,-4.490964106064766383e+02,-3.543705477918429096e+02,9.484992027282714844e+00,-8.414105772972106934e-01,7.649187743663787842e-02,4.290000000000000000e+02
-5.521375397067811264e+02,-3.742027060450520821e+02,-3.397629165825455857e+02,-3.207155780498244440e+02,-5.831162493419085422e+02,-5.606100469995958520e+02,-4.450557334412217187e+02,-3.484667995992658689e+02,9.484992027282714844e+00,-8.414105772972106934e-01,7.649187743663787842e-02,4.300000000000000000e+02
-5.509485782862602719e+02,-3.690624034468594346e+02,-3.367148691862664691e+02,-3.168157187466513278e+02,-5.762931177087023116e+02,-5.548136081572611147e+02,-4.402021074811148083e+02,-3.441714949956569853e+02,9.484992027282714844e+00,-8.414105772972106934e-01,7.649187743663787842e-02,4.310000000000000000e+02
-5.516286473691425272e+02,-3.657418275770455693e+02,-3.359082686042133901e+02,-3.141585365254061344e+02,-5.709184513248346775e+02,-5.502001970922322016e+02,-4.354967621974349186e+02,-3.414744574688761531e+02,9.484992027282714844e+00,-8.414105772972106934e-01,7.649187743663787842e-02,4.320000000000000000e+02
-5.503338935793681230e+02,-3.621657582822033419e+02,-3.346750591675736359e+02,-3.110906659554366342e+02,-5.656446629903152825e+02,-5.449291335455086482e+02,-4.309933077220416635e+02,-3.380412887473853516e+02,9.484992027282714844e+00,-8.414105772972106934e-01,7.649187743663787842e-02,4.330000000000000000e+02
-5.442081809077749313e+02,-3.560896590357385776e+02,-3.306192415206321584e+02,-3.061618373772409996e+02,-5.590784651236690479e+02,-5.374178235459899042e+02,-4.263667478588758968e+02,-3.325933524790370939e+02,9.484992027282714844e+00,-8.414105772972106934e-01,7.649187743663787842e-02,4.340000000000000000e+02
-5.352831202907345869e+02,-3.486890410080234233e+02,-3.252318764194117193e+02,-3.011632488330310480e+02,-5.525122537200702482e+02,-5.292384241722211300e+02,-4.223481187966285688e+02,-3.282268656517317140e+02,9.484992027282714844e+00,-8.414105772972106934e-01,7.649187743663787842e-02,4.350000000000000000e+02
-5.303218859918756607e+02,-3.451537088704401413e+02,-3.241251027396040172e+02,-3.011845267110845725e+02,-5.503485220086845402e+02,-5.254364316321648403e+02,-4.212879964196472429e+02,-3.314249255019067277e+02,9.484992027282714844e+00,-8.414105772972106934e-01,7.649187743663787842e-02,4.360000000000000000e+02
-5.358201665747312745e+02,-3.509291736636091628e+02,-3.327501985976596188e+02,-3.107570762048858342e+02,-5.569470514817771800e+02,-5.310598737968289242e+02,-4.256866470287477568e+02,-3.465816447659744881e+02,9.484992027282714844e+00,-8.414105772972106934e-01,7.649187743663787842e-02,4.370000000000000000e+02
-5.523582236022798497e+02,-3.667403837782779874e+02,-3.511961020662415649e+02,-3.293507983679878635e+02,-5.723592751622716150e+02,-5.465579009203429450e+02,-4.357434811606390213e+02,-3.709507189037581156e+02,9.484992027282714844e+00,-8.414105772972106934e-01,7.649187743663787842e-02,4.380000000000000000e+02
-5.737388839145100974e+02,-3.872846047152279425e+02,-3.732706856897891612e+02,-3.508189279226423878e+02,-5.911887812764132377e+02,-5.664761499132428071e+02,-4.484794531022780575e+02,-3.954658020746405782e+02,9.484992027282714844e+00,-8.414105772972106934e-01,7.649187743663787842e-02,4.390000000000000000e+02
-5.920671645124307361e+02,-4.052998938741518486e+02,-3.913211332726182263e+02,-3.679718337277786304e+02,-6.062921205147804358e+02,-5.832334293238218379e+02,-4.598111618985885798e+02,-4.115754555877863368e+02,9.484992027282714844e+00,-8.414105772972106934e-01,7.649187743663787842e-02,4.400000000000000000e+02
-6.041056343729705986e+02,-4.174562526399090530e+02,-4.025357163380899692e+02,-3.783918256540582661e+02,-6.143337768204230542e+02,-5.929242555567657291e+02,-4.679709503319563737e+02,-4.180975793676393550e+02,9.408499717712402344e+00,-8.796565532684326172e-01,7.649187743663787842e-02,4.410000000000000000e+02
-6.127978621316051431e+02,-4.264533422336735384e+02,-4.106079497987843752e+02,-3.859654250265000428e+02,-6.180331853451045845e+02,-5.978442475578808626e+02,-4.749202732697312968e+02,-4.215190772198545801e+02,9.408499717712402344e+00,-8.796565532684326172e-01,7.649187743663787842e-02,4.420000000000000000e+02
-6.225319785132019206e+02,-4.372155585585101107e+02,-4.209432545705144548e+02,-3.964352987499371466e+02,-6.228219027236241345e+02,-6.033268394902568161e+02,-4.840520381067840390e+02,-4.292062038915528319e+02,9.408499717712402344e+00,-8.796565532684326172e-01,7.649187743663787842e-02,4.430000000000000000e+02
-6.329799087089165823e+02,-4.508657504648031136e+02,-4.340120155401250486e+02,-4.110262201196628666e+02,-6.310029583596158318e+02,-6.118985350475441010e+02,-4.961473307281430607e+02,-4.418636122520297249e+02,9.408499717712402344e+00,-8.796565532684326172e-01,7.649187743663787842e-02,4.440000000000000000e+02
-6.378799544894668543e+02,-4.624294921971518306e+02,-4.435155737087504804e+02,-4.241982617647056486e+02,-6.390027712095634342e+02,-6.203385903903658800e+02,-5.075080368574399472e+02,-4.523841817825848466e+02,9.408499717712402344e+00,-8.796565532684326172e-01,7.649187743663787842e-02,4.450000000000000000e+02
-6.302892796611922677e+02,-4.646630972635375656e+02,-4.414968779757136872e+02,-4.277866540848667682e+02,-6.403573137454668540e+02,-6.223873186426721986e+02,-5.123016905042672988e+02,-4.521198062790883796e+02,9.408499717712402344e+00,-8.796565532684326172e-01,7.649187743663787842e-02,4.460000000000000000e+02
-6.093969367876698016e+02,-4.544524417312788955e+02,-4.257313331676941743e+02,-4.178099415390715876e+02,-6.315456751651263403e+02,-6.143964748029584371e+02,-5.071441588530974514e+02,-4.385780413941242841e+02,9.408499717712402344e+00,-8.796565532684326172e-01,7.649187743663787842e-02,4.470000000000000000e+02
-5.823735647007820262e+02,-4.357780858899153600e+02,-4.024325887076377057e+02,-3.978416471924786038e+02,-6.151693460089359178e+02,-5.985493571860406519e+02,-4.937887765290847710e+02,-4.174805534868892209e+02,9.408499717712402344e+00,-8.796565532684326172e-01,7.649187743663787842e-02,4.480000000000000000e+02
-5.594174219693265968e+02,-4.166073028659264992e+02,-3.817175103471911370e+02,-3.761889713174925873e+02,-5.977170626268830347e+02,-5.808953865334406146e+02,-4.776234883111346790e+02,-3.977664424831959877e+02,9.408499717712402344e+00,-8.796565532684326172e-01,7.649187743663787842e-02,4.490000000000000000e+02
-5.464267417519561150e+02,-4.027837437997573033e+02,-3.699750891529888577e+02,-3.597326456319510726e+02,-5.842976753329007806e+02,-5.664389416860321944e+02,-4.635687532669339816e+02,-3.846444118339459237e+02,9.408499717712402344e+00,-8.796565532684326172e-01,7.649187743663787842e-02,4.500000000000000000e+02
-5.415776837984358281e+02,-3.944343044561582019e+02,-3.658425210655220781e+02,-3.498311691958367646e+02,-5.752323453164513012e+02,-5.559354680030714917e+02,-4.530886507933573739e+02,-3.769318420136744408e+02,9.408499717712402344e+00,-8.796565532684326172e-01,7.649187743663787842e-02,4.510000000000000000e+02
-5.381588327464144186e+02,-3.875681182346473861e+02,-3.627933429506927041e+02,-3.431884674513214577e+02,-5.671390058276942909e+02,-5.468498595346391085e+02,-4.445432644758034257e+02,-3.701753268262771144e+02,9.408499717712402344e+00,-8.796565532684326172e-01,7.649187743663787842e-02,4.520000000000000000e+02
-5.304606934336588893e+02,-3.786080340668145254e+02,-3.553051353689738789e+02,-3.359386119628679808e+02,-5.567883665991428188e+02,-5.367766162480684216e+02,-4.358294169127725581e+02,-3.616149236563878731e+02,9.408499717712402344e+00,-8.796565532684326172e-01,7.649187743663787842e-02,4.530000000000000000e+02
-5.175318644501342078e+02,-3.673930557340345331e+02,-3.429582761126789592e+02,-3.268875964730864325e+02,-5.438963460580041556e+02,-5.257146022582842306e+02,-4.264887854350295129e+02,-3.521509182035827052e+02,9.408499717712402344e+00,-8.796565532684326172e-01,7.649187743663787842e-02,4.540000000000000000e+02
-5.024246084635403804e+02,-3.563895911714537306e+02,-3.295231889939116172e+02,-3.175094540956933997e+02,-5.307043361350133637e+02,-5.153986483475782734e+02,-4.175818621351409092e+02,-3.442592597809914423e+02,9.408499717712402344e+00,-8.796565532684326172e-01,7.649187743663787842e-02,4.550000000000000000e+02
-4.887729754300808054e+02,-3.477251788492999367e+02,-3.188963215231792674e+02,-3.096811201474183690e+02,-5.194753929600246920e+02,-5.070629461350586098e+02,-4.100765960142771291e+02,-3.388655017018077160e+02,9.408499717712402344e+00,-8.796565532684326172e-01,7.649187743663787842e-02,4.560000000000000000e+02
-4.781796963352082912e+02,-3.412785712248729624e+02,-3.119941245846825950e+02,-3.038029360629279836e+02,-5.105876335222408215e+02,-5.001868487904971516e+02,-4.037038331548983479e+02,-3.344939638537825886e+02,9.408499717712402344e+00,-8.796565532684326172e-01,7.649187743663787842e-02,4.570000000000000000e+02
-4.701259789001001081e+02,-3.353422951496344240e+02,-3.069320381879763318e+02,-2.988172450622489578e+02,-5.027139081449793139e+02,-4.932378232858272895e+02,-3.973179586368596574e+02,-3.290410126959247918e+02,9.408499717712402344e+00,-8.796565532684326172e-01,7.649187743663787842e-02,4.580000000000000000e+02
-4.634413304770323521e+02,-3.286131408601604562e+02,-3.014475811292013532e+02,-2.934804046508195370e+02,-4.943904183924530571e+02,-4.852269791074847944e+02,-3.901153034767062309e+02,-3.218310705821927513e+02,9.408499717712402344e+00,-8.796565532684326172e-01,7.649187743663787842e-02,4.590000000000000000e+02
-4.574869678000575277e+02,-3.213175478836651564e+02,-2.949188613221499509e+02,-2.873551357767264562e+02,-4.852707833795261649e+02,-4.763726260156104217e+02,-3.823506381401907674e+02,-3.138698839981118454e+02,9.408499717712402344e+00,-8.796565532684326172e-01,7.649187743663787842e-02,4.600000000000000000e+02
-4.522678995164983462e+02,-3.146608413814618643e+02,-2.884389063009668916e+02,-2.808024950783453733e+02,-4.761422490682627995e+02,-4.675012369590108392e+02,-3.749615273176032133e+02,-3.065377678344941614e+02,9.408499717712402344e+00,-8.796565532684326172e-01,7.649187743663787842e-02,4.610000000000000000e+02
-4.479750138704862366e+02,-3.095905010011053946e+02,-2.834955750892697779e+02,-2.744402930501062201e+02,-4.680923399132366285e+02,-4.591849284084844385e+02,-3.686661469517653131e+02,-3.004671429565155449e+02,9.408499717712402344e+00,-8.796565532684326172e-01,7.649187743663787842e-02,4.620000000000000000e+02
-4.446522439779639626e+02,-3.062099632747260785e+02,-2.807374797045099513e+02,-2.687971772556818451e+02,-4.617425661061699884e+02,-4.515950081945015882e+02,-3.634669315545293102e+02,-2.956417032284391553e+02,9.408499717712402344e+00,-8.796565532684326172e-01,7.649187743663787842e-02,4.630000000000000000e+02
-4.420893977036107572e+02,-3.041209591412911095e+02,-2.796924948702453548e+02,-2.643034771421994265e+02,-4.570443471847918318e+02,-4.449731727880041490e+02,-3.589230431209848575e+02,-2.921214431936466553e+02,9.408499717712402344e+00,-8.796565532684326172e-01,7.649187743663787842e-02,4.640000000000000000e+02
-4.397485579130379847e+02,-3.029569045219964210e+02,-2.792489701302945377e+02,-2.612698123282143570e+02,-4.535049180649994014e+02,-4.398809922764614839e+02,-3.547703977037808727e+02,-2.902426792708092762e+02,9.408499717712402344e+00,-8.796565532684326172e-01,7.649187743663787842e-02,4.650000000000000000e+02
-4.368220145598279487e+02,-3.024631933606398206e+02,-2.783222942177769710e+02,-2.596876662888796545e+02,-4.505228067589496277e+02,-4.368003851204973671e+02,-3.512510236673615509e+02,-2.900988744746425709e+02,9.408499717712402344e+00,-8.796565532684326172e-01,7.649187743663787842e-02,4.660000000000000000e+02
-4.327444397907811435e+02,-3.023202141271607388e+02,-2.764273737305304621e+02,-2.591694346385600056e+02,-4.477157731571423938e+02,-4.355937639727214901e+02,-3.489355822116435775e+02,-2.912090300600634691e+02,9.408499717712402344e+00,-8.796565532684326172e-01,7.649187743663787842e-02,4.670000000000000000e+02
-4.279858502358861188e+02,-3.022578360779682498e+02,-2.740717220882620495e+02,-2.593095698000206539e+02,-4.452288452043258076e+02,-4.355705047784756516e+02,-3.483134592861008514e+02,-2.930161660068047240e+02,9.484992027282714844e+00,-8.414105772972106934e-01,1.147378161549568176e-01,4.680000000000000000e+02
-4.242529854164795324e+02,-3.024576553099079774e+02,-2.726908323796724289e+02,-2.601870928946593722e+02,-4.438407801523646867e+02,-4.361784776858257828e+02,-3.495214835553929333e+02,-2.956471186222083816e+02,9.484992027282714844e+00,-8.414105772972106934e-01,1.147378161549568176e-01,4.690000000000000000e+02
-4.234913969667111360e+02,-3.036402703030369139e+02,-2.738820910535396251e+02,-2.624206349555752240e+02,-4.446134916716077896e+02,-4.375620222807453956e+02,-3.523263671851368599e+02,-2.998914263182311970e+02,9.484992027282714844e+00,-8.414105772972106934e-01,1.147378161549568176e-01,4.700000000000000000e+02
-4.262685265066265856e+02,-3.064378977413773555e+02,-2.782184052780271486e+02,-2.665560629886690549e+02,-4.481033375984693521e+02,-4.403043545000955419e+02,-3.562156117819993142e+02,-3.061907063276742065e+02,9.484992027282714844e+00,-8.414105772972106934e-01,1.147378161549568176e-01,4.710000000000000000e+02
-4.309931832172869690e+02,-3.105095712338215890e+02,-2.845245846253619675e+02,-2.722673122246349067e+02,-4.536273082839670678e+02,-4.445427184320087690e+02,-3.604508028215382183e+02,-3.136183069100366083e+02,9.484992027282714844e+00,-8.414105772972106934e-01,1.147378161549568176e-01,4.720000000000000000e+02
-4.349093928336010322e+02,-3.143871178815458052e+02,-2.904169529417074500e+02,-2.781663252693670074e+02,-4.592697704499769316e+02,-4.493825108038465714e+02,-3.641499025714995241e+02,-3.200228109610736738e+02,9.484992027282714844e+00,-8.414105772972106934e-01,1.147378161549568176e-01,4.730000000000000000e+02
-4.361937712406222545e+02,-3.164878054591870296e+02,-2.939279114488494997e+02,-2.825203112626809343e+02,-4.628773193810034172e+02,-4.533037692894381507e+02,-3.665622763663677688e+02,-3.233992349810798714e+02,9.484992027282714844e+00,-8.414105772972106934e-01,1.147378161549568176e-01,4.740000000000000000e+02
-4.353426718547700602e+02,-3.165254817884358545e+02,-2.949742094077282673e+02,-2.843522922270435629e+02,-4.634273418354430305e+02,-4.552581836048443620e+02,-3.674888629878241773e+02,-3.233148858078716330e+02,9.484992027282714844e+00,-8.414105772972106934e-01,1.147378161549568176e-01,4.750000000000000000e+02
-4.345513336087333300e+02,-3.159460023853198436e+02,-2.953360573066202051e+02,-2.840100623523553622e+02,-4.616611226960199019e+02,-4.554072445038566457e+02,-3.674896193950833094e+02,-3.211044375283909176e+02,9.484992027282714844e+00,-8.414105772972106934e-01,1.147378161549568176e-01,4.760000000000000000e+02
-4.355771386297976733e+02,-3.167622311428197008e+02,-2.970118167274488314e+02,-2.827289374937349749e+02,-4.593487664697063337e+02,-4.547613820112733265e+02,-3.675339375011074026e+02,-3.186850431399720947e+02,9.484992027282714844e+00,-8.414105772972106934e-01,1.147378161549568176e-01,4.770000000000000000e+02
-4.379489161422470715e+02,-3.196406661191556395e+02,-3.002454340198705722e+02,-2.815279423711028812e+02,-4.576794098414081873e+02,-4.540052425757075980e+02,-3.681947042656436224e+02,-3.169928642605859750e+02,9.484992027282714844e+00,-8.414105772972106934e-01,1.147378161549568176e-01,4.780000000000000000e+02
-4.390545860359557082e+02,-3.229094791557508870e+02,-3.029162842869727683e+02,-2.803036120094445778e+02,-4.561141277718754736e+02,-4.525922648406162807e+02,-3.689970424512582667e+02,-3.152763805453432724e+02,9.484992027282714844e+00,-8.414105772972106934e-01,1.147378161549568176e-01,4.790000000000000000e+02
-4.359766697248392120e+02,-3.234653497076867552e+02,-3.018817400750947400e+02,-2.778103367511778288e+02,-4.527250601969001309e+02,-4.489766169654096757e+02,-3.685349385633419388e+02,-3.117169327286896987e+02,9.484992027282714844e+00,-8.414105772972106934e-01,1.147378161549568176e-01,4.800000000000000000e+02
-4.275531757466860654e+02,-3.189629497783250827e+02,-2.952518405819400868e+02,-2.725543542576386926e+02,-4.457966871149330927e+02,-4.418413376018622785e+02,-3.653772926885721972e+02,-3.048640162382125709e+02,9.484992027282714844e+00,-8.414105772972106934e-01,1.147378161549568176e-01,4.810000000000000000e+02
-4.151367276847529411e+02,-3.095760365456706040e+02,-2.838240670746322394e+02,-2.639636086431796684e+02,-4.353583928778543850e+02,-4.313215681523574858e+02,-3.590984798659048920e+02,-2.948571930191687898e+02,9.484992027282714844e+00,-8.414105772972106934e-01,1.147378161549568176e-01,4.820000000000000000e+02
-4.017003725064430455e+02,-2.979793371146424761e+02,-2.706342110339260216e+02,-2.530217970525472992e+02,-4.233806447406743700e+02,-4.192425748440882671e+02,-3.506399522945421268e+02,-2.836222810612578087e+02,9.484992027282714844e+00,-8.414105772972106934e-01,1.147378161549568176e-01,4.830000000000000000e+02
-3.901556688738307912e+02,-2.876316485386305430e+02,-2.590978787471431133e+02,-2.418951957157627248e+02,-4.125316022387648900e+02,-4.081734001086515491e+02,-3.417531886940407730e+02,-2.738769656426538859e+02,9.484992027282714844e+00,-8.414105772972106934e-01,1.147378161549568176e-01,4.840000000000000000e+02
-3.820305512907700631e+02,-2.806683824554017974e+02,-2.511623165524695196e+02,-2.327090207618390423e+02,-4.045263609560045097e+02,-3.999444428778485872e+02,-3.339655873943834195e+02,-2.674786067686877686e+02,9.484992027282714844e+00,-8.414105772972106934e-01,1.147378161549568176e-01,4.850000000000000000e+02
-3.770653396548423189e+02,-2.768018695996497627e+02,-2.466202299883930209e+02,-2.262045524124742997e+02,-3.992478863966871359e+02,-3.945749858338783724e+02,-3.277696530326604716e+02,-2.641020495624295563e+02,9.484992027282714844e+00,-8.414105772972106934e-01,1.147378161549568176e-01,4.860000000000000000e+02
-3.736638548891141909e+02,-2.737796321051845325e+02,-2.437542312306154599e+02,-2.212116149740384117e+02,-3.950858127467076883e+02,-3.902730913580139713e+02,-3.224905590548764849e+02,-2.612322719337803392e+02,9.484992027282714844e+00,-8.414105772972106934e-01,1.147378161549568176e-01,4.870000000000000000e+02
-3.698931831982972653e+02,-2.689809114196068549e+02,-2.406600082147199373e+02,-2.154900572305764399e+02,-3.900919156928353004e+02,-3.845881844794387234e+02,-3.168531020635509776e+02,-2.557798068279565769e+02,9.484992027282714844e+00,-8.414105772972106934e-01,1.147378161549568176e-01,4.880000000000000000e+02
-3.646045976126262076e+02,-2.611747829251171424e+02,-2.363770263574492674e+02,-2.075412972364008510e+02,-3.831694494243395184e+02,-3.761134466425248775e+02,-3.099157521264814932e+02,-2.464155018250751255e+02,9.484992027282714844e+00,-8.414105772972106934e-01,1.147378161549568176e-01,4.890000000000000000e+02
-3.580605701494081359e+02,-2.514003580871899430e+02,-2.312169198420422163e+02,-1.980542922160411763e+02,-3.746121293470087039e+02,-3.656283184457838615e+02,-3.018146744097455212e+02,-2.348562305820404390e+02,9.484992027282714844e+00,-8.414105772972106934e-01,1.147378161549568176e-01,4.900000000000000000e+02
-3.515317447453276145e+02,-2.423738454006295342e+02,-2.261744525805603416e+02,-1.896490588157653292e+02,-3.656995031627041044e+02,-3.557102835340292586e+02,-2.937753690604893109e+02,-2.248248960484372674e+02,9.484992027282714844e+00,-8.414105772972106934e-01,1.147378161549568176e-01,4.910000000000000000e+02
-3.460320316220038421e+02,-2.367062271139650420e+02,-2.219048140483321276e+02,-1.848763379227975747e+02,-3.576371475080081836e+02,-3.488778361653312459e+02,-2.872747500590662639e+02,-2.192566337989992462e+02,9.484992027282714844e+00,-8.414105772972106934e-01,1.147378161549568176e-01,4.920000000000000000e+02
-3.412308192512266487e+02,-2.350953852138492266e+02,-2.180881132043713251e+02,-1.840463120724051578e+02,-3.506211751992282188e+02,-3.456008077342560227e+02,-2.829114754636466387e+02,-2.179845758537110214e+02,9.484992027282714844e+00,-8.414105772972106934e-01,1.147378161549568176e-01,4.930000000000000000e+02
-3.356799532871176552e+02,-2.358506660836581545e+02,-2.137793639182754077e+02,-1.848389705233604445e+02,-3.438364149053086294e+02,-3.438838532960962766e+02,-2.799173616593943734e+02,-2.179667555555066656e+02,9.484992027282714844e+00,-8.414105772972106934e-01,1.147378161549568176e-01,4.940000000000000000e+02
-3.283699918303843788e+02,-2.362036758595186257e+02,-2.085183853971719827e+02,-1.842000947149495005e+02,-3.364844440390388627e+02,-3.409512943406139129e+02,-2.768067475594664302e+02,-2.159706974185146464e+02,9.484992027282714844e+00,-8.414105772972106934e-01,1.147378161549568176e-01,4.950000000000000000e+02
-3.201682450617574887e+02,-2.343813851132529749e+02,-2.031496942670653425e+02,-1.808941035062142646e+02,-3.289156116376956334e+02,-3.356586904505963957e+02,-2.726378197260527259e+02,-2.113332231656786462e+02,9.484992027282714844e+00,-8.414105772972106934e-01,1.147378161549568176e-01,4.960000000000000000e+02
-3.134629722830090941e+02,-2.306527474490635541e+02,-1.993362691883215803e+02,-1.762988134197960335e+02,-3.226120449866537001e+02,-3.293981768793519223e+02,-2.676906279191739486e+02,-2.061839712762598538e+02,9.484992027282714844e+00,-8.414105772972106934e-01,1.147378161549568176e-01,4.970000000000000000e+02
-3.099881728408399795e+02,-2.264597948762369697e+02,-1.979600865454494851e+02,-1.726477796758330214e+02,-3.187869456712844567e+02,-3.245728687439234363e+02,-2.628922468333453253e+02,-2.029270833210919136e+02,9.484992027282714844e+00,-8.414105772972106934e-01,1.147378161549568176e-01,4.980000000000000000e+02
-3.089419929817223647e+02,-2.226630204647210576e+02,-1.979846240622558753e+02,-1.705676315661769422e+02,-3.169509588714214487e+02,-3.221489431270929344e+02,-2.586590583159206744e+02,-2.016286450467143823e+02,9.446745872497558594e+00,-8.796565532684326172e-01,1.147378161549568176e-01,4.990000000000000000e+02
-3.077306736793325399e+02,-2.189297729250988596e+02,-1.973199649049765867e+02,-1.686648180263667882e+02,-3.151900986517312049e+02,-3.208761412942383231e+02,-2.545540878706857484e+02,-2.002396456299662191e+02,9.446745872497558594e+00,-8.796565532684326172e-01,1.147378161549568176e-01,5.000000000000000000e+02
-3.051883974117953926e+02,-2.151141154034053216e+02,-1.953526011022862576e+02,-1.658606970190325001e+02,-3.123313107177148140e+02,-3.191411755317071766e+02,-2.503299584995636451e+02,-1.976869904060654903e+02,9.446745872497558594e+00,-8.796565532684326172e-01,1.147378161549568176e-01,5.010000000000000000e+02
-3.041712717203542411e+02,-2.131107366258530647e+02,-1.947357319579240311e+02,-1.640365312852652551e+02,-3.099821556244164640e+02,-3.175612610682272816e+02,-2.472648345603015514e+02,-1.965473145904545049e+02,9.446745872497558594e+00,-8.796565532684326172e-01,1.147378161549568176e-01,5.020000000000000000e+02
-3.102665269542168289e+02,-2.166836475531081021e+02,-2.001130292365400578e+02,-1.677050537972586426e+02,-3.120079617265080856e+02,-3.193325985686927879e+02,-2.480361350191792553e+02,-2.018852632122128625e+02,9.446745872497558594e+00,-8.796565532684326172e-01,1.147378161549568176e-01,5.030000000000000000e+02
-3.268334476384567324e+02,-2.285591685738380079e+02,-2.141591341983182701e+02,-1.801576773813149543e+02,-3.212612542376468241e+02,-3.274279235703189102e+02,-2.546890645869366381e+02,-2.165428186864637610e+02,9.446745872497558594e+00,-8.796565532684326172e-01,1.147378161549568176e-01,5.040000000000000000e+02
-3.505937794677701049e+02,-2.470982696966367769e+02,-2.342499539548841767e+02,-1.993759756713166098e+02,-3.362796405168271576e+02,-3.410695300574820976e+02,-2.663347676301761453e+02,-2.371737487463304888e+02,9.446745872497558594e+00,-8.796565532684326172e-01,1.147378161549568176e-01,5.050000000000000000e+02
-3.723086686251891138e+02,-2.659543618562957477e+02,-2.531293046355694401e+02,-2.179241832703707473e+02,-3.512077113038828315e+02,-3.550485220621526992e+02,-2.788790462457088779e+02,-2.553193588930295732e+02,9.446745872497558594e+00,-8.796565532684326172e-01,1.147378161549568176e-01,5.060000000000000000e+02
-3.827894878533752490e+02,-2.777586691640618710e+02,-2.635891758032472580e+02,-2.276775523684316624e+02,-3.594961290657307131e+02,-3.629995190182298757e+02,-2.874301834511696256e+02,-2.632803967308951769e+02,9.446745872497558594e+00,-8.796565532684326172e-01,1.147378161549568176e-01,5.070000000000000000e+02
-3.794073002104930197e+02,-2.791106622505935206e+02,-2.634143047345567084e+02,-2.256446273813879770e+02,-3.584184684705049904e+02,-3.619742444264736605e+02,-2.895358260176299723e+02,-2.597894047142125373e+02,9.446745872497558594e+00,-8.796565532684326172e-01,1.147378161549568176e-01,5.080000000000000000e+02
-3.674349230888022930e+02,-2.726417807987368178e+02,-2.563640494218393542e+02,-2.158236742740787406e+02,-3.505690300840767577e+02,-3.543166186115066125e+02,-2.865258509943164427e+02,-2.503687514109262224e+02,9.446745872497558594e+00,-8.796565532684326172e-01,1.147378161549568176e-01,5.090000000000000000e+02
-3.551332672716062575e+02,-2.643870648520793338e+02,-2.484984825453538519e+02,-2.055298444631494021e+02,-3.412193812074501693e+02,-3.453269008587902249e+02,-2.819068139586419193e+02,-2.421817812347694314e+02,9.446745872497558594e+00,-8.796565532684326172e-01,1.147378161549568176e-01,5.100000000000000000e+02
-3.472017056103528603e+02,-2.589091109887660878e+02,-2.433793737130977775e+02,-1.996439668797594038e+02,-3.341453145939982505e+02,-3.390624548431069343e+02,-2.784038499204127675e+02,-2.383685226595733297e+02,9.446745872497558594e+00,-8.796565532684326172e-01,1.147378161549568176e-01,5.110000000000000000e+02
-3.424356318560035106e+02,-2.564867527622973853e+02,-2.404279615682185351e+02,-1.978655391482160439e+02,-3.296316971218850540e+02,-3.360555288969644039e+02,-2.762950954911155463e+02,-2.370081925112462500e+02,9.446745872497558594e+00,-8.796565532684326172e-01,1.147378161549568176e-01,5.120000000000000000e+02
-3.370613802280753930e+02,-2.544388647968048076e+02,-2.373525249082917412e+02,-1.968272843176295623e+02,-3.259171793928107377e+02,-3.344834977121053612e+02,-2.742253586784974004e+02,-2.349267098512227960e+02,9.446745872497558594e+00,-8.796565532684326172e-01,1.147378161549568176e-01,5.130000000000000000e+02
-3.296937847764658045e+02,-2.506458731740495693e+02,-2.335489232002614131e+02,-1.942432178681312394e+02,-3.219771605945854844e+02,-3.328999716880647384e+02,-2.712590039029233822e+02,-2.317615055431774920e+02,9.446745872497558594e+00,-8.796565532684326172e-01,1.147378161549568176e-01,5.140000000000000000e+02
-3.227233731891021762e+02,-2.455476068403141880e+02,-2.307664047321700309e+02,-1.907791812947284598e+02,-3.185786944059856296e+02,-3.315004527445203735e+02,-2.679358115880913829e+02,-2.299371784407690598e+02,9.446745872497558594e+00,-8.796565532684326172e-01,1.147378161549568176e-01,5.150000000000000000e+02
-3.191495001226072645e+02,-2.409684181001579191e+02,-2.306313789904443752e+02,-1.882937622606415289e+02,-3.168109087810687470e+02,-3.309854668436896645e+02,-2.654184407329391888e+02,-2.310611079560888470e+02,9.446745872497558594e+00,-8.796565532684326172e-01,1.147378161549568176e-01,5.160000000000000000e+02
-3.188314881950851714e+02,-2.376641503928822772e+02,-2.322052381103696348e+02,-1.871182341969606568e+02,-3.162076897601857581e+02,-3.309152012226682018e+02,-2.639541067717268561e+02,-2.333256264222559366e+02,9.446745872497558594e+00,-8.796565532684326172e-01,1.147378161549568176e-01,5.170000000000000000e+02
-3.186346576502144217e+02,-2.347354737366136419e+02,-2.327558013521677367e+02,-1.858530090632402789e+02,-3.150051552829863795e+02,-3.299293173925539122e+02,-2.626036453432683402e+02,-2.333589091453014248e+02,9.446745872497558594e+00,-8.796565532684326172e-01,1.147378161549568176e-01,5.180000000000000000e+02
-3.165568435568507084e+02,-2.317650668194579566e+02,-2.313290444776934009e+02,-1.840629349651393909e+02,-3.126139493968008765e+02,-3.279161538199159622e+02,-2.607792467904796467e+02,-2.308732926138939092e+02,9.446745872497558594e+00,-8.796565532684326172e-01,1.147378161549568176e-01,5.190000000000000000e+02
-3.153150485147557447e+02,-2.312084155169561654e+02,-2.312981336409691266e+02,-1.846811707339346640e+02,-3.116330756214672419e+02,-3.276782723041302461e+02,-2.599983213655978034e+02,-2.309004866314244282e+02,9.446745872497558594e+00,-8.414105772972106934e-01,7.649187743663787842e-02,5.200000000000000000e+02
-3.210113583954305341e+02,-2.378213661158813466e+02,-2.385581034922629442e+02,-1.927833286790729517e+02,-3.167136848196662413e+02,-3.336716872539996075e+02,-2.636826828893133552e+02,-2.403556658522295493e+02,9.446745872497558594e+00,-8.414105772972106934e-01,7.649187743663787842e-02,5.210000000000000000e+02
-3.373110571498637000e+02,-2.546729119005653956e+02,-2.561594189871045728e+02,-2.109454566053755116e+02,-3.305198703855630811e+02,-3.481599196812521768e+02,-2.745182952120326263e+02,-2.612962956383219080e+02,9.446745872497558594e+00,-8.414105772972106934e-01,7.649187743663787842e-02,5.220000000000000000e+02
-3.603243674599799533e+02,-2.789703167918621602e+02,-2.799885340472928874e+02,-2.351776890823539361e+02,-3.501384051356676537e+02,-3.679575801172754836e+02,-2.913649905824204325e+02,-2.869872207238847750e+02,9.446745872497558594e+00,-8.414105772972106934e-01,7.649187743663787842e-02,5.230000000000000000e+02
-3.793545792370368872e+02,-3.018290254917451421e+02,-2.998013936531764330e+02,-2.556133969612042165e+02,-3.674675699025810900e+02,-3.849957577097388821e+02,-3.085949848929149084e+02,-3.049353313797344072e+02,9.446745872497558594e+00,-8.414105772972106934e-01,7.649187743663787842e-02,5.240000000000000000e+02
-3.837434554539122473e+02,-3.131263312850919647e+02,-3.055702794875558084e+02,-2.623222537661877141e+02,-3.739730158134032081e+02,-3.909689582765508931e+02,-3.189995343714313094e+02,-3.051440194819258522e+02,9.446745872497558594e+00,-8.414105772972106934e-01,7.649187743663787842e-02,5.250000000000000000e+02
-3.706740143659628757e+02,-3.082320823390574560e+02,-2.945358748021360498e+02,-2.521827844283193372e+02,-3.664637960960048986e+02,-3.828907807256914566e+02,-3.184298102978391398e+02,-2.873376044922115398e+02,9.446745872497558594e+00,-8.414105772972106934e-01,7.649187743663787842e-02,5.260000000000000000e+02
-3.477771280656279487e+02,-2.915499499459526760e+02,-2.735851800566763359e+02,-2.315931336338717301e+02,-3.495248234785092336e+02,-3.654547790690223792e+02,-3.087344308231417926e+02,-2.616551281296699472e+02,9.446745872497558594e+00,-8.414105772972106934e-01,7.649187743663787842e-02,5.270000000000000000e+02
-3.284690093059198261e+02,-2.740571603935247822e+02,-2.551498693394719339e+02,-2.128380168691646759e+02,-3.327939998088013454e+02,-3.484148983684003724e+02,-2.967288387467540360e+02,-2.423963498349155543e+02,9.446745872497558594e+00,-8.414105772972106934e-01,7.649187743663787842e-02,5.280000000000000000e+02
-3.234090699575658618e+02,-2.664527075383116426e+02,-2.495682184500310541e+02,-2.065591492987205129e+02,-3.250967117594211686e+02,-3.407588055851990703e+02,-2.898879001954123851e+02,-2.393402297712987092e+02,9.446745872497558594e+00,-8.414105772972106934e-01,7.649187743663787842e-02,5.290000000000000000e+02
-3.340494470088974595e+02,-2.726281253459976597e+02,-2.591161415951223717e+02,-2.154271290130313901e+02,-3.294681430105774780e+02,-3.455439953798404531e+02,-2.917992358595256519e+02,-2.523917443372072285e+02,9.446745872497558594e+00,-8.414105772972106934e-01,7.649187743663787842e-02,5.300000000000000000e+02
-3.523975673965671831e+02,-2.877515384778000680e+02,-2.773533461744552824e+02,-2.330482503535695287e+02,-3.420627396641943960e+02,-3.585803278464786672e+02,-3.003947967069670995e+02,-2.725588929896068748e+02,9.446745872497558594e+00,-8.414105772972106934e-01,7.649187743663787842e-02,5.310000000000000000e+02
-3.666165669513961802e+02,-3.018655122964314614e+02,-2.936339347748082673e+02,-2.484217149420467194e+02,-3.550702228331729202e+02,-3.714242057819556067e+02,-3.098161543049582178e+02,-2.879425957407440819e+02,9.446745872497558594e+00,-8.414105772972106934e-01,7.649187743663787842e-02,5.320000000000000000e+02
-3.683308125744872541e+02,-3.062109246949439694e+02,-2.994345890939086985e+02,-2.526711147823532428e+02,-3.613162311880478228e+02,-3.764613333072834394e+02,-3.142695732106049036e+02,-2.905642197126901465e+02,9.446745872497558594e+00,-8.414105772972106934e-01,7.649187743663787842e-02,5.330000000000000000e+02
-3.569045871570369854e+02,-2.980449098659016727e+02,-2.925355868802671466e+02,-2.436733375234598498e+02,-3.577091962343783962e+02,-3.708540619496984618e+02,-3.112051671532476576e+02,-2.799365714276602830e+02,9.446745872497558594e+00,-8.414105772972106934e-01,7.649187743663787842e-02,5.340000000000000000e+02
-3.384487788000324144e+02,-2.811935289028667739e+02,-2.769746839695335439e+02,-2.260509205778398609e+02,-3.459136598032437178e+02,-3.572243294228564991e+02,-3.020145475014232943e+02,-2.618093034658977558e+02,9.446745872497558594e+00,-8.414105772972106934e-01,7.649187743663787842e-02,5.350000000000000000e+02
-3.209080414398063112e+02,-2.626418694863459677e+02,-2.595101225519301806e+02,-2.072343115990647675e+02,-3.304300088128302377e+02,-3.411475671402649823e+02,-2.902927508853463223e+02,-2.436190560741522404e+02,9.446745872497558594e+00,-8.414105772972106934e-01,7.649187743663787842e-02,5.360000000000000000e+02
-3.089336361651230618e+02,-2.479338357730548523e+02,-2.453116882337199058e+02,-1.926981720292380942e+02,-3.156245751260885299e+02,-3.274401192865657322e+02,-2.792163375176182853e+02,-2.299788616037558313e+02,9.446745872497558594e+00,-8.414105772972106934e-01,7.649187743663787842e-02,5.370000000000000000e+02
-3.019532823775225552e+02,-2.385165681340870378e+02,-2.357002219133223662e+02,-1.835498775026860585e+02,-3.036174665936655401e+02,-3.177323142854829712e+02,-2.699007744256769001e+02,-2.210643844896781047e+02,9.446745872497558594e+00,-8.414105772972106934e-01,7.649187743663787842e-02,5.380000000000000000e+02
-2.963260262305684591e+02,-2.324448396518453137e+02,-2.290591488583022510e+02,-1.776155345797521932e+02,-2.942189376729315882e+02,-3.107079111427965472e+02,-2.616816786815970772e+02,-2.144683462914849770e+02,9.446745872497558594e+00,-8.414105772972106934e-01,7.649187743663787842e-02,5.390000000000000000e+02
-2.895599141882235017e+02,-2.274177875968175613e+02,-2.237806612638937622e+02,-1.726386935440041270e+02,-2.866756177574256981e+02,-3.044863156406145208e+02,-2.538334899804390261e+02,-2.086788452746191069e+02,9.446745872497558594e+00,-8.414105772972106934e-01,7.649187743663787842e-02,5.400000000000000000e+02
-2.832731817345520540e+02,-2.236430649707069733e+02,-2.207756571973427526e+02,-1.689670355422585999e+02,-2.817019685088430379e+02,-2.991822107915390916e+02,-2.472421721831360628e+02,-2.053957321547936772e+02,9.446745872497558594e+00,-8.414105772972106934e-01,7.649187743663787842e-02,5.410000000000000000e+02
-2.826535086272660919e+02,-2.243630819636694014e+02,-2.235177579912428882e+02,-1.697911393339791175e+02,-2.820188962679017095e+02,-2.976419934767864106e+02,-2.446274778703536867e+02,-2.089379387714789118e+02,9.446745872497558594e+00,-8.414105772972106934e-01,7.649187743663787842e-02,5.420000000000000000e+02
-2.927680652612903032e+02,-2.336487797440245231e+02,-2.354930448651434745e+02,-1.788604498091171990e+02,-2.907253506684483000e+02,-3.037019680878242980e+02,-2.489938045123162738e+02,-2.231218885311277518e+02,9.446745872497558594e+00,-8.414105772972106934e-01,7.649187743663787842e-02,5.430000000000000000e+02
-3.142912419046947434e+02,-2.529647727463284355e+02,-2.568541683297089548e+02,-1.972664231965159161e+02,-3.085224784825645656e+02,-3.190862023014014994e+02,-2.613039779919845387e+02,-2.476893120111249118e+02,9.446745872497558594e+00,-8.414105772972106934e-01,7.649187743663787842e-02,5.440000000000000000e+02
-3.416075893924021329e+02,-2.788712581698523536e+02,-2.827162705520549935e+02,-2.214210542961095598e+02,-3.318201410309256971e+02,-3.410855215251267509e+02,-2.789970004212545973e+02,-2.767179307373071424e+02,9.484992027282714844e+00,-8.414105772972106934e-01,1.147378161549568176e-01,5.450000000000000000e+02
-3.647418358414165596e+02,-3.035693994667099105e+02,-3.045248288691432208e+02,-2.436742822917567537e+02,-3.533223085585404988e+02,-3.627802582015838198e+02,-2.964844033462450170e+02,-3.003561857776821853e+02,9.484992027282714844e+00,-8.414105772972106934e-01,1.147378161549568176e-01,5.460000000000000000e+02
-3.741765655719341339e+02,-3.182702998411314184e+02,-3.139502293234450008e+02,-2.555589412172666925e+02,-3.650957168379281939e+02,-3.760301923114466263e+02,-3.075212969551375863e+02,-3.093225534651423914e+02,9.484992027282714844e+00,-8.414105772972106934e-01,1.147378161549568176e-01,5.470000000000000000e+02
-3.657835159518399450e+02,-3.175910350910867237e+02,-3.071032898154862778e+02,-2.520586909374815150e+02,-3.624516423699069492e+02,-3.756237553084974934e+02,-3.081585162616620437e+02,-2.998095843797623274e+02,9.484992027282714844e+00,-8.414105772972106934e-01,1.147378161549568176e-01,5.480000000000000000e+02
-3.428841573932691063e+02,-3.023422550290947584e+02,-2.865303644094960873e+02,-2.343776959974793499e+02,-3.463324681275744297e+02,-3.620340918695674191e+02,-2.985917430730696651e+02,-2.757652666702142596e+02,9.484992027282714844e+00,-8.414105772972106934e-01,1.147378161549568176e-01,5.490000000000000000e+02
-3.140922484120710578e+02,-2.788655092982689894e+02,-2.596976268028506638e+02,-2.092564862007288866e+02,-3.226842205260181800e+02,-3.409098301213862214e+02,-2.828078048334127743e+02,-2.467697988983850337e+02,9.484992027282714844e+00,-8.414105772972106934e-01,1.147378161549568176e-01,5.500000000000000000e+02
-2.882419960102797631e+02,-2.552035996884997076e+02,-2.348202208296565914e+02,-1.849802365391715284e+02,-2.990948077275588730e+02,-3.195098621010638453e+02,-2.662036020732175530e+02,-2.225037500030766751e+02,9.484992027282714844e+00,-8.414105772972106934e-01,1.147378161549568176e-01,5.510000000000000000e+02
-2.696784762532934110e+02,-2.365627796480684992e+02,-2.166248083966274862e+02,-1.666240461827064792e+02,-2.807334943637342803e+02,-3.024628432007839365e+02,-2.526166674851183416e+02,-2.073410195663209379e+02,9.484992027282714844e+00,-8.414105772972106934e-01,1.147378161549568176e-01,5.520000000000000000e+02
-2.570920722655910140e+02,-2.232056235068953356e+02,-2.047902103794067443e+02,-1.539680076603899579e+02,-2.682195799490200443e+02,-2.898759161868647425e+02,-2.426792824096528420e+02,-1.989164238585085513e+02,9.484992027282714844e+00,-8.414105772972106934e-01,1.147378161549568176e-01,5.530000000000000000e+02
-2.466614832064678922e+02,-2.123004542049238808e+02,-1.960794453269654696e+02,-1.437156368858809401e+02,-2.588732103484890104e+02,-2.791756950813933145e+02,-2.346232813203550904e+02,-1.918267568321966792e+02,9.484992027282714844e+00,-8.414105772972106934e-01,1.147378161549568176e-01,5.540000000000000000e+02
-2.369515968613604855e+02,-2.021751654336112551e+02,-1.884563398612563105e+02,-1.341539557159067044e+02,-2.503304702980494767e+02,-2.690760977819400068e+02,-2.268824182892649333e+02,-1.835545382944765151e+02,9.484992027282714844e+00,-8.414105772972106934e-01,1.147378161549568176e-01,5.550000000000000000e+02
-2.313752595039586595e+02,-1.952513696700971195e+02,-1.837933389212894326e+02,-1.280870167282246257e+02,-2.435301289185244968e+02,-2.621230084728540533e+02,-2.203274989082719912e+02,-1.775864701520158633e+02,9.484992027282714844e+00,-8.414105772972106934e-01,1.147378161549568176e-01,5.560000000000000000e+02
-2.357152616305274933e+02,-1.967343235147136511e+02,-1.866489558820367165e+02,-1.310451426234249084e+02,-2.423627150915617676e+02,-2.632303715619318609e+02,-2.180753316702230222e+02,-1.806855438944076013e+02,9.484992027282714844e+00,-8.414105772972106934e-01,1.147378161549568176e-01,5.570000000000000000e+02
-2.523255860504405064e+02,-2.096780418312855545e+02,-1.997658363920063493e+02,-1.458412683846518121e+02,-2.499819740103885124e+02,-2.750440080273028798e+02,-2.227593550324736498e+02,-1.962010901339472184e+02,9.484992027282714844e+00,-8.414105772972106934e-01,1.147378161549568176e-01,5.580000000000000000e+02
-2.758532458193931234e+02,-2.304851305787715319e+02,-2.199428997936829546e+02,-1.681016269746369289e+02,-2.648024033948504439e+02,-2.940238377495743407e+02,-2.334427545529979398e+02,-2.190655111381693132e+02,9.484992027282714844e+00,-8.414105772972106934e-01,1.147378161549568176e-01,5.590000000000000000e+02
-2.946625757077872549e+02,-2.491228821048489408e+02,-2.381221042179740834e+02,-1.871134046287452293e+02,-2.798369339488481273e+02,-3.109932137752366543e+02,-2.449543858538690984e+02,-2.372672603035389329e+02,9.484992027282714844e+00,-8.414105772972106934e-01,1.147378161549568176e-01,5.600000000000000000e+02
-2.977614041275528507e+02,-2.547540091670648508e+02,-2.444136862206423757e+02,-1.921192989930023032e+02,-2.864804065354292106e+02,-3.164272656929815639e+02,-2.506184298677680999e+02,-2.394511098187822427e+02,9.484992027282714844e+00,-8.414105772972106934e-01,1.147378161549568176e-01,5.610000000000000000e+02
-2.823372364755850867e+02,-2.428968753999097316e+02,-2.346726287842493548e+02,-1.795132683196698054e+02,-2.801138358911275645e+02,-3.067195069070721729e+02,-2.465234815098247054e+02,-2.230033132288199340e+02,9.484992027282714844e+00,-8.414105772972106934e-01,1.147378161549568176e-01,5.620000000000000000e+02
-2.560484418053938498e+02,-2.186349043247764712e+02,-2.136341232314380250e+02,-1.553898846691590734e+02,-2.632642674021608400e+02,-2.866294698505616907e+02,-2.340941955305470401e+02,-1.962217092694618259e+02,9.484992027282714844e+00,-8.414105772972106934e-01,1.147378161549568176e-01,5.630000000000000000e+02
-2.320363240511633194e+02,-1.932732281555990994e+02,-1.919770422376341230e+02,-1.314362964747260776e+02,-2.438927659130104075e+02,-2.659924550914765859e+02,-2.189822066657561663e+02,-1.726737613279692596e+02,9.484992027282714844e+00,-8.414105772972106934e-01,1.147378161549568176e-01,5.640000000000000000e+02
-2.202431997315143235e+02,-1.769085900047148243e+02,-1.792882822336368918e+02,-1.172888588129990239e+02,-2.301216907389225526e+02,-2.531763099755007715e+02,-2.071528664212237345e+02,-1.619823155591375325e+02,9.484992027282714844e+00,-8.414105772972106934e-01,1.147378161549568176e-01,5.650000000000000000e+02
-2.214105663310992895e+02,-1.724110243078994245e+02,-1.780267133298593762e+02,-1.149646086470011142e+02,-2.252659127926235669e+02,-2.501074174847999529e+02,-2.011208332836104091e+02,-1.639620755757168808e+02,9.484992027282714844e+00,-8.414105772972106934e-01,1.147378161549568176e-01,5.660000000000000000e+02
-2.277970064318978984e+02,-1.748550279961164051e+02,-1.826902594393914114e+02,-1.189547610056843041e+02,-2.264783897737797815e+02,-2.521504208705373458e+02,-1.989440634873681120e+02,-1.700913586790829868e+02,9.484992027282714844e+00,-8.414105772972106934e-01,1.147378161549568176e-01,5.670000000000000000e+02
-2.293534593684507854e+02,-1.759987337963257232e+02,-1.843309391399852757e+02,-1.210593254915384023e+02,-2.274176175700686144e+02,-2.522341883147510089e+02,-1.963027763617410528e+02,-1.704475176198793633e+02,9.484992027282714844e+00,-8.414105772972106934e-01,1.147378161549568176e-01,5.680000000000000000e+02
-2.203143861628177547e+02,-1.699094711132647717e+02,-1.767429842090195962e+02,-1.158895916700030284e+02,-2.226167907545077469e+02,-2.457224244448680111e+02,-1.897803917328765237e+02,-1.604358738799792263e+02,9.484992027282714844e+00,-8.414105772972106934e-01,1.147378161549568176e-01,5.690000000000000000e+02
-2.017038837132404296e+02,-1.558290589909793198e+02,-1.599314661130838431e+02,-1.033272124068380435e+02,-2.105397179825722560e+02,-2.326370090779619204e+02,-1.789261453072213044e+02,-1.426330743660555527e+02,9.484992027282714844e+00,-8.414105772972106934e-01,1.147378161549568176e-01,5.700000000000000000e+02
-1.790643924193336716e+02,-1.372069846645172220e+02,-1.390022381846074495e+02,-8.715093508633435704e+01,-1.937046134662632539e+02,-2.163631747883500793e+02,-1.659465351820599608e+02,-1.234211556542832113e+02,9.484992027282714844e+00,-8.414105772972106934e-01,1.147378161549568176e-01,5.710000000000000000e+02
-1.581978544720241189e+02,-1.186863916907523162e+02,-1.200465046631907171e+02,-7.176980330838432565e+01,-1.763759515086549072e+02,-2.005847903589856287e+02,-1.537059386875116616e+02,-1.078779093465273036e+02,9.370253562927246094e+00,-8.796565532684326172e-01,1.147378161549568176e-01,5.720000000000000000e+02
-1.422076385953323552e+02,-1.034808659086338594e+02,-1.062782774067827631e+02,-5.960950260028312186e+01,-1.616730448816706485e+02,-1.869441966282374779e+02,-1.437074934217107511e+02,-9.682753260880963353e+01,9.370253562927246094e+00,-8.796565532684326172e-01,1.147378161549568176e-01,5.730000000000000000e+02
-1.310946394690863599e+02,-9.231952511874078482e+01,-9.681563481906687230e+01,-5.043366820633400494e+01,-1.499625620116639766e+02,-1.747536483299245447e+02,-1.353827364703338390e+02,-8.749486255719421024e+01,9.370253562927246094e+00,-8.796565532684326172e-01,1.147378161549568176e-01,5.740000000000000000e+02
-1.230640049671364977e+02,-8.381268043520140054e+01,-8.834352281465726264e+01,-4.234999479109137610e+01,-1.393753563356513041e+02,-1.623887090996522602e+02,-1.269027578269815422e+02,-7.647619702526753827e+01,9.370253562927246094e+00,-8.796565532684326172e-01,1.147378161549568176e-01,5.750000000000000000e+02
-1.161704633958015620e+02,-7.570966505300475546e+01,-7.813860113130795071e+01,-3.354929821415953484e+01,-1.279100214212066930e+02,-1.490578938655889942e+02,-1.167557589076404838e+02,-6.267505368437832658e+01,9.370253562927246094e+00,-8.796565532684326172e-01,1.147378161549568176e-01,5.760000000000000000e+02
-1.095490332731606031e+02,-6.657903804054058128e+01,-6.638816825569301727e+01,-2.381127387626565906e+01,-1.155628171685839334e+02,-1.357483311855266948e+02,-1.050221843029521551e+02,-4.843800364042817819e+01,9.370253562927246094e+00,-8.796565532684326172e-01,1.147378161549568176e-01,5.770000000000000000e+02
-1.039405446461405518e+02,-5.714878990418583271e+01,-5.633259072358305275e+01,-1.498749422999026137e+01,-1.048685876792533236e+02,-1.248451224887612625e+02,-9.358737448565807426e+01,-3.836174455973923614e+01,9.370253562927246094e+00,-8.796565532684326172e-01,1.147378161549568176e-01,5.780000000000000000e+02
-1.012037802071536134e+02,-5.022132648811748368e+01,-5.209283738506019290e+01,-1.004430615597721044e+01,-9.932570141719224921e+01,-1.187031654663751397e+02,-8.518896207653415331e+01,-3.645530905853593140e+01,9.370253562927246094e+00,-8.796565532684326172e-01,1.147378161549568176e-01,5.790000000000000000e+02
-1.027975694259566808e+02,-4.873430044564702257e+01,-5.557222203041419561e+01,-1.106787108863045432e+01,-1.007896445373171446e+02,-1.180681994303631654e+02,-8.185415796727465931e+01,-4.331532025661999796e+01,9.370253562927246094e+00,-8.796565532684326172e-01,1.147378161549568176e-01,5.800000000000000000e+02
-1.081381980497008044e+02,-5.317982330779705080e+01,-6.465871071661786118e+01,-1.755254728840100142e+01,-1.078460152120369457e+02,-1.214062435531504889e+02,-8.364881507890640933e+01,-5.524886706331199093e+01,9.370253562927246094e+00,-8.796565532684326172e-01,1.147378161549568176e-01,5.810000000000000000e+02
-1.143644538629851013e+02,-6.067051560110394348e+01,-7.428175827704944822e+01,-2.642341759879855090e+01,-1.165379431560995727e+02,-1.257242220679454476e+02,-8.855108814106279169e+01,-6.627321885681521962e+01,9.370253562927246094e+00,-8.796565532684326172e-01,1.147378161549568176e-01,5.820000000000000000e+02
-1.181347099184949911e+02,-6.685340218261808332e+01,-7.974327014708615025e+01,-3.398737172281016683e+01,-1.229322610791896295e+02,-1.283975468332628225e+02,-9.357669390257797204e+01,-7.178261565160391910e+01,9.370253562927246094e+00,-8.796565532684326172e-01,1.147378161549568176e-01,5.830000000000000000e+02
-1.181203633682307554e+02,-6.921922888771860016e+01,-7.973471894853537378e+01,-3.827506802233983763e+01,-1.254285731100353587e+02,-1.286187732889920881e+02,-9.640434115231801115e+01,-7.109046167207270628e+01,9.370253562927246094e+00,-8.796565532684326172e-01,1.147378161549568176e-01,5.840000000000000000e+02
-1.158397767280221160e+02,-6.873072960305398738e+01,-7.648847685587315937e+01,-3.973871077236617566e+01,-1.249162780145215947e+02,-1.272610203857275337e+02,-9.632072655759839108e+01,-6.675589693232177524e+01,9.370253562927246094e+00,-8.796565532684326172e-01,1.147378161549568176e-01,5.850000000000000000e+02
-1.138744045748389908e+02,-6.812206026060084696e+01,-7.297972461172139447e+01,-3.979267319684458926e+01,-1.228627223536223028e+02,-1.253400712051607115e+02,-9.384700979394619935e+01,-6.145652526166122698e+01,9.370253562927246094e+00,-8.796565532684326172e-01,1.147378161549568176e-01,5.860000000000000000e+02
-1.132569932614751451e+02,-6.862692855343902920e+01,-6.995532425347664685e+01,-3.890386309492896544e+01,-1.194337112119683297e+02,-1.226905601484868384e+02,-8.962671513875829987e+01,-5.559477453410181624e+01,9.370253562927246094e+00,-8.796565532684326172e-01,1.147378161549568176e-01,5.870000000000000000e+02
-1.129195232732636214e+02,-6.871564335830589698e+01,-6.587956693450541934e+01,-3.648353197321921471e+01,-1.137553803172886546e+02,-1.184068808333213383e+02,-8.388325081082621182e+01,-4.819121582013394800e+01,9.370253562927246094e+00,-8.796565532684326172e-01,1.147378161549568176e-01,5.880000000000000000e+02
-1.120191657030809438e+02,-6.645316813192130212e+01,-5.998611481330590323e+01,-3.288792172920511803e+01,-1.062192065637536871e+02,-1.128205081141513801e+02,-7.714767733229928126e+01,-4.015651918251023744e+01,9.370253562927246094e+00,-8.796565532684326172e-01,1.147378161549568176e-01,5.890000000000000000e+02
-1.126002954958348710e+02,-6.306789128712625825e+01,-5.515890390354070405e+01,-3.122673191744797805e+01,-1.003057592635541369e+02,-1.088912847796073038e+02,-7.141329051296816033e+01,-3.611788018626793928e+01,9.370253562927246094e+00,-8.796565532684326172e-01,1.147378161549568176e-01,5.900000000000000000e+02
-1.191254840291876462e+02,-6.355027328797132213e+01,-5.703586783513856062e+01,-3.634578589356169687e+01,-1.013729594433607417e+02,-1.109976024248044268e+02,-7.002897622928685450e+01,-4.194546249353334133e+01,9.370253562927246094e+00,-8.796565532684326172e-01,1.147378161549568176e-01,5.910000000000000000e+02
-1.344053107400031877e+02,-7.281943552963275579e+01,-6.931993194580718409e+01,-5.102582323040041956e+01,-1.126505963566487480e+02,-1.215041302591635031e+02,-7.566285546703875298e+01,-5.943807967457723862e+01,9.370253562927246094e+00,-8.796565532684326172e-01,1.147378161549568176e-01,5.920000000000000000e+02
-1.554697523066006397e+02,-9.064580258574824256e+01,-8.935445172047730011e+01,-7.255698255863717350e+01,-1.317013206391256972e+02,-1.379357598491606041e+02,-8.773298013939893281e+01,-8.300142669388696959e+01,9.370253562927246094e+00,-8.796565532684326172e-01,1.147378161549568176e-01,5.930000000000000000e+02
-1.738058371100669319e+02,-1.103268911122140707e+02,-1.084793395843789767e+02,-9.320445503420523892e+01,-1.508608255667732010e+02,-1.536052476541444776e+02,-1.017699638152989792e+02,-1.020553383830902021e+02,9.370253562927246094e+00,-8.796565532684326172e-01,1.147378161549568176e-01,5.940000000000000000e+02
-1.807180552886893565e+02,-1.229482277768838685e+02,-1.176293533668467717e+02,-1.048954203262564988e+02,-1.619663084536587121e+02,-1.617285915381889936e+02,-1.118335408223865670e+02,-1.079384821067633311e+02,9.370253562927246094e+00,-8.796565532684326172e-01,1.147378161549568176e-01,5.950000000000000000e+02
-1.736466403458689456e+02,-1.238215595173251131e+02,-1.137338771079066646e+02,-1.045797632582307415e+02,-1.617990195928323374e+02,-1.599018115667986422e+02,-1.143616216407863249e+02,-9.982382768772731652e+01,9.370253562927246094e+00,-8.796565532684326172e-01,1.147378161549568176e-01,5.960000000000000000e+02
-1.580038478522583318e+02,-1.155590368936718733e+02,-1.015255763098302850e+02,-9.590331709115525882e+01,-1.538329685825392517e+02,-1.513380143399299413e+02,-1.103384507179616776e+02,-8.477788534694809641e+01,9.370253562927246094e+00,-8.796565532684326172e-01,1.147378161549568176e-01,5.970000000000000000e+02
-1.428850923428744863e+02,-1.053143265329872520e+02,-8.936802361355694302e+01,-8.596637240522068169e+01,-1.449906156743381871e+02,-1.420204336133174365e+02,-1.040021727678431489e+02,-7.209338632778599276e+01,9.370253562927246094e+00,-8.796565532684326172e-01,1.147378161549568176e-01,5.980000000000000000e+02
-1.343751337787180091e+02,-9.895909768454112054e+01,-8.288798404351291538e+01,-8.009314379996249045e+01,-1.403248182755087328e+02,-1.363451817781387945e+02,-9.933391221839337959e+01,-6.676959027526208956e+01,9.370253562927246094e+00,-8.796565532684326172e-01,1.147378161549568176e-01,5.990000000000000000e+02
-1.320940228691215452e+02,-9.737108550421180553e+01,-8.179427748315902136e+01,-7.893074325005909486e+01,-1.400556155566009693e+02,-1.347969660099552129e+02,-9.740275255108281272e+01,-6.731450522731392994e+01,9.370253562927246094e+00,-8.796565532684326172e-01,1.147378161549568176e-01,6.000000000000000000e+02
-1.313710763081398909e+02,-9.750551077301497571e+01,-8.193458592908609717e+01,-7.968912553379595920e+01,-1.409074756232039363e+02,-1.350101636799699918e+02,-9.656921595819221693e+01,-6.883070148396473087e+01,9.370253562927246094e+00,-8.796565532684326172e-01,1.147378161549568176e-01,6.010000000000000000e+02
-1.283621150988001318e+02,-9.635784091067580448e+01,-7.990161427594284760e+01,-7.960008014725099201e+01,-1.398329379060778592e+02,-1.345603083641290141e+02,-9.481977859543258091e+01,-6.785795661159500014e+01,9.370253562927246094e+00,-8.796565532684326172e-01,1.147378161549568176e-01,6.020000000000000000e+02
-1.233144494582047628e+02,-9.378874407515650091e+01,-7.582024396597989835e+01,-7.823715515397452691e+01,-1.365788466546473501e+02,-1.328188669761220808e+02,-9.180188308147990028e+01,-6.469460888198955217e+01,9.484992027282714844e+00,-9.179025292396545410e-01,1.529837548732757568e-01,6.030000000000000000e+02
-1.195575717208939750e+02,-9.201318939213524573e+01,-7.238322607175541634e+01,-7.709028294723975705e+01,-1.332597954723751172e+02,-1.307094153119542170e+02,-8.888520896913905744e+01,-6.194937679365648364e+01,9.484992027282714844e+00,-9.179025292396545410e-01,1.529837548732757568e-01,6.040000000000000000e+02
-1.199337083882292063e+02,-9.296582971535281104e+01,-7.186450953894018312e+01,-7.754051836742291925e+01,-1.320311425590662111e+02,-1.292961386683164164e+02,-8.766158369001641404e+01,-6.153617751579440664e+01,9.484992027282714844e+00,-9.179025292396545410e-01,1.529837548732757568e-01,6.050000000000000000e+02
-1.242904629068343638e+02,-9.636284290711046197e+01,-7.421009127210345468e+01,-7.948061075767509465e+01,-1.333026917643874185e+02,-1.288281163203282631e+02,-8.856545222947897855e+01,-6.314031419930506672e+01,9.484992027282714844e+00,-9.179025292396545410e-01,1.529837548732757568e-01,6.060000000000000000e+02
-1.300402421727048932e+02,-1.000605073659808113e+02,-7.763522249422203458e+01,-8.168880965896460111e+01,-1.358792955563985743e+02,-1.289317575266104541e+02,-9.079472769605854410e+01,-6.518756572697566298e+01,9.484992027282714844e+00,-9.179025292396545410e-01,1.529837548732757568e-01,6.070000000000000000e+02
-1.346996487910346332e+02,-1.019716935411488521e+02,-8.056478529728883586e+01,-8.319228811482753372e+01,-1.384064909563712717e+02,-1.293672666528582340e+02,-9.326983628214657074e+01,-6.682959139522426995e+01,9.484992027282714844e+00,-9.179025292396545410e-01,1.529837548732757568e-01,6.080000000000000000e+02
-1.377916939351671317e+02,-1.016765404037596454e+02,-8.284964394663984422e+01,-8.415584770468558418e+01,-1.405600282883897307e+02,-1.304551611750030133e+02,-9.555318766830168897e+01,-6.884395444164510991e+01,9.484992027282714844e+00,-9.179025292396545410e-01,1.529837548732757568e-01,6.090000000000000000e+02
-1.405907701541000279e+02,-1.005445294009368808e+02,-8.537780276002740720e+01,-8.562460438760354009e+01,-1.430477644772945496e+02,-1.328642335606018605e+02,-9.798062491901873727e+01,-7.276072666670188482e+01,9.484992027282714844e+00,-9.179025292396545410e-01,1.529837548732757568e-01,6.100000000000000000e+02
-1.444282996470137732e+02,-1.006142964753980777e+02,-8.890194408601928444e+01,-8.860797397597161762e+01,-1.467344674244232010e+02,-1.370884611906622013e+02,-1.011222176894443692e+02,-7.930381896499602590e+01,9.484992027282714844e+00,-9.179025292396545410e-01,1.529837548732757568e-01,6.110000000000000000e+02
-1.493704552710114513e+02,-1.032462273879900749e+02,-9.335735260705405381e+01,-9.335208944119949592e+01,-1.518165440228112857e+02,-1.430439412040832394e+02,-1.051683862166682957e+02,-8.763624065287513076e+01,9.484992027282714844e+00,-9.179025292396545410e-01,1.529837548732757568e-01,6.120000000000000000e+02
-1.542867080890391662e+02,-1.083356193814597646e+02,-9.803839740354669630e+01,-9.915931398357679427e+01,-1.576289219197860803e+02,-1.499262953207726241e+02,-1.096589820528024575e+02,-9.585644407832660363e+01,9.484992027282714844e+00,-9.179025292396545410e-01,1.529837548732757568e-01,6.130000000000000000e+02
