F3,F4,C3,C4,P3,P4,Cz,Pz,Accel_x,Accel_y,Accel_z,Sample
-3.365130396559834480e-11,-3.637978807091712952e-11,-2.091837814077734947e-11,-2.637534635141491890e-11,-3.910827217623591423e-11,-4.547473508864641190e-11,-2.910383045673370361e-11,-3.274180926382541656e-11,9.484992027282714844e+00,-2.677215635776519775e-01,-3.442134261131286621e-01,2.010000000000000000e+02
-3.974619858667210792e+00,-1.019965309535837150e+01,5.013899194464102038e-01,4.230250792310471297e+00,-6.818117320281089633e-01,1.431488777245249366e+00,5.196538927149049414e+00,4.384090136127269943e-01,9.484992027282714844e+00,-2.677215635776519775e-01,-3.442134261131286621e-01,2.020000000000000000e+02
-1.074897169650830620e+01,-1.963871665942679101e+01,8.661180579711071914e-01,6.531659668768952542e+00,-5.308846877158430289e+00,-1.745774066256672086e+00,7.771434086246699735e+00,3.007081803125402075e-01,9.484992027282714844e+00,-2.677215635776519775e-01,-3.442134261131286621e-01,2.030000000000000000e+02
-2.076480210861245723e+01,-2.814617019352135685e+01,1.166022928428901650e+00,6.916543860881574801e+00,-1.417044897275263793e+01,-9.745792229118706018e+00,7.588894234128019889e+00,2.378605711810450885e-01,9.484992027282714844e+00,-2.677215635776519775e-01,-3.442134261131286621e-01,2.040000000000000000e+02
-3.197035050331760431e+01,-3.607267345602031128e+01,1.646019145126956573e+00,7.231351139691469143e+00,-2.391844041734657367e+01,-1.848592868801279110e+01,6.941005434689031972e+00,1.863480701989828958e+00,9.484992027282714844e+00,-2.677215635776519775e-01,-3.442134261131286621e-01,2.050000000000000000e+02
-4.187777194899899769e+01,-4.371315615723506198e+01,2.469151178632273513e+00,9.158877895622936194e+00,-3.107647581133551284e+01,-2.391471904211266519e+01,8.083850394025830610e+00,6.119258484959573252e+00,9.484992027282714844e+00,-2.677215635776519775e-01,-3.442134261131286621e-01,2.060000000000000000e+02
-4.967014293248303147e+01,-5.098649518931870261e+01,3.516859470743838756e+00,1.248052694250054628e+01,-3.533156994533055695e+01,-2.596705622712306649e+01,1.098016946474126598e+01,1.192813073755496589e+01,9.484992027282714844e+00,-2.677215635776519775e-01,-3.442134261131286621e-01,2.070000000000000000e+02
-5.640520762197775184e+01,-5.777981785984047747e+01,4.451028702967960271e+00,1.538247367762596696e+01,-3.940668805694622279e+01,-2.821586054774525110e+01,1.350387978464186745e+01,1.662230368830387306e+01,9.561484336853027344e+00,-3.442134261131286621e-01,-3.442134261131286621e-01,2.080000000000000000e+02
-6.348147022861485311e+01,-6.451368005295444163e+01,4.951252571483564680e+00,1.632776983562143869e+01,-4.604858458395028720e+01,-3.400315091579432192e+01,1.367867511613621900e+01,1.790403108153623180e+01,9.561484336853027344e+00,-3.442134261131286621e-01,-3.442134261131286621e-01,2.090000000000000000e+02
-7.120828025492482993e+01,-7.212535986278726341e+01,4.871261906765539607e+00,1.542272363048141415e+01,-5.546607316744575655e+01,-4.331302050528574910e+01,1.150472200971944403e+01,1.559485080609283614e+01,9.561484336853027344e+00,-3.442134261131286621e-01,-3.442134261131286621e-01,2.100000000000000000e+02
-7.889373352697202790e+01,-8.129711986909023835e+01,4.182708563905180199e+00,1.394395067499772267e+01,-6.561803938333014230e+01,-5.336392894740947668e+01,8.620384232312972017e+00,1.163200238178887957e+01,9.561484336853027344e+00,-3.442134261131286621e-01,-3.442134261131286621e-01,2.110000000000000000e+02
-8.604154570107948530e+01,-9.166379635784778657e+01,2.817730261716860696e+00,1.276885026435775217e+01,-7.455566325490144663e+01,-6.171862952055744245e+01,6.453166475260331936e+00,8.410065177789874724e+00,9.561484336853027344e+00,-3.442134261131286621e-01,-3.442134261131286621e-01,2.120000000000000000e+02
-9.311626975261424377e+01,-1.018661617072639274e+02,6.294461502284320886e-01,1.154574303052231699e+01,-8.214734553305788722e+01,-6.833979338020435534e+01,4.955282750028345617e+00,7.025523710546622169e+00,9.561484336853027344e+00,-3.442134261131286621e-01,-3.442134261131286621e-01,2.130000000000000000e+02
-1.010339387155590885e+02,-1.104763753455226833e+02,-2.474086813846042787e+00,9.434127358415025810e+00,-8.967530479113975161e+01,-7.474423541868236498e+01,3.102049705844365235e+00,6.880489266730364761e+00,9.561484336853027344e+00,-3.442134261131286621e-01,-3.442134261131286621e-01,2.140000000000000000e+02
-1.100537485007780560e+02,-1.169675141151055868e+02,-6.354286075715208426e+00,6.430754386938133393e+00,-9.821539238695095264e+01,-8.178504016189435788e+01,3.396948540503217373e-01,6.711810956429872022e+00,9.561484336853027344e+00,-3.442134261131286621e-01,-3.442134261131286621e-01,2.150000000000000000e+02
-1.193427100714152402e+02,-1.219324032841905137e+02,-1.058664687944838079e+01,3.701852811436765478e+00,-1.076473397824593121e+02,-8.874635672353997506e+01,-2.689313917410800059e+00,5.867041074917324295e+00,9.561484336853027344e+00,-3.442134261131286621e-01,-3.442134261131286621e-01,2.160000000000000000e+02
-1.276458387566481179e+02,-1.265343572742731340e+02,-1.456805753642674972e+01,2.524702783923203242e+00,-1.170097933758142972e+02,-9.448927677678511827e+01,-4.801171445030377072e+00,4.648882611387307406e+00,9.561484336853027344e+00,-3.442134261131286621e-01,-3.442134261131286621e-01,2.170000000000000000e+02
-1.343074760423578482e+02,-1.318204878353517415e+02,-1.772099157890443166e+01,2.994471927415361279e+00,-1.254063620508932217e+02,-9.895865789676554414e+01,-5.438109158846600621e+00,3.622647412163132685e+00,9.561484336853027344e+00,-3.442134261131286621e-01,-3.442134261131286621e-01,2.180000000000000000e+02
-1.396528953144697880e+02,-1.384040420260462270e+02,-1.969926053417111689e+01,3.878147452665871242e+00,-1.324526778081144585e+02,-1.032232477935003772e+02,-5.106397809986447101e+00,2.787816979264789552e+00,9.561484336853027344e+00,-3.442134261131286621e-01,-3.442134261131286621e-01,2.190000000000000000e+02
-1.445291614838342866e+02,-1.464556842188349037e+02,-2.053877745029421931e+01,3.771524327979022928e+00,-1.381627514014999178e+02,-1.081749119882242667e+02,-4.786392696950315440e+00,1.515698296237133036e+00,9.561484336853027344e+00,-3.442134261131286621e-01,-3.442134261131286621e-01,2.200000000000000000e+02
-1.496090602735557695e+02,-1.556817102321947459e+02,-2.068805470452844020e+01,2.397708664889250940e+00,-1.427959345476738235e+02,-1.135511333477070366e+02,-5.055615829171983933e+00,-7.397195569474206422e-01,9.561484336853027344e+00,-3.442134261131286621e-01,-3.442134261131286621e-01,2.210000000000000000e+02
-1.550963939635166753e+02,-1.652575678220850932e+02,-2.084534277883540199e+01,8.081862890694537782e-01,-1.468925725514154692e+02,-1.183722941821306449e+02,-5.741820041182108980e+00,-3.767530949823594710e+00,9.561484336853027344e+00,-3.442134261131286621e-01,-3.442134261131286621e-01,2.220000000000000000e+02
-1.608767585755686014e+02,-1.740259843294074926e+02,-2.163279301774127816e+01,3.691296074375713943e-01,-1.512135264060989357e+02,-1.221517736276173309e+02,-6.232055724181918777e+00,-6.739529012796992902e+00,9.561484336853027344e+00,-3.442134261131286621e-01,-3.442134261131286621e-01,2.230000000000000000e+02
-1.667536782282486456e+02,-1.810999398865219518e+02,-2.329971638910319598e+01,1.525883471250381263e+00,-1.563900735979132151e+02,-1.254550202999489557e+02,-6.018209455581200018e+00,-9.094544854776358989e+00,9.561484336853027344e+00,-3.442134261131286621e-01,-3.442134261131286621e-01,2.240000000000000000e+02
-1.725273391324108161e+02,-1.864831343375112738e+02,-2.567183901902899379e+01,3.423817570916980912e+00,-1.625660304506191096e+02,-1.292862480274879999e+02,-5.073385954499826767e+00,-1.128902199116873817e+01,9.561484336853027344e+00,-3.442134261131286621e-01,-3.442134261131286621e-01,2.250000000000000000e+02
-1.780186946604217155e+02,-1.911394504505051373e+02,-2.839079803250160694e+01,4.588682000698099728e+00,-1.694465224152281735e+02,-1.341337921476479096e+02,-3.961536418224568479e+00,-1.459737402758855751e+01,9.561484336853027344e+00,-3.442134261131286621e-01,-3.442134261131286621e-01,2.260000000000000000e+02
-1.831956814462564580e+02,-1.963587917967674912e+02,-3.122722956041479847e+01,3.983847411326678412e+00,-1.766972586392830635e+02,-1.397093135555069239e+02,-3.682684330461597710e+00,-2.002479740232956829e+01,9.561484336853027344e+00,-3.442134261131286621e-01,-3.442134261131286621e-01,2.270000000000000000e+02
-1.883292157624450738e+02,-2.029150520690104713e+02,-3.419770464132898269e+01,1.582909598459991685e+00,-1.842025114632606346e+02,-1.454688899749862685e+02,-5.227447530277459009e+00,-2.727195905849930568e+01,9.561484336853027344e+00,-3.442134261131286621e-01,-3.442134261131286621e-01,2.280000000000000000e+02
-1.939383355423992725e+02,-2.106760584823600766e+02,-3.740058229838314219e+01,-1.844509540771468892e+00,-1.918874985152979207e+02,-1.511491811103087457e+02,-8.928996891797396529e+00,-3.470606637787113868e+01,9.561484336853027344e+00,-3.442134261131286621e-01,-3.442134261131286621e-01,2.290000000000000000e+02
-2.004384385084458700e+02,-2.188556868208215747e+02,-4.074110148453473812e+01,-5.351251490551476309e+00,-1.993901645562027625e+02,-1.567266090846787847e+02,-1.399978754661469793e+01,-4.040139778178217966e+01,9.561484336853027344e+00,-3.442134261131286621e-01,-3.442134261131286621e-01,2.300000000000000000e+02
-2.077227788858754138e+02,-2.265238801368800523e+02,-4.380329201759104762e+01,-8.247757069141698594e+00,-2.060539716734601825e+02,-1.620219525229667852e+02,-1.871528053017618731e+01,-4.336263526128641388e+01,9.561484336853027344e+00,-3.442134261131286621e-01,-3.442134261131286621e-01,2.310000000000000000e+02
-2.150376036024686073e+02,-2.329184734804966865e+02,-4.598386910479348444e+01,-1.010894305163128593e+01,-2.113109545955048816e+02,-1.665772863817774123e+02,-2.129913867319146448e+01,-4.395334855519877237e+01,9.561484336853027344e+00,-3.442134261131286621e-01,-3.442134261131286621e-01,2.320000000000000000e+02
-2.213159433298828844e+02,-2.375247760769061642e+02,-4.680621837093030990e+01,-1.059559602645185805e+01,-2.150746424041772116e+02,-1.700145294099584135e+02,-2.097226208131087333e+01,-4.336044865936264614e+01,9.561484336853027344e+00,-3.442134261131286621e-01,-3.442134261131286621e-01,2.330000000000000000e+02
-2.257828731252443504e+02,-2.401697874630490332e+02,-4.623557868765192325e+01,-9.473407096767914481e+00,-2.178032913852753154e+02,-1.724521895643310927e+02,-1.841622650941599204e+01,-4.277447004738178293e+01,9.561484336853027344e+00,-3.442134261131286621e-01,-3.442134261131286621e-01,2.340000000000000000e+02
-2.284548278074130394e+02,-2.412386167055183250e+02,-4.484698623307258458e+01,-6.913173957218532450e+00,-2.203123751723355781e+02,-1.744883589061746534e+02,-1.536671138075280396e+01,-4.301739517236683241e+01,9.523238182067871094e+00,-3.059675097465515137e-01,-3.442134261131286621e-01,2.350000000000000000e+02
-2.302076914538779420e+02,-2.417472543465637500e+02,-4.370772209166443645e+01,-3.734253300499403849e+00,-2.235596882197482955e+02,-1.767476043780834516e+02,-1.368767038379610312e+01,-4.464943273455219241e+01,9.523238182067871094e+00,-3.059675097465515137e-01,-3.442134261131286621e-01,2.360000000000000000e+02
-2.323286897187299473e+02,-2.429550950989632838e+02,-4.391571148207822262e+01,-1.173468969378973270e+00,-2.284050523950559182e+02,-1.794379052720487380e+02,-1.452265577356456561e+01,-4.799617206161656213e+01,9.523238182067871094e+00,-3.059675097465515137e-01,-3.442134261131286621e-01,2.370000000000000000e+02
-2.357770291845058637e+02,-2.456393671164887564e+02,-4.593872761572492891e+01,-1.921367656264010293e-01,-2.351947854752488638e+02,-1.823024045950542131e+02,-1.787934632473161400e+01,-5.278061253272471731e+01,9.523238182067871094e+00,-3.059675097465515137e-01,-3.442134261131286621e-01,2.380000000000000000e+02
-2.405953807725704792e+02,-2.496104824956350967e+02,-4.916416130480411084e+01,-8.556700307767641789e-01,-2.433018754022309622e+02,-1.849347269202098687e+02,-2.266927919211457265e+01,-5.779604426963305741e+01,9.523238182067871094e+00,-3.059675097465515137e-01,-3.442134261131286621e-01,2.390000000000000000e+02
-2.458807152111753567e+02,-2.539350747798498560e+02,-5.210811225108091094e+01,-2.331121486142819776e+00,-2.511455811535133762e+02,-1.871279427599210976e+02,-2.712036854024972854e+01,-6.131819181249056783e+01,9.523238182067871094e+00,-3.059675097465515137e-01,-3.442134261131286621e-01,2.400000000000000000e+02
-2.503829559612836420e+02,-2.576850286511134982e+02,-5.331961188377226790e+01,-3.538820035590106272e+00,-2.570215561368722774e+02,-1.890031439402182514e+02,-2.950954547846458809e+01,-6.226668367549837058e+01,9.523238182067871094e+00,-3.059675097465515137e-01,-3.442134261131286621e-01,2.410000000000000000e+02
-2.533572192819615339e+02,-2.605465071038897804e+02,-5.240962387330273486e+01,-3.922327024176865962e+00,-2.602897103989980678e+02,-1.909259763718000613e+02,-2.904617730606241821e+01,-6.118131668603473372e+01,9.523238182067871094e+00,-3.059675097465515137e-01,-3.442134261131286621e-01,2.420000000000000000e+02
-2.550682129354227072e+02,-2.627832158443852677e+02,-5.039931368551879132e+01,-3.709167342356522568e+00,-2.619005271194846500e+02,-1.933381276233258177e+02,-2.643724942490598551e+01,-5.998416654295942863e+01,9.523238182067871094e+00,-3.059675097465515137e-01,-3.442134261131286621e-01,2.430000000000000000e+02
-2.565823073451629170e+02,-2.647234729735641849e+02,-4.904191722765290251e+01,-3.524277652782075165e+00,-2.636733782202409202e+02,-1.965718707688374707e+02,-2.361621844884120947e+01,-6.053202246849878065e+01,9.523238182067871094e+00,-3.059675097465515137e-01,-3.442134261131286621e-01,2.440000000000000000e+02
-2.590285610803166492e+02,-2.664064861141173424e+02,-4.961825996084917278e+01,-3.814677596239562263e+00,-2.668999373402225501e+02,-2.006728977676402792e+02,-2.260048477983309567e+01,-6.317757665298768188e+01,9.523238182067871094e+00,-3.059675097465515137e-01,-3.442134261131286621e-01,2.450000000000000000e+02
-2.629058480779303864e+02,-2.677533901385581885e+02,-5.215300136347241278e+01,-4.620425963408706593e+00,-2.715340927255520000e+02,-2.053196861887190607e+02,-2.419107913596371873e+01,-6.665391569007351791e+01,9.523238182067871094e+00,-3.059675097465515137e-01,-3.442134261131286621e-01,2.460000000000000000e+02
-2.678990672501204244e+02,-2.689792810410181119e+02,-5.559911244882187020e+01,-5.757472585446066660e+00,-2.766201197002842491e+02,-2.099337943892655858e+02,-2.747953189334111812e+01,-6.936822382099398965e+01,9.523238182067871094e+00,-3.059675097465515137e-01,-3.442134261131286621e-01,2.470000000000000000e+02
-2.732018325700742025e+02,-2.706492198182568245e+02,-5.868913283242955004e+01,-7.043477704301494668e+00,-2.813557567089633267e+02,-2.139501617862488274e+02,-3.056382523601268986e+01,-7.084406746439208291e+01,9.523238182067871094e+00,-3.059675097465515137e-01,-3.442134261131286621e-01,2.480000000000000000e+02
-2.780071628692026025e+02,-2.731968599084480047e+02,-6.069849444210967704e+01,-8.295101099051407800e+00,-2.856763252236314656e+02,-2.171083916911215965e+02,-3.196480936309853860e+01,-7.197145899464385366e+01,9.523238182067871094e+00,-3.059675097465515137e-01,-3.442134261131286621e-01,2.490000000000000000e+02
-2.818430190715307617e+02,-2.764020605486293789e+02,-6.164121630596400792e+01,-9.235042343173518020e+00,-2.899174431845904110e+02,-2.195707156501407553e+02,-3.168647440089580414e+01,-7.393383305028191899e+01,9.523238182067871094e+00,-3.059675097465515137e-01,-3.442134261131286621e-01,2.500000000000000000e+02
-2.846740357666440104e+02,-2.794653304591265623e+02,-6.201311505462808782e+01,-9.614023805670967704e+00,-2.941530989137813776e+02,-2.217692485950492483e+02,-3.114910623574314741e+01,-7.694216338793376053e+01,9.523238182067871094e+00,-3.059675097465515137e-01,-3.442134261131286621e-01,2.510000000000000000e+02
-2.868347763560263957e+02,-2.817031806643822165e+02,-6.246340928690642613e+01,-9.528820427754908451e+00,-2.980482139094783633e+02,-2.240754030383200188e+02,-3.207957810797370257e+01,-7.997744318932200258e+01,9.523238182067871094e+00,-3.059675097465515137e-01,-3.442134261131286621e-01,2.520000000000000000e+02
-2.888272858536970489e+02,-2.831641247068996563e+02,-6.354195110669024871e+01,-9.545141288648665068e+00,-3.013195855063581803e+02,-2.265168903530889111e+02,-3.517445706161470298e+01,-8.166479621964526814e+01,9.523238182067871094e+00,-3.059675097465515137e-01,-3.442134261131286621e-01,2.530000000000000000e+02
-2.910015973258396116e+02,-2.844638487576157786e+02,-6.541603488610235217e+01,-1.032186715745228867e+01,-3.041222780439757116e+02,-2.287581193045980399e+02,-3.946993818501732676e+01,-8.135004529901334536e+01,9.523238182067871094e+00,-3.059675097465515137e-01,-3.442134261131286621e-01,2.540000000000000000e+02
-2.932501589857506588e+02,-2.859658595861119466e+02,-6.758288915517869100e+01,-1.196641086821182398e+01,-3.068088754901923494e+02,-2.303843954640137781e+02,-4.284300383946492730e+01,-7.942966960750982253e+01,9.523238182067871094e+00,-3.059675097465515137e-01,-3.442134261131286621e-01,2.550000000000000000e+02
-2.949834432903003290e+02,-2.872123727127095663e+02,-6.891449525883172100e+01,-1.377437715474161450e+01,-3.093523658797753342e+02,-2.312951575535494158e+02,-4.335316201884052134e+01,-7.685818178760018782e+01,9.523238182067871094e+00,-3.059675097465515137e-01,-3.442134261131286621e-01,2.560000000000000000e+02
-2.955618778225502865e+02,-2.873484722892858372e+02,-6.832254049526909512e+01,-1.474298261613375871e+01,-3.112366834032036422e+02,-2.319052918917745956e+02,-4.059548261415920933e+01,-7.451573077706825643e+01,9.523238182067871094e+00,-3.059675097465515137e-01,-3.442134261131286621e-01,2.570000000000000000e+02
-2.949446611877060604e+02,-2.862137478913978157e+02,-6.572553775160940859e+01,-1.447955895094492007e+01,-3.121115401005522472e+02,-2.329592653601002894e+02,-3.617830668501392211e+01,-7.299571690746688546e+01,9.523238182067871094e+00,-3.059675097465515137e-01,-3.442134261131286621e-01,2.580000000000000000e+02
-2.939835211548247571e+02,-2.849263885083246350e+02,-6.244820942230944638e+01,-1.364077162898547613e+01,-3.125273708758813882e+02,-2.350360863548889938e+02,-3.290427073341970754e+01,-7.270111874501390048e+01,9.523238182067871094e+00,-3.059675097465515137e-01,-3.442134261131286621e-01,2.590000000000000000e+02
-2.939785858629725226e+02,-2.851437516292203327e+02,-6.045777764697868406e+01,-1.340789664217618338e+01,-3.137883679592382578e+02,-2.380731451672932053e+02,-3.305315800129301351e+01,-7.379125395320716052e+01,9.523238182067871094e+00,-3.059675097465515137e-01,-3.442134261131286621e-01,2.600000000000000000e+02
-2.957388036335960351e+02,-2.875143590828497508e+02,-6.087023459382953661e+01,-1.441612361529496411e+01,-3.168100292697358782e+02,-2.412644656869979372e+02,-3.684457717360373863e+01,-7.586246244491667312e+01,9.523238182067871094e+00,-3.059675097465515137e-01,-3.442134261131286621e-01,2.610000000000000000e+02
-2.989124616223834892e+02,-2.908193559490714506e+02,-6.297327158891312138e+01,-1.610441943799833098e+01,-3.209937055887698989e+02,-2.434516395638988797e+02,-4.216613519351358264e+01,-7.777157534300295083e+01,9.523238182067871094e+00,-3.059675097465515137e-01,-3.442134261131286621e-01,2.620000000000000000e+02
-3.022119773355457255e+02,-2.928018704156165768e+02,-6.471059981409007378e+01,-1.708979418676653950e+01,-3.243279393126445029e+02,-2.437891222858420406e+02,-4.584928519946561210e+01,-7.804620315016427412e+01,9.523238182067871094e+00,-3.059675097465515137e-01,-3.442134261131286621e-01,2.630000000000000000e+02
-3.043943301445789302e+02,-2.920903615117596246e+02,-6.429821100112735621e+01,-1.625850401880643403e+01,-3.248599295046240059e+02,-2.422823618593256469e+02,-4.565787735419189630e+01,-7.576891112770135805e+01,9.523238182067871094e+00,-3.059675097465515137e-01,-3.442134261131286621e-01,2.640000000000000000e+02
-3.051623031220981375e+02,-2.894813350725100918e+02,-6.159754409983656842e+01,-1.364945196344660872e+01,-3.223504731002768722e+02,-2.398650669336807368e+02,-4.160213742235123391e+01,-7.125978592571573245e+01,9.523238182067871094e+00,-3.059675097465515137e-01,-3.442134261131286621e-01,2.650000000000000000e+02
-3.052182663804144340e+02,-2.873574530149769544e+02,-5.808674902728603229e+01,-1.044111132526631991e+01,-3.186468934232689207e+02,-2.379502771783263597e+02,-3.571065990499869258e+01,-6.597954493965107758e+01,9.484992027282714844e+00,-2.294756323099136353e-01,-3.824593424797058105e-01,2.660000000000000000e+02
-3.054992008197760924e+02,-2.877240222276537907e+02,-5.556602824959691134e+01,-8.143342734629641200e+00,-3.164000326852481066e+02,-2.376998449123946102e+02,-3.058858844684141332e+01,-6.173361940067866271e+01,9.484992027282714844e+00,-2.294756323099136353e-01,-3.824593424797058105e-01,2.670000000000000000e+02
-3.063634964921529900e+02,-2.906306741045267472e+02,-5.483165948429041237e+01,-7.682802357043328811e+00,-3.171918635111672984e+02,-2.394351618374380450e+02,-2.794406384551507472e+01,-5.979221685220818472e+01,9.484992027282714844e+00,-2.294756323099136353e-01,-3.824593424797058105e-01,2.680000000000000000e+02
-3.074833178457512304e+02,-2.943499035501286016e+02,-5.544217596616431365e+01,-9.024504378194478704e+00,-3.206283445130460450e+02,-2.425473308847754197e+02,-2.807417769427775056e+01,-6.047374485620571249e+01,9.484992027282714844e+00,-2.294756323099136353e-01,-3.824593424797058105e-01,2.690000000000000000e+02
-3.084440754945804883e+02,-2.969966633933267985e+02,-5.655382427590075167e+01,-1.143230942257878269e+01,-3.250154242417622754e+02,-2.459486699357642010e+02,-3.033049575232780626e+01,-6.323350637068733704e+01,9.484992027282714844e+00,-2.294756323099136353e-01,-3.824593424797058105e-01,2.700000000000000000e+02
-3.093415482705613613e+02,-2.979981383203149790e+02,-5.782198219389078986e+01,-1.400335796313856918e+01,-3.288372310097080344e+02,-2.487395393853221321e+02,-3.381785291636947477e+01,-6.696052088924602685e+01,9.484992027282714844e+00,-2.294756323099136353e-01,-3.824593424797058105e-01,2.710000000000000000e+02
-3.107121617025616160e+02,-2.981431822860799912e+02,-5.948080865445217569e+01,-1.606304564242645938e+01,-3.316928117192761647e+02,-2.506254120138669350e+02,-3.766439081595422067e+01,-7.029301246669194825e+01,9.484992027282714844e+00,-2.294756323099136353e-01,-3.824593424797058105e-01,2.720000000000000000e+02
-3.128630520660819911e+02,-2.984179756921610078e+02,-6.167098605165892877e+01,-1.726153577441959897e+01,-3.340288956077569082e+02,-2.518291637253610133e+02,-4.090156722242750220e+01,-7.200663235602621626e+01,9.484992027282714844e+00,-2.294756323099136353e-01,-3.824593424797058105e-01,2.730000000000000000e+02
-3.153390497911675538e+02,-2.989584996128684224e+02,-6.387438214198004971e+01,-1.749800855510466135e+01,-3.362128027155833934e+02,-2.526897264341037044e+02,-4.251325280928085704e+01,-7.154321460982487224e+01,9.484992027282714844e+00,-2.294756323099136353e-01,-3.824593424797058105e-01,2.740000000000000000e+02
-3.171590346546669252e+02,-2.991537512294589760e+02,-6.515779226451286377e+01,-1.687490929855789545e+01,-3.380224790158882797e+02,-2.533797471514694735e+02,-4.196950636309202309e+01,-6.944732858130919340e+01,9.484992027282714844e+00,-2.294756323099136353e-01,-3.824593424797058105e-01,2.750000000000000000e+02
-3.176579922835334173e+02,-2.986288115561310406e+02,-6.500407181876300911e+01,-1.574762215313216984e+01,-3.390173595547928471e+02,-2.539716302874837766e+02,-3.983229523341299227e+01,-6.725608062051446723e+01,9.484992027282714844e+00,-2.294756323099136353e-01,-3.824593424797058105e-01,2.760000000000000000e+02
-3.171148276867629647e+02,-2.979545066367502386e+02,-6.386559753252947758e+01,-1.476324686449470391e+01,-3.392500737066452530e+02,-2.546606911900501018e+02,-3.769240750308381394e+01,-6.667419265740545598e+01,9.484992027282714844e+00,-2.294756323099136353e-01,-3.824593424797058105e-01,2.770000000000000000e+02
-3.165198648689751053e+02,-2.982852189100452165e+02,-6.283417266755577657e+01,-1.471883548790196983e+01,-3.394363375088083785e+02,-2.557650625130194157e+02,-3.720942322092685117e+01,-6.848886061801817959e+01,9.484992027282714844e+00,-2.294756323099136353e-01,-3.824593424797058105e-01,2.780000000000000000e+02
-3.166696875936697779e+02,-3.002800911821245791e+02,-6.270025253800315568e+01,-1.619192113962185431e+01,-3.403277600389025110e+02,-2.574049000309715893e+02,-3.890644735169621526e+01,-7.202055120925376741e+01,9.484992027282714844e+00,-2.294756323099136353e-01,-3.824593424797058105e-01,2.790000000000000000e+02
-3.174366197258300417e+02,-3.033678711645138151e+02,-6.327515837921168895e+01,-1.909456171430656468e+01,-3.419219837852947421e+02,-2.592002543304467963e+02,-4.171681009948406427e+01,-7.557575320318130707e+01,9.484992027282714844e+00,-2.294756323099136353e-01,-3.824593424797058105e-01,2.800000000000000000e+02
-3.179154478916690323e+02,-3.060423114553113351e+02,-6.362543007030160425e+01,-2.247951502073374286e+01,-3.433596533607505989e+02,-2.604151515215049812e+02,-4.372589308468525360e+01,-7.759420267775476532e+01,9.484992027282714844e+00,-2.294756323099136353e-01,-3.824593424797058105e-01,2.810000000000000000e+02
-3.173103536379620664e+02,-3.069056429053885608e+02,-6.300597148191343422e+01,-2.488370007793287186e+01,-3.436708120595026230e+02,-2.605484754913956067e+02,-4.355577666384101576e+01,-7.762401478857464099e+01,9.484992027282714844e+00,-2.294756323099136353e-01,-3.824593424797058105e-01,2.820000000000000000e+02
-3.157392513146434112e+02,-3.055875304469100797e+02,-6.164370209812477697e+01,-2.516832909473373547e+01,-3.426885321334716537e+02,-2.598709982808020413e+02,-4.132811102811683668e+01,-7.644825985076863617e+01,9.484992027282714844e+00,-2.294756323099136353e-01,-3.824593424797058105e-01,2.830000000000000000e+02
-3.142448602491418796e+02,-3.028934123256864268e+02,-6.067704154850582654e+01,-2.336084350961778000e+01,-3.412920324989083838e+02,-2.593777733537660879e+02,-3.853602225740974063e+01,-7.539387822849278109e+01,9.484992027282714844e+00,-2.294756323099136353e-01,-3.824593424797058105e-01,2.840000000000000000e+02
-3.140325047901361586e+02,-3.002359879618850300e+02,-6.132150833166963366e+01,-2.085429357960742891e+01,-3.407891507498411556e+02,-2.601318832552082085e+02,-3.703803578347140046e+01,-7.545704601287729929e+01,9.484992027282714844e+00,-2.294756323099136353e-01,-3.824593424797058105e-01,2.850000000000000000e+02
-3.156078537315438552e+02,-2.988783641688564217e+02,-6.401229196326153215e+01,-1.968665971638779411e+01,-3.420335747037021292e+02,-2.625368999931951066e+02,-3.798308775984389740e+01,-7.689659822627493213e+01,9.484992027282714844e+00,-2.294756323099136353e-01,-3.824593424797058105e-01,2.860000000000000000e+02
-3.185051506450812440e+02,-2.994402013103470495e+02,-6.822317348518254221e+01,-2.130779506218436836e+01,-3.450297425177972173e+02,-2.661252497484243804e+02,-4.134708314156091546e+01,-7.943382612867981152e+01,9.484992027282714844e+00,-2.677215635776519775e-01,-3.442134261131286621e-01,2.870000000000000000e+02
-3.217101023271500821e+02,-3.017823685385168346e+02,-7.299597218591043202e+01,-2.568056900700196366e+01,-3.492102867591676159e+02,-2.699571234205832297e+02,-4.615339152242472665e+01,-8.266697206412914056e+01,9.484992027282714844e+00,-2.677215635776519775e-01,-3.442134261131286621e-01,2.880000000000000000e+02
-3.243244048957612904e+02,-3.051644929745102672e+02,-7.759865027237219692e+01,-3.135313033799616278e+01,-3.539342275104642113e+02,-2.732227665624450310e+02,-5.099639798271880409e+01,-8.624171159613104010e+01,9.484992027282714844e+00,-2.677215635776519775e-01,-3.442134261131286621e-01,2.890000000000000000e+02
-3.259635542317785166e+02,-3.085696010753533187e+02,-8.172412881262903284e+01,-3.640935133911625599e+01,-3.586871036028140907e+02,-2.755830495431653162e+02,-5.453064202849418507e+01,-8.970217214404647166e+01,9.484992027282714844e+00,-2.677215635776519775e-01,-3.442134261131286621e-01,2.900000000000000000e+02
-3.267256783265629565e+02,-3.110951699439009417e+02,-8.517914008263176129e+01,-3.954546169127729627e+01,-3.629204297596187416e+02,-2.771128180895863125e+02,-5.586218460536747443e+01,-9.234222905670424097e+01,9.484992027282714844e+00,-2.677215635776519775e-01,-3.442134261131286621e-01,2.910000000000000000e+02
-3.269340012742983390e+02,-3.122422018697767498e+02,-8.755867944730448471e+01,-4.052737227645377516e+01,-3.659302455793217064e+02,-2.780529545564240834e+02,-5.489397909327283287e+01,-9.340994480147605827e+01,9.484992027282714844e+00,-2.677215635776519775e-01,-3.442134261131286621e-01,2.920000000000000000e+02
-3.269324887268490443e+02,-3.119510341380176897e+02,-8.838324909869629664e+01,-3.989204869217610394e+01,-3.671288603652291158e+02,-2.786205407166413579e+02,-5.252650169602839014e+01,-9.263634448600703308e+01,9.484992027282714844e+00,-2.677215635776519775e-01,-3.442134261131286621e-01,2.930000000000000000e+02
-3.270281088469724295e+02,-3.104057520287826719e+02,-8.763064383797745904e+01,-3.836315559231741190e+01,-3.665695166723108969e+02,-2.789470416045307957e+02,-5.043939701225235694e+01,-9.064897461633063358e+01,9.484992027282714844e+00,-2.677215635776519775e-01,-3.442134261131286621e-01,2.940000000000000000e+02
-3.274795334700071407e+02,-3.078613262423519927e+02,-8.609435055533151626e+01,-3.653812670374509253e+01,-3.651765210637187238e+02,-2.790821181390103902e+02,-5.032437445022173961e+01,-8.879753378869838798e+01,9.484992027282714844e+00,-2.677215635776519775e-01,-3.442134261131286621e-01,2.950000000000000000e+02
-3.284262037616101111e+02,-3.047050220969686620e+02,-8.507845998792913633e+01,-3.498036416316858777e+01,-3.642945558356645961e+02,-2.790328285709173315e+02,-5.290849526855868135e+01,-8.837600238517347861e+01,9.484992027282714844e+00,-2.677215635776519775e-01,-3.442134261131286621e-01,2.960000000000000000e+02
-3.297633994978133956e+02,-3.016432588659868657e+02,-8.554828277392232394e+01,-3.438390139731916406e+01,-3.647783120464965805e+02,-2.788667507078993140e+02,-5.743701300259476739e+01,-8.977315821917522953e+01,9.484992027282714844e+00,-2.677215635776519775e-01,-3.442134261131286621e-01,2.970000000000000000e+02
-3.310823310058417519e+02,-2.996400218168373044e+02,-8.740710920783908477e+01,-3.545026214497670480e+01,-3.663409574606420165e+02,-2.788454574283798593e+02,-6.207163668863859129e+01,-9.221771681596305825e+01,9.484992027282714844e+00,-2.677215635776519775e-01,-3.442134261131286621e-01,2.980000000000000000e+02
-3.318015375592470377e+02,-2.994122667820644210e+02,-8.953412477935478364e+01,-3.846190805594869744e+01,-3.677567116182671043e+02,-2.794174844633098473e+02,-6.500030288422340163e+01,-9.432946822821929800e+01,9.484992027282714844e+00,-2.677215635776519775e-01,-3.442134261131286621e-01,2.990000000000000000e+02
-3.314753335480136229e+02,-3.007894199546802270e+02,-9.059103295906163567e+01,-4.288542122849139560e+01,-3.678019027700466950e+02,-2.809182297312883065e+02,-6.547723391405406801e+01,-9.501139547381740158e+01,9.484992027282714844e+00,-2.677215635776519775e-01,-3.442134261131286621e-01,3.000000000000000000e+02
-3.301134209030384454e+02,-3.025669500603272013e+02,-8.996370060683443626e+01,-4.738145699949529899e+01,-3.661582356038981061e+02,-2.831078025435554082e+02,-6.405729139102254521e+01,-9.398268403375652724e+01,9.484992027282714844e+00,-2.677215635776519775e-01,-3.442134261131286621e-01,3.010000000000000000e+02
-3.282796479693957963e+02,-3.031787472161901746e+02,-8.812276402550605781e+01,-5.031547517256228730e+01,-3.635289423050359119e+02,-2.849714048611679118e+02,-6.196384663490835010e+01,-9.163759950704468338e+01,9.484992027282714844e+00,-2.677215635776519775e-01,-3.442134261131286621e-01,3.020000000000000000e+02
-3.268301621114181330e+02,-3.017789253958515587e+02,-8.619802583100556603e+01,-5.053545895864044724e+01,-3.609340698583691847e+02,-2.851546460141506714e+02,-6.021615276374427594e+01,-8.854428079021022313e+01,9.484992027282714844e+00,-2.677215635776519775e-01,-3.442134261131286621e-01,3.030000000000000000e+02
-3.263933899020697140e+02,-2.988691642663044945e+02,-8.519500430386733569e+01,-4.801799079939507919e+01,-3.589018156721837158e+02,-2.829110282345046699e+02,-5.923107915593232065e+01,-8.515736259930372398e+01,9.484992027282714844e+00,-2.677215635776519775e-01,-3.442134261131286621e-01,3.040000000000000000e+02
-3.269258933433353036e+02,-2.959061913184148125e+02,-8.546870588002138902e+01,-4.400600649023397182e+01,-3.573111770108837391e+02,-2.788828926137126700e+02,-5.904907082662157336e+01,-8.194803410222903040e+01,9.484992027282714844e+00,-2.677215635776519775e-01,-3.442134261131286621e-01,3.050000000000000000e+02
-3.276862633355328285e+02,-2.941796071468750142e+02,-8.673185566606889552e+01,-4.046100046109495452e+01,-3.559288097746878066e+02,-2.749583324963390396e+02,-5.971250737527350338e+01,-7.959709567002869335e+01,9.484992027282714844e+00,-2.677215635776519775e-01,-3.442134261131286621e-01,3.060000000000000000e+02
-3.277014522048128242e+02,-2.938844443714103818e+02,-8.841977773255109696e+01,-3.903417876181606516e+01,-3.549648282732397320e+02,-2.731044474480443114e+02,-6.129496948939754475e+01,-7.882125090406930212e+01,9.484992027282714844e+00,-2.677215635776519775e-01,-3.442134261131286621e-01,3.070000000000000000e+02
-3.264377669744593504e+02,-2.941444576859641984e+02,-9.004430073629737308e+01,-4.015455613041240213e+01,-3.549898777138450896e+02,-2.739841712837799150e+02,-6.360784196340739527e+01,-7.986507098521144599e+01,9.484992027282714844e+00,-2.677215635776519775e-01,-3.442134261131286621e-01,3.080000000000000000e+02
-3.242011050150559299e+02,-2.939087453543667721e+02,-9.133515813028657249e+01,-4.288543437459304641e+01,-3.562772648119724863e+02,-2.764927670995426752e+02,-6.605866196975307503e+01,-8.216800314005672590e+01,9.484992027282714844e+00,-2.677215635776519775e-01,-3.442134261131286621e-01,3.090000000000000000e+02
-3.219730767157104765e+02,-2.928992570804032880e+02,-9.222758447873752630e+01,-4.571443400855162054e+01,-3.583030330860210597e+02,-2.786849902029772466e+02,-6.798710187894766932e+01,-8.465432798990173069e+01,9.484992027282714844e+00,-2.677215635776519775e-01,-3.442134261131286621e-01,3.100000000000000000e+02
-3.207753594480420816e+02,-2.917786444478084604e+02,-9.281494915938549184e+01,-4.767475064885024949e+01,-3.600026445675564446e+02,-2.793503047243090123e+02,-6.918908116475688530e+01,-8.645926256896041195e+01,9.484992027282714844e+00,-2.677215635776519775e-01,-3.442134261131286621e-01,3.110000000000000000e+02
-3.209995383216560185e+02,-2.914198283796544047e+02,-9.328733202846467520e+01,-4.886783020335440142e+01,-3.605917062903862416e+02,-2.788831968601160725e+02,-7.003700166732164689e+01,-8.743204923211862933e+01,9.523238182067871094e+00,-2.677215635776519775e-01,-3.824593424797058105e-01,3.120000000000000000e+02
-3.221421484098986525e+02,-2.919520759183526479e+02,-9.379541795786531111e+01,-4.995828094141643305e+01,-3.601502019238031949e+02,-2.786793908181946335e+02,-7.096843629648014939e+01,-8.796481028110929401e+01,9.523238182067871094e+00,-2.677215635776519775e-01,-3.824593424797058105e-01,3.130000000000000000e+02
-3.231132078678726884e+02,-2.924692499618049055e+02,-9.427845811360782591e+01,-5.119275460454184667e+01,-3.594152220731606349e+02,-2.796413333455194561e+02,-7.184604348672223750e+01,-8.840061500000331307e+01,9.523238182067871094e+00,-2.677215635776519775e-01,-3.824593424797058105e-01,3.140000000000000000e+02
-3.229110189595158431e+02,-2.916949575747274821e+02,-9.441936299424241952e+01,-5.198432588132641285e+01,-3.590244599103031646e+02,-2.812132841356478821e+02,-7.192932307934847813e+01,-8.867894491060462769e+01,9.523238182067871094e+00,-2.677215635776519775e-01,-3.824593424797058105e-01,3.150000000000000000e+02
-3.212358992848173216e+02,-2.890759023417065805e+02,-9.385289123218944951e+01,-5.152897897643299530e+01,-3.589709469798767714e+02,-2.818486904061364839e+02,-7.060748211609052305e+01,-8.856450370063123501e+01,9.523238182067871094e+00,-2.677215635776519775e-01,-3.824593424797058105e-01,3.160000000000000000e+02
-3.186882308647587934e+02,-2.853801624102752612e+02,-9.252060564098815121e+01,-4.982061794080857453e+01,-3.587642782825583367e+02,-2.804365095265071659e+02,-6.820931754183402518e+01,-8.811948771306845174e+01,9.523238182067871094e+00,-2.677215635776519775e-01,-3.824593424797058105e-01,3.170000000000000000e+02
-3.164551084818427853e+02,-2.822388422793152927e+02,-9.086995808651647621e+01,-4.794462381726225431e+01,-3.580416678910347059e+02,-2.773104735250896056e+02,-6.601936786489159203e+01,-8.780208735076189441e+01,9.523238182067871094e+00,-2.677215635776519775e-01,-3.824593424797058105e-01,3.180000000000000000e+02
-3.156833641433792081e+02,-2.809547769302719189e+02,-8.967777249427956576e+01,-4.723711154839679693e+01,-3.569560490887117794e+02,-2.739285785161982858e+02,-6.537327908647500863e+01,-8.802219570312422547e+01,9.523238182067871094e+00,-2.677215635776519775e-01,-3.824593424797058105e-01,3.190000000000000000e+02
-3.168861936232513585e+02,-2.815310436576057782e+02,-8.956143826500976957e+01,-4.808307528514956175e+01,-3.559445346855575281e+02,-2.716187820040740917e+02,-6.660244266394010992e+01,-8.863170723119651484e+01,9.523238182067871094e+00,-2.677215635776519775e-01,-3.824593424797058105e-01,3.200000000000000000e+02
-3.196686216732549610e+02,-2.827117930505954178e+02,-9.053102689103150169e+01,-4.955476777459261939e+01,-3.551477780361435634e+02,-2.706044602477591070e+02,-6.876758774187203471e+01,-8.892656102944761187e+01,9.523238182067871094e+00,-2.677215635776519775e-01,-3.824593424797058105e-01,3.210000000000000000e+02
-3.228505352659294658e+02,-2.829843194694852286e+02,-9.191721840565821822e+01,-5.028980920310209513e+01,-3.540862323327144168e+02,-2.701137461532202906e+02,-7.037800437596365555e+01,-8.819859206740329682e+01,9.523238182067871094e+00,-2.677215635776519775e-01,-3.824593424797058105e-01,3.220000000000000000e+02
-3.248969704311372197e+02,-2.817000983711830600e+02,-9.273782336820761429e+01,-4.976125887882085408e+01,-3.519344223854575375e+02,-2.692658173621040305e+02,-7.041720928405482027e+01,-8.629687420723087143e+01,9.523238182067871094e+00,-2.677215635776519775e-01,-3.824593424797058105e-01,3.230000000000000000e+02
-3.244914763148915426e+02,-2.794226760455771341e+02,-9.225368567982150125e+01,-4.871708522766289207e+01,-3.481884243979354778e+02,-2.677731729866973183e+02,-6.883862316943213955e+01,-8.366323548213415506e+01,9.523238182067871094e+00,-2.677215635776519775e-01,-3.824593424797058105e-01,3.240000000000000000e+02
-3.210818226431144922e+02,-2.773243262481832971e+02,-9.035814628632249423e+01,-4.842713536791848128e+01,-3.431843274920504427e+02,-2.658966541381839761e+02,-6.629774465336095091e+01,-8.087735827386620713e+01,9.523238182067871094e+00,-2.677215635776519775e-01,-3.824593424797058105e-01,3.250000000000000000e+02
-3.152163167104268950e+02,-2.762658605556612201e+02,-8.759728926203104038e+01,-4.954474422059615790e+01,-3.380406666817173118e+02,-2.639539592236262706e+02,-6.358294167801636831e+01,-7.822932058000458255e+01,9.523238182067871094e+00,-2.677215635776519775e-01,-3.824593424797058105e-01,3.260000000000000000e+02
-3.084735876823391436e+02,-2.763333587343018962e+02,-8.487616363370898398e+01,-5.166104540569517667e+01,-3.340396535135560043e+02,-2.620303308347382654e+02,-6.127618898926186830e+01,-7.572210555558535816e+01,9.523238182067871094e+00,-2.677215635776519775e-01,-3.824593424797058105e-01,3.270000000000000000e+02
-3.028901595916050837e+02,-2.770447511578321382e+02,-8.305635868972206026e+01,-5.382583643025554920e+01,-3.318830847520225689e+02,-2.601276883383001177e+02,-5.972920779652929468e+01,-7.338779538462085839e+01,9.523238182067871094e+00,-2.677215635776519775e-01,-3.824593424797058105e-01,3.280000000000000000e+02
-3.000624599089171625e+02,-2.778024886329269521e+02,-8.264464788773500459e+01,-5.536071456656054579e+01,-3.313477696175785923e+02,-2.584214083923493490e+02,-5.908291327715653551e+01,-7.149424198374151729e+01,9.523238182067871094e+00,-2.677215635776519775e-01,-3.824593424797058105e-01,3.290000000000000000e+02
-3.003905369238236744e+02,-2.781042394137898555e+02,-8.366150629950391249e+01,-5.617207199922950167e+01,-3.315828376393686767e+02,-2.572424222197839754e+02,-5.917999787792768984e+01,-7.041822220821427436e+01,9.523238182067871094e+00,-2.677215635776519775e-01,-3.824593424797058105e-01,3.300000000000000000e+02
-3.029288840544794539e+02,-2.774767167612712910e+02,-8.564449063253289296e+01,-5.643995032763484687e+01,-3.317860178324992830e+02,-2.567998108245886897e+02,-5.951982806425587569e+01,-7.033945288650886596e+01,9.523238182067871094e+00,-2.677215635776519775e-01,-3.824593424797058105e-01,3.310000000000000000e+02
-3.059718272959911474e+02,-2.754748138292774229e+02,-8.774401837893151423e+01,-5.621046399374813518e+01,-3.316829491422198544e+02,-2.569836081427414456e+02,-5.947207580230019630e+01,-7.106267775738558612e+01,9.523238182067871094e+00,-2.677215635776519775e-01,-3.824593424797058105e-01,3.320000000000000000e+02
-3.080044997065658663e+02,-2.719539265281280223e+02,-8.894068403421647417e+01,-5.535023036340112412e+01,-3.314046726575382991e+02,-2.574375770526007727e+02,-5.866903408753216809e+01,-7.207098941236870360e+01,9.523238182067871094e+00,-2.677215635776519775e-01,-3.824593424797058105e-01,3.330000000000000000e+02
-3.084005726627219701e+02,-2.673641847819435498e+02,-8.842219725563074917e+01,-5.376812393032469117e+01,-3.309256668531247669e+02,-2.577311004734847302e+02,-5.723213296065353006e+01,-7.268952855476516106e+01,9.523238182067871094e+00,-2.677215635776519775e-01,-3.824593424797058105e-01,3.340000000000000000e+02
-3.074550297977987157e+02,-2.626442264007703216e+02,-8.602760155262672015e+01,-5.152374232633769680e+01,-3.296953591595128046e+02,-2.574044568352685474e+02,-5.562215702291837260e+01,-7.226703693129888961e+01,9.523238182067871094e+00,-2.677215635776519775e-01,-3.824593424797058105e-01,3.350000000000000000e+02
-3.058462893075196689e+02,-2.586536992312682059e+02,-8.250246551920383808e+01,-4.870481555669653062e+01,-3.269701890605592780e+02,-2.559461046446019736e+02,-5.428962635003449577e+01,-7.041312592857730124e+01,9.523238182067871094e+00,-2.677215635776519775e-01,-3.824593424797058105e-01,3.360000000000000000e+02
-3.040355815865932527e+02,-2.556136582933912678e+02,-7.929977946942142353e+01,-4.535882220683106425e+01,-3.226734501919786453e+02,-2.529711897293175298e+02,-5.348185383071802335e+01,-6.731630329485210495e+01,9.523238182067871094e+00,-2.677215635776519775e-01,-3.824593424797058105e-01,3.370000000000000000e+02
-3.020662826134264378e+02,-2.530850109052495327e+02,-7.790047875264394861e+01,-4.171003111452455414e+01,-3.179624369774121533e+02,-2.486411206151532269e+02,-5.331351703083259963e+01,-6.391754937019334193e+01,9.523238182067871094e+00,-2.677215635776519775e-01,-3.824593424797058105e-01,3.380000000000000000e+02
-2.998108268997573305e+02,-2.505156190927101534e+02,-7.898586221100492821e+01,-3.844380029972910506e+01,-3.147799163901875090e+02,-2.439418675964527665e+02,-5.385691890774614876e+01,-6.160475788387873308e+01,9.484992027282714844e+00,-1.912296712398529053e-01,-3.059675097465515137e-01,3.390000000000000000e+02
-2.973220548492412263e+02,-2.478417067216355463e+02,-8.197376020044862344e+01,-3.659020591443800186e+01,-3.145204403224098542e+02,-2.403620998535673152e+02,-5.499534316244421461e+01,-6.141550787500875686e+01,9.484992027282714844e+00,-1.912296712398529053e-01,-3.059675097465515137e-01,3.400000000000000000e+02
-2.949099625001748564e+02,-2.456026749209731861e+02,-8.525673885902199345e+01,-3.688299393112811231e+01,-3.168160931954514581e+02,-2.390063673073805148e+02,-5.615938123982994057e+01,-6.326617543330075932e+01,9.484992027282714844e+00,-1.912296712398529053e-01,-3.059675097465515137e-01,3.410000000000000000e+02
-2.928534603328786261e+02,-2.445172040958892694e+02,-8.699956016586622809e+01,-3.908762138430211053e+01,-3.194816677073197297e+02,-2.397977220717889395e+02,-5.635873604912831070e+01,-6.585963380416308155e+01,9.484992027282714844e+00,-1.912296712398529053e-01,-3.059675097465515137e-01,3.420000000000000000e+02
-2.910337030227744890e+02,-2.449249944753769341e+02,-8.600127012575762819e+01,-4.195882922968712592e+01,-3.197739571516957540e+02,-2.414639480183518572e+02,-5.470363854893378175e+01,-6.743329859419213790e+01,9.484992027282714844e+00,-1.912296712398529053e-01,-3.059675097465515137e-01,3.430000000000000000e+02
-2.888937613150845891e+02,-2.465175377372061121e+02,-8.215619433902190849e+01,-4.396211774776270431e+01,-3.160693832350463026e+02,-2.423735757951296819e+02,-5.107969188744039002e+01,-6.680014479089720680e+01,9.484992027282714844e+00,-1.912296712398529053e-01,-3.059675097465515137e-01,3.440000000000000000e+02
-2.858552732238968019e+02,-2.484540347866266075e+02,-7.637743868183838458e+01,-4.417872963675290521e+01,-3.087558404354043660e+02,-2.415530487695114061e+02,-4.636787659391666239e+01,-6.389002320308316030e+01,9.484992027282714844e+00,-1.912296712398529053e-01,-3.059675097465515137e-01,3.450000000000000000e+02
-2.819000837156986563e+02,-2.496987229916045408e+02,-7.015848843060996387e+01,-4.266780467691364720e+01,-2.997969467136377943e+02,-2.390937646532233884e+02,-4.194239498031618041e+01,-5.949589727432476138e+01,9.484992027282714844e+00,-1.912296712398529053e-01,-3.059675097465515137e-01,3.460000000000000000e+02
-2.778097352696138387e+02,-2.494275166921484015e+02,-6.504411679774204913e+01,-4.013975458367281135e+01,-2.914700756313512784e+02,-2.357709243716763012e+02,-3.886144134883124934e+01,-5.466917569973702484e+01,9.484992027282714844e+00,-1.912296712398529053e-01,-3.059675097465515137e-01,3.470000000000000000e+02
-2.747709189965029282e+02,-2.474264504716587680e+02,-6.217640119198279081e+01,-3.743063531770678765e+01,-2.852918998506165735e+02,-2.323974706469175544e+02,-3.744781391256128700e+01,-5.039191253697435968e+01,9.484992027282714844e+00,-1.912296712398529053e-01,-3.059675097465515137e-01,3.480000000000000000e+02
-2.735491293751995272e+02,-2.443155569424873192e+02,-6.198981736815380827e+01,-3.528381776111564250e+01,-2.817731990092546539e+02,-2.295247160042081305e+02,-3.752370547001032719e+01,-4.762735410615550791e+01,9.484992027282714844e+00,-1.912296712398529053e-01,-3.059675097465515137e-01,3.490000000000000000e+02
-2.738350479669305741e+02,-2.413324752670592943e+02,-6.412362141955986772e+01,-3.440450214876068458e+01,-2.808140177557747847e+02,-2.275566931609037056e+02,-3.887948280627324493e+01,-4.727426763283267519e+01,9.484992027282714844e+00,-1.912296712398529053e-01,-3.059675097465515137e-01,3.500000000000000000e+02
-2.743113370631183443e+02,-2.396053601123359158e+02,-6.759866789521481678e+01,-3.534404987265327236e+01,-2.820575107912710564e+02,-2.268238998067849934e+02,-4.136093304583505414e+01,-4.964131769180312403e+01,9.484992027282714844e+00,-1.912296712398529053e-01,-3.059675097465515137e-01,3.510000000000000000e+02
-2.734579000007722698e+02,-2.393237365005061292e+02,-7.117939682459018513e+01,-3.801839674199595720e+01,-2.847885319154515855e+02,-2.272735947892251716e+02,-4.447822451730860394e+01,-5.375759365376654841e+01,9.484992027282714844e+00,-1.912296712398529053e-01,-3.059675097465515137e-01,3.520000000000000000e+02
-2.705408290120853962e+02,-2.395130493289426568e+02,-7.374728426468129783e+01,-4.130338165047191978e+01,-2.876592046803375524e+02,-2.280631794801552132e+02,-4.710706062481222034e+01,-5.736479249018748305e+01,9.484992027282714844e+00,-1.912296712398529053e-01,-3.059675097465515137e-01,3.530000000000000000e+02
-2.660685827649464272e+02,-2.387560458568498234e+02,-7.454312965522842660e+01,-4.336312214820350164e+01,-2.888792902069064894e+02,-2.277200625962032063e+02,-4.789223041102843581e+01,-5.804774244951295259e+01,9.484992027282714844e+00,-1.912296712398529053e-01,-3.059675097465515137e-01,3.540000000000000000e+02
-2.613925840699116634e+02,-2.363659643782204967e+02,-7.329224238703579886e+01,-4.276950658391774596e+01,-2.870944185701266633e+02,-2.250822158782127644e+02,-4.623395518982113117e+01,-5.487572782755910339e+01,9.484992027282714844e+00,-1.912296712398529053e-01,-3.059675097465515137e-01,3.550000000000000000e+02
-2.577785115977731039e+02,-2.329926656830500633e+02,-7.029816444255698116e+01,-3.959073022069037506e+01,-2.823656983308126200e+02,-2.203329886420310686e+02,-4.296398591395166022e+01,-4.919253462650260644e+01,9.484992027282714844e+00,-1.912296712398529053e-01,-3.059675097465515137e-01,3.560000000000000000e+02
-2.556617488694255371e+02,-2.300704160254970247e+02,-6.646618796997472600e+01,-3.542486257324753751e+01,-2.763222302692499852e+02,-2.150921799307445781e+02,-3.991962489374793677e+01,-4.373965774803809836e+01,9.484992027282714844e+00,-1.912296712398529053e-01,-3.059675097465515137e-01,3.570000000000000000e+02
-2.546231610025502050e+02,-2.285722582958145495e+02,-6.309394214427152292e+01,-3.222468473941353295e+01,-2.711645978973688216e+02,-2.112754200462482004e+02,-3.861173442617018736e+01,-4.073254858229165620e+01,9.484992027282714844e+00,-1.912296712398529053e-01,-3.059675097465515137e-01,3.580000000000000000e+02
-2.539868768194451150e+02,-2.282115185506875150e+02,-6.134085024771104599e+01,-3.087578651288231413e+01,-2.682284808247959518e+02,-2.096282211306634053e+02,-3.909864022634064895e+01,-4.047404767198713671e+01,9.484992027282714844e+00,-1.912296712398529053e-01,-3.059675097465515137e-01,3.590000000000000000e+02
-2.534395947889217950e+02,-2.278266920766886869e+02,-6.160543035556850100e+01,-3.074466212988727420e+01,-2.672779699700699894e+02,-2.092616753856120795e+02,-4.007094861745872549e+01,-4.161400368213389811e+01,9.484992027282714844e+00,-1.912296712398529053e-01,-3.059675097465515137e-01,3.600000000000000000e+02
-2.531245301180269962e+02,-2.265644940437642845e+02,-6.327234766307833524e+01,-3.052360810977666006e+01,-2.670647247713748129e+02,-2.086222145245665160e+02,-4.007285254661792351e+01,-4.264537218505120109e+01,9.484992027282714844e+00,-1.912296712398529053e-01,-3.059675097465515137e-01,3.610000000000000000e+02
-2.531939449556159616e+02,-2.247125241783169258e+02,-6.509654251880692755e+01,-2.950132606443094119e+01,-2.665509621016262827e+02,-2.069470784636771441e+02,-3.875365821777904785e+01,-4.314183413941236722e+01,9.484992027282714844e+00,-1.912296712398529053e-01,-3.059675097465515137e-01,3.620000000000000000e+02
-2.533243334440840044e+02,-2.233916239003642659e+02,-6.598592033606678342e+01,-2.807098031287068807e+01,-2.656450640488601493e+02,-2.047975106732203585e+02,-3.704261134376270093e+01,-4.364844408553199173e+01,9.484992027282714844e+00,-1.912296712398529053e-01,-3.059675097465515137e-01,3.630000000000000000e+02
-2.527235936591134760e+02,-2.234337023213122393e+02,-6.559231733189199076e+01,-2.711936568216219712e+01,-2.648921774824921158e+02,-2.032234510189473440e+02,-3.619501081288149180e+01,-4.459148040800005219e+01,9.484992027282714844e+00,-1.912296712398529053e-01,-3.059675097465515137e-01,3.640000000000000000e+02
-2.506779351022262290e+02,-2.245561702730633442e+02,-6.429937390889654125e+01,-2.706162808870976733e+01,-2.646391919150578360e+02,-2.025269024725698728e+02,-3.670245460516844105e+01,-4.555945591029785646e+01,9.484992027282714844e+00,-1.912296712398529053e-01,-3.059675097465515137e-01,3.650000000000000000e+02
-2.471499154022535549e+02,-2.256217536048279726e+02,-6.273460398641600477e+01,-2.754773555404881336e+01,-2.646212511580711180e+02,-2.019574275265101733e+02,-3.806966118510558772e+01,-4.578418019108221415e+01,9.484992027282714844e+00,-1.912296712398529053e-01,-3.059675097465515137e-01,3.660000000000000000e+02
-2.428668733493800573e+02,-2.256912827599796856e+02,-6.130737028260091392e+01,-2.805280830697734018e+01,-2.643258746854880883e+02,-2.006201452086356767e+02,-3.950363081497425810e+01,-4.523428964784284290e+01,9.484992027282714844e+00,-1.912296712398529053e-01,-3.059675097465515137e-01,3.670000000000000000e+02
-2.388052756079491701e+02,-2.248041360815682310e+02,-6.013247444175567580e+01,-2.857892417836956156e+01,-2.636019133154450174e+02,-1.985471663772818829e+02,-4.066098355032045220e+01,-4.495688338905802084e+01,9.484992027282714844e+00,-1.912296712398529053e-01,-3.059675097465515137e-01,3.680000000000000000e+02
-2.355210644604205754e+02,-2.237224874468756752e+02,-5.924298763128672363e+01,-2.960845233152758738e+01,-2.627570681269789930e+02,-1.967135314866329736e+02,-4.166106138073882903e+01,-4.606586503398057175e+01,9.484992027282714844e+00,-1.912296712398529053e-01,-3.059675097465515137e-01,3.690000000000000000e+02
-2.329222167242494379e+02,-2.229404822473429704e+02,-5.875033938225169550e+01,-3.131972062569366244e+01,-2.620411202698778652e+02,-1.959433932376266512e+02,-4.248417697077775301e+01,-4.831430508328003270e+01,9.523238182067871094e+00,-2.677215635776519775e-01,-3.824593424797058105e-01,3.700000000000000000e+02
-2.306278687293927305e+02,-2.219962397739504922e+02,-5.875293053335917648e+01,-3.295879030769015117e+01,-2.611391791220544292e+02,-1.958680120201095178e+02,-4.259052270686061092e+01,-4.981604222105829649e+01,9.523238182067871094e+00,-2.677215635776519775e-01,-3.824593424797058105e-01,3.710000000000000000e+02
-2.285018022593662863e+02,-2.198129271746011000e+02,-5.913529153272793337e+01,-3.317864726942889320e+01,-2.592798552895044395e+02,-1.950767707298559799e+02,-4.133494486963604686e+01,-4.845503469427762866e+01,9.523238182067871094e+00,-2.677215635776519775e-01,-3.824593424797058105e-01,3.720000000000000000e+02
-2.268124353710377363e+02,-2.157472627415299939e+02,-5.951967907612333875e+01,-3.116053291809021175e+01,-2.558696061074392674e+02,-1.923716104505792828e+02,-3.879514792083637076e+01,-4.380187042792567809e+01,9.523238182067871094e+00,-2.677215635776519775e-01,-3.824593424797058105e-01,3.730000000000000000e+02
-2.258632485280181754e+02,-2.103035570399711105e+02,-5.942923321255148039e+01,-2.744911644443982368e+01,-2.510008745297991481e+02,-1.878971968633388769e+02,-3.604483866561713512e+01,-3.771429809160645164e+01,9.523238182067871094e+00,-2.677215635776519775e-01,-3.824593424797058105e-01,3.740000000000000000e+02
-2.254735258728376266e+02,-2.048131758721599454e+02,-5.849397421849153034e+01,-2.362839870036123102e+01,-2.453551937526870006e+02,-1.830518179567725383e+02,-3.438788378219715014e+01,-3.295561846506006987e+01,9.523238182067871094e+00,-2.677215635776519775e-01,-3.824593424797058105e-01,3.750000000000000000e+02
-2.248628192474041043e+02,-2.004188675674304250e+02,-5.656575945996974042e+01,-2.106536766208614608e+01,-2.396924750347293411e+02,-1.792971999365122429e+02,-3.416942868515161535e+01,-3.102275527726760629e+01,9.523238182067871094e+00,-2.677215635776519775e-01,-3.824593424797058105e-01,3.760000000000000000e+02
-2.231167883280843398e+02,-1.973620630926675403e+02,-5.376281253816091521e+01,-1.987363012054538558e+01,-2.344969636114608420e+02,-1.770134972503360586e+02,-3.435385584760820166e+01,-3.112076904844320779e+01,9.523238182067871094e+00,-2.677215635776519775e-01,-3.824593424797058105e-01,3.770000000000000000e+02
-2.198725853295227353e+02,-1.952136306347551908e+02,-5.051352559219139948e+01,-1.906390201586145849e+01,-2.300665955421645776e+02,-1.754152776474347775e+02,-3.342909108636899873e+01,-3.113452858156620096e+01,9.523238182067871094e+00,-2.677215635776519775e-01,-3.824593424797058105e-01,3.780000000000000000e+02
-2.156500808825976492e+02,-1.936867899199078238e+02,-4.754931243632699989e+01,-1.771266974887657852e+01,-2.267778941369344921e+02,-1.734797144926287729e+02,-3.090942501614745197e+01,-2.961470881065224603e+01,9.523238182067871094e+00,-2.677215635776519775e-01,-3.824593424797058105e-01,3.790000000000000000e+02
-2.115480277007563927e+02,-1.930708822163473997e+02,-4.568552662133379272e+01,-1.600729921179140547e+01,-2.250727506815571815e+02,-1.709352146617038670e+02,-2.802439113333298337e+01,-2.695744380419637309e+01,9.523238182067871094e+00,-2.677215635776519775e-01,-3.824593424797058105e-01,3.800000000000000000e+02
-2.085464037994081536e+02,-1.937818481147385228e+02,-4.538084084394654383e+01,-1.515050385419772283e+01,-2.250802796359730564e+02,-1.684291935459357319e+02,-2.684153528334945804e+01,-2.483336469137520908e+01,9.523238182067871094e+00,-2.677215635776519775e-01,-3.824593424797058105e-01,3.810000000000000000e+02
-2.069590959667093557e+02,-1.955320596311287318e+02,-4.636121143030231906e+01,-1.621613746908997200e+01,-2.262737405990671959e+02,-1.668493342357719484e+02,-2.852281729801575239e+01,-2.458306471747027899e+01,9.523238182067871094e+00,-2.677215635776519775e-01,-3.824593424797058105e-01,3.820000000000000000e+02
-2.064222439295542699e+02,-1.971048552325451055e+02,-4.769627614972569063e+01,-1.904613073160271597e+01,-2.275976009634250659e+02,-1.665178145400570884e+02,-3.226671608545848358e+01,-2.612590721488754752e+01,9.523238182067871094e+00,-2.677215635776519775e-01,-3.824593424797058105e-01,3.830000000000000000e+02
-2.063476117810928372e+02,-1.971324329074193429e+02,-4.839761370859741874e+01,-2.224485695093744653e+01,-2.280443976150440903e+02,-1.669766645718759719e+02,-3.590625113668056656e+01,-2.826839326957133380e+01,9.523238182067871094e+00,-2.677215635776519775e-01,-3.824593424797058105e-01,3.840000000000000000e+02
-2.064310684552203838e+02,-1.952218536038283219e+02,-4.812484295959256997e+01,-2.429235312620130571e+01,-2.272271039523620857e+02,-1.674593949242025701e+02,-3.763218945907897250e+01,-2.991703833293468051e+01,9.523238182067871094e+00,-2.677215635776519775e-01,-3.824593424797058105e-01,3.850000000000000000e+02
-2.068009501014939815e+02,-1.923359646015433100e+02,-4.741198300810697219e+01,-2.474597764753502815e+01,-2.254908812424241660e+02,-1.675266016218295135e+02,-3.728741927799933364e+01,-3.092694712454022010e+01,9.523238182067871094e+00,-2.677215635776519775e-01,-3.824593424797058105e-01,3.860000000000000000e+02
-2.077281367821647109e+02,-1.900257339076142671e+02,-4.719948755066025115e+01,-2.445062365439594032e+01,-2.235204570209577923e+02,-1.672791935831755836e+02,-3.612923526644726735e+01,-3.184794252067717935e+01,9.523238182067871094e+00,-2.677215635776519775e-01,-3.824593424797058105e-01,3.870000000000000000e+02
-2.091795518846720370e+02,-1.892084434736750609e+02,-4.805051878367999052e+01,-2.462775011450798957e+01,-2.218158016211914401e+02,-1.670229126096960499e+02,-3.542435613407997153e+01,-3.297667063115750352e+01,9.523238182067871094e+00,-2.677215635776519775e-01,-3.824593424797058105e-01,3.880000000000000000e+02
-2.106022026568664387e+02,-1.895745122564908343e+02,-4.967654208674457550e+01,-2.572682884739447218e+01,-2.204426478346006206e+02,-1.667581095503910547e+02,-3.526894494500970723e+01,-3.373113669198755815e+01,9.523238182067871094e+00,-2.677215635776519775e-01,-3.824593424797058105e-01,3.890000000000000000e+02
-2.111258465998653264e+02,-1.900405418619354805e+02,-5.112153178124071928e+01,-2.705955996482771297e+01,-2.191456560605479353e+02,-1.659778592460866093e+02,-3.469417030646400235e+01,-3.296952702437738481e+01,9.523238182067871094e+00,-2.677215635776519775e-01,-3.824593424797058105e-01,3.900000000000000000e+02
-2.100364593353915552e+02,-1.896636973451738868e+02,-5.139899556481054788e+01,-2.745086727503007751e+01,-2.175950460912658855e+02,-1.639413210729403545e+02,-3.279974118982363507e+01,-2.992213056079776834e+01,9.523238182067871094e+00,-3.059675097465515137e-01,-4.207052886486053467e-01,3.910000000000000000e+02
-2.071782148919944575e+02,-1.881303277506112863e+02,-5.004032888855272176e+01,-2.621014526841668157e+01,-2.155079940253917812e+02,-1.601657131573761035e+02,-2.969999904501810306e+01,-2.484796302155632475e+01,9.523238182067871094e+00,-3.059675097465515137e-01,-4.207052886486053467e-01,3.920000000000000000e+02
-2.030138897756039569e+02,-1.855207893944693751e+02,-4.718550204312032292e+01,-2.351617216748627470e+01,-2.126025961981467844e+02,-1.547275461840599746e+02,-2.636093403756422049e+01,-1.883058795333226954e+01,9.523238182067871094e+00,-3.059675097465515137e-01,-4.207052886486053467e-01,3.930000000000000000e+02
-1.983332448238224970e+02,-1.818615954504741694e+02,-4.329302234903730096e+01,-1.997961030739497801e+01,-2.085496423349563884e+02,-1.481896647047187798e+02,-2.359346180885813737e+01,-1.294356156520780132e+01,9.523238182067871094e+00,-3.059675097465515137e-01,-4.207052886486053467e-01,3.940000000000000000e+02
-1.938368405206083480e+02,-1.771251942977917224e+02,-3.882900946510676476e+01,-1.597577211973475642e+01,-2.030921011935374736e+02,-1.413064085889627677e+02,-2.130003880880053657e+01,-7.570797479264001595e+00,9.523238182067871094e+00,-3.059675097465515137e-01,-4.207052886486053467e-01,3.950000000000000000e+02
-1.898678429979358953e+02,-1.716866349831116167e+02,-3.420127602827346891e+01,-1.148705468448360989e+01,-1.963017838010378000e+02,-1.347798942415602141e+02,-1.873711069538148877e+01,-2.478465316101392091e+00,9.523238182067871094e+00,-3.059675097465515137e-01,-4.207052886486053467e-01,3.960000000000000000e+02
-1.864211220999507077e+02,-1.666112214451277396e+02,-2.989963150602693531e+01,-6.585496767595941492e+00,-1.887851220143836599e+02,-1.291818619122350356e+02,-1.546410539206317480e+01,2.479473231899874008e+00,9.523238182067871094e+00,-3.059675097465515137e-01,-4.207052886486053467e-01,3.970000000000000000e+02
-1.833655579982403196e+02,-1.632245919282102022e+02,-2.658920128137356187e+01,-1.976258988103154479e+00,-1.816772588964920487e+02,-1.249501788774941815e+02,-1.198076958023102634e+01,6.708816536557151267e+00,9.523238182067871094e+00,-3.059675097465515137e-01,-4.207052886486053467e-01,3.980000000000000000e+02
-1.806839065837282305e+02,-1.621593310056789505e+02,-2.495984186468308508e+01,1.080760481789411642e+00,-1.763807814081317247e+02,-1.223341389166116642e+02,-9.428545941185348056e+00,8.929124804912135005e+00,9.523238182067871094e+00,-3.059675097465515137e-01,-4.207052886486053467e-01,3.990000000000000000e+02
-1.785621945435100315e+02,-1.627202783875948171e+02,-2.538648832516241782e+01,1.534250865332978719e+00,-1.741232690410693067e+02,-1.213064878090049206e+02,-8.706183899360439682e+00,7.978006890306460264e+00,9.523238182067871094e+00,-3.059675097465515137e-01,-4.207052886486053467e-01,4.000000000000000000e+02
-1.772858197318951170e+02,-1.632289072092617062e+02,-2.763486883642144676e+01,-6.525579217882295779e-01,-1.754474773800670846e+02,-1.215604430912994758e+02,-9.863399383869364101e+00,3.779509762453471922e+00,9.523238182067871094e+00,-3.059675097465515137e-01,-4.207052886486053467e-01,4.010000000000000000e+02
-1.770211328206942198e+02,-1.621624308279540401e+02,-3.083791195498088200e+01,-4.383256109452076998e+00,-1.798003111552782229e+02,-1.226243363338717245e+02,-1.224226154086613860e+01,-2.283746136062745791e+00,9.523238182067871094e+00,-3.059675097465515137e-01,-4.207052886486053467e-01,4.020000000000000000e+02
-1.776312145441995654e+02,-1.591948151217659415e+02,-3.380009351262151540e+01,-8.119576348201917426e+00,-1.854714667863645445e+02,-1.239894639709345938e+02,-1.504739539709044038e+01,-7.933733425695209007e+00,9.523238182067871094e+00,-3.059675097465515137e-01,-4.207052886486053467e-01,4.030000000000000000e+02
-1.786387777855991317e+02,-1.553077784084698578e+02,-3.546752812654722220e+01,-1.077948890979769203e+01,-1.900892645381172770e+02,-1.251405047869257032e+02,-1.768454470218398455e+01,-1.113113710640641330e+01,9.523238182067871094e+00,-3.059675097465515137e-01,-4.207052886486053467e-01,4.040000000000000000e+02
-1.793564304225044452e+02,-1.519302619823718032e+02,-3.530985135744822401e+01,-1.211547106594935030e+01,-1.916048261273965636e+02,-1.255314525144731306e+02,-1.963887646624561967e+01,-1.101732530711842628e+01,9.523238182067871094e+00,-3.059675097465515137e-01,-4.207052886486053467e-01,4.050000000000000000e+02
-1.791186094462132132e+02,-1.498553669735492804e+02,-3.343166840911953841e+01,-1.238426352153555854e+01,-1.892815825734689952e+02,-1.246745097890934630e+02,-2.028187491117546415e+01,-8.110771017217757617e+00,9.523238182067871094e+00,-3.059675097465515137e-01,-4.207052886486053467e-01,4.060000000000000000e+02
-1.775161723196429193e+02,-1.487868383837551391e+02,-3.040984820290896096e+01,-1.178522160754619108e+01,-1.840435311876262858e+02,-1.224013457627602293e+02,-1.906996726084207694e+01,-3.775434506490455533e+00,9.523238182067871094e+00,-3.059675097465515137e-01,-4.207052886486053467e-01,4.070000000000000000e+02
-1.745570481208903857e+02,-1.477725502188247901e+02,-2.700208213094651910e+01,-1.028032228048073193e+01,-1.778866791726902647e+02,-1.191059022819404163e+02,-1.606635590165979011e+01,5.340387104743058444e-01,9.523238182067871094e+00,-3.059675097465515137e-01,-4.207052886486053467e-01,4.080000000000000000e+02
-1.706851526956804719e+02,-1.460387673415584686e+02,-2.389939352176088505e+01,-7.912061704056668532e+00,-1.727138926525551597e+02,-1.156758222410148846e+02,-1.221436061834106113e+01,3.759654017158027273e+00,9.523238182067871094e+00,-3.059675097465515137e-01,-4.207052886486053467e-01,4.090000000000000000e+02
-1.666255912983706367e+02,-1.435207840830398709e+02,-2.160681498773192288e+01,-5.174987635608204073e+00,-1.693774230701828856e+02,-1.130383633429742076e+02,-8.929357772335606569e+00,5.363312842651566825e+00,9.523238182067871094e+00,-3.059675097465515137e-01,-4.207052886486053467e-01,4.100000000000000000e+02
-1.630967845454949838e+02,-1.407564090411171946e+02,-2.041868376604452351e+01,-2.918594869194976127e+00,-1.675180235383695617e+02,-1.115970087309478913e+02,-7.218492938544613935e+00,5.330780876594417350e+00,9.523238182067871094e+00,-3.059675097465515137e-01,-4.207052886486053467e-01,4.110000000000000000e+02
-1.605205756605137140e+02,-1.383745865923879137e+02,-2.039430226980357475e+01,-1.751539948731306140e+00,-1.661368488939042436e+02,-1.109849729722868688e+02,-7.034253030690933883e+00,4.240746697042823143e+00,9.523238182067871094e+00,-3.059675097465515137e-01,-4.207052886486053467e-01,4.120000000000000000e+02
-1.589054455331477129e+02,-1.366749533659731242e+02,-2.130978465877160488e+01,-1.484355327942921576e+00,-1.643230365486494975e+02,-1.103375975331387053e+02,-7.385024968521975097e+00,3.236442180969788751e+00,9.523238182067871094e+00,-3.059675097465515137e-01,-4.207052886486053467e-01,4.130000000000000000e+02
-1.579815652263439461e+02,-1.356014603525777602e+02,-2.265336665215772882e+01,-1.185394444990379270e+00,-1.616291741880836526e+02,-1.088742885217816365e+02,-7.069768062283856125e+00,3.609838542409988804e+00,9.523238182067871094e+00,-3.059675097465515137e-01,-4.207052886486053467e-01,4.140000000000000000e+02
-1.574520199558619424e+02,-1.349994577943432432e+02,-2.375045474065177586e+01,1.119042069890383573e-01,-1.580329868937726587e+02,-1.063532220792576481e+02,-5.423605354337041717e+00,6.022698360644653803e+00,9.523238182067871094e+00,-3.059675097465515137e-01,-4.207052886486053467e-01,4.150000000000000000e+02
-1.571302667632728571e+02,-1.348366579032322079e+02,-2.403609425404124522e+01,2.593413098678865936e+00,-1.537809608424586258e+02,-1.031265617566996298e+02,-2.581858317900014299e+00,9.858085395419493580e+00,9.446745872497558594e+00,-1.912296712398529053e-01,-3.824593424797058105e-01,4.160000000000000000e+02
-1.568581177521364225e+02,-1.352028268250962810e+02,-2.335885872450421630e+01,5.407789732023502438e+00,-1.493505782777201603e+02,-9.986401208320103251e+01,7.484708272970692633e-01,1.331992875198761794e+01,9.446745872497558594e+00,-1.912296712398529053e-01,-3.824593424797058105e-01,4.170000000000000000e+02
-1.563496523738563155e+02,-1.361750118804252452e+02,-2.211327843794470027e+01,7.185338182966006570e+00,-1.454577491090058174e+02,-9.722488336254173191e+01,3.678790163474104702e+00,1.439614133300256071e+01,9.446745872497558594e+00,-1.912296712398529053e-01,-3.824593424797058105e-01,4.180000000000000000e+02
-1.552142836183747931e+02,-1.377438384285751454e+02,-2.106314881162347774e+01,6.922723235993544222e+00,-1.428892542493617839e+02,-9.568292329847645306e+01,5.450500617529087322e+00,1.206992344057380251e+01,9.446745872497558594e+00,-1.912296712398529053e-01,-3.824593424797058105e-01,4.190000000000000000e+02
-1.532308897838786379e+02,-1.398712907801448182e+02,-2.093575782712150612e+01,4.569315231235123065e+00,-1.421487800541563047e+02,-9.548609153730967591e+01,5.660011201368433831e+00,6.883297207996292855e+00,9.446745872497558594e+00,-1.912296712398529053e-01,-3.824593424797058105e-01,4.200000000000000000e+02
-1.506286952641237349e+02,-1.425607349727649762e+02,-2.202930534616348268e+01,9.405105775997526507e-01,-1.431654207294259322e+02,-9.662211044763671453e+01,4.432769440725223831e+00,4.447544716535958287e-01,9.446745872497558594e+00,-1.912296712398529053e-01,-3.824593424797058105e-01,4.210000000000000000e+02
-1.480495384294031282e+02,-1.457683983267620533e+02,-2.408845743737197154e+01,-2.875245915627374416e+00,-1.453226230169120754e+02,-9.875391521504434422e+01,2.439299083059950135e+00,-5.654387392962007652e+00,9.446745872497558594e+00,-1.912296712398529053e-01,-3.824593424797058105e-01,4.220000000000000000e+02
-1.461544268718205331e+02,-1.491739463180217626e+02,-2.650990260984008273e+01,-6.095980614172503920e+00,-1.477989038436198825e+02,-1.012309929268708402e+02,6.029285785507454420e-01,-1.062256197441024597e+01,9.446745872497558594e+00,-1.912296712398529053e-01,-3.824593424797058105e-01,4.230000000000000000e+02
-1.452160958083736659e+02,-1.520204614011231570e+02,-2.869522535060923474e+01,-8.376751998922600251e+00,-1.499286331821090243e+02,-1.032634981135697672e+02,-3.921716683510112489e-01,-1.440756267169399507e+01,9.446745872497558594e+00,-1.912296712398529053e-01,-3.824593424797058105e-01,4.240000000000000000e+02
-1.450717329508124749e+02,-1.532594798899549460e+02,-3.029145208571435433e+01,-9.486678713621586212e+00,-1.512995936691268071e+02,-1.041824462874992605e+02,-4.158670961669486132e-01,-1.705117297339074867e+01,9.446745872497558594e+00,-1.912296712398529053e-01,-3.824593424797058105e-01,4.250000000000000000e+02
-1.454164085185786917e+02,-1.520249401313224098e+02,-3.117572516354130130e+01,-8.956975246103866084e+00,-1.515771660302011696e+02,-1.035934453651316289e+02,2.520465280733787949e-01,-1.819917299349435780e+01,9.446745872497558594e+00,-1.912296712398529053e-01,-3.824593424797058105e-01,4.260000000000000000e+02
-1.460569886922298792e+02,-1.481856731910268081e+02,-3.129056854340910832e+01,-6.182365422497468899e+00,-1.503240501843324637e+02,-1.013364357149789612e+02,1.354137546167294204e+00,-1.728287931635122732e+01,9.446745872497558594e+00,-1.912296712398529053e-01,-3.824593424797058105e-01,4.270000000000000000e+02
-1.468185409799380068e+02,-1.426134048754004198e+02,-3.055471921611729158e+01,-1.061764446850929744e+00,-1.470993446329152903e+02,-9.741438807191298110e+01,2.877070991956770740e+00,-1.420510719133335442e+01,9.446745872497558594e+00,-1.912296712398529053e-01,-3.824593424797058105e-01,4.280000000000000000e+02
-1.472528104545231145e+02,-1.369239538304520920e+02,-2.895915489004073606e+01,5.327625677144851579e+00,-1.418551146225968296e+02,-9.210897031091235476e+01,4.795925731330953568e+00,-9.866299318254732498e+00,9.446745872497558594e+00,-1.912296712398529053e-01,-3.824593424797058105e-01,4.290000000000000000e+02
-1.466029252331882162e+02,-1.327773105616647626e+02,-2.671477773330070704e+01,1.077930758538764167e+01,-1.353090850104135825e+02,-8.622597937204227492e+01,6.690938461454152275e+00,-5.978459779781587713e+00,9.446745872497558594e+00,-1.912296712398529053e-01,-3.824593424797058105e-01,4.300000000000000000e+02
-1.442440897981728085e+02,-1.311211570835998828e+02,-2.423174852657689371e+01,1.302358608938607176e+01,-1.288920162232893745e+02,-8.109126372104128677e+01,7.827817958411515065e+00,-4.216551143942524504e+00,9.446745872497558594e+00,-1.912296712398529053e-01,-3.824593424797058105e-01,4.310000000000000000e+02
-1.402713715963070626e+02,-1.318126674546419963e+02,-2.187640810224684174e+01,1.121263678404648090e+01,-1.241524094732631056e+02,-7.800024832380449880e+01,7.805893836432233002e+00,-5.308122767238273809e+00,9.446745872497558594e+00,-1.912296712398529053e-01,-3.824593424797058105e-01,4.320000000000000000e+02
-1.356370582674726393e+02,-1.338438374476670560e+02,-1.972978487060549924e+01,6.659941964263452974e+00,-1.219524858915829100e+02,-7.736011307316630337e+01,7.121943317858494993e+00,-8.709864718559174435e+00,9.446745872497558594e+00,-1.912296712398529053e-01,-3.824593424797058105e-01,4.330000000000000000e+02
-1.316142604536796625e+02,-1.360277552921952520e+02,-1.764542581768864693e+01,2.058266246775929176e+00,-1.220341947999686454e+02,-7.826247997622976982e+01,6.868576936880344874e+00,-1.307996179541851234e+01,9.446745872497558594e+00,-1.912296712398529053e-01,-3.824593424797058105e-01,4.340000000000000000e+02
-1.290015929166290789e+02,-1.376681354294555604e+02,-1.561824067118573112e+01,-3.706947468624548492e-01,-1.232937938813311121e+02,-7.902590452165304669e+01,7.617258663229677040e+00,-1.716272598911791647e+01,9.446745872497558594e+00,-1.912296712398529053e-01,-3.824593424797058105e-01,4.350000000000000000e+02
-1.277435176074664014e+02,-1.387536652196479281e+02,-1.411683574509538630e+01,-3.510003756964579225e-01,-1.245674514185946009e+02,-7.842402382797263272e+01,8.522280952819755839e+00,-2.045874960342575832e+01,9.446745872497558594e+00,-1.912296712398529053e-01,-3.824593424797058105e-01,4.360000000000000000e+02
-1.272440648584170049e+02,-1.395824868601887374e+02,-1.398163623641744380e+01,5.514687264146687085e-01,-1.253469845652148251e+02,-7.660671228281853473e+01,7.702361268135973660e+00,-2.329054677271847140e+01,9.446745872497558594e+00,-1.912296712398529053e-01,-3.824593424797058105e-01,4.370000000000000000e+02
-1.270082610038039093e+02,-1.401870299650945526e+02,-1.583351000377388118e+01,4.746846264647501812e-01,-1.259218561237357790e+02,-7.488557484725515678e+01,3.808654904310515121e+00,-2.632707758819196897e+01,9.446745872497558594e+00,-1.912296712398529053e-01,-3.824593424797058105e-01,4.380000000000000000e+02
-1.269906195256955925e+02,-1.401089508122752250e+02,-1.942636846487926050e+01,-1.140883326821722221e+00,-1.269153327986339264e+02,-7.455123169082526147e+01,-2.546331631914199534e+00,-2.996786730319990966e+01,9.446745872497558594e+00,-1.912296712398529053e-01,-3.824593424797058105e-01,4.390000000000000000e+02
-1.273870073817613502e+02,-1.387601910719242824e+02,-2.351374133551780687e+01,-3.273248781988741030e+00,-1.286381902319697019e+02,-7.577480229241837151e+01,-8.861964139448900823e+00,-3.398852413909617098e+01,9.446745872497558594e+00,-1.912296712398529053e-01,-3.824593424797058105e-01,4.400000000000000000e+02
-1.281695202326486651e+02,-1.360580022923895740e+02,-2.643644479920158119e+01,-4.450277660486108289e+00,-1.307491510475338146e+02,-7.754666915479765521e+01,-1.239138956954320747e+01,-3.760541179615802321e+01,9.446745872497558594e+00,-1.912296712398529053e-01,-3.824593424797058105e-01,4.410000000000000000e+02
-1.288584950569047578e+02,-1.327023962736643625e+02,-2.705503564988248399e+01,-4.093555579311214387e+00,-1.324052423613147766e+02,-7.859830461786350497e+01,-1.198150087491194427e+01,-3.983489623782543276e+01,9.446745872497558594e+00,-1.912296712398529053e-01,-3.824593424797058105e-01,4.420000000000000000e+02
-1.287388902370453252e+02,-1.297517328057581381e+02,-2.534850387003530159e+01,-2.802970684115962285e+00,-1.327125035524852592e+02,-7.835815673682418492e+01,-8.583596329415968285e+00,-3.991706482662584676e+01,9.446745872497558594e+00,-2.294756323099136353e-01,-4.207052886486053467e-01,4.430000000000000000e+02
-1.273155440684217865e+02,-1.277983419823503937e+02,-2.226576675868068378e+01,-1.465220795864524916e+00,-1.311585549034630276e+02,-7.708053596983609168e+01,-4.166358814170507685e+00,-3.761456448115518469e+01,9.446745872497558594e+00,-2.294756323099136353e-01,-4.207052886486053467e-01,4.440000000000000000e+02
-1.246395642359102567e+02,-1.264826661578747462e+02,-1.901846043544583154e+01,-2.506223857337772642e-01,-1.278278833656713687e+02,-7.520791037639355636e+01,-1.810921382927972445e-01,-3.331849406746778186e+01,9.446745872497558594e+00,-2.294756323099136353e-01,-4.207052886486053467e-01,4.450000000000000000e+02
-1.212999336352609134e+02,-1.248370730711678789e+02,-1.640208175247084910e+01,1.447130964403868347e+00,-1.233564034609514692e+02,-7.276814710947292042e+01,3.059445405654514616e+00,-2.796433320510868725e+01,9.446745872497558594e+00,-2.294756323099136353e-01,-4.207052886486053467e-01,4.460000000000000000e+02
-1.181387592882424542e+02,-1.221872261641792647e+02,-1.462700168014703195e+01,4.148396351819201300e+00,-1.186806133858131034e+02,-6.944605448392485414e+01,5.801141723710543374e+00,-2.278188271626891037e+01,9.446745872497558594e+00,-2.294756323099136353e-01,-4.207052886486053467e-01,4.470000000000000000e+02
-1.158808514050481335e+02,-1.188024087562428122e+02,-1.363974726507899504e+01,7.485040676416701899e+00,-1.146994116220114392e+02,-6.517040764178500467e+01,7.938832202549747308e+00,-1.894479352105349790e+01,9.446745872497558594e+00,-2.294756323099136353e-01,-4.207052886486053467e-01,4.480000000000000000e+02
-1.148404710446861827e+02,-1.156920925562853881e+02,-1.348956775071246739e+01,1.032830057319870320e+01,-1.119938180812112023e+02,-6.050811476439730541e+01,8.812411861243617750e+00,-1.721955221286884807e+01,9.446745872497558594e+00,-2.294756323099136353e-01,-4.207052886486053467e-01,4.490000000000000000e+02
-1.148123081318510685e+02,-1.137471265810249861e+02,-1.434129338188222391e+01,1.169479518065463708e+01,-1.107224583323411480e+02,-5.642436624327547179e+01,7.852684379474794696e+00,-1.774357889295470159e+01,9.446745872497558594e+00,-2.294756323099136353e-01,-4.207052886486053467e-01,4.500000000000000000e+02
-1.151875643988519187e+02,-1.130471658568289968e+02,-1.614960965788918656e+01,1.147151153231425269e+01,-1.107066640416612699e+02,-5.366917367960058982e+01,5.309840500568952848e+00,-2.004279467679771187e+01,9.446745872497558594e+00,-2.294756323099136353e-01,-4.207052886486053467e-01,4.510000000000000000e+02
-1.152573096588096178e+02,-1.129769728073508759e+02,-1.838695418886459265e+01,1.023690361276248950e+01,-1.116075499090743506e+02,-5.241676692452438147e+01,2.268032606028782538e+00,-2.329843936718589248e+01,9.446745872497558594e+00,-2.294756323099136353e-01,-4.207052886486053467e-01,4.520000000000000000e+02
-1.145735828133065297e+02,-1.129797618189393233e+02,-2.019557223723290917e+01,8.439544084747467423e+00,-1.130551341495040560e+02,-5.245306156804826969e+01,-8.464420998757304915e-02,-2.673243407668815053e+01,9.446745872497558594e+00,-2.294756323099136353e-01,-4.207052886486053467e-01,4.530000000000000000e+02
-1.131803914122424430e+02,-1.131533373727806975e+02,-2.092607071718089173e+01,5.870390474441592232e+00,-1.146964758062542842e+02,-5.358580228300979797e+01,-1.235448691645387953e+00,-2.987275874786655550e+01,9.446745872497558594e+00,-2.294756323099136353e-01,-4.207052886486053467e-01,4.540000000000000000e+02
-1.115667404437999721e+02,-1.140610376044714940e+02,-2.060513220910206655e+01,2.050442223360505523e+00,-1.162192191408055351e+02,-5.573793967474148303e+01,-1.480852192407837720e+00,-3.250799026585787033e+01,9.446745872497558594e+00,-2.294756323099136353e-01,-4.207052886486053467e-01,4.550000000000000000e+02
-1.103409814472092876e+02,-1.159388901400277518e+02,-1.988028156136829239e+01,-2.809728695704961865e+00,-1.173699785777941997e+02,-5.857785314880379701e+01,-1.375886907534322745e+00,-3.436631308342361990e+01,9.446745872497558594e+00,-2.294756323099136353e-01,-4.207052886486053467e-01,4.560000000000000000e+02
-1.098058605775895558e+02,-1.181166775629681069e+02,-1.944729498993729067e+01,-7.273234363878145814e+00,-1.179408985002512509e+02,-6.113391117186370138e+01,-1.072954557499315342e+00,-3.484196202667635589e+01,9.446745872497558594e+00,-2.294756323099136353e-01,-4.207052886486053467e-01,4.570000000000000000e+02
-1.097009869486373645e+02,-1.192903350764363495e+02,-1.944769021422894184e+01,-9.270159650929599593e+00,-1.177174726079636002e+02,-6.197389215232783499e+01,-1.741941423488242435e-01,-3.315436810761502784e+01,9.446745872497558594e+00,-2.294756323099136353e-01,-4.207052886486053467e-01,4.580000000000000000e+02
-1.093240277566719669e+02,-1.184720838680425459e+02,-1.939477088121498127e+01,-7.535754618265627869e+00,-1.164914353529093205e+02,-6.005045366619719971e+01,1.768714526613393900e+00,-2.899579580404588341e+01,9.446745872497558594e+00,-2.294756323099136353e-01,-4.207052886486053467e-01,4.590000000000000000e+02
-1.080200240453807510e+02,-1.157735755108981266e+02,-1.871166552169734132e+01,-2.781358983981817801e+00,-1.142268987486022525e+02,-5.562547478255692113e+01,4.583188254647211579e+00,-2.319109357988463671e+01,9.446745872497558594e+00,-2.294756323099136353e-01,-4.207052886486053467e-01,4.600000000000000000e+02
-1.057245507681950585e+02,-1.123023774630655680e+02,-1.736280673081591885e+01,2.440285673669905009e+00,-1.112572304905395413e+02,-5.043062584937683823e+01,7.279929049955626397e+00,-1.765439460012930795e+01,9.446745872497558594e+00,-2.294756323099136353e-01,-4.207052886486053467e-01,4.610000000000000000e+02
-1.031504984862306173e+02,-1.092684744596185737e+02,-1.595830828216958253e+01,5.240207793012814363e+00,-1.082522351215543495e+02,-4.674084338861848664e+01,8.573929596096832029e+00,-1.439450127832105863e+01,9.446745872497558594e+00,-2.294756323099136353e-01,-4.207052886486053467e-01,4.620000000000000000e+02
-1.014057138244916132e+02,-1.070782175661358906e+02,-1.520827754618403560e+01,4.264018520368381360e+00,-1.058405232788850299e+02,-4.592400448847456573e+01,7.763752752787695499e+00,-1.417505848577820871e+01,9.446745872497558594e+00,-2.294756323099136353e-01,-4.207052886486053467e-01,4.630000000000000000e+02
-1.012679365467461139e+02,-1.051609247837914154e+02,-1.525494119162226525e+01,5.699502836041574483e-01,-1.041473626884476289e+02,-4.754823365771790122e+01,5.263301043641376964e+00,-1.590829996067236607e+01,9.446745872497558594e+00,-2.294756323099136353e-01,-4.207052886486053467e-01,4.640000000000000000e+02
-1.026610918888120523e+02,-1.026039668653622812e+02,-1.556032715129845201e+01,-3.143752778896669042e+00,-1.027119624034330627e+02,-4.976810529801628036e+01,2.333330332359764725e+00,-1.738786607325437217e+01,9.446745872497558594e+00,-2.294756323099136353e-01,-4.207052886486053467e-01,4.650000000000000000e+02
-1.047470431956021457e+02,-9.899006101310624217e+01,-1.548035433554264273e+01,-4.390610197662681458e+00,-1.009578404597316421e+02,-5.069868466386242289e+01,2.387290457595554471e-01,-1.685664458488986384e+01,9.446745872497558594e+00,-2.294756323099136353e-01,-4.207052886486053467e-01,4.660000000000000000e+02
-1.065345889915752196e+02,-9.472942739576433269e+01,-1.494863139351855352e+01,-2.458140250586438924e+00,-9.882260111940286151e+01,-4.967497573349623963e+01,-4.596958482084119169e-01,-1.416360068323569976e+01,9.446745872497558594e+00,-2.294756323099136353e-01,-4.207052886486053467e-01,4.670000000000000000e+02
-1.074594981691268458e+02,-9.067674103192985058e+01,-1.454280638278839888e+01,1.412480551207636381e+00,-9.692811603260861375e+01,-4.742184856834478524e+01,6.573659968876199855e-02,-1.061880927568790867e+01,9.446745872497558594e+00,-2.294756323099136353e-01,-4.207052886486053467e-01,4.680000000000000000e+02
-1.074612107613106673e+02,-8.741786783960310458e+01,-1.481471179850632325e+01,5.224655078002115260e+00,-9.608968262283269723e+01,-4.512817060100792332e+01,1.457003544336089362e+00,-7.780185103477833763e+00,9.446745872497558594e+00,-2.294756323099136353e-01,-4.207052886486053467e-01,4.690000000000000000e+02
-1.066160207531769402e+02,-8.481712338467946211e+01,-1.555930491920662462e+01,7.749743143529713052e+00,-9.661182553967796593e+01,-4.335902712694587535e+01,3.665066617836600926e+00,-6.284612547607594024e+00,9.446745872497558594e+00,-2.294756323099136353e-01,-4.207052886486053467e-01,4.700000000000000000e+02
-1.048339718417040558e+02,-8.213851435609467444e+01,-1.581023842237289045e+01,9.197018122676695384e+00,-9.800227771406844113e+01,-4.177367476539711788e+01,6.890611084754141302e+00,-5.622620848007045424e+00,9.446745872497558594e+00,-2.294756323099136353e-01,-4.207052886486053467e-01,4.710000000000000000e+02
-1.020122221026613261e+02,-7.859331123688866683e+01,-1.464555610596187307e+01,1.067773009460006506e+01,-9.929524455915350245e+01,-3.976274599591147307e+01,1.109918686307355529e+01,-4.774942066562744003e+00,9.446745872497558594e+00,-2.294756323099136353e-01,-4.207052886486053467e-01,4.720000000000000000e+02
-9.848217782522726793e+01,-7.391907605769984002e+01,-1.207105006212282206e+01,1.308887975604523035e+01,-9.961741658421988177e+01,-3.724835406212059752e+01,1.568087617246669652e+01,-2.964369713113683247e+00,9.446745872497558594e+00,-2.294756323099136353e-01,-4.207052886486053467e-01,4.730000000000000000e+02
-9.517800140916074270e+01,-6.865114159036988895e+01,-9.136862196347692588e+00,1.636395995094255795e+01,-9.852856346279827449e+01,-3.483991077736175157e+01,1.963702569094846240e+01,2.884808680255446234e-02,9.484992027282714844e+00,-2.294756323099136353e-01,-3.442134261131286621e-01,4.740000000000000000e+02
-9.317062752713661666e+01,-6.398450411230783175e+01,-7.156462310177289510e+00,1.955163545355912902e+01,-9.604308452172222133e+01,-3.328966802536012892e+01,2.210536777654522211e+01,3.906147945174552660e+00,9.484992027282714844e+00,-2.294756323099136353e-01,-3.442134261131286621e-01,4.750000000000000000e+02
-9.286797245863215267e+01,-6.131240108361123475e+01,-6.726718142026015812e+00,2.146093472417237535e+01,-9.255992234779671435e+01,-3.289186142698042659e+01,2.273719798560455274e+01,7.906775451444559621e+00,9.484992027282714844e+00,-2.294756323099136353e-01,-3.442134261131286621e-01,4.760000000000000000e+02
-9.359978417566821918e+01,-6.160417995933732982e+01,-7.398715348753967191e+00,2.131334709945258510e+01,-8.882215364803892044e+01,-3.340737777226036087e+01,2.169871746868113860e+01,1.088999324039548355e+01,9.484992027282714844e+00,-2.294756323099136353e-01,-3.442134261131286621e-01,4.770000000000000000e+02
-9.404391980086586500e+01,-6.487572482185896661e+01,-8.211521896828514855e+00,1.905344138640225538e+01,-8.575240339234574094e+01,-3.445881860416625386e+01,1.948559994878644375e+01,1.174185403025876440e+01,9.484992027282714844e+00,-2.294756323099136353e-01,-3.442134261131286621e-01,4.780000000000000000e+02
-9.320318736267182658e+01,-7.003689064817399412e+01,-8.514863767279678086e+00,1.531225023334627622e+01,-8.402875166724209066e+01,-3.587258438662911431e+01,1.679886253451212497e+01,1.010098852379906020e+01,9.484992027282714844e+00,-2.294756323099136353e-01,-3.442134261131286621e-01,4.790000000000000000e+02
-9.111833549013397260e+01,-7.528139137901570166e+01,-8.347039675307428297e+00,1.116463292944865771e+01,-8.363983148403809764e+01,-3.761492350939306561e+01,1.443401938894004388e+01,6.810732168016727428e+00,9.484992027282714844e+00,-2.294756323099136353e-01,-3.442134261131286621e-01,4.800000000000000000e+02
-8.873225263433124610e+01,-7.890169504741669471e+01,-8.164461279586191722e+00,7.757058867026842108e+00,-8.389169064508530482e+01,-3.951581378235022157e+01,1.297737964400494093e+01,3.455492131053517824e+00,9.484992027282714844e+00,-2.294756323099136353e-01,-3.442134261131286621e-01,4.810000000000000000e+02
-8.707220937011339856e+01,-8.009554502524542841e+01,-8.326363559720277863e+00,5.853024788305390302e+00,-8.400348564028189458e+01,-4.122519823237081482e+01,1.237073334919307399e+01,1.147106736746991373e+00,9.484992027282714844e+00,-2.294756323099136353e-01,-3.442134261131286621e-01,4.820000000000000000e+02
-8.648535780812449048e+01,-7.925354724872380530e+01,-8.859067754926883254e+00,5.485153758092678800e+00,-8.380316671194165679e+01,-4.251241376537097949e+01,1.179465570675586150e+01,-3.549850496395379196e-01,9.484992027282714844e+00,-2.294756323099136353e-01,-3.442134261131286621e-01,4.830000000000000000e+02
-8.655249718178737339e+01,-7.752332852671031560e+01,-9.617813287375781783e+00,5.973350309499437572e+00,-8.381904314745699480e+01,-4.355138809244618869e+01,1.023828906348987289e+01,-2.217492970996488566e+00,9.484992027282714844e+00,-2.294756323099136353e-01,-3.442134261131286621e-01,4.840000000000000000e+02
-8.664979953723700135e+01,-7.597423279505154881e+01,-1.053702874153388080e+01,6.368630949811844744e+00,-8.461160032027925126e+01,-4.480592752698819936e+01,7.450396316900274485e+00,-5.083640702599019789e+00,9.484992027282714844e+00,-2.294756323099136353e-01,-3.442134261131286621e-01,4.850000000000000000e+02
-8.656734559420132769e+01,-7.498795412188097487e+01,-1.166151689929979085e+01,6.039524251313935110e+00,-8.600242441397574567e+01,-4.656909443190549780e+01,4.387013235803195244e+00,-8.057983808002070703e+00,9.484992027282714844e+00,-2.294756323099136353e-01,-3.442134261131286621e-01,4.860000000000000000e+02
-8.662770143502643805e+01,-7.428668183129097713e+01,-1.298497228778963120e+01,4.968740035916624720e+00,-8.703249325755385257e+01,-4.861902281320641350e+01,2.574720571798380320e+00,-9.298937594733715173e+00,9.484992027282714844e+00,-2.294756323099136353e-01,-3.442134261131286621e-01,4.870000000000000000e+02
-8.726195580491975079e+01,-7.343910786875400731e+01,-1.434522884485429017e+01,3.582198135602368438e+00,-8.677119534931978251e+01,-5.035255673345329797e+01,2.849196609124021506e+00,-7.772341320105056184e+00,9.484992027282714844e+00,-2.294756323099136353e-01,-3.442134261131286621e-01,4.880000000000000000e+02
-8.850928210262418361e+01,-7.230755977042053928e+01,-1.552853394042264767e+01,2.343043302519163262e+00,-8.521150888243676036e+01,-5.126792790430914692e+01,4.640155702482957167e+00,-4.427207327697601613e+00,9.484992027282714844e+00,-2.294756323099136353e-01,-3.442134261131286621e-01,4.890000000000000000e+02
-8.992213601223306796e+01,-7.103108613682923078e+01,-1.645119748502639823e+01,1.508409213756920053e+00,-8.334098398336436730e+01,-5.130932987032048231e+01,6.538558782739414710e+00,-1.492535834419641105e+00,9.484992027282714844e+00,-2.294756323099136353e-01,-3.442134261131286621e-01,4.900000000000000000e+02
-9.091856315589598125e+01,-6.964502039819655010e+01,-1.717416396859835004e+01,1.202205308660154515e+00,-8.224863177142879067e+01,-5.074892588554814665e+01,7.639867988313312708e+00,-4.374779583455961074e-01,9.484992027282714844e+00,-2.294756323099136353e-01,-3.442134261131286621e-01,4.910000000000000000e+02
-9.118989194439859602e+01,-6.781693662141833556e+01,-1.768975181770588279e+01,1.601869859432440535e+00,-8.207196204585341093e+01,-4.977319781059202342e+01,8.358028221816539372e+00,-5.483298445316222569e-01,9.484992027282714844e+00,-2.294756323099136353e-01,-3.442134261131286621e-01,4.920000000000000000e+02
-9.075751460210574351e+01,-6.504270512708728802e+01,-1.769735545107778307e+01,2.947145073528304238e+00,-8.177321640989293883e+01,-4.822152678645284141e+01,9.909480470622725079e+00,4.591370699787375997e-01,9.484992027282714844e+00,-2.294756323099136353e-01,-3.442134261131286621e-01,4.930000000000000000e+02
-8.967059997613546329e+01,-6.115664016050698137e+01,-1.665699364279555539e+01,5.325788173474734322e+00,-7.996738479376767827e+01,-4.575010428442226385e+01,1.300098923628945613e+01,4.332931729970823653e+00,9.484992027282714844e+00,-2.294756323099136353e-01,-3.442134261131286621e-01,4.940000000000000000e+02
-8.771839743363238995e+01,-5.665641299470780723e+01,-1.415464755875314040e+01,8.472437567392034907e+00,-7.605854801957707423e+01,-4.224562503555239346e+01,1.704730158644633775e+01,1.066165752580616299e+01,9.484992027282714844e+00,-3.442134261131286621e-01,-3.824593424797058105e-01,4.950000000000000000e+02
-8.451825424469939207e+01,-5.248721101022886160e+01,-1.028917051171447383e+01,1.182497501942043527e+01,-7.068939465592688975e+01,-3.807775998691181485e+01,2.068160582592565788e+01,1.720292292244357668e+01,9.484992027282714844e+00,-3.442134261131286621e-01,-3.824593424797058105e-01,4.960000000000000000e+02
-7.995591465397842512e+01,-4.942495702802807500e+01,-5.732098986192568191e+00,1.481798165237728426e+01,-6.516637437424924428e+01,-3.396132338187612731e+01,2.301799375865653019e+01,2.175151225092736240e+01,9.484992027282714844e+00,-3.442134261131286621e-01,-3.824593424797058105e-01,4.970000000000000000e+02
-7.456412643501585080e+01,-4.757270978841620490e+01,-1.380889945880880987e+00,1.716699855586466583e+01,-6.045975309782397744e+01,-3.057509276943710574e+01,2.438637358107507680e+01,2.376319456179794543e+01,9.484992027282714844e+00,-3.442134261131286621e-01,-3.824593424797058105e-01,4.980000000000000000e+02
-6.942758715472587028e+01,-4.638311731938915727e+01,2.112543049273881479e+00,1.890949420338256459e+01,-5.670854723548404763e+01,-2.827468115773012869e+01,2.583918187642780140e+01,2.435621331983770688e+01,9.484992027282714844e+00,-3.442134261131286621e-01,-3.824593424797058105e-01,4.990000000000000000e+02
-6.561202304787548201e+01,-4.515044796443589803e+01,4.566879399010986162e+00,2.023036383873682098e+01,-5.359609925428139832e+01,-2.708766415489571955e+01,2.798346225123395925e+01,2.496523394474093038e+01,9.484992027282714844e+00,-3.442134261131286621e-01,-3.824593424797058105e-01,5.000000000000000000e+02
-6.352939328873253544e+01,-4.352462521354618730e+01,6.136754404680687003e+00,2.130672596849854017e+01,-5.107551782748168989e+01,-2.686113508518292292e+01,3.034038982956917607e+01,2.611452742806909555e+01,9.484992027282714844e+00,-3.442134261131286621e-01,-3.824593424797058105e-01,5.010000000000000000e+02
-6.271140324610519201e+01,-4.162180515829118121e+01,7.058432600438436566e+00,2.231825401210744531e+01,-4.958544532861606058e+01,-2.732435251014931055e+01,3.185417905508393233e+01,2.740097556776595411e+01,9.484992027282714844e+00,-3.442134261131286621e-01,-3.824593424797058105e-01,5.020000000000000000e+02
-6.214146202291249210e+01,-3.970044509524427667e+01,7.572848782615892560e+00,2.354028558422214701e+01,-4.945728056423399721e+01,-2.801417397675731991e+01,3.202495727664609149e+01,2.841470420757786997e+01,9.484992027282714844e+00,-3.442134261131286621e-01,-3.824593424797058105e-01,5.030000000000000000e+02
-6.088862619126507525e+01,-3.776109584071105019e+01,8.040280686961978063e+00,2.532039086669419703e+01,-5.014284471393216336e+01,-2.826250609603084740e+01,3.154136799235038779e+01,2.944151258784449965e+01,9.484992027282714844e+00,-3.442134261131286621e-01,-3.824593424797058105e-01,5.040000000000000000e+02
-5.862228470228183141e+01,-3.547444031072245707e+01,8.964987083709274884e+00,2.787096301166275225e+01,-5.019111739885101997e+01,-2.743517998982588324e+01,3.180600485321838278e+01,3.120498205652666002e+01,9.484992027282714844e+00,-3.442134261131286621e-01,-3.824593424797058105e-01,5.050000000000000000e+02
-5.573084270763956738e+01,-3.252541647948646641e+01,1.070241633742875820e+01,3.104241689189257158e+01,-4.823529492628949811e+01,-2.532640658707623516e+01,3.378525446335152083e+01,3.401207075361003263e+01,9.484992027282714844e+00,-3.442134261131286621e-01,-3.824593424797058105e-01,5.060000000000000000e+02
-5.303822670697900321e+01,-2.906619938647691015e+01,1.301628241090065785e+01,3.430154952098700960e+01,-4.421555129491071057e+01,-2.237359489149275760e+01,3.717569496340229307e+01,3.724781726689025163e+01,9.484992027282714844e+00,-3.442134261131286621e-01,-3.824593424797058105e-01,5.070000000000000000e+02
-5.131962275987825706e+01,-2.583740332954357655e+01,1.496590039423563212e+01,3.696894436658840277e+01,-3.968368299333815230e+01,-1.944683952092418622e+01,4.055470375103232072e+01,3.973626003310937449e+01,9.484992027282714844e+00,-3.442134261131286621e-01,-3.824593424797058105e-01,5.080000000000000000e+02
-5.087280146875673381e+01,-2.378041810625245489e+01,1.542798177322765696e+01,3.854053216817237626e+01,-3.677761882346931088e+01,-1.734113832743651074e+01,4.234068915635180019e+01,4.058980806677254805e+01,9.484992027282714844e+00,-3.442134261131286621e-01,-3.824593424797058105e-01,5.090000000000000000e+02
-5.134851839042266874e+01,-2.339732220930227413e+01,1.397365464005133617e+01,3.887516763275380072e+01,-3.664712009653203495e+01,-1.636837869114015120e+01,4.181427823689364232e+01,3.978034698527835644e+01,9.484992027282714844e+00,-3.442134261131286621e-01,-3.824593424797058105e-01,5.100000000000000000e+02
-5.193174576385399632e+01,-2.436890052960552566e+01,1.137493028312610477e+01,3.817524417282811555e+01,-3.864044545680508236e+01,-1.634544913785430253e+01,3.953312390709606916e+01,3.804239900670609131e+01,9.484992027282714844e+00,-3.442134261131286621e-01,-3.824593424797058105e-01,5.110000000000000000e+02
-5.180133951106836321e+01,-2.576574751007819941e+01,9.218519245923744165e+00,3.684967570123262703e+01,-4.090502687968091777e+01,-1.690812829215929014e+01,3.695533710708241415e+01,3.634485067360355970e+01,9.484992027282714844e+00,-3.442134261131286621e-01,-3.824593424797058105e-01,5.120000000000000000e+02
-5.061323323381657247e+01,-2.670611341041603737e+01,8.823233989166965330e+00,3.536711163366771871e+01,-4.183223191384740858e+01,-1.781458787718247549e+01,3.557240814691385822e+01,3.539644328707981913e+01,9.484992027282714844e+00,-3.442134261131286621e-01,-3.824593424797058105e-01,5.130000000000000000e+02
-4.869274954518687082e+01,-2.693698740637819355e+01,1.030081504919326107e+01,3.411699397520351340e+01,-4.111647018879148163e+01,-1.898473958923295868e+01,3.608473822805217424e+01,3.542566561154671945e+01,9.484992027282714844e+00,-3.442134261131286621e-01,-3.824593424797058105e-01,5.140000000000000000e+02
-4.678983469160766617e+01,-2.686360152649103838e+01,1.252319019118749566e+01,3.328123578338727384e+01,-3.965316280317119890e+01,-2.032795041975805361e+01,3.808295536620335042e+01,3.619500827895853945e+01,9.484992027282714844e+00,-3.442134261131286621e-01,-3.824593424797058105e-01,5.150000000000000000e+02
-4.555840190400840584e+01,-2.701491078942081003e+01,1.400523324371033596e+01,3.279808579580549122e+01,-3.857689436525606652e+01,-2.159769056391542108e+01,4.039915775307326840e+01,3.716105140182889954e+01,9.484992027282714844e+00,-3.442134261131286621e-01,-3.824593424797058105e-01,5.160000000000000000e+02
-4.514517727337261022e+01,-2.743213260598258785e+01,1.396377848958218237e+01,3.250526275075117155e+01,-3.839679547302648643e+01,-2.243443677627146826e+01,4.188694283325276047e+01,3.776770739650555697e+01,9.484992027282714844e+00,-3.442134261131286621e-01,-3.824593424797058105e-01,5.170000000000000000e+02
-4.517981447616602964e+01,-2.754871176424649093e+01,1.272434566141191681e+01,3.239211611541486491e+01,-3.889618989468908694e+01,-2.255016439366681880e+01,4.210583939808475407e+01,3.779982252838090062e+01,9.484992027282714844e+00,-3.442134261131286621e-01,-3.824593424797058105e-01,5.180000000000000000e+02
-4.511435071872438130e+01,-2.669887151629654909e+01,1.128055277899284192e+01,3.271483483530892045e+01,-3.963408918389313840e+01,-2.190414338355549262e+01,4.144557700818495505e+01,3.755060554445026355e+01,9.484992027282714844e+00,-3.442134261131286621e-01,-3.824593424797058105e-01,5.190000000000000000e+02
-4.459813441426467762e+01,-2.482752239660521809e+01,1.049475130776409060e+01,3.375415300753502379e+01,-4.039546489671647578e+01,-2.078944706815855170e+01,4.063553312098247261e+01,3.755830452448071810e+01,9.523238182067871094e+00,-2.677215635776519775e-01,-4.589512646198272705e-01,5.200000000000000000e+02
-4.359597990152633429e+01,-2.273511085769359852e+01,1.060976693288284878e+01,3.534876784716652764e+01,-4.115650097322122747e+01,-1.979383973258154583e+01,4.009661208689931300e+01,3.805293920151871134e+01,9.523238182067871094e+00,-2.677215635776519775e-01,-4.589512646198272705e-01,5.210000000000000000e+02
-4.225006263498471526e+01,-2.155606720962805412e+01,1.134480865437672037e+01,3.667958738761535642e+01,-4.174934291303088685e+01,-1.960188966134228394e+01,3.972662043821310363e+01,3.864076741575081542e+01,9.523238182067871094e+00,-2.677215635776519775e-01,-4.589512646198272705e-01,5.220000000000000000e+02
-4.070153065783597413e+01,-2.182420804453431629e+01,1.232247209576598834e+01,3.669148138305627072e+01,-4.170842272294703434e+01,-2.063233274353751767e+01,3.931021785099255794e+01,3.866858662060258212e+01,9.523238182067871094e+00,-2.677215635776519775e-01,-4.589512646198272705e-01,5.230000000000000000e+02
-3.904806312937944313e+01,-2.287527954336019320e+01,1.341461564242490567e+01,3.498718206407465914e+01,-4.051515503417431319e+01,-2.264878403239345062e+01,3.912375521184003446e+01,3.807831914476537349e+01,9.523238182067871094e+00,-2.677215635776519775e-01,-4.589512646198272705e-01,5.240000000000000000e+02
-3.739767833309906564e+01,-2.313852241710810631e+01,1.479659169479691627e+01,3.247520960311976523e+01,-3.797985208191403217e+01,-2.464822166390695202e+01,4.007552190088517818e+01,3.795521244477640721e+01,9.523238182067871094e+00,-2.677215635776519775e-01,-4.589512646198272705e-01,5.250000000000000000e+02
-3.585501205723357998e+01,-2.118683924354445480e+01,1.677160181216640922e+01,3.108875396652001655e+01,-3.435534740888579108e+01,-2.525577307613002631e+01,4.311634283794955991e+01,4.007754193555592792e+01,9.523238182067871094e+00,-2.677215635776519775e-01,-4.589512646198272705e-01,5.260000000000000000e+02
-3.440297322887272458e+01,-1.680043544305772230e+01,1.951478164501986612e+01,3.260011639929507510e+01,-3.011559471127930010e+01,-2.350327120394831582e+01,4.834191469475990743e+01,4.560092362165960367e+01,9.523238182067871094e+00,-2.677215635776519775e-01,-4.589512646198272705e-01,5.270000000000000000e+02
-3.284194124492933042e+01,-1.123535023316253501e+01,2.284096142543057795e+01,3.735752074014817481e+01,-2.572287148941541091e+01,-1.950603342855811206e+01,5.455548245764111925e+01,5.385901745386581752e+01,9.523238182067871094e+00,-2.677215635776519775e-01,-4.589512646198272705e-01,5.280000000000000000e+02
-3.095568854472185194e+01,-6.485760797717375681e+00,2.608322372423754132e+01,4.390305826753228757e+01,-2.168948502816783730e+01,-1.453496182838171080e+01,5.973146927082507318e+01,6.229816293073781708e+01,9.523238182067871094e+00,-2.677215635776519775e-01,-4.589512646198272705e-01,5.290000000000000000e+02
-2.883117210976433853e+01,-4.104352951860164467e+00,2.822057301992117573e+01,4.977744151358001545e+01,-1.880073640905357024e+01,-1.038538038053957280e+01,6.209684270213983837e+01,6.772043234701231995e+01,9.523238182067871094e+00,-2.677215635776519775e-01,-4.589512646198272705e-01,5.300000000000000000e+02
-2.702518380949732091e+01,-4.463121629968554771e+00,2.831775245883636671e+01,5.289787341435749113e+01,-1.805333127921039704e+01,-8.462388989932151162e+00,6.104956660892094078e+01,6.798789889377076179e+01,9.523238182067871094e+00,-2.677215635776519775e-01,-4.589512646198272705e-01,5.310000000000000000e+02
-2.633314057068128022e+01,-6.918784413703178870e+00,2.609485799167578080e+01,5.252710257997568988e+01,-2.009221469673320826e+01,-9.166711184463565587e+00,5.729357861059725110e+01,6.303887444672909623e+01,9.523238182067871094e+00,-2.677215635776519775e-01,-4.589512646198272705e-01,5.320000000000000000e+02
-2.727354171108527225e+01,-1.055769891723048204e+01,2.221908595521199459e+01,4.929907782804366434e+01,-2.454059889832751651e+01,-1.188927204773972335e+01,5.222152892219946807e+01,5.465956585490584985e+01,9.523238182067871094e+00,-2.677215635776519775e-01,-4.589512646198272705e-01,5.330000000000000000e+02
-2.968664558786349517e+01,-1.475507520322389610e+01,1.802054978765045234e+01,4.454933251387228665e+01,-2.991883867513843143e+01,-1.548062128022684192e+01,4.711589246610947157e+01,4.537209838920625771e+01,9.523238182067871094e+00,-2.677215635776519775e-01,-4.589512646198272705e-01,5.340000000000000000e+02
-3.276568447700901743e+01,-1.908664830689212977e+01,1.477658758261895855e+01,3.960380370068560296e+01,-3.442019273854020867e+01,-1.881483947500964860e+01,4.274844052429034491e+01,3.728478966283091722e+01,9.523238182067871094e+00,-2.677215635776519775e-01,-4.589512646198272705e-01,5.350000000000000000e+02
-3.547634631807341066e+01,-2.287087348684872268e+01,1.309913039102320909e+01,3.547241050509364868e+01,-3.698554786981640063e+01,-2.114925801926983695e+01,3.950118046787338244e+01,3.153551478606914316e+01,9.523238182067871094e+00,-2.677215635776519775e-01,-4.589512646198272705e-01,5.360000000000000000e+02
-3.702909889932561782e+01,-2.504552057362980122e+01,1.286980905655582319e+01,3.286588351218870230e+01,-3.775103124497400131e+01,-2.220267865182358946e+01,3.765334515601807652e+01,2.838277085627851193e+01,9.523238182067871094e+00,-2.677215635776519775e-01,-4.589512646198272705e-01,5.370000000000000000e+02
-3.713268198996775027e+01,-2.475165774706783850e+01,1.363147477006441477e+01,3.217102425726898218e+01,-3.752378377711556823e+01,-2.206775567175282049e+01,3.740126641402366658e+01,2.755938589712786779e+01,9.523238182067871094e+00,-2.677215635776519775e-01,-4.589512646198272705e-01,5.380000000000000000e+02
-3.600601929085314623e+01,-2.217227227935927658e+01,1.496574279668857343e+01,3.324450371254079073e+01,-3.688304042725576437e+01,-2.108140693519089837e+01,3.856577043808829330e+01,2.852432917028090742e+01,9.523238182067871094e+00,-2.677215635776519775e-01,-4.589512646198272705e-01,5.390000000000000000e+02
-3.426398003987651464e+01,-1.875775832923591224e+01,1.649801637065593241e+01,3.527057199010869226e+01,-3.583964287035632879e+01,-1.969858213871339103e+01,4.036214444887082209e+01,3.053975490381344571e+01,9.523238182067871094e+00,-2.677215635776519775e-01,-4.589512646198272705e-01,5.400000000000000000e+02
-3.274078403502426227e+01,-1.643421363506422495e+01,1.767449360648697620e+01,3.701311650698062294e+01,-3.433061453810842067e+01,-1.837044987689660047e+01,4.164888906067699281e+01,3.273070370362529502e+01,9.523238182067871094e+00,-2.677215635776519775e-01,-4.589512646198272705e-01,5.410000000000000000e+02
-3.218350153045139450e+01,-1.631344469268151443e+01,1.780520933423395036e+01,3.747119850897615834e+01,-3.283976746889857168e+01,-1.741896574439306278e+01,4.164936155922714534e+01,3.430613964614531142e+01,9.523238182067871094e+00,-2.677215635776519775e-01,-4.589512646198272705e-01,5.420000000000000000e+02
-3.284575151038461627e+01,-1.793983580254189292e+01,1.656155684232180647e+01,3.652342760522697063e+01,-3.226438612676065532e+01,-1.694190747622997151e+01,4.062585630121429858e+01,3.492549818651968963e+01,9.523238182067871094e+00,-2.677215635776519775e-01,-4.589512646198272705e-01,5.430000000000000000e+02
-3.425502510300793801e+01,-1.968910247434814664e+01,1.450128598468563723e+01,3.504608820924295287e+01,-3.300250318787402648e+01,-1.679276624741214619e+01,3.987914496060693637e+01,3.497185847586297314e+01,9.523238182067871094e+00,-2.677215635776519775e-01,-4.589512646198272705e-01,5.440000000000000000e+02
-3.544390960211785568e+01,-1.998215454664841673e+01,1.296267288502258452e+01,3.433375950768095208e+01,-3.422985247143878951e+01,-1.666172411388652108e+01,4.090291207422342268e+01,3.544186761378296069e+01,9.523238182067871094e+00,-2.677215635776519775e-01,-4.589512646198272705e-01,5.450000000000000000e+02
-3.560828152342764952e+01,-1.833648587033076183e+01,1.318105545683101809e+01,3.519195643092643877e+01,-3.431601890230922436e+01,-1.622831923583180469e+01,4.422913788714504335e+01,3.736445523752081499e+01,9.523238182067871094e+00,-2.677215635776519775e-01,-4.589512646198272705e-01,5.460000000000000000e+02
-3.470686181282508187e+01,-1.551238710211509897e+01,1.530032105053942360e+01,3.736372184519132134e+01,-3.219470442736019322e+01,-1.530943622951781435e+01,4.884448110617086058e+01,4.104199993977636041e+01,9.523238182067871094e+00,-2.677215635776519775e-01,-3.442134261131286621e-01,5.470000000000000000e+02
-3.345796671456810145e+01,-1.280604167469937238e+01,1.819462934458169912e+01,3.971236895307629311e+01,-2.842288390249632357e+01,-1.393541609530802816e+01,5.269666485019479296e+01,4.566115716727290419e+01,9.523238182067871094e+00,-2.677215635776519775e-01,-3.442134261131286621e-01,5.480000000000000000e+02
-3.268704500253807055e+01,-1.116156482314727327e+01,2.035484780665501603e+01,4.102141816278526676e+01,-2.483205800631549209e+01,-1.233260349767260777e+01,5.400575694871076848e+01,4.967193900136589946e+01,9.523238182067871094e+00,-2.677215635776519775e-01,-3.442134261131286621e-01,5.490000000000000000e+02
-3.258222772360932140e+01,-1.073847724055667641e+01,2.110223674175540509e+01,4.082018609762053529e+01,-2.299627744931785855e+01,-1.083467901969561353e+01,5.245906316820037318e+01,5.177629310886732128e+01,9.523238182067871094e+00,-2.677215635776519775e-01,-3.442134261131286621e-01,5.500000000000000000e+02
-3.253251210781854752e+01,-1.107483162539210753e+01,2.105140509574266616e+01,3.963562007578730118e+01,-2.291846765710579348e+01,-9.754135697650781367e+00,4.941574865331494948e+01,5.181082229461935640e+01,9.523238182067871094e+00,-2.677215635776519775e-01,-3.442134261131286621e-01,5.510000000000000000e+02
-3.170414549105043989e+01,-1.155443077306154009e+01,2.141625385257066227e+01,3.851309494485758478e+01,-2.316117667391881696e+01,-9.240995271498832153e+00,4.697796171846312063e+01,5.080529622410358570e+01,9.523238182067871094e+00,-2.677215635776519775e-01,-3.442134261131286621e-01,5.520000000000000000e+02
-2.983441100027448556e+01,-1.178742454226085101e+01,2.282128766386449570e+01,3.822475352212495636e+01,-2.227862240974354791e+01,-9.168456723828057875e+00,4.662074883458990371e+01,5.013874229432622087e+01,9.523238182067871094e+00,-2.677215635776519775e-01,-3.442134261131286621e-01,5.530000000000000000e+02
-2.753084589114587288e+01,-1.172089693114685360e+01,2.472007733734244539e+01,3.879887597295964952e+01,-2.017024557196782553e+01,-9.123110462298427592e+00,4.836383288273100334e+01,5.048289391336584231e+01,9.523238182067871094e+00,-2.677215635776519775e-01,-3.442134261131286621e-01,5.540000000000000000e+02
-2.582409012170319329e+01,-1.151819688374598627e+01,2.594191966412836337e+01,3.972009945729223546e+01,-1.807298392393749964e+01,-8.555643101452005794e+00,5.103892042058578227e+01,5.146764643616006651e+01,9.523238182067871094e+00,-2.677215635776519775e-01,-3.442134261131286621e-01,5.550000000000000000e+02
-2.538731099418509984e+01,-1.134727218885018374e+01,2.582692661245528143e+01,4.056371976827722392e+01,-1.725853668826493958e+01,-7.055516954380436800e+00,5.335097799560389831e+01,5.234618343007787189e+01,9.523238182067871094e+00,-2.677215635776519775e-01,-3.442134261131286621e-01,5.560000000000000000e+02
-2.607632919064963062e+01,-1.122835400533767825e+01,2.489052543471007084e+01,4.144474316513878875e+01,-1.772753536305390298e+01,-4.591039219971207785e+00,5.483894688108921400e+01,5.297121194853571069e+01,9.523238182067871094e+00,-2.677215635776519775e-01,-3.442134261131286621e-01,5.570000000000000000e+02
-2.710817027379562205e+01,-1.103795619417178386e+01,2.443196820167759142e+01,4.285526526935791480e+01,-1.814775904542693752e+01,-1.537274063670338364e+00,5.598809059748964501e+01,5.407928011218064057e+01,9.523238182067871094e+00,-2.677215635776519775e-01,-3.442134261131286621e-01,5.580000000000000000e+02
-2.764998046566506673e+01,-1.066496050423847919e+01,2.546832862908377138e+01,4.504709718759113457e+01,-1.706571794453157054e+01,1.530077308638283284e+00,5.748363231028815790e+01,5.653812084514538583e+01,9.523238182067871094e+00,-2.677215635776519775e-01,-3.442134261131286621e-01,5.590000000000000000e+02
-2.731140974274967448e+01,-1.017639792676891375e+01,2.794666242723360483e+01,4.756200053169777675e+01,-1.423609565377046238e+01,4.123995875024775160e+00,5.933645540484940284e+01,6.027096968310615921e+01,9.523238182067871094e+00,-2.677215635776519775e-01,-3.442134261131286621e-01,5.600000000000000000e+02
-2.623505678983929101e+01,-9.839930316637037322e+00,3.083057246132739238e+01,4.938265369126020232e+01,-1.087983021673971962e+01,6.007819493075658102e+00,6.068371382294390060e+01,6.394172845484354184e+01,9.523238182067871094e+00,-2.677215635776519775e-01,-3.442134261131286621e-01,5.610000000000000000e+02
-2.486401743521309982e+01,-9.976661863503977656e+00,3.285729625091153139e+01,4.959556705168324697e+01,-8.723678977292365744e+00,7.136576659879210638e+00,6.044491602408197650e+01,6.578774629576764710e+01,9.523238182067871094e+00,-2.677215635776519775e-01,-3.442134261131286621e-01,5.620000000000000000e+02
-2.365235112650589144e+01,-1.075954223543521948e+01,3.327376111961530114e+01,4.797739109737449326e+01,-8.753077445839153370e+00,7.485065039953042287e+00,5.823968922441599716e+01,6.489605797845251800e+01,9.523238182067871094e+00,-2.677215635776519775e-01,-3.442134261131286621e-01,5.630000000000000000e+02
-2.290045936946808069e+01,-1.212123625764616008e+01,3.204940445504689706e+01,4.502971455534861889e+01,-1.073106791181089648e+01,6.974602783815498697e+00,5.475350267554495076e+01,6.180736452551718685e+01,9.523238182067871094e+00,-2.677215635776519775e-01,-3.442134261131286621e-01,5.640000000000000000e+02
-2.271216489834841923e+01,-1.380609684133196424e+01,2.965167600215681887e+01,4.154846054406516487e+01,-1.368108350626607717e+01,5.600664221852639457e+00,5.126266135357218445e+01,5.799222102687235747e+01,9.523238182067871094e+00,-2.677215635776519775e-01,-3.442134261131286621e-01,5.650000000000000000e+02
-2.300857454090510146e+01,-1.547554034324821259e+01,2.676244156137909158e+01,3.820764951103228668e+01,-1.667564760359528009e+01,3.639529633004713105e+00,4.876354189719495480e+01,5.477820529423479456e+01,9.523238182067871094e+00,-2.677215635776519775e-01,-3.442134261131286621e-01,5.660000000000000000e+02
-2.358805815583764343e+01,-1.678419220802788914e+01,2.412352591690250847e+01,3.550297454905376071e+01,-1.920453666982211871e+01,1.705615280789061217e+00,4.743964947597851278e+01,5.270958981758121809e+01,9.523238182067871094e+00,-2.677215635776519775e-01,-3.442134261131286621e-01,5.670000000000000000e+02
-2.427471762017921719e+01,-1.748012730310801999e+01,2.235972704999767302e+01,3.388043930569983786e+01,-2.105322119834090699e+01,4.949194727414578665e-01,4.679072981751050975e+01,5.170495007564022671e+01,9.523238182067871094e+00,-2.677215635776519775e-01,-3.442134261131286621e-01,5.680000000000000000e+02
-2.510012053787977493e+01,-1.758503283199752332e+01,2.163462112552770122e+01,3.363878243870385631e+01,-2.217207157482516777e+01,3.107653155675507151e-01,4.612445857050806808e+01,5.152285054067942838e+01,9.523238182067871094e+00,-2.677215635776519775e-01,-3.442134261131286621e-01,5.690000000000000000e+02
-2.633961683968300349e+01,-1.753639237241259252e+01,2.136214607309739222e+01,3.454530847797286697e+01,-2.283116385989706032e+01,7.323871489170414861e-01,4.491652469268592540e+01,5.189366785976199026e+01,9.523238182067871094e+00,-2.677215635776519775e-01,-3.442134261131286621e-01,5.700000000000000000e+02
-2.828274024566235312e+01,-1.805130443499729154e+01,2.042404535597597715e+01,3.561689703667980211e+01,-2.375098411810176913e+01,7.775335350997920614e-01,4.288679108295764308e+01,5.229499488414512598e+01,9.523238182067871094e+00,-2.677215635776519775e-01,-3.442134261131286621e-01,5.710000000000000000e+02
-3.084634213906247169e+01,-1.963377383288388955e+01,1.802335124946330325e+01,3.555482194543583319e+01,-2.570596901683529723e+01,-4.231369219705811702e-01,4.003623430598236155e+01,5.194155187176329491e+01,9.523238182067871094e+00,-2.677215635776519775e-01,-3.442134261131286621e-01,5.720000000000000000e+02
-3.336165874582184188e+01,-2.204089656130418007e+01,1.460306194075201347e+01,3.370668856741394848e+01,-2.867970854524173774e+01,-2.881287064086791361e+00,3.684029157636541640e+01,5.035962140414812893e+01,9.523238182067871094e+00,-2.677215635776519775e-01,-3.442134261131286621e-01,5.730000000000000000e+02
-3.480437054061439994e+01,-2.422878837302596366e+01,1.192818174827516486e+01,3.075846745823582751e+01,-3.138402774475252954e+01,-5.552285883015429135e+00,3.436617159798515786e+01,4.809755957587913144e+01,9.523238182067871094e+00,-2.677215635776519775e-01,-3.442134261131286621e-01,5.740000000000000000e+02
-3.438520056481684151e+01,-2.499039642883144552e+01,1.198292823012889130e+01,2.842699109893146669e+01,-3.188827859996308689e+01,-6.940086988255643519e+00,3.390300937026404426e+01,4.670303379604411020e+01,9.523238182067871094e+00,-2.677215635776519775e-01,-3.442134261131286621e-01,5.750000000000000000e+02
-3.207408790702538681e+01,-2.385316150929611467e+01,1.541033463075655163e+01,2.826277925422982662e+01,-2.911471737101601320e+01,-6.115424288116628304e+00,3.609786324070591945e+01,4.766747008505990379e+01,9.523238182067871094e+00,-2.677215635776519775e-01,-3.442134261131286621e-01,5.760000000000000000e+02
-2.863181735834223218e+01,-2.147078979314574099e+01,2.080175535816852062e+01,3.051331617986579658e+01,-2.395747352362741367e+01,-3.364989619047264569e+00,4.023001030378509313e+01,5.112353630423240247e+01,9.523238182067871094e+00,-2.677215635776519775e-01,-3.442134261131286621e-01,5.770000000000000000e+02
-2.510977799843749381e+01,-1.911393580824187666e+01,2.556038066069049819e+01,3.398893762432999210e+01,-1.889691525581656606e+01,4.297635168768465519e-02,4.439598226177622564e+01,5.551226220438184100e+01,9.523238182067871094e+00,-2.294756323099136353e-01,-3.824593424797058105e-01,5.780000000000000000e+02
-2.222502533376245992e+01,-1.766558306179285864e+01,2.772481225871706556e+01,3.700262285516873817e+01,-1.627416511966657708e+01,2.765505911771469982e+00,4.667936358242877759e+01,5.866165865988295991e+01,9.523238182067871094e+00,-2.294756323099136353e-01,-3.824593424797058105e-01,5.790000000000000000e+02
-2.010718659129997832e+01,-1.698820396861628979e+01,2.726707023255221429e+01,3.856433683180875960e+01,-1.662479270145558985e+01,4.222992581439029891e+00,4.646325615205569193e+01,5.942584638081098092e+01,9.523238182067871094e+00,-2.294756323099136353e-01,-3.824593424797058105e-01,5.800000000000000000e+02
-1.855318536922277417e+01,-1.618749882104748394e+01,2.582918695878106519e+01,3.889143522181984736e+01,-1.844914744950074237e+01,4.770745145116961794e+00,4.480804447889750008e+01,5.848598148120436235e+01,9.523238182067871094e+00,-2.294756323099136353e-01,-3.824593424797058105e-01,5.810000000000000000e+02
-1.745285489325033268e+01,-1.448146933366297162e+01,2.524689835870231036e+01,3.898323872165201465e+01,-1.951994109824227053e+01,5.236633733609778574e+00,4.356899181512926589e+01,5.766645365652220789e+01,9.523238182067871094e+00,-2.294756323099136353e-01,-3.824593424797058105e-01,5.820000000000000000e+02
-1.694345619903833722e+01,-1.186855530598040787e+01,2.621477818366838619e+01,3.976109031657324522e+01,-1.853224418258832884e+01,6.317556250869529322e+00,4.399216978613912943e+01,5.843825778459358844e+01,9.523238182067871094e+00,-2.294756323099136353e-01,-3.824593424797058105e-01,5.830000000000000000e+02
-1.716625043203748646e+01,-9.049969364266871708e+00,2.814748159693408525e+01,4.147561271698941709e+01,-1.578465061991664697e+01,8.261261576026299736e+00,4.591903251932671992e+01,6.090121191903017461e+01,9.523238182067871094e+00,-2.294756323099136353e-01,-3.824593424797058105e-01,5.840000000000000000e+02
-1.790518616270128405e+01,-6.777565633394260658e+00,3.009084801018616417e+01,4.369686519796232460e+01,-1.259142992075067014e+01,1.088834909125216655e+01,4.813630852294591023e+01,6.397104475913511124e+01,9.523238182067871094e+00,-2.294756323099136353e-01,-3.824593424797058105e-01,5.850000000000000000e+02
-1.851670181963709183e+01,-5.277880015764822019e+00,3.162160163401495083e+01,4.570012679328647209e+01,-1.020219741625260212e+01,1.374703933871569461e+01,4.941870555200148374e+01,6.638346274863943108e+01,9.523238182067871094e+00,-2.294756323099136353e-01,-3.824593424797058105e-01,5.860000000000000000e+02
-1.828174164055963047e+01,-4.236150679131242214e+00,3.288148503700358560e+01,4.690484439079227741e+01,-9.174415656612836756e+00,1.626759726181262522e+01,4.934120019135298207e+01,6.754497300280854688e+01,9.523238182067871094e+00,-2.294756323099136353e-01,-3.824593424797058105e-01,5.870000000000000000e+02
-1.692521856298844796e+01,-3.256396878827217733e+00,3.391256838944536867e+01,4.714002670532499906e+01,-9.463333513482211856e+00,1.795581147998746019e+01,4.830126488118548878e+01,6.762925023081334075e+01,9.523238182067871094e+00,-2.294756323099136353e-01,-3.824593424797058105e-01,5.880000000000000000e+02
