F3,F4,C3,C4,P3,P4,Cz,Pz,Accel_x,Accel_y,Accel_z,Sample
-4.092726157978177071e-11,-3.183231456205248833e-11,-3.274180926382541656e-11,-3.819877747446298599e-11,-4.274625098332762718e-11,-5.638867150992155075e-11,-4.547473508864641190e-11,-3.456079866737127304e-11,9.523238182067871094e+00,-2.294756323099136353e-01,-3.824593424797058105e-01,2.260000000000000000e+02
-1.181889463792231254e+01,-5.442770385108815390e+00,-5.974122604134208814e+00,-4.506902045745846408e+00,-1.359675164669624792e+01,-8.895727572878968203e+00,-5.908743927919203998e+00,-4.802757848515284422e+00,9.523238182067871094e+00,-2.294756323099136353e-01,-3.824593424797058105e-01,2.270000000000000000e+02
-2.188995675827663945e+01,-1.102700958077002724e+01,-1.061179044098298618e+01,-6.276825316240319808e+00,-2.443058628339076677e+01,-1.644101296010740043e+01,-9.262013364752419875e+00,-7.482419085421497584e+00,9.523238182067871094e+00,-2.294756323099136353e-01,-3.824593424797058105e-01,2.280000000000000000e+02
-2.962129026745606097e+01,-1.669820155588513444e+01,-1.352152600350200373e+01,-4.527405369504776900e+00,-3.219199335047869681e+01,-2.247426121574790159e+01,-9.442662142187145946e+00,-7.516800292847619858e+00,9.523238182067871094e+00,-2.294756323099136353e-01,-3.824593424797058105e-01,2.290000000000000000e+02
-3.579866632839275553e+01,-2.222691673124791123e+01,-1.537736224811214925e+01,-8.248664252869275515e-01,-3.902161915913893608e+01,-2.804959635038358101e+01,-7.992755788828617369e+00,-6.171344067855898174e+00,9.523238182067871094e+00,-2.294756323099136353e-01,-3.824593424797058105e-01,2.300000000000000000e+02
-4.178638519977539545e+01,-2.743303635780011973e+01,-1.716043974878266454e+01,2.270604927618478541e+00,-4.717820795820534840e+01,-3.430899617761588161e+01,-7.051095381560116948e+00,-5.221757913318469946e+00,9.523238182067871094e+00,-2.294756323099136353e-01,-3.824593424797058105e-01,2.310000000000000000e+02
-4.848078380151400779e+01,-3.236381962798168388e+01,-1.927253328714959935e+01,3.066930695330484014e+00,-5.687102105288613529e+01,-4.133935279703018750e+01,-7.568537957790795190e+00,-5.485574467947117228e+00,9.523238182067871094e+00,-2.294756323099136353e-01,-3.824593424797058105e-01,2.320000000000000000e+02
-5.586521286530569341e+01,-3.725035069264413323e+01,-2.130761878503017215e+01,1.630526092871150468e+00,-6.637996370641758404e+01,-4.810384983952280891e+01,-8.870292346498899860e+00,-6.431609752928125090e+00,9.523238182067871094e+00,-2.294756323099136353e-01,-3.824593424797058105e-01,2.330000000000000000e+02
-6.332684211179002887e+01,-4.228547285888816987e+01,-2.257265961677967425e+01,-7.297041374959007953e-01,-7.404137659449770581e+01,-5.342152292348964693e+01,-9.678910955450191977e+00,-6.941837097514508059e+00,9.523238182067871094e+00,-2.294756323099136353e-01,-3.824593424797058105e-01,2.340000000000000000e+02
-7.024123575269368303e+01,-4.743954154207494867e+01,-2.275463301594027143e+01,-2.618618554105523799e+00,-7.980738385402491986e+01,-5.696921498571555276e+01,-9.368648050332012645e+00,-6.246665553877392085e+00,9.523238182067871094e+00,-2.677215635776519775e-01,-4.207052886486053467e-01,2.350000000000000000e+02
-7.628764771316946280e+01,-5.245970706860498467e+01,-2.209283341909303999e+01,-3.287554492005256179e+00,-8.482145954231509677e+01,-5.937877897802081861e+01,-8.269355873014319513e+00,-4.151280205870534701e+00,9.523238182067871094e+00,-2.677215635776519775e-01,-4.207052886486053467e-01,2.360000000000000000e+02
-8.140751446430749638e+01,-5.703444280862277083e+01,-2.101350477297910402e+01,-2.602809423919097753e+00,-8.980328631301654241e+01,-6.151894799286401394e+01,-7.003348246169480262e+00,-6.657147530168003868e-01,9.523238182067871094e+00,-2.677215635776519775e-01,-4.207052886486053467e-01,2.370000000000000000e+02
-8.568396718077110563e+01,-6.103306073633393680e+01,-1.975237685007596156e+01,-7.273076791616404080e-01,-9.426576257626038569e+01,-6.383297460090125242e+01,-5.789287223022256512e+00,4.174054695576160157e+00,9.523238182067871094e+00,-2.677215635776519775e-01,-4.207052886486053467e-01,2.380000000000000000e+02
-8.935053020362011011e+01,-6.469058308055264206e+01,-1.841144952873219154e+01,1.920817838504262909e+00,-9.746876053891628544e+01,-6.638404083555815305e+01,-4.463964416550879832e+00,9.898430115807059337e+00,9.523238182067871094e+00,-2.677215635776519775e-01,-4.207052886486053467e-01,2.390000000000000000e+02
-9.286044661304185865e+01,-6.861355347478820477e+01,-1.731440753162132751e+01,4.475006247567762330e+00,-9.991284469959009584e+01,-6.937921519626161171e+01,-3.039849124479587772e+00,1.512677571120548237e+01,9.523238182067871094e+00,-2.677215635776519775e-01,-4.207052886486053467e-01,2.400000000000000000e+02
-9.683367026297310076e+01,-7.352378035865694983e+01,-1.714024068868729955e+01,5.694509412246588909e+00,-1.035140940343735565e+02,-7.340925541808974231e+01,-2.053808385909178469e+00,1.786317534082900238e+01,9.523238182067871094e+00,-2.677215635776519775e-01,-4.207052886486053467e-01,2.410000000000000000e+02
-1.018436454037264411e+02,-7.980439638306233974e+01,-1.855156056795476616e+01,4.576895652006896853e+00,-1.100915282578389451e+02,-7.903542080606803211e+01,-2.290355092977733875e+00,1.668833425226421241e+01,9.523238182067871094e+00,-2.677215635776519775e-01,-4.207052886486053467e-01,2.420000000000000000e+02
-1.081520787465433386e+02,-8.713813556070817867e+01,-2.162171648688945425e+01,1.136037251871130138e+00,-1.196478455558053611e+02,-8.612185230626346311e+01,-4.145199932895593520e+00,1.195781317177898018e+01,9.523238182067871094e+00,-2.677215635776519775e-01,-4.207052886486053467e-01,2.430000000000000000e+02
-1.155427180571341523e+02,-9.458007084787004715e+01,-2.566200133747770451e+01,-3.395758162945639924e+00,-1.301955914584259517e+02,-9.366282036368920672e+01,-7.256651716257692897e+00,5.866528825005843828e+00,9.523238182067871094e+00,-2.677215635776519775e-01,-4.207052886486053467e-01,2.440000000000000000e+02
-1.233289386572232615e+02,-1.011305973912540139e+02,-2.963986685088821105e+01,-7.271272342581141856e+00,-1.393129464511021069e+02,-1.003660939211949881e+02,-1.071253447172693996e+01,1.122609041986834200e+00,9.523238182067871094e+00,-2.677215635776519775e-01,-4.207052886486053467e-01,2.450000000000000000e+02
-1.305621324743815421e+02,-1.064018428871377182e+02,-3.278303733355369332e+01,-9.342238081200775923e+00,-1.459323015239506276e+02,-1.054811523022945039e+02,-1.360319457056084502e+01,-8.003303207706267131e-01,9.523238182067871094e+00,-2.677215635776519775e-01,-4.207052886486053467e-01,2.460000000000000000e+02
-1.364340255966462792e+02,-1.107983814973704284e+02,-3.483242183347101673e+01,-9.680613723209717136e+00,-1.507978990729125144e+02,-1.091494772353808003e+02,-1.549013655278122314e+01,-4.750955140998485149e-01,9.523238182067871094e+00,-2.677215635776519775e-01,-4.207052886486053467e-01,2.470000000000000000e+02
-1.407105833351160982e+02,-1.150136448728680989e+02,-3.582613065048099088e+01,-9.213409867834343459e+00,-1.553984021744045094e+02,-1.120350319643303010e+02,-1.649616791448625008e+01,2.072104349117580568e-01,9.523238182067871094e+00,-2.677215635776519775e-01,-4.207052886486053467e-01,2.480000000000000000e+02
-1.438871269007040610e+02,-1.193115970619801374e+02,-3.581858865266985958e+01,-8.773327392078499543e+00,-1.605573164115276086e+02,-1.146894013822738998e+02,-1.703914927821369929e+01,-3.525508272250590380e-01,9.523238182067871094e+00,-2.677215635776519775e-01,-4.207052886486053467e-01,2.490000000000000000e+02
-1.468525372260019140e+02,-1.233059336729829738e+02,-3.494845297469692014e+01,-8.463974384791981720e+00,-1.659622022574676521e+02,-1.172915831953287125e+02,-1.745289426188446669e+01,-2.312782975861409795e+00,9.523238182067871094e+00,-2.677215635776519775e-01,-4.207052886486053467e-01,2.500000000000000000e+02
-1.502590129559830530e+02,-1.264980051513884973e+02,-3.376051345020187000e+01,-7.885975610884997877e+00,-1.708512851086097726e+02,-1.199424950742095461e+02,-1.777015452410614671e+01,-4.579989144662249601e+00,9.523238182067871094e+00,-2.677215635776519775e-01,-4.207052886486053467e-01,2.510000000000000000e+02
-1.541439126308396226e+02,-1.290658487527416582e+02,-3.327349295727162826e+01,-6.917055215173604665e+00,-1.750250828843036288e+02,-1.231099808659346309e+02,-1.782110911667314213e+01,-6.036027903619469726e+00,9.523238182067871094e+00,-2.677215635776519775e-01,-4.207052886486053467e-01,2.520000000000000000e+02
-1.581785456173502098e+02,-1.320797210893078955e+02,-3.449195792945010908e+01,-6.186945632219249092e+00,-1.791976199752298271e+02,-1.276510698020783821e+02,-1.756060067587804951e+01,-6.643933345768346044e+00,9.523238182067871094e+00,-2.677215635776519775e-01,-4.207052886486053467e-01,2.530000000000000000e+02
-1.622907256326197967e+02,-1.368130120516175339e+02,-3.766791897496250385e+01,-6.712313219648422091e+00,-1.844269303233904793e+02,-1.342570733438797106e+02,-1.732930665381627477e+01,-7.451979439699243812e+00,9.523238182067871094e+00,-2.677215635776519775e-01,-4.207052886486053467e-01,2.540000000000000000e+02
-1.669466592641847456e+02,-1.436865311578376350e+02,-4.199159969134825587e+01,-9.035384671594329120e+00,-1.911918224556447967e+02,-1.427604810314314818e+02,-1.775095096339555312e+01,-9.550631161961973703e+00,9.523238182067871094e+00,-2.677215635776519775e-01,-4.207052886486053467e-01,2.550000000000000000e+02
-1.726748506841199742e+02,-1.517823068906618573e+02,-4.607315884623540114e+01,-1.273233210405396676e+01,-1.989209104479759844e+02,-1.519442149363821954e+02,-1.926594220117385703e+01,-1.297115631377255340e+01,9.523238182067871094e+00,-2.677215635776519775e-01,-4.207052886486053467e-01,2.560000000000000000e+02
-1.792518898932235061e+02,-1.593882603850743180e+02,-4.885729840073145169e+01,-1.679812076584585157e+01,-2.063522744063293430e+02,-1.601284611421579029e+02,-2.167136704404219927e+01,-1.652909350857407844e+01,9.523238182067871094e+00,-2.677215635776519775e-01,-4.207052886486053467e-01,2.570000000000000000e+02
-1.854494872325881261e+02,-1.651204051189197344e+02,-5.020264838325783785e+01,-2.051238805456068803e+01,-2.123939604898232574e+02,-1.661365688120413324e+02,-2.409501148072240539e+01,-1.870743973236221791e+01,9.523238182067871094e+00,-2.677215635776519775e-01,-4.207052886486053467e-01,2.580000000000000000e+02
-1.897980370375471466e+02,-1.686943729676445400e+02,-5.068310599381584325e+01,-2.389427184554642736e+01,-2.167844945170709252e+02,-1.698895236700336682e+02,-2.548594617331491463e+01,-1.874809156302080737e+01,9.523238182067871094e+00,-2.677215635776519775e-01,-4.207052886486053467e-01,2.590000000000000000e+02
-1.917786000508694997e+02,-1.707910997091248646e+02,-5.088367929498554076e+01,-2.728434064842622320e+01,-2.200582412341818781e+02,-1.721634522134372673e+02,-2.524555815538133174e+01,-1.701297815829457249e+01,9.523238182067871094e+00,-2.677215635776519775e-01,-4.207052886486053467e-01,2.600000000000000000e+02
-1.923100125778073561e+02,-1.722911150273166641e+02,-5.088164237187174876e+01,-3.053505831703114382e+01,-2.229388686139836864e+02,-1.737752201215052992e+02,-2.351370974737073993e+01,-1.446193142599258863e+01,9.523238182067871094e+00,-2.677215635776519775e-01,-4.207052886486053467e-01,2.610000000000000000e+02
-1.930060731987327927e+02,-1.736293973293668387e+02,-5.034609434248523030e+01,-3.274527513520570210e+01,-2.257781263797887732e+02,-1.749865557314469697e+02,-2.096668133922685229e+01,-1.191280502628251270e+01,9.523238182067871094e+00,-2.677215635776519775e-01,-4.207052886486053467e-01,2.620000000000000000e+02
-1.948591455312121070e+02,-1.747686562751432575e+02,-4.905800283567805309e+01,-3.292510703911830205e+01,-2.285314668244500353e+02,-1.756629580901890222e+02,-1.838743296166603614e+01,-9.786995128492435470e+00,9.523238182067871094e+00,-2.677215635776519775e-01,-4.207052886486053467e-01,2.630000000000000000e+02
-1.975748030139388902e+02,-1.756262620497586795e+02,-4.728912846949970117e+01,-3.098697914026433864e+01,-2.311728391327410463e+02,-1.759521751470001618e+02,-1.637587660249801047e+01,-8.375063645852605987e+00,9.523238182067871094e+00,-2.677215635776519775e-01,-4.207052886486053467e-01,2.640000000000000000e+02
-2.001321499023565593e+02,-1.763853689564521119e+02,-4.567032856516971151e+01,-2.802270207804758684e+01,-2.339745284377081589e+02,-1.766487645554407209e+02,-1.528793486569065863e+01,-8.047451523436393472e+00,9.523238182067871094e+00,-2.677215635776519775e-01,-4.207052886486053467e-01,2.650000000000000000e+02
-2.019364441719226306e+02,-1.773595041121616305e+02,-4.471529533761804487e+01,-2.549919549443666256e+01,-2.372543457074411890e+02,-1.786800237992483744e+02,-1.525162871898055528e+01,-8.992708915412549686e+00,9.561484336853027344e+00,-3.059675097465515137e-01,-3.442134261131286621e-01,2.660000000000000000e+02
-2.034114939657642935e+02,-1.786419787334516514e+02,-4.447898599504014783e+01,-2.411209913280390538e+01,-2.408823442017178422e+02,-1.821267792657154132e+02,-1.615224786242060873e+01,-1.078166240359405492e+01,9.561484336853027344e+00,-3.059675097465515137e-01,-3.442134261131286621e-01,2.670000000000000000e+02
-2.055029682804361073e+02,-1.800306076387137182e+02,-4.464563357666338561e+01,-2.340832715377609929e+01,-2.441908875004523907e+02,-1.858125682990912537e+02,-1.764896188680268097e+01,-1.240991241691972391e+01,9.561484336853027344e+00,-3.059675097465515137e-01,-3.442134261131286621e-01,2.680000000000000000e+02
-2.086658902159929312e+02,-1.813734652445614302e+02,-4.487457599621666304e+01,-2.253578771538741421e+01,-2.465231094910277534e+02,-1.880643802716977007e+02,-1.930815471155210616e+01,-1.298576283323791358e+01,9.561484336853027344e+00,-3.059675097465515137e-01,-3.442134261131286621e-01,2.690000000000000000e+02
-2.123657958370945380e+02,-1.829283877847633448e+02,-4.500804280423153614e+01,-2.130542169558475507e+01,-2.478794135425432614e+02,-1.880780147748137097e+02,-2.076168001129553886e+01,-1.243137874786407338e+01,9.561484336853027344e+00,-3.059675097465515137e-01,-3.442134261131286621e-01,2.700000000000000000e+02
-2.155283349083701978e+02,-1.852302900868044162e+02,-4.498112365171664351e+01,-2.042483705917220504e+01,-2.489040775430830763e+02,-1.866079948875894843e+02,-2.171511056599683798e+01,-1.143211295430000973e+01,9.561484336853027344e+00,-3.059675097465515137e-01,-3.442134261131286621e-01,2.710000000000000000e+02
-2.174491178542953094e+02,-1.884849527103447144e+02,-4.467372077593927315e+01,-2.066160625999418698e+01,-2.501754540305992123e+02,-1.852994437995894259e+02,-2.186030476543737677e+01,-1.065242285018211987e+01,9.561484336853027344e+00,-3.059675097465515137e-01,-3.442134261131286621e-01,2.720000000000000000e+02
-2.183319717727677016e+02,-1.921099877064220891e+02,-4.400473690537819493e+01,-2.184707556563989783e+01,-2.516021469444208378e+02,-1.852954287310603831e+02,-2.096182814997564492e+01,-1.006975780424090772e+01,9.561484336853027344e+00,-3.059675097465515137e-01,-3.442134261131286621e-01,2.730000000000000000e+02
-2.190782638153436892e+02,-1.950341638746904209e+02,-4.322869761130505140e+01,-2.284688238372564228e+01,-2.526720564618835851e+02,-1.864554273125713735e+02,-1.922218514660835353e+01,-9.203618019887926494e+00,9.561484336853027344e+00,-3.059675097465515137e-01,-3.442134261131286621e-01,2.740000000000000000e+02
-2.206307965664209405e+02,-1.966271592039161078e+02,-4.303107220544870870e+01,-2.261886046667086703e+01,-2.533325835205228032e+02,-1.878564576430298985e+02,-1.757514807434426984e+01,-8.013101281489525718e+00,9.561484336853027344e+00,-3.059675097465515137e-01,-3.442134261131286621e-01,2.750000000000000000e+02
-2.234188190678028150e+02,-1.973815799521303234e+02,-4.409050894647180030e+01,-2.130283178824538481e+01,-2.544462408039935326e+02,-1.889095791252093477e+02,-1.735059620857100526e+01,-7.386571252922749409e+00,9.561484336853027344e+00,-3.059675097465515137e-01,-3.442134261131286621e-01,2.760000000000000000e+02
-2.272015691159249400e+02,-1.985773003670879007e+02,-4.635952284607174079e+01,-2.017682235456095441e+01,-2.571179266130657197e+02,-1.898575462093535862e+02,-1.926699808503190070e+01,-8.475499431958724017e+00,9.561484336853027344e+00,-3.059675097465515137e-01,-3.442134261131286621e-01,2.770000000000000000e+02
-2.312541481267180643e+02,-2.011183538157047224e+02,-4.878604075495604775e+01,-2.044171974699702332e+01,-2.614548060207521303e+02,-1.912095904113439246e+02,-2.254157357955091356e+01,-1.139558287410090998e+01,9.561484336853027344e+00,-3.059675097465515137e-01,-3.442134261131286621e-01,2.780000000000000000e+02
-2.347187271907755530e+02,-2.046222465498244674e+02,-4.995058165143791484e+01,-2.200841937602535836e+01,-2.660833164720115747e+02,-1.928879662571844165e+02,-2.512949088167124501e+01,-1.465597863314633287e+01,9.561484336853027344e+00,-3.059675097465515137e-01,-3.442134261131286621e-01,2.790000000000000000e+02
-2.370019920684139834e+02,-2.076950701493383349e+02,-4.923174196499439859e+01,-2.350780348210673765e+01,-2.691138205328807089e+02,-1.941574041120425136e+02,-2.522797844751676166e+01,-1.611315596395479588e+01,9.561484336853027344e+00,-3.059675097465515137e-01,-3.442134261131286621e-01,2.800000000000000000e+02
-2.380871263138960785e+02,-2.092046816307265544e+02,-4.747033714193094056e+01,-2.356325496975296119e+01,-2.697721091148578125e+02,-1.944844362707531218e+02,-2.291206242104181001e+01,-1.476832331981904645e+01,9.561484336853027344e+00,-3.059675097465515137e-01,-3.442134261131286621e-01,2.810000000000000000e+02
-2.385759452735564992e+02,-2.093505304871205226e+02,-4.640479864834651380e+01,-2.210843850368974017e+01,-2.691412759950967484e+02,-1.943506269908652939e+02,-2.036687087178552247e+01,-1.176555774004191335e+01,9.561484336853027344e+00,-3.059675097465515137e-01,-3.442134261131286621e-01,2.820000000000000000e+02
-2.393506290990153502e+02,-2.094803519757656431e+02,-4.726225207677680373e+01,-2.047685270010288150e+01,-2.692836183922649980e+02,-1.950323316834601428e+02,-2.026842010548807593e+01,-9.581711632225506037e+00,9.561484336853027344e+00,-3.059675097465515137e-01,-3.442134261131286621e-01,2.830000000000000000e+02
-2.410113655700192794e+02,-2.108340284836608589e+02,-4.973956346896329705e+01,-2.016967871229417142e+01,-2.715542313868518249e+02,-1.974621004512800937e+02,-2.356001074697451259e+01,-1.004595829789877826e+01,9.561484336853027344e+00,-3.059675097465515137e-01,-3.442134261131286621e-01,2.840000000000000000e+02
-2.435012364810272629e+02,-2.134552904938459506e+02,-5.229970385834212721e+01,-2.145957549239801665e+01,-2.756296838131206641e+02,-2.012986366314426050e+02,-2.853999886032534050e+01,-1.289286869289117021e+01,9.561484336853027344e+00,-3.059675097465515137e-01,-3.442134261131286621e-01,2.850000000000000000e+02
-2.462409678483977586e+02,-2.163228175979497792e+02,-5.350683073967320524e+01,-2.313884846856444710e+01,-2.800109245594730965e+02,-2.051587583977420763e+02,-3.211400438801001656e+01,-1.605470311062163091e+01,9.561484336853027344e+00,-3.059675097465515137e-01,-3.442134261131286621e-01,2.860000000000000000e+02
-2.486347345631625103e+02,-2.185006412534671654e+02,-5.315957907549409356e+01,-2.363244443482426504e+01,-2.833486231297438280e+02,-2.077886990379988674e+02,-3.218523850266274167e+01,-1.734426358528071432e+01,9.446745872497558594e+00,-2.294756323099136353e-01,-3.059675097465515137e-01,2.870000000000000000e+02
-2.504702636240708671e+02,-2.200898160478823229e+02,-5.221387140477872890e+01,-2.242755795492530524e+01,-2.853098964395935582e+02,-2.090265079612718182e+02,-2.917406011513412523e+01,-1.602844843936918551e+01,9.446745872497558594e+00,-2.294756323099136353e-01,-3.059675097465515137e-01,2.880000000000000000e+02
-2.518828457115973833e+02,-2.220122522325769978e+02,-5.170756233085057829e+01,-2.053113629093991221e+01,-2.863683012888366193e+02,-2.096725446716714032e+02,-2.547908466890521595e+01,-1.307137623321955289e+01,9.446745872497558594e+00,-2.294756323099136353e-01,-3.059675097465515137e-01,2.890000000000000000e+02
-2.530271762431170828e+02,-2.249025895523462850e+02,-5.184616845176788047e+01,-1.960077336923950497e+01,-2.870271606739713661e+02,-2.105209432635024314e+02,-2.351468970532300773e+01,-1.011166510315661071e+01,9.446745872497558594e+00,-2.294756323099136353e-01,-3.059675097465515137e-01,2.900000000000000000e+02
-2.538981544895418665e+02,-2.283042295316221271e+02,-5.212665421097472063e+01,-2.056211633647558301e+01,-2.873928913180485551e+02,-2.115826797162128514e+02,-2.406448768831523921e+01,-8.233924433572610724e+00,9.446745872497558594e+00,-2.294756323099136353e-01,-3.059675097465515137e-01,2.910000000000000000e+02
-2.545328599327083339e+02,-2.310250115825003832e+02,-5.223426230265908998e+01,-2.290538307118276862e+01,-2.874389723762769790e+02,-2.122274817043989970e+02,-2.617603029262909331e+01,-7.527268810473287886e+00,9.446745872497558594e+00,-2.294756323099136353e-01,-3.059675097465515137e-01,2.920000000000000000e+02
-2.553222901981781661e+02,-2.322862871476347664e+02,-5.263718653136379544e+01,-2.518447359990182122e+01,-2.874858307941949533e+02,-2.119780420721090195e+02,-2.833992714520991285e+01,-7.515167995439242077e+00,9.446745872497558594e+00,-2.294756323099136353e-01,-3.059675097465515137e-01,2.930000000000000000e+02
-2.569621428432337780e+02,-2.325046113665853227e+02,-5.417892024130151185e+01,-2.619574989485931837e+01,-2.882269438651909468e+02,-2.110705756413767631e+02,-2.970193410030742598e+01,-7.803633845997865137e+00,9.446745872497558594e+00,-2.294756323099136353e-01,-3.059675097465515137e-01,2.940000000000000000e+02
-2.599320640754001488e+02,-2.329281370364902841e+02,-5.709679608138117146e+01,-2.581954467654713881e+01,-2.902027125244812851e+02,-2.102426424379309537e+02,-3.034892425398356863e+01,-8.350521548739834543e+00,9.446745872497558594e+00,-2.294756323099136353e-01,-3.059675097465515137e-01,2.950000000000000000e+02
-2.639424217581757830e+02,-2.344925713641314360e+02,-6.053472700678639740e+01,-2.491656015856437989e+01,-2.932491140230695237e+02,-2.100514632463625730e+02,-3.077421621747362224e+01,-9.312142481018781837e+00,9.446745872497558594e+00,-2.294756323099136353e-01,-3.059675097465515137e-01,2.960000000000000000e+02
-2.679204956770554418e+02,-2.369826504515539227e+02,-6.309622649885636747e+01,-2.449968875553145153e+01,-2.964832649969879412e+02,-2.104493354952237496e+02,-3.130142401079478987e+01,-1.079117692840372911e+01,9.446745872497558594e+00,-2.294756323099136353e-01,-3.059675097465515137e-01,2.970000000000000000e+02
-2.706439380413648905e+02,-2.392362308189236728e+02,-6.391141710137958398e+01,-2.493807061952998083e+01,-2.988735083965087824e+02,-2.110013373720516938e+02,-3.199541960324472711e+01,-1.273475538626780690e+01,9.446745872497558594e+00,-2.294756323099136353e-01,-3.059675097465515137e-01,2.980000000000000000e+02
-2.715144252686793607e+02,-2.401318289779792394e+02,-6.320625562364648431e+01,-2.579940198385384065e+01,-2.999009868992370684e+02,-2.114149140398451436e+02,-3.287924880529021721e+01,-1.493135290264717696e+01,9.446745872497558594e+00,-2.294756323099136353e-01,-3.059675097465515137e-01,2.990000000000000000e+02
-2.708110365039883618e+02,-2.394404088231444803e+02,-6.188392345355509860e+01,-2.632143241553740154e+01,-2.997691849933064532e+02,-2.117535480722447119e+02,-3.396264611035803682e+01,-1.697022958721004215e+01,9.446745872497558594e+00,-2.294756323099136353e-01,-3.059675097465515137e-01,3.000000000000000000e+02
-2.692894136145436050e+02,-2.378742185285040023e+02,-6.065589572609678726e+01,-2.603132968938462000e+01,-2.990840112253994221e+02,-2.121472997522105288e+02,-3.499197895668521596e+01,-1.824848832370184937e+01,9.446745872497558594e+00,-2.294756323099136353e-01,-3.059675097465515137e-01,3.010000000000000000e+02
-2.675971830998204268e+02,-2.364514773187129322e+02,-5.961585062181711692e+01,-2.501137755504009874e+01,-2.983765173531446635e+02,-2.123981570429898511e+02,-3.532855600046150357e+01,-1.821595676191350321e+01,9.446745872497558594e+00,-2.294756323099136353e-01,-3.059675097465515137e-01,3.020000000000000000e+02
-2.660594640273401410e+02,-2.357947296083912079e+02,-5.855685094472437413e+01,-2.368180969767081478e+01,-2.978803079199295780e+02,-2.119929643511420636e+02,-3.431935107058052381e+01,-1.679349364451672955e+01,9.446745872497558594e+00,-2.294756323099136353e-01,-3.059675097465515137e-01,3.030000000000000000e+02
-2.649010083254831898e+02,-2.358807285916119554e+02,-5.750925840794820942e+01,-2.237823246504922281e+01,-2.976169274028726477e+02,-2.105624037350405615e+02,-3.194294706740697620e+01,-1.456942501895127862e+01,9.446745872497558594e+00,-2.294756323099136353e-01,-3.059675097465515137e-01,3.040000000000000000e+02
-2.644753996181095772e+02,-2.362734378916615015e+02,-5.682417451410606191e+01,-2.110731295975051580e+01,-2.975305800689926627e+02,-2.083024190619603360e+02,-2.906898476708715862e+01,-1.244373227694052275e+01,9.446745872497558594e+00,-2.294756323099136353e-01,-3.059675097465515137e-01,3.050000000000000000e+02
-2.651078559448544638e+02,-2.365154504450238164e+02,-5.673393007635900176e+01,-1.966950332231090215e+01,-2.974823068034979769e+02,-2.058856221447065309e+02,-2.694367907948014818e+01,-1.091023209577167563e+01,9.446745872497558594e+00,-2.294756323099136353e-01,-3.059675097465515137e-01,3.060000000000000000e+02
-2.666701751696224392e+02,-2.363876834381399021e+02,-5.697041214958255750e+01,-1.800193026134661523e+01,-2.972040036915626615e+02,-2.039323902493856622e+02,-2.626664748914492975e+01,-9.657812228026728008e+00,9.446745872497558594e+00,-2.294756323099136353e-01,-3.059675097465515137e-01,3.070000000000000000e+02
-2.684151682587024652e+02,-2.359666266197268669e+02,-5.693900717229450947e+01,-1.639609844584583698e+01,-2.964328078251105580e+02,-2.025746707095474903e+02,-2.666955064962223787e+01,-7.969735558396678243e+00,9.446745872497558594e+00,-2.294756323099136353e-01,-3.059675097465515137e-01,3.080000000000000000e+02
-2.693853910812841832e+02,-2.355448718500756513e+02,-5.627583893851431185e+01,-1.534767675592138403e+01,-2.952002321444082327e+02,-2.015228025205847189e+02,-2.706241476543254976e+01,-5.601106048319024922e+00,9.446745872497558594e+00,-2.294756323099136353e-01,-3.059675097465515137e-01,3.090000000000000000e+02
-2.691095002066289226e+02,-2.354583709162830019e+02,-5.516674167362282333e+01,-1.512199873767053759e+01,-2.939458923038132525e+02,-2.005020488072624403e+02,-2.651778679845290299e+01,-3.235674080426292676e+00,9.446745872497558594e+00,-2.294756323099136353e-01,-3.059675097465515137e-01,3.100000000000000000e+02
-2.679432657405792497e+02,-2.358610632522915012e+02,-5.408057490203430007e+01,-1.540654782266710754e+01,-2.931899195371653377e+02,-1.995582368889255349e+02,-2.491716360329087365e+01,-1.954543578502580203e+00,9.446745872497558594e+00,-2.294756323099136353e-01,-3.059675097465515137e-01,3.110000000000000000e+02
-2.667208709684027781e+02,-2.365654118662329211e+02,-5.324498580862791641e+01,-1.542909935266857246e+01,-2.929863656926875137e+02,-1.989449493476307680e+02,-2.288263332206042833e+01,-2.170032117486243806e+00,9.446745872497558594e+00,-2.294756323099136353e-01,-3.059675097465515137e-01,3.120000000000000000e+02
-2.660417141762255824e+02,-2.370906014594282851e+02,-5.247788642545788207e+01,-1.453548475205661816e+01,-2.927341435889087506e+02,-1.987985939448108184e+02,-2.119457904599619269e+01,-3.107495958494496335e+00,9.446745872497558594e+00,-2.294756323099136353e-01,-3.059675097465515137e-01,3.130000000000000000e+02
-2.658600869842787233e+02,-2.369692943253118074e+02,-5.156783272176676292e+01,-1.278280767300702792e+01,-2.916823827055626452e+02,-1.990132755645711313e+02,-2.027427586035969398e+01,-3.460872962025177912e+00,9.446745872497558594e+00,-2.294756323099136353e-01,-3.059675097465515137e-01,3.140000000000000000e+02
-2.657189421072456526e+02,-2.361231666176082626e+02,-5.074347572809688245e+01,-1.100254998982563848e+01,-2.897569448852030973e+02,-1.994309743736421296e+02,-2.010623683924507077e+01,-2.668910531877372705e+00,9.446745872497558594e+00,-2.294756323099136353e-01,-3.059675097465515137e-01,3.150000000000000000e+02
-2.653506480448313596e+02,-2.350075585697143197e+02,-5.065984480447787064e+01,-1.019590455938259765e+01,-2.878972997377835554e+02,-2.000616745435362418e+02,-2.050785113019821893e+01,-1.578708805971132279e+00,9.446745872497558594e+00,-2.294756323099136353e-01,-3.059675097465515137e-01,3.160000000000000000e+02
-2.650382021183269785e+02,-2.343527465786913808e+02,-5.186549511490056830e+01,-1.073691255705830372e+01,-2.874728385796995553e+02,-2.010373212053563066e+02,-2.139064636839543709e+01,-1.811594679332188207e+00,9.446745872497558594e+00,-2.294756323099136353e-01,-3.059675097465515137e-01,3.170000000000000000e+02
-2.653954630709815774e+02,-2.346414203344784255e+02,-5.428965938918213396e+01,-1.208866887307135585e+01,-2.892332638918430803e+02,-2.023779033436105692e+02,-2.278368732965304844e+01,-4.386085833690117397e+00,9.446745872497558594e+00,-2.294756323099136353e-01,-3.059675097465515137e-01,3.180000000000000000e+02
-2.667951425782525803e+02,-2.357393058409660966e+02,-5.725864088110483863e+01,-1.331287438047422711e+01,-2.927102922867903771e+02,-2.038955345725233883e+02,-2.466971614342173780e+01,-8.849744388238150350e+00,9.446745872497558594e+00,-2.294756323099136353e-01,-3.059675097465515137e-01,3.190000000000000000e+02
-2.689608091758967703e+02,-2.369956491155507479e+02,-5.997045636457039564e+01,-1.391759815015757340e+01,-2.965569124341510587e+02,-2.053721217471743330e+02,-2.682206077400655886e+01,-1.363400037602627890e+01,9.446745872497558594e+00,-2.294756323099136353e-01,-3.059675097465515137e-01,3.200000000000000000e+02
-2.710649815987625288e+02,-2.377687243449943253e+02,-6.191809869793905818e+01,-1.427745759431934403e+01,-2.994339532969013362e+02,-2.067746461181449149e+02,-2.879441164727109026e+01,-1.719874031570532225e+01,9.446745872497558594e+00,-2.294756323099136353e-01,-3.059675097465515137e-01,3.210000000000000000e+02
-2.722515839487297171e+02,-2.379521489588958048e+02,-6.291735433526287125e+01,-1.526395413255704625e+01,-3.006389652377291668e+02,-2.081934831357174289e+02,-3.010986952644361736e+01,-1.891829177255112882e+01,9.446745872497558594e+00,-2.294756323099136353e-01,-3.059675097465515137e-01,3.220000000000000000e+02
-2.721977240969954437e+02,-2.380417173497835961e+02,-6.291581355655216612e+01,-1.745947159457966791e+01,-3.001203297783146127e+02,-2.095597893853104097e+02,-3.057701954117624155e+01,-1.911398671134372762e+01,9.446745872497558594e+00,-2.294756323099136353e-01,-3.059675097465515137e-01,3.230000000000000000e+02
-2.713236304621811996e+02,-2.386615990026744498e+02,-6.198201087539530363e+01,-2.067436188743988623e+01,-2.981986184149956216e+02,-2.105413286315496180e+02,-3.053193734447575025e+01,-1.852501052060108577e+01,9.446745872497558594e+00,-2.294756323099136353e-01,-3.059675097465515137e-01,3.240000000000000000e+02
-2.705103215941385315e+02,-2.399321932338778538e+02,-6.053696879195081237e+01,-2.412961902540757819e+01,-2.954675301546255923e+02,-2.108454602585170505e+02,-3.074636497472113206e+01,-1.786565243783411461e+01,9.446745872497558594e+00,-2.294756323099136353e-01,-3.059675097465515137e-01,3.250000000000000000e+02
-2.704948076522805422e+02,-2.412288088983311809e+02,-5.942489081787346095e+01,-2.701201868910754911e+01,-2.928682408927195411e+02,-2.106280595421585531e+02,-3.191347155807534364e+01,-1.770990087044253869e+01,9.446745872497558594e+00,-2.294756323099136353e-01,-3.059675097465515137e-01,3.260000000000000000e+02
-2.713341149455812911e+02,-2.415751915101184295e+02,-5.948937312469013250e+01,-2.885355579871770715e+01,-2.915039757216441103e+02,-2.104638633016411404e+02,-3.401643839614246190e+01,-1.844362004518143294e+01,9.446745872497558594e+00,-2.294756323099136353e-01,-3.059675097465515137e-01,3.270000000000000000e+02
-2.723403813281595376e+02,-2.403915012352996996e+02,-6.090925423522367055e+01,-2.953545764074908675e+01,-2.920234492102074455e+02,-2.107894432963603322e+02,-3.617092556859211072e+01,-2.007783846544214157e+01,9.446745872497558594e+00,-2.294756323099136353e-01,-3.059675097465515137e-01,3.280000000000000000e+02
-2.725946453799531355e+02,-2.380144240555822535e+02,-6.294564041966634704e+01,-2.916676459262203025e+01,-2.940338017078313442e+02,-2.113770210285780422e+02,-3.723108957739009384e+01,-2.211215716567176059e+01,9.446745872497558594e+00,-2.294756323099136353e-01,-3.059675097465515137e-01,3.290000000000000000e+02
-2.716992080033788852e+02,-2.355641775060847749e+02,-6.446082417488833016e+01,-2.811751591949132489e+01,-2.962155590800219898e+02,-2.114769531245319740e+02,-3.674030155682294208e+01,-2.378102360678144578e+01,9.446745872497558594e+00,-2.294756323099136353e-01,-3.059675097465515137e-01,3.300000000000000000e+02
-2.701491816511244224e+02,-2.342332641691235722e+02,-6.479373460939780216e+01,-2.709399623954641356e+01,-2.972134949767513490e+02,-2.105795794347169476e+02,-3.534209938627282099e+01,-2.460235590447302911e+01,9.446745872497558594e+00,-2.294756323099136353e-01,-3.059675097465515137e-01,3.310000000000000000e+02
-2.689412105558169515e+02,-2.345206578279556879e+02,-6.417499926934908672e+01,-2.690818033983998703e+01,-2.965692462233600963e+02,-2.090179975487890260e+02,-3.415669146073275897e+01,-2.469600814950706535e+01,9.446745872497558594e+00,-2.294756323099136353e-01,-3.059675097465515137e-01,3.320000000000000000e+02
-2.687025797666025255e+02,-2.359541628892112044e+02,-6.332251943761229995e+01,-2.789315043146780226e+01,-2.948734060745457555e+02,-2.077108030664029457e+02,-3.366791381955158613e+01,-2.449409160983418587e+01,9.446745872497558594e+00,-2.294756323099136353e-01,-3.059675097465515137e-01,3.330000000000000000e+02
-2.691082410770228535e+02,-2.374417910031599490e+02,-6.268293874005314592e+01,-2.944352726971317225e+01,-2.930663775977607202e+02,-2.072196402668786277e+02,-3.325672021543164192e+01,-2.413051004118051424e+01,9.446745872497558594e+00,-2.294756323099136353e-01,-3.059675097465515137e-01,3.340000000000000000e+02
-2.691561651946466327e+02,-2.379490684268548648e+02,-6.210471443243045542e+01,-3.026238306293123514e+01,-2.916281169177514130e+02,-2.070773095375708408e+02,-3.193618728409319374e+01,-2.322296536628971353e+01,9.446745872497558594e+00,-2.294756323099136353e-01,-3.059675097465515137e-01,3.350000000000000000e+02
-2.680874983821366868e+02,-2.370167974550972758e+02,-6.121693321423879297e+01,-2.928621579417722387e+01,-2.904136243029510069e+02,-2.061392108413569986e+02,-2.959273575562360747e+01,-2.136290212900848928e+01,9.446745872497558594e+00,-2.294756323099136353e-01,-3.059675097465515137e-01,3.360000000000000000e+02
-2.660947641858053885e+02,-2.348587412333819771e+02,-6.002636439856541983e+01,-2.654851110468871411e+01,-2.891393713246540074e+02,-2.036893074475976846e+02,-2.740880839135343194e+01,-1.880501596386682195e+01,9.446745872497558594e+00,-2.294756323099136353e-01,-3.059675097465515137e-01,3.370000000000000000e+02
-2.641346066476233432e+02,-2.321362757072590739e+02,-5.904345118551191263e+01,-2.320855520885879741e+01,-2.878759230467760517e+02,-2.002469764936960246e+02,-2.689356823057687507e+01,-1.655034917068655886e+01,9.446745872497558594e+00,-2.294756323099136353e-01,-3.059675097465515137e-01,3.380000000000000000e+02
-2.630278624386868955e+02,-2.296659230034387633e+02,-5.881449497040682672e+01,-2.071359343550068388e+01,-2.870006288728626487e+02,-1.972716875678771657e+02,-2.839793597751486232e+01,-1.563469295948050330e+01,9.561484336853027344e+00,-7.649187743663787842e-02,-2.294756323099136353e-01,3.390000000000000000e+02
-2.627325722008126263e+02,-2.282022038943670736e+02,-5.938976072142861540e+01,-1.985866706094077472e+01,-2.867495940382223125e+02,-1.960159546604375009e+02,-3.063576792132300852e+01,-1.631111905991406275e+01,9.561484336853027344e+00,-7.649187743663787842e-02,-2.294756323099136353e-01,3.400000000000000000e+02
-2.624815780034314798e+02,-2.282472938741848907e+02,-6.028940151176618656e+01,-2.053541723196235580e+01,-2.869462606605411565e+02,-1.965847151549861564e+02,-3.178826595373470809e+01,-1.795856988686875866e+01,9.561484336853027344e+00,-7.649187743663787842e-02,-2.294756323099136353e-01,3.410000000000000000e+02
-2.615997508335880184e+02,-2.298028285133489703e+02,-6.095015995389167074e+01,-2.219927535197655288e+01,-2.871952491088090937e+02,-1.980166999612749805e+02,-3.115975461562436521e+01,-1.976875766259661305e+01,9.561484336853027344e+00,-7.649187743663787842e-02,-2.294756323099136353e-01,3.420000000000000000e+02
-2.601438790495864168e+02,-2.321920838057093874e+02,-6.115370156503968246e+01,-2.439073554603601224e+01,-2.872680510725298291e+02,-1.992191761387232418e+02,-2.976549244559373619e+01,-2.144862317287470432e+01,9.561484336853027344e+00,-7.649187743663787842e-02,-2.294756323099136353e-01,3.430000000000000000e+02
-2.587445536863183406e+02,-2.342132901204934683e+02,-6.105077712178217553e+01,-2.674936128210993047e+01,-2.872202900112414454e+02,-1.998369449993322178e+02,-2.931463223614969138e+01,-2.323524350214370315e+01,9.561484336853027344e+00,-7.649187743663787842e-02,-2.294756323099136353e-01,3.440000000000000000e+02
-2.578930951612660465e+02,-2.346996550900473721e+02,-6.087459171181171769e+01,-2.867417420726235378e+01,-2.871505429121061752e+02,-2.002922871558853330e+02,-3.062906205051001507e+01,-2.531305232113300008e+01,9.561484336853027344e+00,-7.649187743663787842e-02,-2.294756323099136353e-01,3.450000000000000000e+02
-2.574619008862169949e+02,-2.331832085144308166e+02,-6.071340301298960185e+01,-2.926564085780364621e+01,-2.869528153055046005e+02,-2.010815823513934220e+02,-3.301146855754279841e+01,-2.735460608536629934e+01,9.561484336853027344e+00,-7.649187743663787842e-02,-2.294756323099136353e-01,3.460000000000000000e+02
-2.569106999780201477e+02,-2.301608507574416649e+02,-6.051049498667259741e+01,-2.786649639193910843e+01,-2.863767744956196566e+02,-2.020850752485154089e+02,-3.500804866657449566e+01,-2.869304155294116754e+01,9.561484336853027344e+00,-7.649187743663787842e-02,-2.294756323099136353e-01,3.470000000000000000e+02
-2.558461950029050058e+02,-2.267236968026068098e+02,-6.011742959600940139e+01,-2.475638033946142968e+01,-2.852743728440955238e+02,-2.025537378332539902e+02,-3.559942017389778357e+01,-2.886628774583653012e+01,9.561484336853027344e+00,-7.649187743663787842e-02,-2.294756323099136353e-01,3.480000000000000000e+02
-2.542577495141185864e+02,-2.238537587937780700e+02,-5.924203364536026584e+01,-2.122879227463886309e+01,-2.836662259671331867e+02,-2.017459341758153641e+02,-3.463294072862777284e+01,-2.790587950863141486e+01,9.561484336853027344e+00,-7.649187743663787842e-02,-2.294756323099136353e-01,3.490000000000000000e+02
-2.522312303804339990e+02,-2.219762388052786264e+02,-5.745041940593591789e+01,-1.881675484748802774e+01,-2.815451570221368911e+02,-1.996049142564465910e+02,-3.238094060400032959e+01,-2.615369449294814785e+01,9.561484336853027344e+00,-7.649187743663787842e-02,-2.294756323099136353e-01,3.500000000000000000e+02
-2.496408154912861619e+02,-2.210649184348833387e+02,-5.449003303695076283e+01,-1.828673558392438281e+01,-2.787578570878335995e+02,-1.968851203859398993e+02,-2.911167042675663197e+01,-2.399760342876561481e+01,9.561484336853027344e+00,-7.649187743663787842e-02,-2.294756323099136353e-01,3.510000000000000000e+02
-2.463591781956345130e+02,-2.210209543950113584e+02,-5.082506394307176834e+01,-1.926201909702797366e+01,-2.752742873416996190e+02,-1.946308920968540406e+02,-2.532893729020474893e+01,-2.190877181602957080e+01,9.561484336853027344e+00,-7.649187743663787842e-02,-2.294756323099136353e-01,3.520000000000000000e+02
-2.428470833640166120e+02,-2.218089390719862877e+02,-4.781611610632080556e+01,-2.073536547862374846e+01,-2.716308448603417673e+02,-1.934572697906716030e+02,-2.224180208641814716e+01,-2.060232830139352700e+01,9.561484336853027344e+00,-7.649187743663787842e-02,-2.294756323099136353e-01,3.530000000000000000e+02
-2.403441290894455733e+02,-2.231905832680711228e+02,-4.706398811414419470e+01,-2.189060194451576535e+01,-2.689132299779470259e+02,-1.931754270474207260e+02,-2.145444813831795727e+01,-2.079499958407689064e+01,9.561484336853027344e+00,-7.649187743663787842e-02,-2.294756323099136353e-01,3.540000000000000000e+02
-2.401406325448172083e+02,-2.244525203824168784e+02,-4.920591578647372444e+01,-2.247866596927360661e+01,-2.679977229083999646e+02,-1.929976116232323875e+02,-2.369280191242887668e+01,-2.250744113716234551e+01,9.561484336853027344e+00,-7.649187743663787842e-02,-2.294756323099136353e-01,3.550000000000000000e+02
-2.424057281615562260e+02,-2.246198982678303082e+02,-5.315273849364791658e+01,-2.254972367260063493e+01,-2.686194115014538966e+02,-1.921121690869232452e+02,-2.770923192740167451e+01,-2.460103949500796716e+01,9.561484336853027344e+00,-7.649187743663787842e-02,-2.294756323099136353e-01,3.560000000000000000e+02
-2.456970661220296961e+02,-2.231175784149613719e+02,-5.656464420560291728e+01,-2.200275918918077878e+01,-2.692399827007471913e+02,-1.901806648320629165e+02,-3.070254185532098745e+01,-2.527909012625570995e+01,9.561484336853027344e+00,-7.649187743663787842e-02,-2.294756323099136353e-01,3.570000000000000000e+02
-2.477878441372242833e+02,-2.202642787571878671e+02,-5.735878746255264105e+01,-2.051695286292806486e+01,-2.680935734864381175e+02,-1.874395531630395908e+02,-3.025330721037937565e+01,-2.340006851332589122e+01,9.561484336853027344e+00,-7.649187743663787842e-02,-2.294756323099136353e-01,3.580000000000000000e+02
-2.472000013330739421e+02,-2.170330447643420939e+02,-5.507469216784568289e+01,-1.790821898880255958e+01,-2.646065385005402959e+02,-1.843909357341210580e+02,-2.616628844165961709e+01,-1.947448056428981999e+01,9.561484336853027344e+00,-7.649187743663787842e-02,-2.294756323099136353e-01,3.590000000000000000e+02
-2.441238286075938504e+02,-2.142284256592538441e+02,-5.102397374017061793e+01,-1.449069444516544536e+01,-2.598959091773871251e+02,-1.813749648226591944e+02,-2.053291143224862481e+01,-1.534477146528797675e+01,9.561484336853027344e+00,-7.649187743663787842e-02,-2.294756323099136353e-01,3.600000000000000000e+02
-2.399835579086914095e+02,-2.118668728886023018e+02,-4.722456785597285034e+01,-1.105947649300242119e+01,-2.558479042724524106e+02,-1.783937863226765330e+02,-1.596763343769953281e+01,-1.277839813610705733e+01,9.561484336853027344e+00,-7.649187743663787842e-02,-2.294756323099136353e-01,3.610000000000000000e+02
-2.361830371542766898e+02,-2.093787527982910888e+02,-4.511642554077650402e+01,-8.522280965765503424e+00,-2.536189252892081640e+02,-1.753235534898643664e+02,-1.370142935991646027e+01,-1.228424796118326867e+01,9.561484336853027344e+00,-7.649187743663787842e-02,-2.294756323099136353e-01,3.620000000000000000e+02
-2.332414650888715641e+02,-2.064247222142100782e+02,-4.505438101971606102e+01,-7.499223761800749344e+00,-2.529346931613757761e+02,-1.723029212269871095e+02,-1.323838361676450859e+01,-1.320816584217811851e+01,9.561484336853027344e+00,-7.649187743663787842e-02,-2.294756323099136353e-01,3.630000000000000000e+02
-2.309571254376845673e+02,-2.034867346525093126e+02,-4.667358996698897045e+01,-8.132492171879675880e+00,-2.527311974627866675e+02,-1.698809248346324239e+02,-1.359744004178162413e+01,-1.481983775431058348e+01,9.561484336853027344e+00,-7.649187743663787842e-02,-2.294756323099136353e-01,3.640000000000000000e+02
-2.291160615174846953e+02,-2.016145622869956924e+02,-4.942045664485453926e+01,-1.008312540924998757e+01,-2.523314532806641637e+02,-1.686847306937550002e+02,-1.458238351872887506e+01,-1.710284587152693803e+01,9.561484336853027344e+00,-7.649187743663787842e-02,-2.294756323099136353e-01,3.650000000000000000e+02
-2.278268778074864258e+02,-2.015686940794066686e+02,-5.265248475678242812e+01,-1.260892982791733630e+01,-2.519050191424432796e+02,-1.688365781166444322e+02,-1.668930675972478639e+01,-2.038734146482886445e+01,9.561484336853027344e+00,-7.649187743663787842e-02,-2.294756323099136353e-01,3.660000000000000000e+02
-2.271800458933574873e+02,-2.031938612467835128e+02,-5.546543842203698205e+01,-1.473578970792300424e+01,-2.518556179781177207e+02,-1.696574862043803478e+02,-1.990047552277019349e+01,-2.433837232398650485e+01,9.561484336853027344e+00,-7.649187743663787842e-02,-2.294756323099136353e-01,3.670000000000000000e+02
-2.268215962542320767e+02,-2.055893444627967028e+02,-5.684839555248402121e+01,-1.559659213470035866e+01,-2.519772993077574483e+02,-1.700161741280901424e+02,-2.291386701095507306e+01,-2.760395498874470377e+01,9.561484336853027344e+00,-7.649187743663787842e-02,-2.294756323099136353e-01,3.680000000000000000e+02
-2.261323614232106820e+02,-2.078307382240490142e+02,-5.635672072755312456e+01,-1.484494493553484062e+01,-2.514204075458333136e+02,-1.691001686177619376e+02,-2.386661520313623441e+01,-2.872842907745780394e+01,9.561484336853027344e+00,-7.649187743663787842e-02,-2.294756323099136353e-01,3.690000000000000000e+02
-2.249079588601841806e+02,-2.095032852376449455e+02,-5.469596370154022225e+01,-1.285869982225517560e+01,-2.495379904151882329e+02,-1.669625972884473413e+02,-2.193527920652036300e+01,-2.751517905178752699e+01,9.446745872497558594e+00,-1.147378161549568176e-01,-2.677215635776519775e-01,3.700000000000000000e+02
-2.237190107633408616e+02,-2.106139796342018826e+02,-5.343453201895397342e+01,-1.052005518051441868e+01,-2.466543023123967942e+02,-1.643716864659011208e+02,-1.816840530891431627e+01,-2.542647428665679854e+01,9.446745872497558594e+00,-1.147378161549568176e-01,-2.677215635776519775e-01,3.710000000000000000e+02
-2.233927319823393418e+02,-2.111459194849468304e+02,-5.383008284421225653e+01,-8.682264233379783036e+00,-2.438428211501199030e+02,-1.621168849083223904e+02,-1.463439223509396925e+01,-2.448350308620422311e+01,9.446745872497558594e+00,-1.147378161549568176e-01,-2.677215635776519775e-01,3.720000000000000000e+02
-2.240446350202920485e+02,-2.108623199626269979e+02,-5.572876445568306281e+01,-7.721395763378723132e+00,-2.418990902664578471e+02,-1.604259529497389849e+02,-1.269426742755126725e+01,-2.562461617004726122e+01,9.446745872497558594e+00,-1.147378161549568176e-01,-2.677215635776519775e-01,3.730000000000000000e+02
-2.246847064272012631e+02,-2.096229706840359768e+02,-5.761373689890615424e+01,-7.489987492018144621e+00,-2.405885231231350190e+02,-1.589866902592971201e+02,-1.207343252481700802e+01,-2.802388769145761671e+01,9.446745872497558594e+00,-1.147378161549568176e-01,-2.677215635776519775e-01,3.740000000000000000e+02
-2.239433143637679677e+02,-2.078372661936232362e+02,-5.790283040093470390e+01,-7.621803953906919560e+00,-2.389728960445359007e+02,-1.574427393973824110e+02,-1.155536993518478539e+01,-2.995742415844404150e+01,9.446745872497558594e+00,-1.147378161549568176e-01,-2.677215635776519775e-01,3.750000000000000000e+02
-2.213364948114356139e+02,-2.064525256699712372e+02,-5.639300517537333235e+01,-7.849910740548011745e+00,-2.364884499340760158e+02,-1.557898339985817984e+02,-1.047788130639685278e+01,-3.037098105176528406e+01,9.446745872497558594e+00,-1.147378161549568176e-01,-2.677215635776519775e-01,3.760000000000000000e+02
-2.178674119933809834e+02,-2.063165035030667696e+02,-5.453464575267935288e+01,-8.078914037781487423e+00,-2.336542297063729166e+02,-1.542847920671215434e+02,-9.479376821172309064e+00,-2.972850258383323307e+01,9.446745872497558594e+00,-1.147378161549568176e-01,-2.677215635776519775e-01,3.770000000000000000e+02
-2.153465057490575418e+02,-2.074289640882288950e+02,-5.426101246767427710e+01,-8.258497836860669850e+00,-2.316790608946744214e+02,-1.530588091550152967e+02,-9.811359700674302076e+00,-2.949942771596545299e+01,9.446745872497558594e+00,-1.147378161549568176e-01,-2.677215635776519775e-01,3.780000000000000000e+02
-2.149917467738430332e+02,-2.087927905247611307e+02,-5.638330581348236592e+01,-8.280083584268595587e+00,-2.313522415239706334e+02,-1.519290108699158282e+02,-1.199718620027294946e+01,-3.087934543170604229e+01,9.446745872497558594e+00,-1.147378161549568176e-01,-2.677215635776519775e-01,3.790000000000000000e+02
-2.165084973775915387e+02,-2.091067165863196351e+02,-5.993729193262186072e+01,-8.038381087757443311e+00,-2.322849960509913672e+02,-1.506309961540478071e+02,-1.521395487574091021e+01,-3.389472845076898011e+01,9.446745872497558594e+00,-1.147378161549568176e-01,-2.677215635776519775e-01,3.800000000000000000e+02
-2.183867876441818225e+02,-2.078065007935479116e+02,-6.299773167997648216e+01,-7.584500926207056182e+00,-2.331944912708299853e+02,-1.491884304254708695e+02,-1.795859193121214048e+01,-3.754019372526499865e+01,9.446745872497558594e+00,-1.147378161549568176e-01,-2.677215635776519775e-01,3.810000000000000000e+02
-2.190822661512299874e+02,-2.055974399725663488e+02,-6.418986506554733751e+01,-7.189100728744051594e+00,-2.329216122375221403e+02,-1.479730650860578862e+02,-1.927250941011220675e+01,-4.064608496402433957e+01,9.446745872497558594e+00,-1.147378161549568176e-01,-2.677215635776519775e-01,3.820000000000000000e+02
-2.180433277072875171e+02,-2.039794949741012715e+02,-6.359221508518828614e+01,-7.228395334229844593e+00,-2.312509339291018478e+02,-1.473489175344495834e+02,-1.932939975383169440e+01,-4.265441866997934994e+01,9.446745872497558594e+00,-1.147378161549568176e-01,-2.677215635776519775e-01,3.830000000000000000e+02
-2.158103074981418104e+02,-2.040842882029605789e+02,-6.235856511793895152e+01,-7.960170845766697312e+00,-2.288779723669169925e+02,-1.472507012154951553e+02,-1.892914070572146557e+01,-4.374009315950411292e+01,9.446745872497558594e+00,-1.147378161549568176e-01,-2.677215635776519775e-01,3.840000000000000000e+02
-2.132981501478079736e+02,-2.057466739451697322e+02,-6.154823907510399295e+01,-9.346033345295836625e+00,-2.266922759727158336e+02,-1.471374116332244739e+02,-1.854060273567210970e+01,-4.436744840794449374e+01,9.446745872497558594e+00,-1.147378161549568176e-01,-2.677215635776519775e-01,3.850000000000000000e+02
-2.110054871494162398e+02,-2.075729173199019897e+02,-6.125733727887268287e+01,-1.104074042908086994e+01,-2.250838255174271580e+02,-1.463726623917277720e+02,-1.790227389162964755e+01,-4.479886170914551258e+01,9.446745872497558594e+00,-1.147378161549568176e-01,-2.677215635776519775e-01,3.860000000000000000e+02
-2.088253114128215202e+02,-2.079716857258233631e+02,-6.076754403101813296e+01,-1.256513817193581417e+01,-2.238181531481584443e+02,-1.446806145262191876e+02,-1.654378901700101778e+01,-4.498605325167750379e+01,9.446745872497558594e+00,-1.147378161549568176e-01,-2.677215635776519775e-01,3.870000000000000000e+02
-2.064901552318181075e+02,-2.063266450210167022e+02,-5.944366581762733404e+01,-1.355795410811560942e+01,-2.224351290637960119e+02,-1.422847621374996834e+02,-1.461240056453675606e+01,-4.484013561156507421e+01,9.446745872497558594e+00,-1.147378161549568176e-01,-2.677215635776519775e-01,3.880000000000000000e+02
-2.041186299447631427e+02,-2.033604462497653458e+02,-5.748096130428257311e+01,-1.393332698590529617e+01,-2.206999457616393556e+02,-1.396549646868368200e+02,-1.308112552222428349e+01,-4.451511390780706279e+01,9.446745872497558594e+00,-1.147378161549568176e-01,-2.677215635776519775e-01,3.890000000000000000e+02
-2.022886905649550044e+02,-2.004283573618454284e+02,-5.581175686424285232e+01,-1.382131792818904614e+01,-2.187191951941083516e+02,-1.371396176477039717e+02,-1.303964913662935032e+01,-4.437040263913218041e+01,9.446745872497558594e+00,-1.147378161549568176e-01,-2.677215635776519775e-01,3.900000000000000000e+02
-2.015355222180112378e+02,-1.983938315575676370e+02,-5.528511348183428709e+01,-1.334465640275993792e+01,-2.167346551383077440e+02,-1.348097347510463351e+02,-1.469748521811879982e+01,-4.463416223018634810e+01,9.523238182067871094e+00,-1.912296712398529053e-01,-1.912296712398529053e-01,3.910000000000000000e+02
-2.017318503186245380e+02,-1.970511057731962410e+02,-5.589088776559856342e+01,-1.245949860404289211e+01,-2.148956007345950638e+02,-1.325987395742431545e+02,-1.705696500498424939e+01,-4.512557352777730557e+01,9.523238182067871094e+00,-1.912296712398529053e-01,-1.912296712398529053e-01,3.920000000000000000e+02
-2.019492346705524142e+02,-1.955170631014907485e+02,-5.673348320280479129e+01,-1.106754734173091492e+01,-2.132533506117233628e+02,-1.305529670917940166e+02,-1.861781466310003452e+01,-4.538535614991997136e+01,9.523238182067871094e+00,-1.912296712398529053e-01,-1.912296712398529053e-01,3.930000000000000000e+02
-2.010102550605413398e+02,-1.931361908467833928e+02,-5.675876743432218063e+01,-9.329349084617433618e+00,-2.119103359090065624e+02,-1.289399602504231552e+02,-1.853992085817890256e+01,-4.516683570436885020e+01,9.523238182067871094e+00,-1.912296712398529053e-01,-1.912296712398529053e-01,3.940000000000000000e+02
-1.983424230215146054e+02,-1.900412660992421934e+02,-5.557843146318145955e+01,-7.831262490251447161e+00,-2.110695175174912492e+02,-1.280988869246914419e+02,-1.725792433343121957e+01,-4.482032355926276068e+01,9.523238182067871094e+00,-1.912296712398529053e-01,-1.912296712398529053e-01,3.950000000000000000e+02
-1.944671979938270852e+02,-1.869171712697284420e+02,-5.369093428780752220e+01,-7.307827913985875057e+00,-2.108592658270615630e+02,-1.281522329905124025e+02,-1.602098623774759290e+01,-4.511308016902967211e+01,9.523238182067871094e+00,-1.912296712398529053e-01,-1.912296712398529053e-01,3.960000000000000000e+02
-1.907429014019876377e+02,-1.842979494161772891e+02,-5.198664377654063173e+01,-8.038428833279340324e+00,-2.111067005429808887e+02,-1.288248357135223614e+02,-1.580103502678275618e+01,-4.653668917427603446e+01,9.523238182067871094e+00,-1.912296712398529053e-01,-1.912296712398529053e-01,3.970000000000000000e+02
-1.885460100538937240e+02,-1.821257652644153495e+02,-5.105939808182711204e+01,-9.454795966192705237e+00,-2.113526371997534170e+02,-1.295291604985536651e+02,-1.654811647406904740e+01,-4.869008100529867988e+01,9.523238182067871094e+00,-1.912296712398529053e-01,-1.912296712398529053e-01,3.980000000000000000e+02
-1.884667765682629579e+02,-1.799557433000954916e+02,-5.092216397739321110e+01,-1.040933053971184563e+01,-2.111453728903579758e+02,-1.296486593275894847e+02,-1.739767521663316074e+01,-5.034851087020706473e+01,9.523238182067871094e+00,-1.912296712398529053e-01,-1.912296712398529053e-01,3.990000000000000000e+02
-1.900291795466578151e+02,-1.775183468158886626e+02,-5.125445170973625864e+01,-9.989072343706993706e+00,-2.103578675667399693e+02,-1.288022793192731115e+02,-1.754483247659936751e+01,-5.026712961087196163e+01,9.523238182067871094e+00,-1.912296712398529053e-01,-1.912296712398529053e-01,4.000000000000000000e+02
-1.920093978731192692e+02,-1.750247150058689840e+02,-5.176789562790099808e+01,-8.219697033086049487e+00,-2.092062453270041260e+02,-1.269269259293641881e+02,-1.691348784599108512e+01,-4.808543582739798694e+01,9.523238182067871094e+00,-1.912296712398529053e-01,-1.912296712398529053e-01,4.010000000000000000e+02
-1.930610176226180101e+02,-1.729287574049963041e+02,-5.226367104088603810e+01,-6.040130507780304470e+00,-2.079410175772068214e+02,-1.242116822581906490e+02,-1.601587855697471241e+01,-4.457892609274745155e+01,9.523238182067871094e+00,-1.912296712398529053e-01,-1.912296712398529053e-01,4.020000000000000000e+02
-1.922977448235290012e+02,-1.714469900789681560e+02,-5.242873347095246572e+01,-4.562783619019910475e+00,-2.065459977933865048e+02,-1.210467857046173776e+02,-1.524747389565209232e+01,-4.108633404486272411e+01,9.523238182067871094e+00,-1.912296712398529053e-01,-1.912296712398529053e-01,4.030000000000000000e+02
-1.896182585716599078e+02,-1.703489876120904682e+02,-5.179232866121901679e+01,-4.263824886113752655e+00,-2.047726491672235625e+02,-1.180404496483431558e+02,-1.441213124443265770e+01,-3.864107201160663863e+01,9.523238182067871094e+00,-1.912296712398529053e-01,-1.912296712398529053e-01,4.040000000000000000e+02
-1.857118927098490531e+02,-1.692165707117192142e+02,-5.010911609238974052e+01,-4.784164493173193478e+00,-2.024957020725405528e+02,-1.159631139390546650e+02,-1.301728368393446544e+01,-3.752304528993181520e+01,9.523238182067871094e+00,-1.912296712398529053e-01,-1.912296712398529053e-01,4.050000000000000000e+02
-1.817625672832186865e+02,-1.678694665935333887e+02,-4.786737888945390296e+01,-5.437342883675455596e+00,-2.000325916048182080e+02,-1.154493541125798401e+02,-1.106618274106790523e+01,-3.746846214815923304e+01,9.523238182067871094e+00,-1.912296712398529053e-01,-1.912296712398529053e-01,4.060000000000000000e+02
-1.789315036240170684e+02,-1.665193390196934615e+02,-4.630149928330274633e+01,-5.889084083134548564e+00,-1.980783191340638041e+02,-1.165681611944373799e+02,-9.515077801067718610e+00,-3.814947745040399241e+01,9.523238182067871094e+00,-1.912296712398529053e-01,-1.912296712398529053e-01,4.070000000000000000e+02
-1.778334959551261818e+02,-1.655249278937517374e+02,-4.665539357907573503e+01,-6.380507053085693769e+00,-1.972744371561575463e+02,-1.186392461823652411e+02,-9.807123077742289752e+00,-3.936928445298440238e+01,9.523238182067871094e+00,-1.912296712398529053e-01,-1.912296712398529053e-01,4.080000000000000000e+02
-1.782924909555040358e+02,-1.650222210317779172e+02,-4.917375183895728696e+01,-7.342177799418550421e+00,-1.977429101094071484e+02,-1.205540873581376218e+02,-1.272603165645273293e+01,-4.081344433186040987e+01,9.523238182067871094e+00,-1.912296712398529053e-01,-1.912296712398529053e-01,4.090000000000000000e+02
-1.795114152225155522e+02,-1.647852897292400485e+02,-5.267727447578363353e+01,-8.826434903706285695e+00,-1.989223548494608167e+02,-1.214235486958646106e+02,-1.748582602670012420e+01,-4.172724819526615647e+01,9.523238182067871094e+00,-1.912296712398529053e-01,-1.912296712398529053e-01,4.100000000000000000e+02
-1.804989658576516831e+02,-1.643940079392614280e+02,-5.516558099824101191e+01,-1.031697165998502896e+01,-1.997811314325679177e+02,-1.210267614122076338e+02,-2.187218375695465511e+01,-4.101104272662291805e+01,9.523238182067871094e+00,-1.912296712398529053e-01,-1.912296712398529053e-01,4.110000000000000000e+02
-1.804456346806437068e+02,-1.635072098684231605e+02,-5.505191300422643508e+01,-1.110110556344807264e+01,-1.992697994094976366e+02,-1.197080090976828615e+02,-2.348126345292757833e+01,-3.784463580466444910e+01,9.523238182067871094e+00,-1.912296712398529053e-01,-1.912296712398529053e-01,4.120000000000000000e+02
-1.788934762026599401e+02,-1.620121320871828630e+02,-5.213817852214219783e+01,-1.088240696371303784e+01,-1.968281234128851338e+02,-1.179042632115060769e+02,-2.126460353567244965e+01,-3.242317828606337571e+01,9.523238182067871094e+00,-1.912296712398529053e-01,-1.912296712398529053e-01,4.130000000000000000e+02
-1.757928935508400627e+02,-1.600031400071475218e+02,-4.767733542091514209e+01,-1.008355876665382311e+01,-1.927431095966644534e+02,-1.158181874644005802e+02,-1.630547372241039739e+01,-2.618390098965892321e+01,9.523238182067871094e+00,-1.912296712398529053e-01,-1.912296712398529053e-01,4.140000000000000000e+02
-1.715658458795453498e+02,-1.576919556583511621e+02,-4.357126252957095858e+01,-9.548465309424500447e+00,-1.881389788152919209e+02,-1.135236298446011460e+02,-1.124294268176095102e+01,-2.122093776228962270e+01,9.523238182067871094e+00,-1.912296712398529053e-01,-1.912296712398529053e-01,4.150000000000000000e+02
-1.671157619555156089e+02,-1.553401159230588746e+02,-4.131944040467146806e+01,-9.856683175576335998e+00,-1.844754124744531509e+02,-1.112694539865506158e+02,-8.700698845243550750e+00,-1.918363274363650817e+01,9.523238182067871094e+00,-1.912296712398529053e-01,-2.677215635776519775e-01,4.160000000000000000e+02
-1.635542193371895792e+02,-1.531941874907911370e+02,-4.134149117449442201e+01,-1.080660349385743757e+01,-1.827138315654215148e+02,-1.095288386894239920e+02,-9.762736838789351168e+00,-2.034434846945646314e+01,9.523238182067871094e+00,-1.912296712398529053e-01,-2.677215635776519775e-01,4.170000000000000000e+02
-1.616020930982620030e+02,-1.513896213184509634e+02,-4.292891304762520122e+01,-1.152712354705158759e+01,-1.826600294459303768e+02,-1.086810863192040415e+02,-1.348509460965738072e+01,-2.345226372776687640e+01,9.523238182067871094e+00,-1.912296712398529053e-01,-2.677215635776519775e-01,4.180000000000000000e+02
-1.610448871622547813e+02,-1.498601055751885269e+02,-4.470816779331858015e+01,-1.116810613371376348e+01,-1.830116118245266534e+02,-1.086792019085232823e+02,-1.768176422041597107e+01,-2.648124686531468797e+01,9.523238182067871094e+00,-1.912296712398529053e-01,-2.677215635776519775e-01,4.190000000000000000e+02
-1.607816023873724589e+02,-1.483396098603427617e+02,-4.533557009459923393e+01,-9.618799554157476450e+00,-1.821798156629138248e+02,-1.090998485279887973e+02,-2.033309001007933148e+01,-2.777479132947973994e+01,9.523238182067871094e+00,-1.912296712398529053e-01,-2.677215635776519775e-01,4.200000000000000000e+02
-1.595966499936453147e+02,-1.464976309676601431e+02,-4.411429961482053841e+01,-7.631501633153447983e+00,-1.793224004973285446e+02,-1.095336454035082170e+02,-2.058909173940219262e+01,-2.682801477418615832e+01,9.523238182067871094e+00,-1.912296712398529053e-01,-2.677215635776519775e-01,4.210000000000000000e+02
-1.571075740830985978e+02,-1.441184745085083705e+02,-4.126932449726109553e+01,-6.198984059310532757e+00,-1.748134939767821834e+02,-1.098610019406128231e+02,-1.876595859346025463e+01,-2.422438648333036326e+01,9.523238182067871094e+00,-1.912296712398529053e-01,-2.677215635776519775e-01,4.220000000000000000e+02
-1.540769930871983888e+02,-1.412058680888612798e+02,-3.776081052953122708e+01,-5.703674997941106994e+00,-1.698436976386983588e+02,-1.100969598679139381e+02,-1.561670145232756113e+01,-2.089787978141998792e+01,9.523238182067871094e+00,-1.912296712398529053e-01,-2.677215635776519775e-01,4.230000000000000000e+02
-1.517593917307121956e+02,-1.379789724824452151e+02,-3.474005705353943085e+01,-5.595964675476352568e+00,-1.655536201650920702e+02,-1.099980472038059816e+02,-1.170131078972190153e+01,-1.737936175451773124e+01,9.523238182067871094e+00,-1.912296712398529053e-01,-2.677215635776519775e-01,4.240000000000000000e+02
-1.508097457350747845e+02,-1.348018006849295034e+02,-3.296926072901283078e+01,-4.910081636542145134e+00,-1.624184763199859844e+02,-1.089555718555398016e+02,-7.417257534098325777e+00,-1.363227480847058359e+01,9.523238182067871094e+00,-1.912296712398529053e-01,-2.677215635776519775e-01,4.250000000000000000e+02
-1.507053052358778586e+02,-1.320823532863234959e+02,-3.253744659519657034e+01,-3.176548353688986026e+00,-1.602646119016064858e+02,-1.064261693611410919e+02,-3.449017058163690308e+00,-9.527480294239921932e+00,9.523238182067871094e+00,-1.912296712398529053e-01,-2.677215635776519775e-01,4.260000000000000000e+02
-1.501902509407816524e+02,-1.301428512767131451e+02,-3.297259215638518981e+01,-9.129741507249491406e-01,-1.587013097264532462e+02,-1.025571301310437775e+02,-9.053210849729111942e-01,-5.433145783991676581e+00,9.523238182067871094e+00,-1.912296712398529053e-01,-2.677215635776519775e-01,4.270000000000000000e+02
-1.483665485848694061e+02,-1.290854855822049103e+02,-3.359339406940603112e+01,7.525449736303926329e-01,-1.574792452334563677e+02,-9.837919819726084825e+01,-7.418889677257993753e-01,-2.301376441880165657e+00,9.523238182067871094e+00,-1.912296712398529053e-01,-2.677215635776519775e-01,4.280000000000000000e+02
-1.454786098012853017e+02,-1.287357691340714609e+02,-3.384218337845527458e+01,9.895612266059288231e-01,-1.564998058736784969e+02,-9.527288410573237343e+01,-2.870511721265074812e+00,-1.079827349193010377e+00,9.523238182067871094e+00,-1.912296712398529053e-01,-2.677215635776519775e-01,4.290000000000000000e+02
-1.427154601661532070e+02,-1.287403198748304476e+02,-3.346881449245211115e+01,-8.460415219383321528e-02,-1.556301901052620451e+02,-9.406432907664202503e+01,-5.855114942987938775e+00,-1.912916985132596892e+00,9.523238182067871094e+00,-1.912296712398529053e-01,-2.677215635776519775e-01,4.300000000000000000e+02
-1.412101941390915272e+02,-1.287669174012305575e+02,-3.257007877890009695e+01,-1.525982467452195124e+00,-1.546266909927151119e+02,-9.445036561656206686e+01,-7.668908251832817768e+00,-3.824969464836385669e+00,9.523238182067871094e+00,-1.912296712398529053e-01,-2.677215635776519775e-01,4.310000000000000000e+02
-1.410547032185536409e+02,-1.286370987109269208e+02,-3.149958780067436237e+01,-2.271694691391303422e+00,-1.532645346368813080e+02,-9.518688208721596311e+01,-7.004454812131598374e+00,-5.208736715866962186e+00,9.523238182067871094e+00,-1.912296712398529053e-01,-2.677215635776519775e-01,4.320000000000000000e+02
-1.411080675868633989e+02,-1.282776428395245603e+02,-3.064950550246248895e+01,-1.807894059953241594e+00,-1.515225191472000006e+02,-9.490086036588672869e+01,-4.081683949514854248e+00,-4.822140375931439849e+00,9.523238182067871094e+00,-1.912296712398529053e-01,-2.677215635776519775e-01,4.330000000000000000e+02
-1.397482333134446435e+02,-1.275883263431469459e+02,-3.016902465620614748e+01,-3.439876275390361116e-01,-1.496147638784700575e+02,-9.295990208986950165e+01,-3.161881977011944400e-01,-2.584865390414961439e+00,9.523238182067871094e+00,-1.912296712398529053e-01,-2.677215635776519775e-01,4.340000000000000000e+02
-1.360203150704344353e+02,-1.264177542725635703e+02,-2.980897020902102668e+01,1.470650794326502364e+00,-1.478344069080558256e+02,-8.982688927545768820e+01,2.801406436180968740e+00,3.942764433454613027e-01,9.523238182067871094e+00,-1.912296712398529053e-01,-2.677215635776519775e-01,4.350000000000000000e+02
-1.303991264167093505e+02,-1.247204757499623611e+02,-2.909897575604372832e+01,2.941932057590747718e+00,-1.463806831359565876e+02,-8.671375968234679021e+01,4.602527839123467857e+00,2.561910168395570508e+00,9.523238182067871094e+00,-1.912296712398529053e-01,-2.677215635776519775e-01,4.360000000000000000e+02
-1.246695898072732689e+02,-1.227384621509791032e+02,-2.780767389846664628e+01,3.587427677973664686e+00,-1.453139039883212718e+02,-8.480711183022776822e+01,5.232309164599428186e+00,2.902972023654683653e+00,9.523238182067871094e+00,-1.912296712398529053e-01,-2.677215635776519775e-01,4.370000000000000000e+02
-1.209690199318838495e+02,-1.209436835672026973e+02,-2.630343085455024266e+01,3.270704436476535193e+00,-1.446059447250331687e+02,-8.455951513741320014e+01,4.996741766404966256e+00,1.513362617148231948e+00,9.523238182067871094e+00,-1.912296712398529053e-01,-2.677215635776519775e-01,4.380000000000000000e+02
-1.205428333698691858e+02,-1.197147102239832748e+02,-2.541396650883780239e+01,2.284735175147943664e+00,-1.441522995539644398e+02,-8.546423852061752768e+01,3.893192983597145940e+00,-5.606394740079849726e-01,9.523238182067871094e+00,-1.912296712398529053e-01,-2.677215635776519775e-01,4.390000000000000000e+02
-1.229588159512568382e+02,-1.190325587638708384e+02,-2.579052078036284001e+01,1.295825608357972669e+00,-1.436978258357007689e+02,-8.641702024831283779e+01,1.831051676384277016e+00,-2.022559748003686764e+00,9.523238182067871094e+00,-1.912296712398529053e-01,-2.677215635776519775e-01,4.400000000000000000e+02
-1.263043278282998472e+02,-1.184937410500060651e+02,-2.727360419552246640e+01,1.013976647378513007e+00,-1.428010293055140210e+02,-8.641927056375698157e+01,-7.787165298077525222e-01,-2.059260879710791414e+00,9.523238182067871094e+00,-1.912296712398529053e-01,-2.677215635776519775e-01,4.410000000000000000e+02
-1.283023844199544783e+02,-1.176464852526298728e+02,-2.883277065830247921e+01,1.697434977255852573e+00,-1.409946233744994970e+02,-8.517272576882987778e+01,-2.835681512779956392e+00,-6.629284803661903425e-01,9.523238182067871094e+00,-1.912296712398529053e-01,-2.677215635776519775e-01,4.420000000000000000e+02
-1.276767698905816815e+02,-1.163374391376464700e+02,-2.920893122962934285e+01,2.884523437517145794e+00,-1.381060220587010008e+02,-8.319905776874247749e+01,-3.148971488633378613e+00,1.556078892574987549e+00,9.523238182067871094e+00,-2.677215635776519775e-01,-3.442134261131286621e-01,4.430000000000000000e+02
-1.248645162121674730e+02,-1.147590619483510181e+02,-2.779244403296638666e+01,3.689905072725196078e+00,-1.344881205497486008e+02,-8.142956174079290577e+01,-1.367815093291937956e+00,3.834024310331187735e+00,9.523238182067871094e+00,-2.677215635776519775e-01,-3.442134261131286621e-01,4.440000000000000000e+02
-1.215724302829385124e+02,-1.132065617387133898e+02,-2.505064197681213045e+01,3.531761665905833070e+00,-1.309060131881165034e+02,-8.055175267518688997e+01,1.637450839348730369e+00,5.658111211314917455e+00,9.523238182067871094e+00,-2.677215635776519775e-01,-3.442134261131286621e-01,4.450000000000000000e+02
-1.195039359625657198e+02,-1.118277734199796214e+02,-2.219766012905938624e+01,2.692722082327691169e+00,-1.280968742322916114e+02,-8.054557200886938517e+01,4.357317367304631262e+00,6.914165151129054721e+00,9.523238182067871094e+00,-2.677215635776519775e-01,-3.442134261131286621e-01,4.460000000000000000e+02
-1.192086095179565746e+02,-1.106019838743420678e+02,-2.039768561115579359e+01,2.181407885364478716e+00,-1.263248934266666765e+02,-8.071331956467383861e+01,5.734059710858673498e+00,7.792203119815440004e+00,9.523238182067871094e+00,-2.677215635776519775e-01,-3.442134261131286621e-01,4.470000000000000000e+02
-1.198883601262957654e+02,-1.094840338648855322e+02,-2.010214654655442246e+01,2.932335238218456652e+00,-1.252981026758966436e+02,-8.018405080083539360e+01,5.840275952110232538e+00,8.575213570934238305e+00,9.523238182067871094e+00,-2.677215635776519775e-01,-3.442134261131286621e-01,4.480000000000000000e+02
-1.201999807237448294e+02,-1.084716801891106570e+02,-2.091695971904073303e+01,4.995914785640707123e+00,-1.244889054059162845e+02,-7.854267095279237765e+01,5.606606231032628784e+00,9.436615215598749273e+00,9.523238182067871094e+00,-2.677215635776519775e-01,-3.442134261131286621e-01,4.490000000000000000e+02
-1.193131943051967028e+02,-1.075094840464985282e+02,-2.197553460243034351e+01,7.403345062761218287e+00,-1.235530015460994946e+02,-7.615431712971212619e+01,5.887998625206137149e+00,1.031135544469498200e+01,9.523238182067871094e+00,-2.677215635776519775e-01,-3.442134261131286621e-01,4.500000000000000000e+02
-1.173678206009210498e+02,-1.063962290504698558e+02,-2.249637458958318348e+01,8.816563577219767467e+00,-1.224951712884430890e+02,-7.394987659841353889e+01,6.693898194908342703e+00,1.087920981139154719e+01,9.523238182067871094e+00,-2.677215635776519775e-01,-3.442134261131286621e-01,4.510000000000000000e+02
-1.151095206279396734e+02,-1.049059139900803075e+02,-2.221688255793810640e+01,8.428625581653250265e+00,-1.215219208694034023e+02,-7.281968352361218422e+01,7.198382869220267821e+00,1.069171537268675820e+01,9.523238182067871094e+00,-2.677215635776519775e-01,-3.442134261131286621e-01,4.520000000000000000e+02
-1.132150553519747973e+02,-1.030705499833352405e+02,-2.153955876628333499e+01,6.428855724383993220e+00,-1.208228662904793964e+02,-7.304636640248645563e+01,6.456217208773523453e+00,9.422551041997849097e+00,9.523238182067871094e+00,-2.677215635776519775e-01,-3.442134261131286621e-01,4.530000000000000000e+02
-1.119569317402047091e+02,-1.013090446400381097e+02,-2.130931202025021776e+01,3.770557588073643274e+00,-1.204933392946340973e+02,-7.416140758936808197e+01,4.213669741048761352e+00,7.134526763882149680e+00,9.523238182067871094e+00,-2.677215635776519775e-01,-3.442134261131286621e-01,4.540000000000000000e+02
-1.113499207452700830e+02,-1.001657944662567843e+02,-2.226649191398519179e+01,1.541536330160397483e+00,-1.205496670869806621e+02,-7.528872447327557893e+01,1.200544711058228131e+00,4.401800792344147339e+00,9.523238182067871094e+00,-2.677215635776519775e-01,-3.442134261131286621e-01,4.550000000000000000e+02
-1.113742564308272449e+02,-9.980224185680503979e+01,-2.442579324333587465e+01,4.446228137726393470e-01,-1.208511445539679698e+02,-7.568464411728700725e+01,-1.253681399890183457e+00,2.165244129578013599e+00,9.523238182067871094e+00,-2.677215635776519775e-01,-3.442134261131286621e-01,4.560000000000000000e+02
-1.118975599608395441e+02,-9.971405361410893420e+01,-2.681885132292472917e+01,6.409031656990009651e-01,-1.209422145431008175e+02,-7.509019050144343055e+01,-1.967926326095266631e+00,1.332646560737885011e+00,9.523238182067871094e+00,-2.677215635776519775e-01,-3.442134261131286621e-01,4.570000000000000000e+02
-1.124232839788844558e+02,-9.900708601390056174e+01,-2.795201815417794933e+01,1.862830122204286454e+00,-1.200902225230856857e+02,-7.371259155123607343e+01,-5.417298066029161419e-01,2.296831153914126844e+00,9.523238182067871094e+00,-2.677215635776519775e-01,-3.442134261131286621e-01,4.580000000000000000e+02
-1.121410327712058006e+02,-9.707035179992931262e+01,-2.681284561522079457e+01,3.585005544653085963e+00,-1.177121880979866546e+02,-7.194926763966577710e+01,2.454354005933510052e+00,4.651233553084011874e+00,9.523238182067871094e+00,-2.677215635776519775e-01,-3.442134261131286621e-01,4.590000000000000000e+02
-1.104723922746547942e+02,-9.409570273395138429e+01,-2.368802080393356846e+01,5.183375164893732290e+00,-1.139466284941404410e+02,-7.011099052474401105e+01,5.779997283827924548e+00,7.328418503569537279e+00,9.523238182067871094e+00,-2.677215635776519775e-01,-3.442134261131286621e-01,4.600000000000000000e+02
-1.076548621484530486e+02,-9.097899616416157187e+01,-2.004834436544410892e+01,6.130607896826859360e+00,-1.097883604126377577e+02,-6.831362930622526619e+01,8.144722808177448314e+00,9.167232029279375638e+00,9.523238182067871094e+00,-2.677215635776519775e-01,-3.442134261131286621e-01,4.610000000000000000e+02
-1.046944494026020038e+02,-8.867438159902872030e+01,-1.747764316914958727e+01,6.225376741989748552e+00,-1.064740538311871205e+02,-6.653339959575441753e+01,8.833688668184549897e+00,9.606035015094221308e+00,9.523238182067871094e+00,-2.677215635776519775e-01,-3.442134261131286621e-01,4.620000000000000000e+02
-1.025526825947658836e+02,-8.752953325822295483e+01,-1.648020871482935945e+01,5.725078023630885582e+00,-1.045211698174493904e+02,-6.471445977722351017e+01,8.025720496948906657e+00,9.045872324496940564e+00,9.523238182067871094e+00,-2.677215635776519775e-01,-3.442134261131286621e-01,4.630000000000000000e+02
-1.012707416416917567e+02,-8.713442134882188839e+01,-1.620967817982273118e+01,5.209987454007659835e+00,-1.032791519579759552e+02,-6.284781177655895590e+01,6.612939357594541434e+00,8.558963111778439270e+00,9.523238182067871094e+00,-2.677215635776519775e-01,-3.442134261131286621e-01,4.640000000000000000e+02
-9.994089869721642572e+01,-8.676244107389629789e+01,-1.538507240626699968e+01,5.205734323646538542e+00,-1.015020762177869074e+02,-6.100874786478607348e+01,5.605304169531564185e+00,9.068583627747557330e+00,9.523238182067871094e+00,-2.677215635776519775e-01,-3.442134261131286621e-01,4.650000000000000000e+02
-9.765885871128557483e+01,-8.597906228027954967e+01,-1.356548624094421029e+01,5.823996750584683468e+00,-9.852195551059912759e+01,-5.936351739977362740e+01,5.483912513592485993e+00,1.057579452016784671e+01,9.523238182067871094e+00,-2.677215635776519775e-01,-3.442134261131286621e-01,4.660000000000000000e+02
-9.456872819451268697e+01,-8.490314925018924441e+01,-1.160269222085753427e+01,6.697420115742488633e+00,-9.497971051879221704e+01,-5.814531723418122056e+01,5.939241364217878072e+00,1.204540191359728851e+01,9.523238182067871094e+00,-2.677215635776519775e-01,-3.442134261131286621e-01,4.670000000000000000e+02
-9.192437659746951795e+01,-8.395441233289284355e+01,-1.084314836425050999e+01,7.268525334709465824e+00,-9.240364271493467641e+01,-5.758501216862532601e+01,6.194967998585980240e+00,1.211618053966185471e+01,9.523238182067871094e+00,-2.677215635776519775e-01,-3.442134261131286621e-01,4.680000000000000000e+02
-9.099062374584241297e+01,-8.336116292114638782e+01,-1.180921522881340024e+01,7.216108199452037297e+00,-9.193194905566792841e+01,-5.778268852681185308e+01,5.718310717635404217e+00,1.016913499253087139e+01,9.523238182067871094e+00,-2.677215635776519775e-01,-3.442134261131286621e-01,4.690000000000000000e+02
-9.177433692010072264e+01,-8.287219066228817610e+01,-1.358707752332247765e+01,6.699662433179582877e+00,-9.326944439676935872e+01,-5.855802411267632124e+01,4.788760891764013650e+00,6.957031495886440098e+00,9.523238182067871094e+00,-2.677215635776519775e-01,-3.442134261131286621e-01,4.700000000000000000e+02
-9.282037755739906970e+01,-8.189993217451433338e+01,-1.447199603725493944e+01,6.267332039682969480e+00,-9.477410342455186765e+01,-5.937299313198400341e+01,4.465358708689109335e+00,4.309227757875987663e+00,9.523238182067871094e+00,-2.677215635776519775e-01,-3.442134261131286621e-01,4.710000000000000000e+02
-9.231966938341747664e+01,-7.994765841960042962e+01,-1.326613642301595064e+01,6.523363163245676333e+00,-9.459055285231443122e+01,-5.943525895740003762e+01,5.914731863035058268e+00,4.095952128865519626e+00,9.523238182067871094e+00,-2.677215635776519775e-01,-3.442134261131286621e-01,4.720000000000000000e+02
-8.955002666318432603e+01,-7.696425134389346567e+01,-1.009966864481293669e+01,7.798307186238162103e+00,-9.188842234697904132e+01,-5.802475552784972024e+01,9.550963892002528155e+00,7.149214104929797031e+00,9.523238182067871094e+00,-2.677215635776519775e-01,-3.442134261131286621e-01,4.730000000000000000e+02
-8.536808274253303352e+01,-7.337750650337170555e+01,-6.153328304302249308e+00,1.002538637360726170e+01,-8.725008335227812495e+01,-5.491050783904347554e+01,1.461295360389931375e+01,1.282103654974889650e+01,9.523238182067871094e+00,-1.529837548732757568e-01,-3.824593424797058105e-01,4.740000000000000000e+02
-8.139165322198482500e+01,-6.982113338199428654e+01,-2.667183604948377251e+00,1.284904973286302265e+01,-8.203544694241531943e+01,-5.058546070774127656e+01,1.951502760023799965e+01,1.937641458556981888e+01,9.523238182067871094e+00,-1.529837548732757568e-01,-3.824593424797058105e-01,4.750000000000000000e+02
-7.871994144779978342e+01,-6.675860697229813923e+01,-1.701232970858654880e-01,1.584608812824330926e+01,-7.740168283269122185e+01,-4.609125992868393951e+01,2.275811775279771609e+01,2.488777288103938190e+01,9.523238182067871094e+00,-1.529837548732757568e-01,-3.824593424797058105e-01,4.760000000000000000e+02
-7.733785140636882716e+01,-6.425643662494530872e+01,1.493666261114185545e+00,1.867635165860201596e+01,-7.382962472215922389e+01,-4.249340633098745457e+01,2.375937562504577727e+01,2.805425284554166865e+01,9.523238182067871094e+00,-1.529837548732757568e-01,-3.824593424797058105e-01,4.770000000000000000e+02
-7.654317528990372921e+01,-6.203219802435523889e+01,2.601984893861754244e+00,2.108315353521788893e+01,-7.138588483747889768e+01,-4.034893706723914875e+01,2.304001385997435136e+01,2.856461020313827248e+01,9.523238182067871094e+00,-1.529837548732757568e-01,-3.824593424797058105e-01,4.780000000000000000e+02
-7.573765646973652110e+01,-5.973136928676308344e+01,3.138323622350526421e+00,2.280969606425924212e+01,-7.021703488126672710e+01,-3.953424254786978054e+01,2.170485831250107367e+01,2.695859342033077155e+01,9.523238182067871094e+00,-1.529837548732757568e-01,-3.824593424797058105e-01,4.790000000000000000e+02
-7.475461187904397775e+01,-5.725154427945290081e+01,2.901105833867859474e+00,2.357426018066007600e+01,-7.063396198847112828e+01,-3.952688162778895276e+01,2.064265926906773529e+01,2.417743332008444668e+01,9.523238182067871094e+00,-1.529837548732757568e-01,-3.824593424797058105e-01,4.800000000000000000e+02
-7.360245579225193069e+01,-5.488851068152666812e+01,1.923468030591720890e+00,2.319407200225441557e+01,-7.267948603196055046e+01,-3.985867350152511790e+01,2.002628868903502735e+01,2.109331041012956121e+01,9.523238182067871094e+00,-1.529837548732757568e-01,-3.824593424797058105e-01,4.810000000000000000e+02
-7.218097122948074684e+01,-5.319000991825828351e+01,6.915606994336940261e-01,2.179232066944769031e+01,-7.568920088542927260e+01,-4.034229616171205635e+01,1.941778608577305931e+01,1.825215266884060838e+01,9.523238182067871094e+00,-1.529837548732757568e-01,-3.824593424797058105e-01,4.820000000000000000e+02
-7.043233553529626079e+01,-5.259618482025052799e+01,-1.047359946633150685e-01,1.990264149626727885e+01,-7.842591336036821303e+01,-4.093451462069015179e+01,1.830538401999092457e+01,1.588873590263847291e+01,9.523238182067871094e+00,-1.529837548732757568e-01,-3.824593424797058105e-01,4.830000000000000000e+02
-6.869318242499275584e+01,-5.310773564291275761e+01,-3.700291286099854915e-02,1.832174165397418619e+01,-7.978897571859261006e+01,-4.145848770335464906e+01,1.661900750894437806e+01,1.411994669198543306e+01,9.523238182067871094e+00,-1.529837548732757568e-01,-3.824593424797058105e-01,4.840000000000000000e+02
-6.763316861199427876e+01,-5.423679645331662869e+01,8.292473512615288200e-01,1.773335519323222798e+01,-7.948093121803958638e+01,-4.153321441374851020e+01,1.485241451313595462e+01,1.310822395831769427e+01,9.523238182067871094e+00,-1.529837548732757568e-01,-3.824593424797058105e-01,4.850000000000000000e+02
-6.763012572216484841e+01,-5.529281012056117106e+01,2.090878662062095827e+00,1.832225897005946536e+01,-7.804934291593121998e+01,-4.083515034662923426e+01,1.373936556195417324e+01,1.300825724682727014e+01,9.523238182067871094e+00,-1.529837548732757568e-01,-3.824593424797058105e-01,4.860000000000000000e+02
-6.820478589608160291e+01,-5.580995129126017673e+01,3.318122817550147374e+00,1.964713097970934541e+01,-7.633571629302309702e+01,-3.946250692019839335e+01,1.374204642089307526e+01,1.372355807270946570e+01,9.523238182067871094e+00,-1.529837548732757568e-01,-3.824593424797058105e-01,4.870000000000000000e+02
-6.824942991183115737e+01,-5.580694636747557524e+01,4.200048938685540634e+00,2.088720617905983090e+01,-7.489898532581764812e+01,-3.802756912631730302e+01,1.472786853761476777e+01,1.473326524717003849e+01,9.523238182067871094e+00,-1.529837548732757568e-01,-3.824593424797058105e-01,4.880000000000000000e+02
-6.700783679313303765e+01,-5.570000963624806900e+01,4.477634316762760136e+00,2.132557118314707623e+01,-7.390402160240705598e+01,-3.731365412400145942e+01,1.606028979538518797e+01,1.525700501160463318e+01,9.523238182067871094e+00,-1.529837548732757568e-01,-3.824593424797058105e-01,4.890000000000000000e+02
-6.487452328947210844e+01,-5.593450071051279338e+01,3.921456834123546287e+00,2.077737796211272325e+01,-7.337089888024047468e+01,-3.770525719242505147e+01,1.704607663391698225e+01,1.476380482816489348e+01,9.523238182067871094e+00,-1.529837548732757568e-01,-3.824593424797058105e-01,4.900000000000000000e+02
-6.311587040736048948e+01,-5.659789828721977756e+01,2.553060652284557364e+00,1.970041166323608195e+01,-7.330073072506593235e+01,-3.884311589100116180e+01,1.743506601494868846e+01,1.346619618834938592e+01,9.523238182067871094e+00,-1.529837548732757568e-01,-3.824593424797058105e-01,4.910000000000000000e+02
-6.266664789640594790e+01,-5.727177857497758851e+01,9.334077585729119164e-01,1.892328130203986802e+01,-7.346471681261778031e+01,-3.980453212035376964e+01,1.760944402246059326e+01,1.233330607717971361e+01,9.523238182067871094e+00,-1.529837548732757568e-01,-3.824593424797058105e-01,4.920000000000000000e+02
-6.316056017983737547e+01,-5.723285613388679849e+01,7.555843372870185704e-02,1.915137698162152446e+01,-7.321203209430268544e+01,-3.971411147813341813e+01,1.829036446792406423e+01,1.248110528653342044e+01,9.523238182067871094e+00,-1.529837548732757568e-01,-3.824593424797058105e-01,4.930000000000000000e+02
-6.321889264209266912e+01,-5.590034115552202820e+01,8.024674796165527368e-01,2.054773633442391656e+01,-7.176826642972696391e+01,-3.834278079817477192e+01,1.995468664765712674e+01,1.433614208865628825e+01,9.523238182067871094e+00,-1.529837548732757568e-01,-3.824593424797058105e-01,4.940000000000000000e+02
-6.178987995723946369e+01,-5.326260751165216334e+01,2.994950019010275355e+00,2.265064435910517204e+01,-6.893640539722809990e+01,-3.623209227965548962e+01,2.241536916550251135e+01,1.724302809623611665e+01,9.484992027282714844e+00,-1.912296712398529053e-01,-3.059675097465515137e-01,4.950000000000000000e+02
-5.923674323266868669e+01,-4.997918149255735898e+01,5.479336236460312648e+00,2.468636478837902359e+01,-6.551276344763482484e+01,-3.424694993302932744e+01,2.491789749593897341e+01,1.988461190374448506e+01,9.484992027282714844e+00,-1.912296712398529053e-01,-3.059675097465515137e-01,4.960000000000000000e+02
-5.706100491583492840e+01,-4.701045705901617566e+01,6.870628809730987996e+00,2.609848435522894761e+01,-6.282294854131669126e+01,-3.290519748502129005e+01,2.669626089569737815e+01,2.124439705937152212e+01,9.484992027282714844e+00,-1.912296712398529053e-01,-3.059675097465515137e-01,4.970000000000000000e+02
-5.646659587023418680e+01,-4.496521060766519895e+01,6.768756132913495094e+00,2.693853137283656451e+01,-6.164389685707817534e+01,-3.201658613819290622e+01,2.753983426375600629e+01,2.134816420769209344e+01,9.484992027282714844e+00,-1.912296712398529053e-01,-3.059675097465515137e-01,4.980000000000000000e+02
-5.711818447618884420e+01,-4.364738196578434781e+01,6.216662388131680927e+00,2.780131730729476658e+01,-6.150068410930703067e+01,-3.091072896247032986e+01,2.789773652437816054e+01,2.115447580342151923e+01,9.484992027282714844e+00,-1.912296712398529053e-01,-3.059675097465515137e-01,4.990000000000000000e+02
-5.730641357237777811e+01,-4.223662402284355721e+01,6.863524447567328934e+00,2.929316523444435916e+01,-6.108658606271080771e+01,-2.905110978320180948e+01,2.842808482403563630e+01,2.167111590198339854e+01,9.484992027282714844e+00,-1.912296712398529053e-01,-3.059675097465515137e-01,5.000000000000000000e+02
-5.542133001125955616e+01,-4.006527662927919664e+01,9.459405213141508284e+00,3.140368236071185493e+01,-5.948052888074084876e+01,-2.652479901061917644e+01,2.939257155017048717e+01,2.305025301175260211e+01,9.484992027282714844e+00,-1.912296712398529053e-01,-3.059675097465515137e-01,5.010000000000000000e+02
-5.142239742768924771e+01,-3.736511973438746281e+01,1.303833392211424780e+01,3.332436287652717510e+01,-5.700612070737895465e+01,-2.401122454695268971e+01,3.044631350760641908e+01,2.446927057804896322e+01,9.484992027282714844e+00,-1.912296712398529053e-01,-3.059675097465515137e-01,5.020000000000000000e+02
-4.699404747444748409e+01,-3.523346159113538079e+01,1.562089980132520850e+01,3.398122362469052860e+01,-5.488372666699251567e+01,-2.224939720087763817e+01,3.102206702420266993e+01,2.493918258533301469e+01,9.484992027282714844e+00,-1.912296712398529053e-01,-3.059675097465515137e-01,5.030000000000000000e+02
-4.426180925003558286e+01,-3.470833517861626660e+01,1.587757121400659344e+01,3.294620911847630396e+01,-5.401538913735174674e+01,-2.142381115428020166e+01,3.095210693032584004e+01,2.433492027810757463e+01,9.484992027282714844e+00,-1.912296712398529053e-01,-3.059675097465515137e-01,5.040000000000000000e+02
-4.417887096596922447e+01,-3.571755215547278794e+01,1.425492889978266930e+01,3.097431904993914031e+01,-5.411494090381478372e+01,-2.095632675732110783e+01,3.073590534090084248e+01,2.368663626243983344e+01,9.484992027282714844e+00,-1.912296712398529053e-01,-3.059675097465515137e-01,5.050000000000000000e+02
-4.590027324458833391e+01,-3.692891531913960534e+01,1.252355350911005871e+01,2.961083869377199562e+01,-5.405109291267586968e+01,-1.989278656190663241e+01,3.116460991966488336e+01,2.438897089258762207e+01,9.484992027282714844e+00,-1.912296712398529053e-01,-3.059675097465515137e-01,5.060000000000000000e+02
-4.755127335860652238e+01,-3.680138828073069135e+01,1.218268218087331434e+01,3.006697492237009328e+01,-5.304690956040604988e+01,-1.763018489981595849e+01,3.260185599328644912e+01,2.695349211607026518e+01,9.484992027282714844e+00,-1.912296712398529053e-01,-3.059675097465515137e-01,5.070000000000000000e+02
-4.764833268170576730e+01,-3.496497204399747716e+01,1.323118879116421454e+01,3.226035147654147295e+01,-5.149839266550151251e+01,-1.444207832958903737e+01,3.457748585668221608e+01,3.041818860207041553e+01,9.484992027282714844e+00,-1.912296712398529053e-01,-3.059675097465515137e-01,5.080000000000000000e+02
-4.604506431172571013e+01,-3.264158814565107036e+01,1.439637277630048118e+01,3.485732469544493028e+01,-5.056880219830966894e+01,-1.138678382080726692e+01,3.608993257438805813e+01,3.298877564449337285e+01,9.484992027282714844e+00,-1.912296712398529053e-01,-3.059675097465515137e-01,5.090000000000000000e+02
-4.381331369215959626e+01,-3.162544284716045695e+01,1.446908175735869406e+01,3.631425536229946260e+01,-5.096777192790482047e+01,-9.619810660236453259e+00,3.637873883194941982e+01,3.340599658202327760e+01,9.484992027282714844e+00,-1.912296712398529053e-01,-3.059675097465515137e-01,5.100000000000000000e+02
-4.235231604247462656e+01,-3.269400500825062750e+01,1.336361926576411463e+01,3.603178403988195555e+01,-5.216861608160158426e+01,-9.610370277784937798e+00,3.548417059826826403e+01,3.186597984679591633e+01,9.484992027282714844e+00,-1.912296712398529053e-01,-3.059675097465515137e-01,5.110000000000000000e+02
-4.249175314770087653e+01,-3.492315423422218146e+01,1.191908282749744785e+01,3.463569226404881363e+01,-5.288568354829533291e+01,-1.086804023303307076e+01,3.410257975562335275e+01,2.972199565329627546e+01,9.484992027282714844e+00,-1.912296712398529053e-01,-3.059675097465515137e-01,5.120000000000000000e+02
-4.414196055962239029e+01,-3.655203129282716645e+01,1.082640571052300515e+01,3.321271227319843433e+01,-5.232950715814942555e+01,-1.238329631239770379e+01,3.291110032815220166e+01,2.830429961611116596e+01,9.484992027282714844e+00,-1.912296712398529053e-01,-3.059675097465515137e-01,5.130000000000000000e+02
-4.652591513478489560e+01,-3.658528458450058451e+01,9.929703180077183333e+00,3.230624407087327654e+01,-5.094555315180610933e+01,-1.337108133846766123e+01,3.201690909146913100e+01,2.797501209466025784e+01,9.484992027282714844e+00,-1.912296712398529053e-01,-3.059675097465515137e-01,5.140000000000000000e+02
-4.866508422893235775e+01,-3.560572116729792924e+01,8.659993948716532941e+00,3.166025260676485686e+01,-4.984629915844232073e+01,-1.365395094256768971e+01,3.106745904476059650e+01,2.824133464889666811e+01,9.484992027282714844e+00,-1.912296712398529053e-01,-3.059675097465515137e-01,5.150000000000000000e+02
-4.979031755585310748e+01,-3.504830598043133705e+01,7.064972243037573207e+00,3.089394856464394934e+01,-4.950126066120662927e+01,-1.339619943636841981e+01,2.988775703162957598e+01,2.867637129621357417e+01,9.484992027282714844e+00,-1.912296712398529053e-01,-3.059675097465515137e-01,5.160000000000000000e+02
-4.956947897106556411e+01,-3.569289402140543643e+01,6.204538473655986763e+00,3.031912026016698292e+01,-4.904510232734730835e+01,-1.257853219169544445e+01,2.894960790232084946e+01,2.961783111558315795e+01,9.484992027282714844e+00,-1.912296712398529053e-01,-3.059675097465515137e-01,5.170000000000000000e+02
-4.816230982115450843e+01,-3.686743013849218187e+01,7.342356292195972856e+00,3.095508826347179365e+01,-4.699560516992073644e+01,-1.086624919124164990e+01,2.911446804503259500e+01,3.187002992298687332e+01,9.484992027282714844e+00,-1.912296712398529053e-01,-3.059675097465515137e-01,5.180000000000000000e+02
-4.610198546196841107e+01,-3.710495062951645195e+01,1.066424183573917617e+01,3.362146774499296953e+01,-4.275323892235246603e+01,-8.057066866884952105e+00,3.083147004074260167e+01,3.568596663005621394e+01,9.484992027282714844e+00,-1.912296712398529053e-01,-3.059675097465515137e-01,5.190000000000000000e+02
-4.402620674933086775e+01,-3.557117224708315462e+01,1.481205527824420187e+01,3.794382386099368887e+01,-3.743698567480430484e+01,-4.614970897064267774e+00,3.355097183523594140e+01,4.007101625634550146e+01,9.446745872497558594e+00,-1.912296712398529053e-01,-3.442134261131286621e-01,5.200000000000000000e+02
-4.236640326139399804e+01,-3.285809150931606837e+01,1.776124858406410567e+01,4.226083306783925764e+01,-3.321680191742507304e+01,-1.614772573458139959e+00,3.597395503118468696e+01,4.317232420914547220e+01,9.446745872497558594e+00,-1.912296712398529053e-01,-3.442134261131286621e-01,5.210000000000000000e+02
-4.118860555719516015e+01,-3.041284097975801615e+01,1.829154735441716184e+01,4.462794306142768619e+01,-3.170843810895166826e+01,5.780645294635178288e-04,3.699734338163580105e+01,4.350681783753066156e+01,9.446745872497558594e+00,-1.912296712398529053e-01,-3.442134261131286621e-01,5.220000000000000000e+02
-4.029537986612490386e+01,-2.922531241638807842e+01,1.678566966544622119e+01,4.413760511018881516e+01,-3.282823077884359009e+01,1.793507325112386752e-01,3.655709030189382247e+01,4.103024877875418497e+01,9.446745872497558594e+00,-1.912296712398529053e-01,-3.442134261131286621e-01,5.230000000000000000e+02
-3.948482502370802649e+01,-2.904337281469338450e+01,1.476483359371832194e+01,4.151262437324066923e+01,-3.500689079358198796e+01,-2.215973914769620023e-01,3.564179935884340011e+01,3.721529206852164862e+01,9.446745872497558594e+00,-1.912296712398529053e-01,-3.442134261131286621e-01,5.240000000000000000e+02
-3.872806547190043602e+01,-2.879165252803295516e+01,1.371144741539342249e+01,3.856239913494414395e+01,-3.640719771294334350e+01,-2.124300802956895495e-01,3.548588789028872270e+01,3.414679922817754232e+01,9.446745872497558594e+00,-1.912296712398529053e-01,-3.442134261131286621e-01,5.250000000000000000e+02
-3.812054246950310699e+01,-2.769110697151177192e+01,1.420765267966044121e+01,3.697545424240479406e+01,-3.603612859739405394e+01,4.911932672994225868e-01,3.663845831267985886e+01,3.333389031917636203e+01,9.446745872497558594e+00,-1.912296712398529053e-01,-3.442134261131286621e-01,5.260000000000000000e+02
-3.771753263915934440e+01,-2.597286326781340904e+01,1.588098465165967355e+01,3.734284431473406585e+01,-3.401306292629351447e+01,1.341891720943294786e+00,3.862745973288224377e+01,3.497479671630526354e+01,9.446745872497558594e+00,-1.912296712398529053e-01,-3.442134261131286621e-01,5.270000000000000000e+02
-3.747157473639003911e+01,-2.457798956999022266e+01,1.787133412989805947e+01,3.901276147236012548e+01,-3.115324060425018615e+01,1.600865810195045924e+00,4.038852278049080269e+01,3.796565737032278776e+01,9.446745872497558594e+00,-1.912296712398529053e-01,-3.442134261131286621e-01,5.280000000000000000e+02
-3.733395041477501763e+01,-2.423046703919112588e+01,1.927492918528696464e+01,4.072704103812566245e+01,-2.846176058269975329e+01,1.072878034117820789e+00,4.101997269284129288e+01,4.050972081066583996e+01,9.446745872497558594e+00,-1.912296712398529053e-01,-3.442134261131286621e-01,5.290000000000000000e+02
-3.735762287421675865e+01,-2.477347757846791865e+01,1.937652810839495032e+01,4.151878187830016032e+01,-2.683763616848182210e+01,2.645191632636851864e-01,4.028082990248344686e+01,4.102266167162292732e+01,9.446745872497558594e+00,-1.912296712398529053e-01,-3.442134261131286621e-01,5.300000000000000000e+02
-3.761602087969686181e+01,-2.530712860244966578e+01,1.785689461513584320e+01,4.127855909316213001e+01,-2.683795821931198589e+01,-9.009941492740836111e-02,3.857939907057107121e+01,3.897170561179291326e+01,9.446745872497558594e+00,-1.912296712398529053e-01,-3.442134261131286621e-01,5.310000000000000000e+02
-3.798977946633795000e+01,-2.492359849113290693e+01,1.504919022447620591e+01,4.065994282491828926e+01,-2.837817554948742327e+01,3.699287697236286476e-01,3.661041684833571708e+01,3.521117800452793745e+01,9.446745872497558594e+00,-1.912296712398529053e-01,-3.442134261131286621e-01,5.320000000000000000e+02
-3.810438147371223749e+01,-2.340815335670413333e+01,1.198949592734425096e+01,4.045039646187387916e+01,-3.061072370523652353e+01,1.413915280909805006e+00,3.496826222847448662e+01,3.150063785738984734e+01,9.446745872497558594e+00,-1.912296712398529053e-01,-3.442134261131286621e-01,5.330000000000000000e+02
-3.758872440666937109e+01,-2.141644438269577222e+01,9.984384507217328064e+00,4.088893920432155937e+01,-3.230290505866196327e+01,2.463505803973475849e+00,3.395762663379582591e+01,2.938020776963503522e+01,9.446745872497558594e+00,-1.912296712398529053e-01,-3.442134261131286621e-01,5.340000000000000000e+02
-3.646640143704826187e+01,-2.008448418761872745e+01,9.848277894590864889e+00,4.145276638508494216e+01,-3.260474914926089696e+01,3.007846921887448843e+00,3.361966821580790565e+01,2.915131043328437954e+01,9.446745872497558594e+00,-1.912296712398529053e-01,-3.442134261131286621e-01,5.350000000000000000e+02
-3.527062717911621803e+01,-2.036242116905850708e+01,1.139435261033804636e+01,4.129379268741922715e+01,-3.160207887970591401e+01,2.887673580707996734e+00,3.385229522660392831e+01,2.979045620464239619e+01,9.446745872497558594e+00,-1.912296712398529053e-01,-3.442134261131286621e-01,5.360000000000000000e+02
-3.467265844506118810e+01,-2.243964285705669681e+01,1.363964043342684818e+01,3.997696350596243065e+01,-3.013103082685120171e+01,2.352591922497595078e+00,3.448927055842614209e+01,2.992793296137415382e+01,9.446745872497558594e+00,-1.912296712398529053e-01,-3.442134261131286621e-01,5.370000000000000000e+02
-3.491194132357577473e+01,-2.556610665560310736e+01,1.554430230193884199e+01,3.789188855040174531e+01,-2.903503464594587058e+01,1.911531083470435988e+00,3.526950960712747474e+01,2.904918642424217978e+01,9.446745872497558594e+00,-1.912296712398529053e-01,-3.442134261131286621e-01,5.380000000000000000e+02
-3.555697256655730598e+01,-2.841235882320779638e+01,1.662379418929231178e+01,3.596805532636244607e+01,-2.858258363564618776e+01,2.030081428476478322e+00,3.578334382267121327e+01,2.782372761254782745e+01,9.446745872497558594e+00,-1.912296712398529053e-01,-3.442134261131286621e-01,5.390000000000000000e+02
-3.586152517181108124e+01,-2.982120342053804052e+01,1.695813994812988312e+01,3.493105356331943767e+01,-2.854783637902801274e+01,2.789401757085215650e+00,3.556714854018991900e+01,2.726396440576445457e+01,9.446745872497558594e+00,-1.912296712398529053e-01,-3.442134261131286621e-01,5.400000000000000000e+02
-3.542649329320056495e+01,-2.949435840080423077e+01,1.676864041655971960e+01,3.476089720028585361e+01,-2.872165629717346746e+01,3.740022192405376700e+00,3.442349404660444634e+01,2.758182088048943115e+01,9.446745872497558594e+00,-1.912296712398529053e-01,-3.442134261131286621e-01,5.410000000000000000e+02
-3.454422061233572094e+01,-2.808847252802661387e+01,1.615115324860425972e+01,3.484237987335063735e+01,-2.916786930643274900e+01,4.165247789393106359e+00,3.278837955161634454e+01,2.794858817121348693e+01,9.446745872497558594e+00,-1.912296712398529053e-01,-3.442134261131286621e-01,5.420000000000000000e+02
-3.387936465104530726e+01,-2.660280970223720942e+01,1.527322744132106891e+01,3.464364836121603730e+01,-2.990886960420357354e+01,3.655021687360203941e+00,3.175226021813841726e+01,2.743771969463887217e+01,9.446745872497558594e+00,-1.912296712398529053e-01,-3.442134261131286621e-01,5.430000000000000000e+02
-3.378164751079793859e+01,-2.554077624527462831e+01,1.470149737374913457e+01,3.426136764384136768e+01,-3.046932612539603724e+01,2.544529006543598371e+00,3.248494398337788880e+01,2.617296333764898009e+01,9.446745872497558594e+00,-1.912296712398529053e-01,-3.442134261131286621e-01,5.440000000000000000e+02
-3.389380531882306968e+01,-2.457512922883279316e+01,1.527748460046586843e+01,3.431266432066513516e+01,-2.995450689923382015e+01,1.774591775935732585e+00,3.531971235680794052e+01,2.541303783288913110e+01,9.446745872497558594e+00,-1.912296712398529053e-01,-3.442134261131286621e-01,5.450000000000000000e+02
-3.347125148544455442e+01,-2.303346878169440970e+01,1.742966502391209360e+01,3.528453039901069133e+01,-2.777982888561382424e+01,2.192643534270246164e+00,3.919274408517776465e+01,2.635025674390180939e+01,9.446745872497558594e+00,-1.912296712398529053e-01,-3.442134261131286621e-01,5.460000000000000000e+02
-3.215043479890846356e+01,-2.073364380502971471e+01,2.052093340409601296e+01,3.696043003399972804e+01,-2.438695542965069762e+01,3.853628999492684670e+00,4.204301306520756043e+01,2.878058505810622592e+01,9.561484336853027344e+00,-1.147378161549568176e-01,-2.294756323099136353e-01,5.470000000000000000e+02
-3.045441193453643791e+01,-1.833544106178305810e+01,2.298472580235011264e+01,3.847096076667548914e+01,-2.115273114250430808e+01,5.942299430456841947e+00,4.206801262898534333e+01,3.104988052329645143e+01,9.561484336853027344e+00,-1.147378161549568176e-01,-2.294756323099136353e-01,5.480000000000000000e+02
-2.951240493025579781e+01,-1.683892647126867814e+01,2.336278716702145175e+01,3.895681900737872638e+01,-1.941258708742225281e+01,7.425200372859762865e+00,3.899387041764657624e+01,3.147975250834406324e+01,9.561484336853027344e+00,-1.147378161549568176e-01,-2.294756323099136353e-01,5.490000000000000000e+02
-3.016073585391495726e+01,-1.670924792447658547e+01,2.147831479155320267e+01,3.827199746767473698e+01,-1.940618610881301720e+01,7.884539046482132107e+00,3.438714228123899375e+01,2.997054331023718987e+01,9.561484336853027344e+00,-1.147378161549568176e-01,-2.294756323099136353e-01,5.500000000000000000e+02
-3.218025080323059228e+01,-1.749583421043280396e+01,1.872119404888053396e+01,3.711609648461308097e+01,-2.010743436793381989e+01,7.791709871864441084e+00,3.071125215927349927e+01,2.820589670326990017e+01,9.561484336853027344e+00,-1.147378161549568176e-01,-2.294756323099136353e-01,5.510000000000000000e+02
-3.434498605490443879e+01,-1.831072328415848460e+01,1.711472817940284585e+01,3.647695569185907516e+01,-2.012737526944874844e+01,7.974826243324059760e+00,2.978841362711318652e+01,2.817682812246493995e+01,9.561484336853027344e+00,-1.147378161549568176e-01,-2.294756323099136353e-01,5.520000000000000000e+02
-3.527862530331185553e+01,-1.865399526322926249e+01,1.786517486928914877e+01,3.684529448382272676e+01,-1.889835809230680752e+01,8.778803807701478945e+00,3.176130358228783734e+01,3.037817109940169757e+01,9.561484336853027344e+00,-1.147378161549568176e-01,-2.294756323099136353e-01,5.530000000000000000e+02
-3.441828960876136989e+01,-1.874420004338753643e+01,2.055360020701300527e+01,3.784272986338146438e+01,-1.708193438874513959e+01,9.706158208670785825e+00,3.522198336859673873e+01,3.337225582986775407e+01,9.561484336853027344e+00,-1.147378161549568176e-01,-2.294756323099136353e-01,5.540000000000000000e+02
-3.229853798440490209e+01,-1.906195101454250107e+01,2.359311129287925723e+01,3.855424993275937595e+01,-1.584702501816627773e+01,9.888904416642617434e+00,3.829246224835242174e+01,3.512719828152421542e+01,9.561484336853027344e+00,-1.147378161549568176e-01,-2.294756323099136353e-01,5.550000000000000000e+02
-2.998786140093579888e+01,-1.967618921970915835e+01,2.550036029962302564e+01,3.826600128893733199e+01,-1.570436750115732139e+01,8.955956053301633801e+00,3.978858497392320714e+01,3.483495666970338789e+01,9.561484336853027344e+00,-1.147378161549568176e-01,-2.294756323099136353e-01,5.560000000000000000e+02
-2.825440241643627814e+01,-2.013689094685014425e+01,2.590154220891145087e+01,3.700968036030462827e+01,-1.598274657953243150e+01,7.470229320868384093e+00,3.968064130789662158e+01,3.350611160968037439e+01,9.561484336853027344e+00,-1.147378161549568176e-01,-2.294756323099136353e-01,5.570000000000000000e+02
-2.719408187834869750e+01,-2.007102444198335434e+01,2.551431731941829639e+01,3.549816180777270347e+01,-1.544710988155748055e+01,6.481540073744326946e+00,3.869356934665756853e+01,3.284994092203032778e+01,9.561484336853027344e+00,-1.147378161549568176e-01,-2.294756323099136353e-01,5.580000000000000000e+02
-2.652832122570271167e+01,-1.979865762215285940e+01,2.528877729222858761e+01,3.455807216603625420e+01,-1.349069438554852240e+01,6.578314450671314262e+00,3.754640187532822893e+01,3.359836818504754774e+01,9.561484336853027344e+00,-1.147378161549568176e-01,-2.294756323099136353e-01,5.590000000000000000e+02
-2.611165054028606392e+01,-2.018555553970509209e+01,2.557009586123058398e+01,3.457642744680379110e+01,-1.078507185695616499e+01,7.322779347019604756e+00,3.648530835933524941e+01,3.490086288190741470e+01,9.561484336853027344e+00,-1.147378161549568176e-01,-2.294756323099136353e-01,5.600000000000000000e+02
-2.606027796532907814e+01,-2.176581315251678461e+01,2.597736242420069175e+01,3.537447571252778289e+01,-8.788141690855809429e+00,7.605300247651030077e+00,3.538287222935377940e+01,3.528259038262149261e+01,9.561484336853027344e+00,-1.147378161549568176e-01,-2.294756323099136353e-01,5.610000000000000000e+02
-2.642590708049829118e+01,-2.400536072169688850e+01,2.595988207379650703e+01,3.650412622713884048e+01,-8.551376694845203019e+00,6.616028351585555356e+00,3.418595997790544061e+01,3.414129208059785014e+01,9.561484336853027344e+00,-1.147378161549568176e-01,-2.294756323099136353e-01,5.620000000000000000e+02
-2.689705812531610718e+01,-2.554802246861800086e+01,2.537676281686981383e+01,3.759863150172441237e+01,-9.914241320076143893e+00,4.552473315612587612e+00,3.322413288857114821e+01,3.229782528016312426e+01,9.561484336853027344e+00,-1.147378161549568176e-01,-2.294756323099136353e-01,5.630000000000000000e+02
-2.698422556024070218e+01,-2.533298254542205541e+01,2.455308593922381988e+01,3.847083123409993277e+01,-1.175670284683837963e+01,2.449533551300191903e+00,3.307896253541184706e+01,3.115625302579428535e+01,9.561484336853027344e+00,-1.147378161549568176e-01,-2.294756323099136353e-01,5.640000000000000000e+02
-2.655201680039408529e+01,-2.354734895359797520e+01,2.389632845160576835e+01,3.901279106902620697e+01,-1.297825365888638771e+01,1.345662871610329603e+00,3.414516852740780450e+01,3.142002784857959341e+01,9.561484336853027344e+00,-1.147378161549568176e-01,-2.294756323099136353e-01,5.650000000000000000e+02
-2.608930807990418543e+01,-2.148440915751143621e+01,2.355693983885430498e+01,3.916024019708311243e+01,-1.326616928898329206e+01,1.563627979840020998e+00,3.627809287349737133e+01,3.262936948562855832e+01,9.561484336853027344e+00,-1.147378161549568176e-01,-2.294756323099136353e-01,5.660000000000000000e+02
-2.631676736139343120e+01,-2.043338994247278606e+01,2.346506265822972637e+01,3.902600873965820938e+01,-1.303018875413363276e+01,2.690195689841857529e+00,3.883811450646953745e+01,3.384131366253495798e+01,9.561484336853027344e+00,-1.147378161549568176e-01,-2.294756323099136353e-01,5.670000000000000000e+02
-2.744791984710536781e+01,-2.067823191082243284e+01,2.359545177841209807e+01,3.898126725399924908e+01,-1.274437852371374902e+01,4.116115599337717867e+00,4.108489718123018974e+01,3.461893607021920616e+01,9.561484336853027344e+00,-1.147378161549568176e-01,-2.294756323099136353e-01,5.680000000000000000e+02
-2.885756290294375503e+01,-2.154910672439291375e+01,2.406438656616774097e+01,3.942712537108309334e+01,-1.244181039905924990e+01,5.525955319961212808e+00,4.259256821821873018e+01,3.529788346823988832e+01,9.561484336853027344e+00,-1.147378161549568176e-01,-2.294756323099136353e-01,5.690000000000000000e+02
-2.956179972806967271e+01,-2.237074319854036730e+01,2.492104152337560663e+01,4.036673506734769035e+01,-1.181666527957895596e+01,6.919444934024795657e+00,4.336814651707209123e+01,3.636491479658616299e+01,9.561484336853027344e+00,-1.147378161549568176e-01,-2.294756323099136353e-01,5.700000000000000000e+02
-2.908778861882456113e+01,-2.324171246875994257e+01,2.591605458705817000e+01,4.124148565029281599e+01,-1.068931892338150647e+01,8.316712446843666839e+00,4.364669799481634982e+01,3.773475220608452219e+01,9.561484336853027344e+00,-1.147378161549568176e-01,-2.294756323099136353e-01,5.710000000000000000e+02
-2.789723298352691927e+01,-2.480525064165703952e+01,2.658582980547362240e+01,4.135148600254433404e+01,-9.264387389681360219e+00,9.598711942160662147e+00,4.362815932915145822e+01,3.873475603751103336e+01,9.561484336853027344e+00,-1.147378161549568176e-01,-2.294756323099136353e-01,5.720000000000000000e+02
-2.696666911563806934e+01,-2.728148904747285997e+01,2.660856189563128282e+01,4.057937649067571328e+01,-7.944953728465407039e+00,1.067375350225665898e+01,4.343252014193058130e+01,3.877036588081318769e+01,9.561484336853027344e+00,-1.147378161549568176e-01,-2.294756323099136353e-01,5.730000000000000000e+02
-2.694798736833399744e+01,-2.987640849989838898e+01,2.604512436696131772e+01,3.969977282173204003e+01,-6.973394117734642350e+00,1.171816469495570345e+01,4.327934560213543591e+01,3.791869828213748406e+01,9.561484336853027344e+00,-1.147378161549568176e-01,-2.294756323099136353e-01,5.740000000000000000e+02
-2.771137949116200616e+01,-3.132335652101392043e+01,2.517733307948037691e+01,3.982442726798399235e+01,-6.310565271665836917e+00,1.313316129454324255e+01,4.361211102258675965e+01,3.681441943490790436e+01,9.561484336853027344e+00,-1.147378161549568176e-01,-2.294756323099136353e-01,5.750000000000000000e+02
-2.863173934108453977e+01,-3.109074784128824831e+01,2.412289056267763954e+01,4.137054884260942345e+01,-5.828099188516716822e+00,1.520404976722784340e+01,4.489782594994903775e+01,3.597383481790893711e+01,9.561484336853027344e+00,-1.147378161549568176e-01,-2.294756323099136353e-01,5.760000000000000000e+02
-2.922949614232129534e+01,-3.001637644056427234e+01,2.268872316080523888e+01,4.351381314145692158e+01,-5.531306432249039062e+00,1.779995600734400796e+01,4.717023551387501357e+01,3.527607431651267689e+01,9.561484336853027344e+00,-1.147378161549568176e-01,-2.294756323099136353e-01,5.770000000000000000e+02
-2.949714481284172507e+01,-2.963735785887001839e+01,2.068428102303914784e+01,4.474325400169254863e+01,-5.538949113730268436e+00,2.042882333165653108e+01,4.973755405377414718e+01,3.411231260538443166e+01,9.484992027282714844e+00,-1.529837548732757568e-01,-3.059675097465515137e-01,5.780000000000000000e+02
-2.967159756665023451e+01,-3.080834047847565671e+01,1.836121573496893689e+01,4.409526535841723671e+01,-5.882232067260702024e+00,2.258234012582397554e+01,5.144259008898370666e+01,3.198494263925567793e+01,9.484992027282714844e+00,-1.529837548732757568e-01,-3.059675097465515137e-01,5.790000000000000000e+02
-2.982064002873448771e+01,-3.295667113179479202e+01,1.644432780916758929e+01,4.194751261389319552e+01,-6.400981137287089950e+00,2.401105728841866949e+01,5.140375700333243003e+01,2.892702218602607900e+01,9.484992027282714844e+00,-1.529837548732757568e-01,-3.059675097465515137e-01,5.800000000000000000e+02
-2.975263281752086186e+01,-3.471718020592743414e+01,1.562245570697632502e+01,3.962723226983689528e+01,-6.873003980514113209e+00,2.469910543501828215e+01,4.967799048981032684e+01,2.540313335834980535e+01,9.484992027282714844e+00,-1.529837548732757568e-01,-3.059675097465515137e-01,5.810000000000000000e+02
-2.933033201048965566e+01,-3.531451545685558813e+01,1.593378985754679888e+01,3.819638043043050857e+01,-7.225734430076045101e+00,2.465964074457951938e+01,4.726605969920456118e+01,2.191161784532960155e+01,9.484992027282714844e+00,-1.529837548732757568e-01,-3.059675097465515137e-01,5.820000000000000000e+02
-2.879488467939518159e+01,-3.531320118185794854e+01,1.664685039040705306e+01,3.755684312192170182e+01,-7.592806391214253381e+00,2.384915850719698938e+01,4.539361342671872990e+01,1.873955144276078499e+01,9.484992027282714844e+00,-1.529837548732757568e-01,-3.059675097465515137e-01,5.830000000000000000e+02
-2.870091351009432401e+01,-3.599690530558291357e+01,1.678322764104450471e+01,3.669210184957228194e+01,-8.168823094152685371e+00,2.232006548302888405e+01,4.462941677143680863e+01,1.603720052300923271e+01,9.484992027282714844e+00,-1.529837548732757568e-01,-3.059675097465515137e-01,5.840000000000000000e+02
-2.949221075870809727e+01,-3.800730938248671009e+01,1.582252160635471228e+01,3.476339507546799723e+01,-9.024132764687237795e+00,2.041379019947635243e+01,4.457761615865820204e+01,1.397689946600985422e+01,9.484992027282714844e+00,-1.529837548732757568e-01,-3.059675097465515137e-01,5.850000000000000000e+02
-3.112768302872609638e+01,-4.058452475778904045e+01,1.399056428396943375e+01,3.197791984121431597e+01,-1.005781206682695483e+01,1.869765357843425591e+01,4.436779281208873726e+01,1.270264828742620011e+01,9.484992027282714844e+00,-1.529837548732757568e-01,-3.059675097465515137e-01,5.860000000000000000e+02
-3.309109286687089480e+01,-4.214716792530816747e+01,1.197370199118631717e+01,2.941976062433241168e+01,-1.108550709995688521e+01,1.760801518773223506e+01,4.345280619115510490e+01,1.210178976230054104e+01,9.484992027282714844e+00,-1.529837548732757568e-01,-3.059675097465515137e-01,5.870000000000000000e+02
-3.474716554564292892e+01,-4.165877909383925726e+01,1.041650902750370733e+01,2.805754550569508865e+01,-1.192734557384028449e+01,1.710111666776720085e+01,4.198965908159880200e+01,1.171741727057633398e+01,9.484992027282714844e+00,-1.529837548732757568e-01,-3.059675097465515137e-01,5.880000000000000000e+02
-3.570624255864277075e+01,-3.950596989074438170e+01,9.645661949065470253e+00,2.790860240037363837e+01,-1.240911100411904044e+01,1.667959265805984614e+01,4.053922956868154870e+01,1.101224096611076675e+01,9.484992027282714844e+00,-1.529837548732757568e-01,-3.059675097465515137e-01,5.890000000000000000e+02
-3.591287145945534576e+01,-3.712044153217175335e+01,9.726559705084582674e+00,2.812662474637909327e+01,-1.233536517052380077e+01,1.584065039655251894e+01,3.949922519384017505e+01,9.812397203211730812e+00,9.484992027282714844e+00,-1.529837548732757568e-01,-3.059675097465515137e-01,5.900000000000000000e+02
-3.546129733924681204e+01,-3.574831927071682003e+01,1.061471531612551189e+01,2.786511811227865110e+01,-1.153414108956712880e+01,1.459072345363529166e+01,3.888358220155350864e+01,8.527405521408581990e+00,9.484992027282714844e+00,-1.529837548732757568e-01,-3.059675097465515137e-01,5.910000000000000000e+02
-3.437881382272462361e+01,-3.548854622465478315e+01,1.217760035176434030e+01,2.707437000524441828e+01,-9.962560421385205700e+00,1.356274640481933602e+01,3.860846770036914677e+01,7.908949940394450095e+00,9.484992027282714844e+00,-1.529837548732757568e-01,-3.059675097465515137e-01,5.920000000000000000e+02
-3.260696232667578442e+01,-3.539395660762966145e+01,1.413584834470930218e+01,2.651985568737654830e+01,-7.771713351357902866e+00,1.358466242321810569e+01,3.885021762300129922e+01,8.513473865385094541e+00,9.484992027282714844e+00,-1.529837548732757568e-01,-3.059675097465515137e-01,5.930000000000000000e+02
-3.017998367808468174e+01,-3.442625155471978360e+01,1.612542132652015425e+01,2.708833416839115671e+01,-5.240557720830111066e+00,1.504920837420286261e+01,3.997288358722289559e+01,1.031008814369124593e+01,9.484992027282714844e+00,-1.529837548732757568e-01,-3.059675097465515137e-01,5.940000000000000000e+02
-2.741777157757496752e+01,-3.236781007760509965e+01,1.790775796644084039e+01,2.905043998995824950e+01,-2.641865704143128823e+00,1.762000498834458995e+01,4.203335533597783069e+01,1.272326700309713488e+01,9.484992027282714844e+00,-1.529837548732757568e-01,-3.059675097465515137e-01,5.950000000000000000e+02
-2.493221528251524433e+01,-2.994243086461392522e+01,1.950657043850696937e+01,3.188601779187592911e+01,-1.819621755166735966e-01,2.051559925748370006e+01,4.441481846576971293e+01,1.502889138767022814e+01,9.484992027282714844e+00,-1.529837548732757568e-01,-3.059675097465515137e-01,5.960000000000000000e+02
-2.337099606905394467e+01,-2.814041280007404566e+01,2.106194472235983994e+01,3.471309612927871058e+01,1.927507838954625186e+00,2.309123714353700052e+01,4.608120159456666443e+01,1.675566160302514618e+01,9.484992027282714844e+00,-1.529837548732757568e-01,-3.059675097465515137e-01,5.970000000000000000e+02
-2.304100069469859591e+01,-2.738709159058817022e+01,2.250411684273967694e+01,3.687879406291540363e+01,3.371471604456019122e+00,2.518066600675592781e+01,4.632857785930900718e+01,1.780111871023837011e+01,9.484992027282714844e+00,-1.529837548732757568e-01,-3.059675097465515137e-01,5.980000000000000000e+02
-2.367859796570701292e+01,-2.724594620524840138e+01,2.341990274855925236e+01,3.825745117165206466e+01,3.800169367739727022e+00,2.691412480939470697e+01,4.538236320997020812e+01,1.825913664293329930e+01,9.561484336853027344e+00,-1.912296712398529053e-01,-3.442134261131286621e-01,5.990000000000000000e+02
-2.456294016183164786e+01,-2.684723535413286299e+01,2.335668629061365209e+01,3.914087739543538191e+01,3.111359743281354895e+00,2.827352776259067468e+01,4.427907032246366725e+01,1.821221939128736267e+01,9.561484336853027344e+00,-1.912296712398529053e-01,-3.442134261131286621e-01,6.000000000000000000e+02
-2.493587885820670635e+01,-2.562947951704882144e+01,2.234552770253139897e+01,3.992668029255582951e+01,1.738397938403068110e+00,2.890623553319528583e+01,4.410994371875131037e+01,1.770921773045120062e+01,9.561484336853027344e+00,-1.912296712398529053e-01,-3.442134261131286621e-01,6.010000000000000000e+02
-2.445330433281924343e+01,-2.377963026502038701e+01,2.110989820282702567e+01,4.086565651685305056e+01,6.101241814103559591e-01,2.842956675151071977e+01,4.525588166520174127e+01,1.690931556545183412e+01,9.561484336853027344e+00,-1.912296712398529053e-01,-3.442134261131286621e-01,6.020000000000000000e+02
-2.334280448633944616e+01,-2.204116205030368292e+01,2.064073363827628782e+01,4.198663682995174895e+01,6.668061976051831152e-01,2.692400826647281065e+01,4.721938761582714505e+01,1.619188254233813495e+01,9.561484336853027344e+00,-1.912296712398529053e-01,-3.442134261131286621e-01,6.030000000000000000e+02
-2.216367940338750486e+01,-2.109310991921302048e+01,2.141157251820550300e+01,4.315336303398726159e+01,2.213148171671491582e+00,2.507379141249475651e+01,4.909624816685027326e+01,1.605095659480866743e+01,9.561484336853027344e+00,-1.912296712398529053e-01,-3.442134261131286621e-01,6.040000000000000000e+02
-2.137926061847610981e+01,-2.101530290815935587e+01,2.291623814225386013e+01,4.416764450978007517e+01,4.622099537213216536e+00,2.375114332525481586e+01,5.022603073429854703e+01,1.681131168744468596e+01,9.561484336853027344e+00,-1.912296712398529053e-01,-3.442134261131286621e-01,6.050000000000000000e+02
-2.107652399480139138e+01,-2.124114285920222756e+01,2.402336898877183557e+01,4.487458989130755072e+01,6.723036002938897582e+00,2.340751784208259778e+01,5.054624899087502854e+01,1.842131627274648054e+01,9.561484336853027344e+00,-1.912296712398529053e-01,-3.442134261131286621e-01,6.060000000000000000e+02
-2.100490209478448378e+01,-2.098616530328217777e+01,2.393309674687770894e+01,4.525494708710175473e+01,7.662260053857608000e+00,2.383492131055027130e+01,5.050710461851485888e+01,2.055246047643231577e+01,9.561484336853027344e+00,-1.912296712398529053e-01,-3.442134261131286621e-01,6.070000000000000000e+02
-2.082063873310835334e+01,-1.977652308540200465e+01,2.293810668128207908e+01,4.547117327867090353e+01,7.582031688591087004e+00,2.449771466338643222e+01,5.072244338356176740e+01,2.294311014657796477e+01,9.561484336853027344e+00,-1.912296712398529053e-01,-3.442134261131286621e-01,6.080000000000000000e+02
-2.029030983644770458e+01,-1.770625944996572798e+01,2.229370583908894332e+01,4.581525930561838322e+01,7.559083289248519577e+00,2.508311366153793642e+01,5.160740834653188358e+01,2.565388787868869258e+01,9.561484336853027344e+00,-1.912296712398529053e-01,-3.442134261131286621e-01,6.090000000000000000e+02
-1.933633731094596442e+01,-1.530979159031267045e+01,2.322301584966771770e+01,4.653950028997496702e+01,8.794712905386404600e+00,2.573454257443518145e+01,5.314506249398618820e+01,2.893857195638702251e+01,9.561484336853027344e+00,-1.912296712398529053e-01,-3.442134261131286621e-01,6.100000000000000000e+02
-1.800486432942125248e+01,-1.323326472751796246e+01,2.583321859193529235e+01,4.764736710969009437e+01,1.164807347056921571e+01,2.677319573059867253e+01,5.484020202928149956e+01,3.278713003731172648e+01,9.561484336853027344e+00,-1.912296712398529053e-01,-3.442134261131286621e-01,6.110000000000000000e+02
-1.646141408380208304e+01,-1.193619826771100634e+01,2.886981126688260701e+01,4.880253025716228876e+01,1.526252993135858560e+01,2.825087282919776044e+01,5.593824640415914473e+01,3.658590672148056910e+01,9.561484336853027344e+00,-1.912296712398529053e-01,-3.442134261131286621e-01,6.120000000000000000e+02
-1.500295342733443249e+01,-1.155177307986741653e+01,3.056447841809858801e+01,4.947317375668353634e+01,1.808269986389132100e+01,2.981639690429801703e+01,5.586265758941954118e+01,3.932138755857886281e+01,9.561484336853027344e+00,-1.912296712398529053e-01,-3.442134261131286621e-01,6.130000000000000000e+02
-1.398391853478096891e+01,-1.191394195538305212e+01,2.993388078453790513e+01,4.927102360588833108e+01,1.888928752464926220e+01,3.102819962964713341e+01,5.462216122087920667e+01,4.028995941012908588e+01,9.561484336853027344e+00,-1.912296712398529053e-01,-3.442134261131286621e-01,6.140000000000000000e+02
