F3,F4,C3,C4,P3,P4,Cz,Pz,Accel_x,Accel_y,Accel_z,Sample
-4.365574568510055542e-11,-4.183675628155469894e-11,-4.547473508864641190e-11,-4.001776687800884247e-11,-3.819877747446298599e-11,-4.547473508864641190e-11,-3.274180926382541656e-11,-4.456524038687348366e-11,9.561484336853027344e+00,-1.912296712398529053e-01,-4.207052886486053467e-01,2.520000000000000000e+02
-5.740354173831292428e+00,-3.699308789385213458e+00,-2.273247107976203552e+00,3.069355270357846166e+00,-6.569340371111138666e+00,-7.247116192585963290e+00,1.341791094346262980e+00,5.209873791060999793e+00,9.561484336853027344e+00,-1.912296712398529053e-01,-4.207052886486053467e-01,2.530000000000000000e+02
-1.101985225381486089e+01,-7.605740946399237146e+00,-3.902892014665667375e+00,4.911109247099375352e+00,-1.268522710880370141e+01,-1.250328046043250652e+01,2.105548098227700393e+00,8.555747337970387889e+00,9.561484336853027344e+00,-1.912296712398529053e-01,-4.207052886486053467e-01,2.540000000000000000e+02
-1.602724804638091882e+01,-1.250648235499011207e+01,-5.129814195801372989e+00,4.509508022008958505e+00,-1.864073967837884993e+01,-1.581383816677680443e+01,1.757011535896708665e+00,8.933505081186922325e+00,9.561484336853027344e+00,-1.912296712398529053e-01,-4.207052886486053467e-01,2.550000000000000000e+02
-2.154190797151386505e+01,-1.952632504954726755e+01,-6.935420743269787636e+00,1.492279176051852119e+00,-2.534129287251016649e+01,-1.922483672301041224e+01,-8.524918857347074663e-02,6.457655991650426586e+00,9.561484336853027344e+00,-1.912296712398529053e-01,-4.207052886486053467e-01,2.560000000000000000e+02
-2.817766601220500888e+01,-2.913612370696864673e+01,-9.973553171855201072e+00,-3.445517223767637915e+00,-3.336696075490544899e+01,-2.476441050180983439e+01,-3.432318003478030732e+00,2.408284295935118280e+00,9.561484336853027344e+00,-1.912296712398529053e-01,-4.207052886486053467e-01,2.570000000000000000e+02
-3.566862067820329685e+01,-4.035563947883565561e+01,-1.370110599052713951e+01,-8.645969321908523852e+00,-4.219870263134453126e+01,-3.251947984937123692e+01,-7.700506735413910064e+00,-1.367090375460065843e+00,9.561484336853027344e+00,-1.912296712398529053e-01,-4.207052886486053467e-01,2.580000000000000000e+02
-4.294696457560257841e+01,-5.102435757311923226e+01,-1.666467894662946492e+01,-1.230323348804540728e+01,-5.044543380680079281e+01,-4.066763775183517282e+01,-1.172694350380334072e+01,-3.351880389064717747e+00,9.561484336853027344e+00,-1.912296712398529053e-01,-4.207052886486053467e-01,2.590000000000000000e+02
-4.902265483675910218e+01,-5.907412720742377132e+01,-1.771765255040281772e+01,-1.348036134571793809e+01,-5.691781705092307675e+01,-4.724835128109771176e+01,-1.421006213196869794e+01,-3.095720692227587278e+00,9.561484336853027344e+00,-1.912296712398529053e-01,-4.207052886486053467e-01,2.600000000000000000e+02
-5.391630755110691098e+01,-6.382800460163252865e+01,-1.702693433471540629e+01,-1.254297804085217649e+01,-6.158493729918609461e+01,-5.180352570434934023e+01,-1.444420752608857583e+01,-1.360192860891402233e+00,9.446745872497558594e+00,-3.059675097465515137e-01,-4.207052886486053467e-01,2.610000000000000000e+02
-5.878723797347083746e+01,-6.631476191249385010e+01,-1.596080342639197625e+01,-1.069857737274287501e+01,-6.558092776460216555e+01,-5.540214508767257939e+01,-1.284343081120732677e+01,4.319212100599543191e-01,9.446745872497558594e+00,-3.059675097465515137e-01,-4.207052886486053467e-01,2.620000000000000000e+02
-6.506471736212370161e+01,-6.842783333459465211e+01,-1.601723152224167279e+01,-9.108470020140885026e+00,-7.031441273577183892e+01,-5.934428710805605078e+01,-1.078459840350296872e+01,1.085911704653881316e+00,9.446745872497558594e+00,-3.059675097465515137e-01,-4.207052886486053467e-01,2.630000000000000000e+02
-7.327107356275882921e+01,-7.166255856722000317e+01,-1.778094479077572032e+01,-8.318599928748881212e+00,-7.648479472092094511e+01,-6.402150810424973315e+01,-9.789206410775477707e+00,2.678428434373927303e-01,9.446745872497558594e+00,-3.059675097465515137e-01,-4.207052886486053467e-01,2.640000000000000000e+02
-8.251696350772272126e+01,-7.636172923542108038e+01,-2.069835002168110805e+01,-8.318427712706579769e+00,-8.374817513658945245e+01,-6.892312123135070578e+01,-1.061250297090191452e+01,-1.504982443895642064e+00,9.446745872497558594e+00,-3.059675097465515137e-01,-4.207052886486053467e-01,2.650000000000000000e+02
-9.111219337430156884e+01,-8.187474537681373477e+01,-2.366092624342400086e+01,-8.914385663200846466e+00,-9.114670147525976063e+01,-7.345058464470821491e+01,-1.292367499642841722e+01,-3.424118482652374951e+00,9.446745872497558594e+00,-3.059675097465515137e-01,-4.207052886486053467e-01,2.660000000000000000e+02
-9.782334286948935187e+01,-8.730701243243584031e+01,-2.579083598695524415e+01,-9.933892002271022648e+00,-9.783070277101523970e+01,-7.753495082480367273e+01,-1.572794784747657104e+01,-5.023360361868981272e+00,9.446745872497558594e+00,-3.059675097465515137e-01,-4.207052886486053467e-01,2.670000000000000000e+02
-1.027624667377685910e+02,-9.220410567275121139e+01,-2.687991294515086338e+01,-1.115877302288481587e+01,-1.035164008965521134e+02,-8.155375118674328405e+01,-1.806803507637505390e+01,-6.421563950904783269e+00,9.446745872497558594e+00,-3.059675097465515137e-01,-4.207052886486053467e-01,2.680000000000000000e+02
-1.071837982480055871e+02,-9.672938445989075262e+01,-2.737312381784522586e+01,-1.227599360227031866e+01,-1.084737987848784542e+02,-8.587888850762101356e+01,-1.944668794851531857e+01,-8.076992700065602548e+00,9.446745872497558594e+00,-3.059675097465515137e-01,-4.207052886486053467e-01,2.690000000000000000e+02
-1.123821080410034483e+02,-1.013427033007128557e+02,-2.807821965978291701e+01,-1.308275843439150776e+01,-1.132171269555210529e+02,-9.063354108744897530e+01,-1.984593166207832837e+01,-1.036076599187254033e+01,9.446745872497558594e+00,-3.059675097465515137e-01,-4.207052886486053467e-01,2.700000000000000000e+02
-1.186578252997123855e+02,-1.063198185769224438e+02,-2.980268136349332053e+01,-1.376419980778337049e+01,-1.182058306600492870e+02,-9.579951486506161018e+01,-1.963339774632368062e+01,-1.333323453187949781e+01,9.446745872497558594e+00,-3.059675097465515137e-01,-4.207052886486053467e-01,2.710000000000000000e+02
-1.252488794708669957e+02,-1.114996202959036964e+02,-3.302419348814237310e+01,-1.485306425109047268e+01,-1.237299972788614468e+02,-1.013719131595707950e+02,-1.956914464417332056e+01,-1.683689813945147762e+01,9.446745872497558594e+00,-3.059675097465515137e-01,-4.207052886486053467e-01,2.720000000000000000e+02
-1.312234988303334831e+02,-1.164278395637211361e+02,-3.766635177336320339e+01,-1.678467809888934426e+01,-1.299315975107201666e+02,-1.073103359560709578e+02,-2.070976735829299287e+01,-2.068613504970471695e+01,9.446745872497558594e+00,-3.059675097465515137e-01,-4.207052886486053467e-01,2.730000000000000000e+02
-1.364170473580970793e+02,-1.207692216762948192e+02,-4.306319206327316351e+01,-1.943681569723048597e+01,-1.368094989865830939e+02,-1.133769855930659105e+02,-2.389368139904490818e+01,-2.469745415487068385e+01,9.446745872497558594e+00,-3.059675097465515137e-01,-4.207052886486053467e-01,2.740000000000000000e+02
-1.414751172312462586e+02,-1.246704691851286952e+02,-4.817508403909050685e+01,-2.214725101493149850e+01,-1.441494983539496388e+02,-1.191327594193326149e+02,-2.896647014678910637e+01,-2.856787010298739915e+01,9.446745872497558594e+00,-3.059675097465515137e-01,-4.207052886486053467e-01,2.750000000000000000e+02
-1.469804059479774878e+02,-1.287721612112418370e+02,-5.198669936893020349e+01,-2.426229897307894134e+01,-1.514868470200499360e+02,-1.241761623135980699e+02,-3.445033957049145101e+01,-3.184893899496364611e+01,9.446745872497558594e+00,-3.059675097465515137e-01,-4.207052886486053467e-01,2.760000000000000000e+02
-1.526282960007174552e+02,-1.338070777262555566e+02,-5.393364526494679012e+01,-2.572031788609092473e+01,-1.582613313946785638e+02,-1.284272480039544462e+02,-3.823745259687711950e+01,-3.419135209228988970e+01,9.446745872497558594e+00,-3.059675097465515137e-01,-4.207052886486053467e-01,2.770000000000000000e+02
-1.574265229655920848e+02,-1.400352650578902285e+02,-5.418886670915844661e+01,-2.707815154370564414e+01,-1.641492953611323173e+02,-1.321934394790496299e+02,-3.900909419593790517e+01,-3.569812406305209151e+01,9.446745872497558594e+00,-3.059675097465515137e-01,-4.207052886486053467e-01,2.780000000000000000e+02
-1.608042712149062936e+02,-1.469078583625851024e+02,-5.364211738084759418e+01,-2.889880070237450127e+01,-1.693016580223638812e+02,-1.359385518083108764e+02,-3.724919687401052215e+01,-3.698758443549286312e+01,9.446745872497558594e+00,-3.059675097465515137e-01,-4.207052886486053467e-01,2.790000000000000000e+02
-1.634512073302071258e+02,-1.532203630217386490e+02,-5.346836631342057444e+01,-3.105882785701123794e+01,-1.742140461966964722e+02,-1.399386965340518145e+02,-3.490240910909778904e+01,-3.876851037731285032e+01,9.446745872497558594e+00,-3.059675097465515137e-01,-4.207052886486053467e-01,2.800000000000000000e+02
-1.668551645024754180e+02,-1.576984824190935797e+02,-5.442366321126792172e+01,-3.266568500178709655e+01,-1.792812941447828052e+02,-1.441072534659615485e+02,-3.387611044604591370e+01,-4.121877604926294225e+01,9.446745872497558594e+00,-3.059675097465515137e-01,-4.207052886486053467e-01,2.810000000000000000e+02
-1.718305670298491350e+02,-1.597025356944518535e+02,-5.630729584954315214e+01,-3.275284735584955342e+01,-1.844514153565869492e+02,-1.481476489472806861e+02,-3.464902428881487140e+01,-4.376726230530039174e+01,9.446745872497558594e+00,-3.059675097465515137e-01,-4.207052886486053467e-01,2.820000000000000000e+02
-1.775063144061000457e+02,-1.596764071508273446e+02,-5.810042909718549708e+01,-3.121277333940361132e+01,-1.893732961979148968e+02,-1.519417069241999343e+02,-3.620381851547153929e+01,-4.562371675710255658e+01,9.446745872497558594e+00,-3.059675097465515137e-01,-4.207052886486053467e-01,2.830000000000000000e+02
-1.819549249039987444e+02,-1.590969681586348088e+02,-5.884935186958000486e+01,-2.916810569624249183e+01,-1.939536643193623604e+02,-1.558480298684817171e+02,-3.727956873509447178e+01,-4.669329875330731738e+01,9.446745872497558594e+00,-3.059675097465515137e-01,-4.207052886486053467e-01,2.840000000000000000e+02
-1.840392132363863311e+02,-1.599000209243522477e+02,-5.865642185973456435e+01,-2.840669798145154346e+01,-1.987565884317091331e+02,-1.605914687504664471e+02,-3.773365937570724782e+01,-4.801626697796973531e+01,9.446745872497558594e+00,-3.059675097465515137e-01,-4.207052886486053467e-01,2.850000000000000000e+02
-1.847201524096085450e+02,-1.635869146623958841e+02,-5.885684472450247995e+01,-3.025823892399057513e+01,-2.047329799930816989e+02,-1.667426583895194199e+02,-3.875607521408392131e+01,-5.115722532085419516e+01,9.446745872497558594e+00,-3.059675097465515137e-01,-4.207052886486053467e-01,2.860000000000000000e+02
-1.864522708384065481e+02,-1.704212189512618352e+02,-6.104923611880349199e+01,-3.473466559485632388e+01,-2.123945868810433240e+02,-1.741806544589917394e+02,-4.180464972632307763e+01,-5.688465633785563114e+01,9.446745872497558594e+00,-3.059675097465515137e-01,-4.207052886486053467e-01,2.870000000000000000e+02
-1.911095132386590194e+02,-1.791930701663782202e+02,-6.570994686430503862e+01,-4.056093758601946320e+01,-2.211592964306305475e+02,-1.820119265243711197e+02,-4.730652749165574278e+01,-6.424044042493824236e+01,9.446745872497558594e+00,-3.059675097465515137e-01,-4.207052886486053467e-01,2.880000000000000000e+02
-1.983434532259889238e+02,-1.878047804219204409e+02,-7.163371608646502864e+01,-4.603286088574895984e+01,-2.295314485372518902e+02,-1.890620153460649817e+02,-5.427536029530756423e+01,-7.092931710435868808e+01,9.446745872497558594e+00,-3.059675097465515137e-01,-4.207052886486053467e-01,2.890000000000000000e+02
-2.059133335587962392e+02,-1.944608599358375614e+02,-7.680815636363331578e+01,-5.006319022608431624e+01,-2.360836589360710605e+02,-1.945781073388625373e+02,-6.107325035855956230e+01,-7.489598355886437275e+01,9.446745872497558594e+00,-3.059675097465515137e-01,-4.207052886486053467e-01,2.900000000000000000e+02
-2.116291460190172984e+02,-1.987404289958130903e+02,-7.998976429741378524e+01,-5.269353703792285160e+01,-2.404573850815691003e+02,-1.986155669212157591e+02,-6.650247141937188644e+01,-7.585219654169259229e+01,9.446745872497558594e+00,-3.059675097465515137e-01,-4.207052886486053467e-01,2.910000000000000000e+02
-2.150417408845473801e+02,-2.017704530734345099e+02,-8.151105499570394386e+01,-5.478967295486290823e+01,-2.435240805814628402e+02,-2.018600138853807948e+02,-7.023435135507543237e+01,-7.542431167426775573e+01,9.523238182067871094e+00,-2.294756323099136353e-01,-4.589512646198272705e-01,2.920000000000000000e+02
-2.173666994892587354e+02,-2.053000280656533505e+02,-8.258180027497110132e+01,-5.723787389706376416e+01,-2.465639798643451286e+02,-2.051067544199986514e+02,-7.240267638510113102e+01,-7.573141463617957925e+01,9.523238182067871094e+00,-2.294756323099136353e-01,-4.589512646198272705e-01,2.930000000000000000e+02
-2.199411443563144530e+02,-2.103199069038532798e+02,-8.385600377418541029e+01,-6.026942438309151839e+01,-2.501857246408453648e+02,-2.088232902047666357e+02,-7.306526312773303289e+01,-7.759817839714787624e+01,9.523238182067871094e+00,-2.294756323099136353e-01,-4.589512646198272705e-01,2.940000000000000000e+02
-2.229307413894748606e+02,-2.162880799922763799e+02,-8.479312659314928169e+01,-6.338466405339340781e+01,-2.539278491494055743e+02,-2.130209171618298569e+02,-7.226565704881522834e+01,-7.997250008450509995e+01,9.523238182067871094e+00,-2.294756323099136353e-01,-4.589512646198272705e-01,2.950000000000000000e+02
-2.255698705087697817e+02,-2.215795853400682063e+02,-8.451201004154654584e+01,-6.585194622699191314e+01,-2.568798209791807494e+02,-2.173741331070195884e+02,-7.062971999596493333e+01,-8.106574682083919470e+01,9.523238182067871094e+00,-2.294756323099136353e-01,-4.589512646198272705e-01,2.960000000000000000e+02
-2.274871090196702426e+02,-2.247925236905171005e+02,-8.322026538365844317e+01,-6.731568037019769690e+01,-2.587508300266872538e+02,-2.214193586305918870e+02,-6.966736094111411148e+01,-8.015782969367046462e+01,9.523238182067871094e+00,-2.294756323099136353e-01,-4.589512646198272705e-01,2.970000000000000000e+02
-2.295046197649289752e+02,-2.258345914592496229e+02,-8.258130016258792239e+01,-6.801050627219001399e+01,-2.603769255272172813e+02,-2.247519090985861112e+02,-7.108279761988069367e+01,-7.839471597104147804e+01,9.523238182067871094e+00,-2.294756323099136353e-01,-4.589512646198272705e-01,2.980000000000000000e+02
-2.329056936302376926e+02,-2.258994778062301521e+02,-8.438107017347283545e+01,-6.844873646059340899e+01,-2.631112205849517522e+02,-2.271987518841110614e+02,-7.538908416453932659e+01,-7.781737680479000119e+01,9.523238182067871094e+00,-2.294756323099136353e-01,-4.589512646198272705e-01,2.990000000000000000e+02
-2.378914283905778575e+02,-2.264222117907183929e+02,-8.867340604871014875e+01,-6.890889772945320146e+01,-2.675806927007429294e+02,-2.289007033861103082e+02,-8.103549803372789029e+01,-7.951513958447685582e+01,9.523238182067871094e+00,-2.294756323099136353e-01,-4.589512646198272705e-01,3.000000000000000000e+02
-2.429369516390484023e+02,-2.279771946766727524e+02,-9.330135107576143128e+01,-6.923083125083076084e+01,-2.729397687822061016e+02,-2.302228772310058957e+02,-8.509391134620636876e+01,-8.261955983904317691e+01,9.523238182067871094e+00,-2.294756323099136353e-01,-4.589512646198272705e-01,3.010000000000000000e+02
-2.459250821390596684e+02,-2.300533918938267561e+02,-9.547454710418560353e+01,-6.909747100770209727e+01,-2.773667349532697699e+02,-2.315074766150128198e+02,-8.524210589091262591e+01,-8.502590390018258404e+01,9.523238182067871094e+00,-2.294756323099136353e-01,-4.589512646198272705e-01,3.020000000000000000e+02
-2.460999303358958059e+02,-2.317873715185064611e+02,-9.408551801256362523e+01,-6.847840637797571617e+01,-2.794429991008860270e+02,-2.328440892299795451e+02,-8.151912973208027324e+01,-8.511995429928765589e+01,9.523238182067871094e+00,-2.294756323099136353e-01,-4.589512646198272705e-01,3.030000000000000000e+02
-2.449427587021614272e+02,-2.328735909060551421e+02,-9.064533297792240774e+01,-6.774714677572819710e+01,-2.792324315486357591e+02,-2.340474829532058720e+02,-7.635869957236991468e+01,-8.294040367405568759e+01,9.523238182067871094e+00,-2.294756323099136353e-01,-4.589512646198272705e-01,3.040000000000000000e+02
-2.450265964196196364e+02,-2.337904755239460428e+02,-8.795463207940110806e+01,-6.732776624224243278e+01,-2.781259644354481679e+02,-2.348543910171965763e+02,-7.279356023170112167e+01,-7.987044016590198225e+01,9.523238182067871094e+00,-2.294756323099136353e-01,-4.589512646198272705e-01,3.050000000000000000e+02
-2.478445898730506087e+02,-2.352033056468221730e+02,-8.774390612387469446e+01,-6.723368689289372924e+01,-2.776436544351367957e+02,-2.351685113792927950e+02,-7.229665594083053293e+01,-7.737375893584203368e+01,9.523238182067871094e+00,-2.294756323099136353e-01,-4.589512646198272705e-01,3.060000000000000000e+02
-2.526176871786915399e+02,-2.372126431693804989e+02,-8.945766749019549025e+01,-6.701952851831583757e+01,-2.783365734218673424e+02,-2.351775745024710886e+02,-7.403302965222064813e+01,-7.606017948595854250e+01,9.523238182067871094e+00,-2.294756323099136353e-01,-4.589512646198272705e-01,3.070000000000000000e+02
-2.571359845195433991e+02,-2.392119990189235068e+02,-9.118364352194839739e+01,-6.624329757249824979e+01,-2.797334081303215498e+02,-2.352749480190359463e+02,-7.598794882356742164e+01,-7.578658510415198180e+01,9.523238182067871094e+00,-2.294756323099136353e-01,-4.589512646198272705e-01,3.080000000000000000e+02
-2.597572675807314226e+02,-2.404590203028938049e+02,-9.164660867129305188e+01,-6.498126816884996515e+01,-2.811839850168839803e+02,-2.358472335258607018e+02,-7.677699878359135255e+01,-7.633048714506912802e+01,9.523238182067871094e+00,-2.294756323099136353e-01,-4.589512646198272705e-01,3.090000000000000000e+02
-2.606598468691795460e+02,-2.407648480655743697e+02,-9.127682582004263168e+01,-6.383583316927024498e+01,-2.825886706963024153e+02,-2.370274435456444735e+02,-7.648468295018665231e+01,-7.768694396468163177e+01,9.523238182067871094e+00,-2.294756323099136353e-01,-4.589512646198272705e-01,3.100000000000000000e+02
-2.612829548175232048e+02,-2.406482105598061025e+02,-9.143239596559351412e+01,-6.340868869964197074e+01,-2.842584472157122946e+02,-2.385446235441213503e+02,-7.601397380749494914e+01,-7.968681530445746830e+01,9.523238182067871094e+00,-2.294756323099136353e-01,-4.589512646198272705e-01,3.110000000000000000e+02
-2.626857630476315535e+02,-2.408758586408903284e+02,-9.275772568667616724e+01,-6.378787711498944191e+01,-2.862057602468585173e+02,-2.398031391565168633e+02,-7.591087576961217565e+01,-8.156766781927854026e+01,9.523238182067871094e+00,-2.294756323099136353e-01,-4.589512646198272705e-01,3.120000000000000000e+02
-2.645306915664555163e+02,-2.418986835056198288e+02,-9.444486193557304432e+01,-6.458537704766285970e+01,-2.878090635671487689e+02,-2.402198023232454034e+02,-7.595837689433346895e+01,-8.223236116652105920e+01,9.523238182067871094e+00,-3.059675097465515137e-01,-4.589512646198272705e-01,3.130000000000000000e+02
-2.656457419967946407e+02,-2.436908790529932958e+02,-9.511357808025877603e+01,-6.546387562467998578e+01,-2.883471627478024857e+02,-2.396472198359956565e+02,-7.581363198871986242e+01,-8.112265743458783618e+01,9.523238182067871094e+00,-3.059675097465515137e-01,-4.589512646198272705e-01,3.140000000000000000e+02
-2.654726284637234812e+02,-2.459993852870487672e+02,-9.429736205116887504e+01,-6.653741193150767685e+01,-2.878537123661963051e+02,-2.385487762125731024e+02,-7.574204509197033985e+01,-7.882294509859229947e+01,9.523238182067871094e+00,-3.059675097465515137e-01,-4.589512646198272705e-01,3.150000000000000000e+02
-2.648665162549772276e+02,-2.486155796828015809e+02,-9.295673005499111241e+01,-6.815648314004829444e+01,-2.873092124391142761e+02,-2.377198350451558326e+02,-7.646747010842250347e+01,-7.667620500004841233e+01,9.523238182067871094e+00,-3.059675097465515137e-01,-4.589512646198272705e-01,3.160000000000000000e+02
-2.654261950312064755e+02,-2.513632143517841087e+02,-9.251828343190004489e+01,-7.028154679501335522e+01,-2.878622345941457752e+02,-2.377216361693658655e+02,-7.825437127310283358e+01,-7.569071960482983741e+01,9.523238182067871094e+00,-3.059675097465515137e-01,-4.589512646198272705e-01,3.170000000000000000e+02
-2.680109223366174547e+02,-2.539212433108903042e+02,-9.345780568652344300e+01,-7.215737277265179728e+01,-2.898100165950693281e+02,-2.384874072153602356e+02,-8.029820306705619259e+01,-7.575606340824379004e+01,9.523238182067871094e+00,-3.059675097465515137e-01,-4.589512646198272705e-01,3.180000000000000000e+02
-2.718709905104967675e+02,-2.558057479657890099e+02,-9.486006651460866124e+01,-7.273093453252249674e+01,-2.923437758024599589e+02,-2.394383437361589131e+02,-8.122868681992122220e+01,-7.588118141010227191e+01,9.523238182067871094e+00,-3.059675097465515137e-01,-4.589512646198272705e-01,3.190000000000000000e+02
-2.751873684142643697e+02,-2.566185249301048543e+02,-9.533851279515579336e+01,-7.150386365703570846e+01,-2.942940301586438636e+02,-2.399883150807586389e+02,-8.030892312333571681e+01,-7.515623479251132721e+01,9.523238182067871094e+00,-3.059675097465515137e-01,-4.589512646198272705e-01,3.200000000000000000e+02
-2.764635692594945340e+02,-2.563214575729199396e+02,-9.432036256837659494e+01,-6.902461188060919994e+01,-2.951211723364780255e+02,-2.399738480255241484e+02,-7.811632883589186349e+01,-7.348420382147230612e+01,9.523238182067871094e+00,-3.059675097465515137e-01,-4.589512646198272705e-01,3.210000000000000000e+02
-2.755269933677068366e+02,-2.552536161554969567e+02,-9.245347115194181242e+01,-6.653088647597292038e+01,-2.952181934058495472e+02,-2.396540908091078563e+02,-7.599704498319135837e+01,-7.146876959398582585e+01,9.523238182067871094e+00,-3.059675097465515137e-01,-4.589512646198272705e-01,3.220000000000000000e+02
-2.734190738760676140e+02,-2.539017821371783157e+02,-9.088162054981785332e+01,-6.505053769117625961e+01,-2.953499797089574486e+02,-2.393615970043319976e+02,-7.485421217236876146e+01,-6.973773218254154926e+01,9.523238182067871094e+00,-3.059675097465515137e-01,-4.589512646198272705e-01,3.230000000000000000e+02
-2.715025935838675650e+02,-2.526883943601787905e+02,-9.024092561427505643e+01,-6.474846097080967411e+01,-2.959012558898414227e+02,-2.391886959545583977e+02,-7.448181152763515911e+01,-6.844877557764243647e+01,9.523238182067871094e+00,-3.059675097465515137e-01,-4.589512646198272705e-01,3.240000000000000000e+02
-2.706794869468794786e+02,-2.519533819456732999e+02,-9.035667025765815197e+01,-6.503022239306142183e+01,-2.966943775833611880e+02,-2.389932546630684556e+02,-7.403764711836083734e+01,-6.739374467658603862e+01,9.523238182067871094e+00,-3.059675097465515137e-01,-4.589512646198272705e-01,3.250000000000000000e+02
-2.712078522110350605e+02,-2.519967258380704607e+02,-9.075112246384628634e+01,-6.519554884826220587e+01,-2.974422401712165538e+02,-2.386567249928543788e+02,-7.304951105346219720e+01,-6.642384807773510147e+01,9.523238182067871094e+00,-3.059675097465515137e-01,-4.589512646198272705e-01,3.260000000000000000e+02
-2.728930007253568419e+02,-2.529555633408642166e+02,-9.125144185307590305e+01,-6.500641144812993844e+01,-2.982346919779949985e+02,-2.383022360993593338e+02,-7.188227701827031524e+01,-6.566920950830910897e+01,9.523238182067871094e+00,-3.059675097465515137e-01,-4.589512646198272705e-01,3.270000000000000000e+02
-2.752079857971971251e+02,-2.545632762961159870e+02,-9.203753658511413960e+01,-6.472709911436982111e+01,-2.994987830972972915e+02,-2.382638657911392102e+02,-7.127965899365653968e+01,-6.537532179787126552e+01,9.523238182067871094e+00,-3.059675097465515137e-01,-4.589512646198272705e-01,3.280000000000000000e+02
-2.772978624948185598e+02,-2.561218010773191622e+02,-9.320782683048139461e+01,-6.473454796102646469e+01,-3.014784020618616296e+02,-2.388574653029983210e+02,-7.158076966697990429e+01,-6.562776098431845639e+01,9.523238182067871094e+00,-3.059675097465515137e-01,-4.589512646198272705e-01,3.290000000000000000e+02
-2.782107665394678406e+02,-2.569077385786723084e+02,-9.446233309360536623e+01,-6.512667766233926159e+01,-3.038000320588799923e+02,-2.401501442281388563e+02,-7.244771091940822316e+01,-6.628039170506440314e+01,9.523238182067871094e+00,-3.059675097465515137e-01,-4.589512646198272705e-01,3.300000000000000000e+02
-2.774822088800274287e+02,-2.567529304836006645e+02,-9.528139693306331992e+01,-6.565309572347700851e+01,-3.055980486782768821e+02,-2.418893974844885406e+02,-7.327755409507915374e+01,-6.709033083313352108e+01,9.523238182067871094e+00,-3.059675097465515137e-01,-4.589512646198272705e-01,3.310000000000000000e+02
-2.756222913285969298e+02,-2.562436386055484263e+02,-9.533956825777420363e+01,-6.594355403766962809e+01,-3.061064598276191191e+02,-2.436215093361061008e+02,-7.371023480804376504e+01,-6.782584044742998231e+01,9.523238182067871094e+00,-3.059675097465515137e-01,-4.589512646198272705e-01,3.320000000000000000e+02
-2.738771899110658978e+02,-2.562545868540242395e+02,-9.465473361875126557e+01,-6.577560188837992428e+01,-3.051803861740027060e+02,-2.449242454167668939e+02,-7.366112586338579149e+01,-6.824083728351070022e+01,9.523238182067871094e+00,-3.059675097465515137e-01,-4.589512646198272705e-01,3.330000000000000000e+02
-2.732355804291059940e+02,-2.571709357783646510e+02,-9.333579490031320347e+01,-6.518495360329734467e+01,-3.033083726205478570e+02,-2.456247909129232312e+02,-7.298179844605238031e+01,-6.806924762631615522e+01,9.523238182067871094e+00,-3.059675097465515137e-01,-4.589512646198272705e-01,3.340000000000000000e+02
-2.734884533829713291e+02,-2.585001916944397635e+02,-9.129927294507285751e+01,-6.441430637525377279e+01,-3.011609725250599467e+02,-2.458671648254082811e+02,-7.132340691596891702e+01,-6.718014710431225467e+01,9.523238182067871094e+00,-3.059675097465515137e-01,-4.589512646198272705e-01,3.350000000000000000e+02
-2.733223391134858389e+02,-2.592510095217498929e+02,-8.838648712831582088e+01,-6.380147516770921357e+01,-2.991304299728336673e+02,-2.459642458559557099e+02,-6.851933043139206347e+01,-6.578990870368090782e+01,9.523238182067871094e+00,-3.059675097465515137e-01,-4.589512646198272705e-01,3.360000000000000000e+02
-2.715318934988815158e+02,-2.587403042134569091e+02,-8.479688203017201431e+01,-6.365690471034258735e+01,-2.972475903568247304e+02,-2.461119410969398587e+02,-6.508399187234249439e+01,-6.444169542404461026e+01,9.523238182067871094e+00,-3.059675097465515137e-01,-4.589512646198272705e-01,3.370000000000000000e+02
-2.683082428285384822e+02,-2.571072210333134080e+02,-8.131968399845129625e+01,-6.411365359040246403e+01,-2.954427481943787370e+02,-2.461867565766302732e+02,-6.215109506336739287e+01,-6.364679106242817852e+01,9.523238182067871094e+00,-2.677215635776519775e-01,-3.824593424797058105e-01,3.380000000000000000e+02
-2.653518797348041289e+02,-2.551050391021364021e+02,-7.898600245861803160e+01,-6.496751422747456672e+01,-2.937992962760260980e+02,-2.458197966869198581e+02,-6.071333509691896779e+01,-6.346841706590953436e+01,9.523238182067871094e+00,-2.677215635776519775e-01,-3.824593424797058105e-01,3.390000000000000000e+02
-2.645809308184198017e+02,-2.534283740110737426e+02,-7.836452652511570705e+01,-6.563081671374470716e+01,-2.925248233951924703e+02,-2.447239043607149824e+02,-6.079578169500496188e+01,-6.345478504210132087e+01,9.523238182067871094e+00,-2.677215635776519775e-01,-3.824593424797058105e-01,3.400000000000000000e+02
-2.665290072926782159e+02,-2.522074945593471966e+02,-7.913712898324354228e+01,-6.534267422072980480e+01,-2.917276992691359965e+02,-2.430129081305919954e+02,-6.136693020548841560e+01,-6.302733557502301664e+01,9.523238182067871094e+00,-2.677215635776519775e-01,-3.824593424797058105e-01,3.410000000000000000e+02
-2.698659533350667061e+02,-2.510822539275364420e+02,-8.037134043200217093e+01,-6.362273305062683448e+01,-2.913167025033640130e+02,-2.412225349161136592e+02,-6.116716354911670805e+01,-6.201468501857709725e+01,9.523238182067871094e+00,-2.677215635776519775e-01,-3.824593424797058105e-01,3.420000000000000000e+02
-2.724713884243086568e+02,-2.497117770325219794e+02,-8.126157617480146200e+01,-6.070679332581050858e+01,-2.911589089670537192e+02,-2.399785826819479553e+02,-5.978316696998024327e+01,-6.087617097142162947e+01,9.523238182067871094e+00,-2.677215635776519775e-01,-3.824593424797058105e-01,3.430000000000000000e+02
-2.730812226707995478e+02,-2.482051849315925551e+02,-8.167675963386636795e+01,-5.759086827341650405e+01,-2.912979436996229197e+02,-2.395670915857800765e+02,-5.804601170441787872e+01,-6.043232989716841530e+01,9.523238182067871094e+00,-2.677215635776519775e-01,-3.824593424797058105e-01,3.440000000000000000e+02
-2.720760116189604787e+02,-2.470828143649625872e+02,-8.206566192512605085e+01,-5.552207927502308848e+01,-2.919226022326377006e+02,-2.397614477681806875e+02,-5.741091998874981073e+01,-6.132137647929926061e+01,9.523238182067871094e+00,-2.677215635776519775e-01,-3.824593424797058105e-01,3.450000000000000000e+02
-2.708439754231300185e+02,-2.468214363925695807e+02,-8.288164631378140257e+01,-5.520485571531332880e+01,-2.930505904449127001e+02,-2.400468637698807015e+02,-5.882416188244724253e+01,-6.356018730047389909e+01,9.523238182067871094e+00,-2.677215635776519775e-01,-3.824593424797058105e-01,3.460000000000000000e+02
-2.704541615639290058e+02,-2.473917253446894051e+02,-8.408815927885200381e+01,-5.628813301697698535e+01,-2.942619076584049935e+02,-2.400299414701821661e+02,-6.195669634502326062e+01,-6.644866214901730928e+01,9.523238182067871094e+00,-2.677215635776519775e-01,-3.824593424797058105e-01,3.470000000000000000e+02
-2.708739947598498929e+02,-2.481892564563220844e+02,-8.514818312803015488e+01,-5.755991331208929296e+01,-2.948246418340826267e+02,-2.396613695299828350e+02,-6.533533508719006022e+01,-6.883069300213537645e+01,9.523238182067871094e+00,-2.677215635776519775e-01,-3.824593424797058105e-01,3.480000000000000000e+02
-2.712896379077538427e+02,-2.484226300397843943e+02,-8.542049806085299224e+01,-5.775015048717523314e+01,-2.941727982951692866e+02,-2.390894731399287139e+02,-6.721857024311862006e+01,-6.957357724256326037e+01,9.523238182067871094e+00,-2.677215635776519775e-01,-3.824593424797058105e-01,3.490000000000000000e+02
-2.710149924677559738e+02,-2.476499727257172481e+02,-8.456130495211004927e+01,-5.634075647338033832e+01,-2.923043540808338321e+02,-2.383208587597174528e+02,-6.658236105298590246e+01,-6.805984986019109328e+01,9.523238182067871094e+00,-2.677215635776519775e-01,-3.824593424797058105e-01,3.500000000000000000e+02
-2.700305526069456619e+02,-2.460196358978327567e+02,-8.262141999709285756e+01,-5.377299108250940662e+01,-2.897189787210278382e+02,-2.370780229704503199e+02,-6.358966754766345275e+01,-6.448086181166013375e+01,9.523238182067871094e+00,-2.677215635776519775e-01,-3.824593424797058105e-01,3.510000000000000000e+02
-2.687157084460927194e+02,-2.440101766985354175e+02,-7.989128219753456506e+01,-5.095474193355448733e+01,-2.869805515987483204e+02,-2.350483539379905551e+02,-5.933630774533469321e+01,-5.977069211898128742e+01,9.523238182067871094e+00,-2.677215635776519775e-01,-3.824593424797058105e-01,3.520000000000000000e+02
-2.672162333886457191e+02,-2.419121648080446789e+02,-7.675338841653081090e+01,-4.855107094622576369e+01,-2.843708899716466476e+02,-2.323061480720382406e+02,-5.514176187396924433e+01,-5.518870321460258310e+01,9.523238182067871094e+00,-2.677215635776519775e-01,-3.824593424797058105e-01,3.530000000000000000e+02
-2.652067120851623940e+02,-2.395572427907291058e+02,-7.367607501670318015e+01,-4.666891945382906215e+01,-2.819664458565841869e+02,-2.294729751491478282e+02,-5.189068880579372944e+01,-5.178563419024078485e+01,9.523238182067871094e+00,-2.677215635776519775e-01,-3.824593424797058105e-01,3.540000000000000000e+02
-2.623283666163046064e+02,-2.366032850992951353e+02,-7.123299403728344714e+01,-4.512155844983374209e+01,-2.799680186451998907e+02,-2.273849468132208358e+02,-4.982180024134027008e+01,-5.006560652777795895e+01,9.523238182067871094e+00,-2.677215635776519775e-01,-3.824593424797058105e-01,3.550000000000000000e+02
-2.588523528995040692e+02,-2.331479628975291121e+02,-6.995311558356240766e+01,-4.391789570886885485e+01,-2.788040783476188835e+02,-2.265133884116036143e+02,-4.878893278079374340e+01,-4.997613594719143748e+01,9.523238182067871094e+00,-2.677215635776519775e-01,-3.824593424797058105e-01,3.560000000000000000e+02
-2.558081791700768690e+02,-2.300175808851914780e+02,-6.998126139658018019e+01,-4.342886620892898009e+01,-2.787512414434931998e+02,-2.266343992960393052e+02,-4.862695387499513799e+01,-5.106115650893900693e+01,9.523238182067871094e+00,-2.677215635776519775e-01,-3.824593424797058105e-01,3.570000000000000000e+02
-2.542924488087556369e+02,-2.282870047813028123e+02,-7.079563097854861553e+01,-4.403515489601545596e+01,-2.793796315281447278e+02,-2.270090947521605358e+02,-4.922547318278657258e+01,-5.255368234594209298e+01,9.523238182067871094e+00,-2.677215635776519775e-01,-3.824593424797058105e-01,3.580000000000000000e+02
-2.544936599276514926e+02,-2.283315772245640005e+02,-7.131570222063055553e+01,-4.560207112423643139e+01,-2.794519295136467463e+02,-2.268719901567061470e+02,-5.027723298791272555e+01,-5.344687483475536283e+01,9.523238182067871094e+00,-2.677215635776519775e-01,-3.824593424797058105e-01,3.590000000000000000e+02
-2.553185751828715411e+02,-2.292694723270734585e+02,-7.045301213449238276e+01,-4.730367168093903274e+01,-2.775786439194548620e+02,-2.257820842101320977e+02,-5.107037482112673388e+01,-5.276067018424703292e+01,9.523238182067871094e+00,-2.677215635776519775e-01,-3.824593424797058105e-01,3.600000000000000000e+02
-2.550713258919720374e+02,-2.294367940859045234e+02,-6.778558654401138028e+01,-4.800998202302787377e+01,-2.732371426118321551e+02,-2.236250101625995512e+02,-5.072000630140303201e+01,-5.006332506326327803e+01,9.523238182067871094e+00,-2.677215635776519775e-01,-3.824593424797058105e-01,3.610000000000000000e+02
-2.527362212125405563e+02,-2.276383138968998878e+02,-6.387018772294413793e+01,-4.695752645017091709e+01,-2.673392611140693589e+02,-2.204636010436079232e+02,-4.878506657155753601e+01,-4.590181615186679664e+01,9.523238182067871094e+00,-2.677215635776519775e-01,-3.824593424797058105e-01,3.620000000000000000e+02
-2.488134988751926926e+02,-2.241346922983709078e+02,-5.993798677543350095e+01,-4.419102103794841696e+01,-2.618046117580273631e+02,-2.165288736812045727e+02,-4.571711346001802667e+01,-4.164429292273348437e+01,9.523238182067871094e+00,-2.677215635776519775e-01,-3.824593424797058105e-01,3.630000000000000000e+02
-2.449753150096065042e+02,-2.204663038881615194e+02,-5.716384623272699628e+01,-4.047990484827471391e+01,-2.583831595065569218e+02,-2.123536236075915440e+02,-4.261977271584601112e+01,-3.866882070648603076e+01,9.523238182067871094e+00,-2.677215635776519775e-01,-3.824593424797058105e-01,3.640000000000000000e+02
-2.427984964984578369e+02,-2.182217457353868895e+02,-5.602093643011346558e+01,-3.684036762468235793e+01,-2.575949898225696870e+02,-2.087444585878065482e+02,-4.041522277426383880e+01,-3.748589099326989071e+01,9.561484336853027344e+00,-2.677215635776519775e-01,-3.824593424797058105e-01,3.650000000000000000e+02
-2.426273889859796782e+02,-2.178187893432225906e+02,-5.616844947081824557e+01,-3.404952310979194863e+01,-2.585893323967177366e+02,-2.064113985046690232e+02,-3.915202972027407213e+01,-3.758073313061311183e+01,9.561484336853027344e+00,-2.677215635776519775e-01,-3.824593424797058105e-01,3.660000000000000000e+02
-2.434991601129299283e+02,-2.183363351006885296e+02,-5.689345919579670863e+01,-3.244316879512780361e+01,-2.599783558285714662e+02,-2.054967822824359018e+02,-3.813531640526218780e+01,-3.813521314644629001e+01,9.561484336853027344e+00,-2.677215635776519775e-01,-3.824593424797058105e-01,3.670000000000000000e+02
-2.440963655212086110e+02,-2.184721662290710924e+02,-5.767997606055041615e+01,-3.199494545754316732e+01,-2.608940225056642248e+02,-2.054500832055441606e+02,-3.677643363104971286e+01,-3.890002917646597780e+01,9.561484336853027344e+00,-2.677215635776519775e-01,-3.824593424797058105e-01,3.680000000000000000e+02
-2.437947953711573064e+02,-2.176896820191544748e+02,-5.842011668977727368e+01,-3.248313743511209850e+01,-2.613802000842222242e+02,-2.054232821453558699e+02,-3.530656004631271117e+01,-4.029707050923718725e+01,9.561484336853027344e+00,-2.677215635776519775e-01,-3.824593424797058105e-01,3.690000000000000000e+02
-2.429013612290610240e+02,-2.165168090880175100e+02,-5.915643000803368068e+01,-3.358379886740965503e+01,-2.618722831890947873e+02,-2.048567598268214169e+02,-3.460132540255210642e+01,-4.262451890472459581e+01,9.561484336853027344e+00,-2.677215635776519775e-01,-3.824593424797058105e-01,3.700000000000000000e+02
-2.420239379893976093e+02,-2.158340818455055796e+02,-5.969142215039664734e+01,-3.488871513974947902e+01,-2.623692282499646353e+02,-2.037347640825887538e+02,-3.524355686443982449e+01,-4.522195749719799096e+01,9.561484336853027344e+00,-2.677215635776519775e-01,-3.824593424797058105e-01,3.710000000000000000e+02
-2.413219747955556613e+02,-2.159324486874041895e+02,-5.950978578308979650e+01,-3.594679450574506063e+01,-2.621644139193302863e+02,-2.023412992464110403e+02,-3.674707306781158422e+01,-4.657089654895492004e+01,9.561484336853027344e+00,-2.677215635776519775e-01,-3.824593424797058105e-01,3.720000000000000000e+02
-2.403848102309154910e+02,-2.162407550920737549e+02,-5.813945499295959962e+01,-3.637223640901027011e+01,-2.604221848403187778e+02,-2.008389757002914848e+02,-3.774640547582430372e+01,-4.539036048214575203e+01,9.561484336853027344e+00,-2.677215635776519775e-01,-3.824593424797058105e-01,3.730000000000000000e+02
-2.387545979331965782e+02,-2.159119189554327249e+02,-5.563935820025267276e+01,-3.597983683273218958e+01,-2.570539205014597428e+02,-1.991262236920887290e+02,-3.706469267076761298e+01,-4.175529738860473117e+01,9.561484336853027344e+00,-2.677215635776519775e-01,-3.824593424797058105e-01,3.740000000000000000e+02
-2.364468861154920205e+02,-2.146226959989979832e+02,-5.273333183310035110e+01,-3.486831903074767069e+01,-2.530175694285831014e+02,-1.970714087602123072e+02,-3.470871199397527107e+01,-3.715142024043552738e+01,9.561484336853027344e+00,-2.677215635776519775e-01,-3.824593424797058105e-01,3.750000000000000000e+02
-2.339388207537906510e+02,-2.128059368324718434e+02,-5.041669475663650246e+01,-3.339807576774569498e+01,-2.496919541488771301e+02,-1.948111200742815754e+02,-3.188244359765121771e+01,-3.336742729505351690e+01,9.561484336853027344e+00,-2.677215635776519775e-01,-3.824593424797058105e-01,3.760000000000000000e+02
-2.317278745973474088e+02,-2.111759189561441872e+02,-4.935005102336720029e+01,-3.207072607487282312e+01,-2.478603830285031790e+02,-1.927815214954994190e+02,-3.003678048098106501e+01,-3.122092351965875423e+01,9.561484336853027344e+00,-2.677215635776519775e-01,-3.824593424797058105e-01,3.770000000000000000e+02
-2.299846169916577310e+02,-2.100787156758043466e+02,-4.951770703819670416e+01,-3.132972464942986335e+01,-2.471867428397852109e+02,-1.914390627540724381e+02,-2.979961833579568520e+01,-3.020956195055896387e+01,9.561484336853027344e+00,-2.677215635776519775e-01,-3.824593424797058105e-01,3.780000000000000000e+02
-2.286007513761699101e+02,-2.092821400213975949e+02,-5.035976248110500819e+01,-3.134130372334436743e+01,-2.465996902633494301e+02,-1.909332496049158863e+02,-3.065749422676753966e+01,-2.926964487255395397e+01,9.561484336853027344e+00,-2.677215635776519775e-01,-3.824593424797058105e-01,3.790000000000000000e+02
-2.274218708005543021e+02,-2.083146995823323095e+02,-5.117420225318915072e+01,-3.186759814830656978e+01,-2.451845848537274151e+02,-1.909957133584506437e+02,-3.153265111314885871e+01,-2.780661085021858980e+01,9.561484336853027344e+00,-2.677215635776519775e-01,-3.824593424797058105e-01,3.800000000000000000e+02
-2.262997269256693471e+02,-2.069373416620451280e+02,-5.142840557565875770e+01,-3.234778422905003481e+01,-2.428053455834108263e+02,-1.910863485480041390e+02,-3.164454744870135983e+01,-2.605118816969388718e+01,9.561484336853027344e+00,-2.677215635776519775e-01,-3.824593424797058105e-01,3.810000000000000000e+02
-2.249386508392062751e+02,-2.052701961084673030e+02,-5.079986351466834549e+01,-3.219203166329918986e+01,-2.400005679206673221e+02,-1.906470473722542920e+02,-3.091555502513699594e+01,-2.456682577709830184e+01,9.561484336853027344e+00,-2.677215635776519775e-01,-3.824593424797058105e-01,3.820000000000000000e+02
-2.228503357789896882e+02,-2.035035885993964939e+02,-4.907081420095312296e+01,-3.110102989846313903e+01,-2.373525002422969692e+02,-1.892807112172682764e+02,-2.968653173430902825e+01,-2.351405174075091509e+01,9.561484336853027344e+00,-2.677215635776519775e-01,-3.824593424797058105e-01,3.830000000000000000e+02
-2.196416376381123428e+02,-2.015617324923688329e+02,-4.612903840833939739e+01,-2.915769387410250602e+01,-2.349337877338923590e+02,-1.867931215316468752e+02,-2.814404331516402635e+01,-2.239993836806024774e+01,9.561484336853027344e+00,-2.677215635776519775e-01,-3.824593424797058105e-01,3.840000000000000000e+02
-2.154126543939617022e+02,-1.990783421994840410e+02,-4.212753138624702842e+01,-2.661958857445756621e+01,-2.322547621514074763e+02,-1.831421796351272633e+02,-2.604125013821817447e+01,-2.046463388949587170e+01,9.561484336853027344e+00,-2.677215635776519775e-01,-3.824593424797058105e-01,3.850000000000000000e+02
-2.108159129876316911e+02,-1.957029732799801423e+02,-3.761538173388419182e+01,-2.362103322685629792e+01,-2.286872217329103023e+02,-1.783917266233465853e+02,-2.294318122375307212e+01,-1.727589030828005434e+01,9.561484336853027344e+00,-2.677215635776519775e-01,-3.824593424797058105e-01,3.860000000000000000e+02
-2.066469160487931731e+02,-1.914542360656429310e+02,-3.342451946794631112e+01,-2.010299372252723060e+01,-2.239989373182511372e+02,-1.727447824788272328e+02,-1.873573471893791975e+01,-1.303672213470440511e+01,9.561484336853027344e+00,-2.677215635776519775e-01,-3.824593424797058105e-01,3.870000000000000000e+02
-2.033264626390621288e+02,-1.868359542397753330e+02,-3.032054902111815409e+01,-1.606409207541651085e+01,-2.186086661571121113e+02,-1.666370109805360471e+02,-1.392552108425206825e+01,-8.467464314312110218e+00,9.561484336853027344e+00,-2.677215635776519775e-01,-3.824593424797058105e-01,3.880000000000000000e+02
-2.007507585163457406e+02,-1.826622697931854873e+02,-2.865256318301248939e+01,-1.186667105990068194e+01,-2.134067856147808016e+02,-1.607632137967995050e+02,-9.459003862309032229e+00,-4.461260016708251896e+00,9.561484336853027344e+00,-2.677215635776519775e-01,-3.824593424797058105e-01,3.890000000000000000e+02
-1.986034665963231873e+02,-1.797375122988253224e+02,-2.826403789988432891e+01,-8.226622370287714148e+00,-2.092812750371767834e+02,-1.559033657121849501e+02,-6.215623887346851006e+00,-1.764194086262818928e+00,9.561484336853027344e+00,-2.677215635776519775e-01,-3.824593424797058105e-01,3.900000000000000000e+02
-1.967607049917694440e+02,-1.785586467231285042e+02,-2.871717820171716085e+01,-5.816592010838007809e+00,-2.066679610909286566e+02,-1.525739605579494764e+02,-4.583908338712603836e+00,-7.765239562513670535e-01,9.561484336853027344e+00,-2.677215635776519775e-01,-3.824593424797058105e-01,3.910000000000000000e+02
-1.953721733596673857e+02,-1.791122951024130998e+02,-2.962283907779635683e+01,-4.813627335745195523e+00,-2.054043318525028781e+02,-1.507454549692879482e+02,-4.402508626642315903e+00,-1.462338457465079955e+00,9.561484336853027344e+00,-2.677215635776519775e-01,-3.824593424797058105e-01,3.920000000000000000e+02
-1.945834220149829434e+02,-1.807993099309970830e+02,-3.080201702821273102e+01,-4.781373048622299393e+00,-2.049182223048137530e+02,-1.498873142716374787e+02,-5.169567542632876211e+00,-3.345537103878882590e+00,9.561484336853027344e+00,-2.677215635776519775e-01,-3.824593424797058105e-01,3.930000000000000000e+02
-1.942367679339735105e+02,-1.825540316365957096e+02,-3.217466064779864610e+01,-4.957325554382350674e+00,-2.045450385848974975e+02,-1.493373062264563487e+02,-6.217438308180931017e+00,-5.619929615939554424e+00,9.561484336853027344e+00,-2.677215635776519775e-01,-3.824593424797058105e-01,3.940000000000000000e+02
-1.938560081075992230e+02,-1.832162043397387379e+02,-3.350033498475181659e+01,-4.663921827667763864e+00,-2.037229440986642430e+02,-1.486783770486529193e+02,-6.714430894945621731e+00,-7.376660466712110065e+00,9.561484336853027344e+00,-2.677215635776519775e-01,-3.824593424797058105e-01,3.950000000000000000e+02
-1.929052475729664593e+02,-1.820677135599576104e+02,-3.424933732317106205e+01,-3.529118880051328233e+00,-2.020175250664896112e+02,-1.477858748003804976e+02,-5.712008824978170196e+00,-7.904795777982940308e+00,9.484992027282714844e+00,-1.912296712398529053e-01,-4.207052886486053467e-01,3.960000000000000000e+02
-1.910867435707544928e+02,-1.792625123974762573e+02,-3.380160144494607266e+01,-1.499563309685754575e+00,-1.991482904411449226e+02,-1.465733653790271092e+02,-2.550226917271402272e+00,-6.985453741493074631e+00,9.484992027282714844e+00,-1.912296712398529053e-01,-4.207052886486053467e-01,3.970000000000000000e+02
-1.884869486539998888e+02,-1.758382005305531948e+02,-3.190035821287699491e+01,1.157901177417329563e+00,-1.951673137689919031e+02,-1.448019983926392342e+02,2.465587912499245249e+00,-5.078903595918859537e+00,9.484992027282714844e+00,-1.912296712398529053e-01,-4.207052886486053467e-01,3.980000000000000000e+02
-1.855388141320295290e+02,-1.732131615087268983e+02,-2.902164630467609641e+01,3.801781893054453576e+00,-1.906625410455377505e+02,-1.422504166274884483e+02,7.737872430584275207e+00,-3.270011407945844439e+00,9.484992027282714844e+00,-1.912296712398529053e-01,-4.207052886486053467e-01,3.990000000000000000e+02
-1.828577779223350035e+02,-1.724240142416174422e+02,-2.630522548292140073e+01,5.512596153031154245e+00,-1.866658614968971506e+02,-1.390964652921313700e+02,1.100957651011390226e+01,-2.870179425127275863e+00,9.484992027282714844e+00,-1.912296712398529053e-01,-4.207052886486053467e-01,4.000000000000000000e+02
-1.809979174375015418e+02,-1.735574633629446453e+02,-2.497759951404157164e+01,5.531149374742312830e+00,-1.841424618561871966e+02,-1.360340990249346760e+02,1.080307556695765925e+01,-4.758611001052145184e+00,9.484992027282714844e+00,-1.912296712398529053e-01,-4.207052886486053467e-01,4.010000000000000000e+02
-1.801864972697658231e+02,-1.757295591422227972e+02,-2.559461762207649826e+01,3.856677004976404532e+00,-1.833631453027333009e+02,-1.338566483982137925e+02,7.615030201527019926e+00,-8.792096703276911285e+00,9.484992027282714844e+00,-1.912296712398529053e-01,-4.207052886486053467e-01,4.020000000000000000e+02
-1.801720317752119627e+02,-1.776082413822293802e+02,-2.765026657908708785e+01,1.478008393884692850e+00,-1.836740252914362372e+02,-1.327971887517282994e+02,3.754096455196417992e+00,-1.371957068679330405e+01,9.484992027282714844e+00,-1.912296712398529053e-01,-4.207052886486053467e-01,4.030000000000000000e+02
-1.803437108076632285e+02,-1.781443234703366443e+02,-2.988865035212836574e+01,-1.377064493681245949e-01,-1.839294440326552831e+02,-1.322632220541231618e+02,1.725909211229236462e+00,-1.780908040057693142e+01,9.484992027282714844e+00,-1.912296712398529053e-01,-4.207052886486053467e-01,4.040000000000000000e+02
-1.801023860292598329e+02,-1.770807911282074656e+02,-3.114179436543543034e+01,-3.324430083512197598e-02,-1.832983142531452359e+02,-1.312881256949717681e+02,2.376110761800532600e+00,-1.988464126823168954e+01,9.484992027282714844e+00,-1.912296712398529053e-01,-4.207052886486053467e-01,4.050000000000000000e+02
-1.792235396458320338e+02,-1.749712783980494351e+02,-3.107350826305037117e+01,1.559311431045443896e+00,-1.817979187161640766e+02,-1.293257781329607496e+02,4.352709922865301451e+00,-2.005835911467136157e+01,9.484992027282714844e+00,-1.912296712398529053e-01,-4.207052886486053467e-01,4.060000000000000000e+02
-1.779000250928756941e+02,-1.727331841522544664e+02,-3.024212162851370067e+01,3.466786896743087709e+00,-1.801163495824584970e+02,-1.266559592423570848e+02,5.371344205838113339e+00,-1.954730308385114768e+01,9.484992027282714844e+00,-1.912296712398529053e-01,-4.207052886486053467e-01,4.070000000000000000e+02
-1.764286553684160026e+02,-1.710201925498381570e+02,-2.943137203902335841e+01,4.599837269127419859e+00,-1.788649003181958506e+02,-1.240111158686929684e+02,4.214758306427711432e+00,-1.963042576448879117e+01,9.484992027282714844e+00,-1.912296712398529053e-01,-4.207052886486053467e-01,4.080000000000000000e+02
-1.748508462034519653e+02,-1.697720618341497811e+02,-2.882998229341171736e+01,4.903896978375996696e+00,-1.778852602528004354e+02,-1.217809237146711894e+02,1.757350642587198308e+00,-2.051641364464967410e+01,9.484992027282714844e+00,-1.912296712398529053e-01,-4.207052886486053467e-01,4.090000000000000000e+02
-1.729080365265838282e+02,-1.682156227322932409e+02,-2.779963854012885349e+01,5.439387017012222714e+00,-1.761996471990803457e+02,-1.195537469256778422e+02,2.079467061867035227e-01,-2.104441992840543207e+01,9.484992027282714844e+00,-1.912296712398529053e-01,-4.207052886486053467e-01,4.100000000000000000e+02
-1.703610374935415166e+02,-1.653466246338841756e+02,-2.548202527874536827e+01,7.532702603511324924e+00,-1.727003332473873343e+02,-1.164409490455286686e+02,1.333264628604410973e+00,-1.953789252064530046e+01,9.484992027282714844e+00,-1.912296712398529053e-01,-4.207052886486053467e-01,4.110000000000000000e+02
-1.673280716394547198e+02,-1.606294072794423755e+02,-2.172399564787269810e+01,1.171239762167647314e+01,-1.670848795867664194e+02,-1.118960189213371450e+02,5.218182214488024329e+00,-1.518026468527477846e+01,9.484992027282714844e+00,-1.912296712398529053e-01,-4.207052886486053467e-01,4.120000000000000000e+02
-1.642475281361703310e+02,-1.544744607903899123e+02,-1.745434628068483107e+01,1.727948570287367147e+01,-1.603013539233045321e+02,-1.062779025747852302e+02,1.048115626257958866e+01,-8.806594279779346834e+00,9.484992027282714844e+00,-1.912296712398529053e-01,-4.207052886486053467e-01,4.130000000000000000e+02
-1.614441374435871239e+02,-1.481392584244804311e+02,-1.408094073918550748e+01,2.278941783084701456e+01,-1.540835138705574536e+02,-1.006486302143357534e+02,1.549427487912635115e+01,-2.448014590788261557e+00,9.484992027282714844e+00,-1.912296712398529053e-01,-4.207052886486053467e-01,4.140000000000000000e+02
-1.587253074715622461e+02,-1.430719293483239198e+02,-1.237463592243943822e+01,2.698767549548665556e+01,-1.498511259147414876e+02,-9.600400608017343984e+01,1.937604038242125171e+01,1.994555843430134701e+00,9.484992027282714844e+00,-1.912296712398529053e-01,-4.207052886486053467e-01,4.150000000000000000e+02
-1.554816062086788406e+02,-1.401211955916332954e+02,-1.183744376960498812e+01,2.945619422516597297e+01,-1.478109149710221573e+02,-9.263812755776825725e+01,2.199400829740829977e+01,3.851632589684868435e+00,9.484992027282714844e+00,-1.912296712398529053e-01,-4.207052886486053467e-01,4.160000000000000000e+02
-1.512989222221797263e+02,-1.391449431791884308e+02,-1.117166080496735958e+01,3.056886840839251818e+01,-1.469709609786573310e+02,-9.017267135630845587e+01,2.333993739291190650e+01,3.719950891509142821e+00,9.523238182067871094e+00,-1.912296712398529053e-01,-3.442134261131286621e-01,4.170000000000000000e+02
-1.465440055322760600e+02,-1.392479099591548675e+02,-9.477211010284008808e+00,3.096046933438674387e+01,-1.460496948964355397e+02,-8.812156004533881060e+01,2.320353078889365861e+01,2.589327934713310242e+00,9.523238182067871094e+00,-1.912296712398529053e-01,-3.442134261131286621e-01,4.180000000000000000e+02
-1.423046649344389607e+02,-1.393800059466871062e+02,-7.090058583897643985e+00,3.104937789426367090e+01,-1.444837545946852515e+02,-8.637166610718281845e+01,2.158246946811664202e+01,1.014286095789429964e+00,9.523238182067871094e+00,-1.912296712398529053e-01,-3.442134261131286621e-01,4.190000000000000000e+02
-1.396180562896163337e+02,-1.388093089520993999e+02,-5.268099621640430996e+00,3.098918316158369635e+01,-1.426568419497018567e+02,-8.510266682228234458e+01,1.930431430756993905e+01,-8.931826329908290063e-01,9.523238182067871094e+00,-1.912296712398529053e-01,-3.442134261131286621e-01,4.200000000000000000e+02
-1.386100145101183898e+02,-1.372138272713596052e+02,-4.991203162351212086e+00,3.096068970336318671e+01,-1.412173777370840071e+02,-8.428155659222716167e+01,1.798088823410785153e+01,-2.817253732159770152e+00,9.523238182067871094e+00,-1.912296712398529053e-01,-3.442134261131286621e-01,4.210000000000000000e+02
-1.383347757156880107e+02,-1.345472636385807164e+02,-5.996810024802925909e+00,3.138950040066151814e+01,-1.402447420541016072e+02,-8.334385114743986378e+01,1.903558037894913468e+01,-3.842122992368331325e+00,9.523238182067871094e+00,-1.912296712398529053e-01,-3.442134261131286621e-01,4.220000000000000000e+02
-1.375148149629148975e+02,-1.309803087053414856e+02,-6.955627007198927458e+00,3.278966571410410324e+01,-1.391181267554709393e+02,-8.148512307699957091e+01,2.256756069868197301e+01,-2.919868368408970127e+00,9.523238182067871094e+00,-1.912296712398529053e-01,-3.442134261131286621e-01,4.230000000000000000e+02
-1.355461748485822682e+02,-1.269911011156211771e+02,-6.598530726730359675e+00,3.534566731269524098e+01,-1.371773178976118288e+02,-7.835028074940987608e+01,2.713970308590614877e+01,1.776867073606354097e-01,9.523238182067871094e+00,-1.912296712398529053e-01,-3.442134261131286621e-01,4.240000000000000000e+02
-1.328589519351903618e+02,-1.233433608158470633e+02,-4.710501138340077887e+00,3.864972500847443371e+01,-1.344194464491918097e+02,-7.445291121364380160e+01,3.080672849582560957e+01,4.439766056962071161e+00,9.523238182067871094e+00,-1.912296712398529053e-01,-3.442134261131286621e-01,4.250000000000000000e+02
-1.303284283858042727e+02,-1.207438954551130337e+02,-2.075239439170672995e+00,4.188555604031807889e+01,-1.314530464268573269e+02,-7.087501096158212022e+01,3.255386751612149965e+01,8.291410997168441099e+00,9.523238182067871094e+00,-1.912296712398529053e-01,-3.442134261131286621e-01,4.260000000000000000e+02
-1.283513073084338885e+02,-1.193705861598764386e+02,4.857114421254209446e-01,4.432321663456878014e+01,-1.287785625534904739e+02,-6.848492275722855993e+01,3.289225066835638245e+01,1.080325311458932447e+01,9.523238182067871094e+00,-1.912296712398529053e-01,-3.442134261131286621e-01,4.270000000000000000e+02
-1.265145781041585451e+02,-1.187392192948457250e+02,2.931545751534031297e+00,4.567910885137257537e+01,-1.262441011777041240e+02,-6.736454956476654843e+01,3.311376428874996236e+01,1.226463272357818823e+01,9.523238182067871094e+00,-1.912296712398529053e-01,-3.442134261131286621e-01,4.280000000000000000e+02
-1.241622314263922817e+02,-1.181131476732552983e+02,5.833296200208678783e+00,4.605176623849820317e+01,-1.233400003473657307e+02,-6.693367991528270977e+01,3.395059552522661761e+01,1.357047075967420824e+01,9.523238182067871094e+00,-1.912296712398529053e-01,-3.442134261131286621e-01,4.290000000000000000e+02
-1.212227263114348261e+02,-1.170747345833074178e+02,9.458303389552384033e+00,4.562254086970096978e+01,-1.200137435109213584e+02,-6.655658914192963493e+01,3.494534306257264689e+01,1.512601586915388907e+01,9.523238182067871094e+00,-1.912296712398529053e-01,-3.442134261131286621e-01,4.300000000000000000e+02
-1.183887916408675665e+02,-1.156863940470664147e+02,1.312980486942410607e+01,4.455000740436844353e+01,-1.170472500320584004e+02,-6.600091723552804979e+01,3.510753725457516339e+01,1.646732233125771927e+01,9.523238182067871094e+00,-1.912296712398529053e-01,-3.442134261131286621e-01,4.310000000000000000e+02
-1.164022090951457358e+02,-1.140671379281400277e+02,1.562752954684492579e+01,4.322308203953389238e+01,-1.154489908412926980e+02,-6.535699856899964288e+01,3.417911106667952481e+01,1.700844004785426478e+01,9.523238182067871094e+00,-1.912296712398529053e-01,-3.442134261131286621e-01,4.320000000000000000e+02
-1.151795740336726794e+02,-1.118931079918993419e+02,1.628699422245676942e+01,4.251050382674816319e+01,-1.153915950266573418e+02,-6.461538858381936734e+01,3.321500138627629894e+01,1.705824390233760823e+01,9.523238182067871094e+00,-1.912296712398529053e-01,-3.442134261131286621e-01,4.330000000000000000e+02
-1.137354924260771440e+02,-1.084906246633040610e+02,1.570474139196494434e+01,4.348870240225960515e+01,-1.158097370042908096e+02,-6.344451137524606565e+01,3.383761887465743712e+01,1.787560463063482530e+01,9.523238182067871094e+00,-1.912296712398529053e-01,-3.442134261131286621e-01,4.340000000000000000e+02
-1.110658291338886556e+02,-1.035364067125094607e+02,1.530671579210684285e+01,4.664104696435947517e+01,-1.151819626342726224e+02,-6.144572191718725662e+01,3.681752331156394575e+01,2.051739094497906990e+01,9.523238182067871094e+00,-1.912296712398529053e-01,-3.442134261131286621e-01,4.350000000000000000e+02
-1.071542429642920524e+02,-9.762704083418861956e+01,1.615863540121927144e+01,5.122282175995474063e+01,-1.128284080098919731e+02,-5.859963472998515499e+01,4.132255735647345318e+01,2.461172696400512905e+01,9.523238182067871094e+00,-1.912296712398529053e-01,-3.442134261131286621e-01,4.360000000000000000e+02
-1.030951935866326039e+02,-9.199901887414648627e+01,1.815085885003054500e+01,5.556303661026186091e+01,-1.094874215526101580e+02,-5.539214601278717964e+01,4.559532610030419164e+01,2.843186784562794855e+01,9.523238182067871094e+00,-1.912296712398529053e-01,-3.442134261131286621e-01,4.370000000000000000e+02
-1.001640029763643724e+02,-8.753112244102521800e+01,2.029902892659470126e+01,5.827122525369031791e+01,-1.065958743539638363e+02,-5.243461040962938569e+01,4.847136287103512586e+01,3.039568554726702132e+01,9.523238182067871094e+00,-1.912296712398529053e-01,-3.442134261131286621e-01,4.380000000000000000e+02
-9.870437112158924720e+01,-8.399148925771123686e+01,2.180382736297087831e+01,5.935172990549017413e+01,-1.049492525280620612e+02,-4.992482075387715668e+01,5.033509303728646955e+01,3.060900042228240636e+01,9.523238182067871094e+00,-1.912296712398529053e-01,-3.442134261131286621e-01,4.390000000000000000e+02
-9.788885672715082364e+01,-8.035106236105684729e+01,2.279121088038868947e+01,6.012884455920493565e+01,-1.040099586348439971e+02,-4.749332159506866446e+01,5.259452433678552552e+01,3.088273622612427971e+01,9.523238182067871094e+00,-1.912296712398529053e-01,-3.442134261131286621e-01,4.400000000000000000e+02
-9.653515254157764502e+01,-7.592360439517483428e+01,2.404956859938238267e+01,6.193661758096595804e+01,-1.024887439521273791e+02,-4.461174390812175261e+01,5.615176070412758236e+01,3.309197789941572410e+01,9.523238182067871094e+00,-1.912296712398529053e-01,-3.442134261131286621e-01,4.410000000000000000e+02
-9.418312447120979414e+01,-7.122800874772588031e+01,2.610017218693928953e+01,6.473637121575461606e+01,-9.962418799937131553e+01,-4.119841930620077619e+01,6.028287104094420101e+01,3.738130692815821021e+01,9.561484336853027344e+00,-2.294756323099136353e-01,-3.059675097465515137e-01,4.420000000000000000e+02
-9.142757693591420320e+01,-6.768973181026399288e+01,2.858140370292676380e+01,6.701053954263147716e+01,-9.595276014750083959e+01,-3.783286810727940974e+01,6.301155703828680998e+01,4.193660293438347253e+01,9.561484336853027344e+00,-2.294756323099136353e-01,-3.059675097465515137e-01,4.430000000000000000e+02
-8.925524183989068661e+01,-6.641035888567921575e+01,3.056283432268878641e+01,6.710907986815391268e+01,-9.288475337380373276e+01,-3.534972662261043297e+01,6.271280577570905734e+01,4.457266072516949862e+01,9.561484336853027344e+00,-2.294756323099136353e-01,-3.059675097465515137e-01,4.440000000000000000e+02
-8.806214791549155052e+01,-6.714824433041530938e+01,3.144969813885177246e+01,6.480387650394914090e+01,-9.151126933045270562e+01,-3.417239715565801816e+01,5.956395704471287900e+01,4.463953960480148453e+01,9.561484336853027344e+00,-2.294756323099136353e-01,-3.059675097465515137e-01,4.450000000000000000e+02
-8.725175763996867317e+01,-6.844263776527441223e+01,3.157101911426957486e+01,6.157046966304233138e+01,-9.172378018166500624e+01,-3.398771104251181896e+01,5.558206674355528776e+01,4.349253051084565413e+01,9.561484336853027344e+00,-2.294756323099136353e-01,-3.059675097465515137e-01,4.460000000000000000e+02
-8.571274357110655728e+01,-6.872273365752266727e+01,3.188266505452725141e+01,5.933947020482241896e+01,-9.235854383198784490e+01,-3.403332039711767720e+01,5.320709313401607687e+01,4.319198097515777590e+01,9.561484336853027344e+00,-2.294756323099136353e-01,-3.059675097465515137e-01,4.470000000000000000e+02
-8.270716135817133363e+01,-6.739505504593148544e+01,3.311295309579622881e+01,5.894048147300281926e+01,-9.211582136555557554e+01,-3.369086856582725886e+01,5.362255150359442268e+01,4.477759127562103458e+01,9.561484336853027344e+00,-2.294756323099136353e-01,-3.059675097465515137e-01,4.480000000000000000e+02
-7.843390005278592980e+01,-6.503198919017359003e+01,3.519628653318886791e+01,5.971555282412441557e+01,-9.038810062666584599e+01,-3.281917162148693023e+01,5.616642040678448211e+01,4.775108469217298079e+01,9.561484336853027344e+00,-2.294756323099136353e-01,-3.059675097465515137e-01,4.490000000000000000e+02
-7.382402190700645406e+01,-6.256043360001535802e+01,3.757407948843933809e+01,6.062958844914464862e+01,-8.730622018592839595e+01,-3.153383778817897110e+01,5.925414665266407610e+01,5.114560640837021310e+01,9.561484336853027344e+00,-2.294756323099136353e-01,-3.059675097465515137e-01,4.500000000000000000e+02
-6.985457435853641073e+01,-6.029265394342769468e+01,3.994649646634888995e+01,6.166471933236721270e+01,-8.318167862670270551e+01,-2.974882853288909246e+01,6.186610103530256310e+01,5.490461581336285235e+01,9.561484336853027344e+00,-2.294756323099136353e-01,-3.059675097465515137e-01,4.510000000000000000e+02
-6.696986564121471019e+01,-5.767785362325139431e+01,4.262483415016868094e+01,6.401036823201843617e+01,-7.807035738370655054e+01,-2.704180284498897890e+01,6.425468054283714991e+01,6.003542415351535055e+01,9.561484336853027344e+00,-2.294756323099136353e-01,-3.059675097465515137e-01,4.520000000000000000e+02
-6.492234623847889452e+01,-5.385585009979058668e+01,4.615371362274231615e+01,6.885610221951947096e+01,-7.187655222971625335e+01,-2.301844002521829680e+01,6.740492582004912947e+01,6.740175046522176672e+01,9.561484336853027344e+00,-2.294756323099136353e-01,-3.059675097465515137e-01,4.530000000000000000e+02
-6.301802745105896975e+01,-4.846644457891284219e+01,5.062234203001457900e+01,7.600605059755480397e+01,-6.478044175360628287e+01,-1.779045247124440721e+01,7.189138306429504155e+01,7.643519772876243223e+01,9.561484336853027344e+00,-2.294756323099136353e-01,-3.059675097465515137e-01,4.540000000000000000e+02
-6.056837998011451418e+01,-4.208988328594500672e+01,5.538639702462000969e+01,8.367381215007662831e+01,-5.746582449096536038e+01,-1.206357438126678971e+01,7.719376290571176469e+01,8.510342288928836751e+01,9.561484336853027344e+00,-2.294756323099136353e-01,-3.059675097465515137e-01,4.550000000000000000e+02
-5.730725662299823853e+01,-3.602229893413959871e+01,5.949544179621261719e+01,8.964349373601999105e+01,-5.087349592326131642e+01,-6.742864138311233546e+00,8.201828757357316135e+01,9.120743850770213612e+01,9.561484336853027344e+00,-2.294756323099136353e-01,-3.059675097465515137e-01,4.560000000000000000e+02
-5.356132277618826265e+01,-3.155948202066588237e+01,6.239779442898134221e+01,9.270766534359927391e+01,-4.572858046633859885e+01,-2.442663909831480851e+00,8.525795408810722620e+01,9.380715362365117471e+01,9.561484336853027344e+00,-2.294756323099136353e-01,-3.059675097465515137e-01,4.570000000000000000e+02
-5.003614103157337922e+01,-2.925199658038854977e+01,6.425486405328842920e+01,9.316557031853153603e+01,-4.228032345139467907e+01,6.688596038002287969e-01,8.674597718440259086e+01,9.355322485842771130e+01,9.561484336853027344e+00,-2.294756323099136353e-01,-3.059675097465515137e-01,4.580000000000000000e+02
-4.727264650418919700e+01,-2.856960845614048594e+01,6.564914818926081352e+01,9.218260966296043080e+01,-4.038936582377300510e+01,2.684817856758854759e+00,8.727922995414701290e+01,9.185680753118890607e+01,9.561484336853027344e+00,-2.294756323099136353e-01,-3.059675097465515137e-01,4.590000000000000000e+02
-4.512177413530639569e+01,-2.817947478668861550e+01,6.706499193599688624e+01,9.083184626341790135e+01,-3.973446595051245822e+01,3.780365843873823906e+00,8.800704177544957929e+01,8.986546372346629141e+01,9.561484336853027344e+00,-2.294756323099136353e-01,-3.059675097465515137e-01,4.600000000000000000e+02
-4.271512993731562347e+01,-2.671574296762446465e+01,6.863784265793515260e+01,8.968601009488656928e+01,-3.987702368324562485e+01,4.267383287894972455e+00,8.967998304950833699e+01,8.815694484795562857e+01,9.561484336853027344e+00,-2.294756323099136353e-01,-3.059675097465515137e-01,4.610000000000000000e+02
-3.914090760611497899e+01,-2.361508921314998588e+01,7.026132633503993929e+01,8.903722152264731449e+01,-4.022658439385759266e+01,4.704766969294269074e+00,9.222288604187656347e+01,8.710715508089765535e+01,9.561484336853027344e+00,-2.294756323099136353e-01,-3.059675097465515137e-01,4.620000000000000000e+02
-3.437946932989825655e+01,-1.946799835872525364e+01,7.178571812310428868e+01,8.917881165275343847e+01,-4.013504614782868885e+01,5.755073860767424776e+00,9.485179916181550652e+01,8.720954428039385675e+01,9.561484336853027344e+00,-2.294756323099136353e-01,-3.059675097465515137e-01,4.630000000000000000e+02
-2.960396246142499876e+01,-1.553540380347908467e+01,7.312569760194264745e+01,9.038578956162996292e+01,-3.913081271873670630e+01,7.831571740525760106e+00,9.670358546226361796e+01,8.893219890028376540e+01,9.561484336853027344e+00,-2.294756323099136353e-01,-3.059675097465515137e-01,4.640000000000000000e+02
-2.633945650989812748e+01,-1.268632309746089959e+01,7.435675694341625785e+01,9.277390942820738928e+01,-3.705349625036114958e+01,1.091751769459324350e+01,9.764811780246282069e+01,9.238772138981767057e+01,9.561484336853027344e+00,-2.294756323099136353e-01,-3.059675097465515137e-01,4.650000000000000000e+02
-2.505404276348531312e+01,-1.058336181791901254e+01,7.584656836791782553e+01,9.632207867466422613e+01,-3.393804159594765224e+01,1.478560164971440827e+01,9.866174133748427266e+01,9.727854528457578454e+01,9.561484336853027344e+00,-2.294756323099136353e-01,-3.059675097465515137e-01,4.660000000000000000e+02
-2.451416887675441103e+01,-7.920939538635593635e+00,7.818820002156735427e+01,1.009591405092751302e+02,-2.985599805030506104e+01,1.932246806931561878e+01,1.012272100760640114e+02,1.030974464452558550e+02,9.561484336853027344e+00,-2.294756323099136353e-01,-3.059675097465515137e-01,4.670000000000000000e+02
-2.272898034707850456e+01,-3.692809973941848511e+00,8.169584902625024370e+01,1.063769101514715203e+02,-2.502314993239770047e+01,2.447079639289086117e+01,1.059454360353927314e+02,1.091749728718750703e+02,9.561484336853027344e+00,-2.294756323099136353e-01,-3.059675097465515137e-01,4.680000000000000000e+02
-1.878544785486201363e+01,1.597208569321992400e+00,8.578043007184805901e+01,1.116298955439324345e+02,-2.008827948059706614e+01,2.979033224093791432e+01,1.114918068465337910e+02,1.144969887872246090e+02,9.446745872497558594e+00,-1.529837548732757568e-01,-4.589512646198272705e-01,4.690000000000000000e+02
-1.381265211784739222e+01,6.063204099775703071e+00,8.900642656035915934e+01,1.151696797736731241e+02,-1.607937277414339405e+01,3.427827010297642119e+01,1.151676081046423405e+02,1.178256186348576193e+02,9.446745872497558594e+00,-1.529837548732757568e-01,-4.589512646198272705e-01,4.700000000000000000e+02
-9.992672149697227724e+00,8.042755823969628182e+00,9.016733842693156475e+01,1.157628700997265696e+02,-1.371743543584625513e+01,3.696563487101320788e+01,1.150120030411837888e+02,1.185069144894537203e+02,9.446745872497558594e+00,-1.529837548732757568e-01,-4.589512646198272705e-01,4.710000000000000000e+02
-8.504887254576487976e+00,7.724925643673486775e+00,8.951813660104562587e+01,1.136856856635058648e+02,-1.265200502442939978e+01,3.787590963253342125e+01,1.117318911867657789e+02,1.173518874890444295e+02,9.446745872497558594e+00,-1.529837548732757568e-01,-4.589512646198272705e-01,4.720000000000000000e+02
-8.502117613368000093e+00,7.049002303069755726e+00,8.875499054041347335e+01,1.108839956783785965e+02,-1.159435534250496858e+01,3.825983740542915257e+01,1.084205446515256881e+02,1.163998827180637363e+02,9.446745872497558594e+00,-1.529837548732757568e-01,-4.589512646198272705e-01,4.730000000000000000e+02
-8.219621582340778332e+00,7.743671828886590447e+00,8.942162309748164262e+01,1.095273810194266844e+02,-9.553251190496212075e+00,3.956258653232043798e+01,1.079520255104398530e+02,1.172684811521221491e+02,9.446745872497558594e+00,-1.529837548732757568e-01,-4.589512646198272705e-01,4.740000000000000000e+02
-6.987441522527205962e+00,9.473713701326005321e+00,9.126792331829892646e+01,1.101283589745694371e+02,-7.024646390298585175e+00,4.199198581881137216e+01,1.104026812941631306e+02,1.195216166757359133e+02,9.446745872497558594e+00,-1.529837548732757568e-01,-4.589512646198272705e-01,4.750000000000000000e+02
-5.807050942509249580e+00,1.027435544501554432e+01,9.252411394080604623e+01,1.111968101821175878e+02,-5.657745016201261024e+00,4.424085759899799086e+01,1.131812156245009646e+02,1.209770840981327638e+02,9.446745872497558594e+00,-1.529837548732757568e-01,-4.589512646198272705e-01,4.760000000000000000e+02
-5.721291049906767512e+00,9.131265648015869374e+00,9.211320651317009833e+01,1.110211399971858555e+02,-6.377832674253568257e+00,4.487340955108447815e+01,1.139437559936911839e+02,1.200753151421049552e+02,9.446745872497558594e+00,-1.529837548732757568e-01,-4.589512646198272705e-01,4.770000000000000000e+02
-5.889827563864628246e+00,7.927272796167926572e+00,9.141206831770796271e+01,1.097980766720197607e+02,-7.847150694985884911e+00,4.403398930995535920e+01,1.132857406831490152e+02,1.179606518393018177e+02,9.446745872497558594e+00,-1.529837548732757568e-01,-4.589512646198272705e-01,4.780000000000000000e+02
-3.963984704639415213e+00,1.013365077495041078e+01,9.317981970226992416e+01,1.096412937779919048e+02,-7.250377067652152618e+00,4.354961552672466496e+01,1.141104831067134455e+02,1.177263989829907587e+02,9.446745872497558594e+00,-1.529837548732757568e-01,-4.589512646198272705e-01,4.790000000000000000e+02
1.141988852596114157e+00,1.700222291834143107e+01,9.827326669144395055e+01,1.121384715545464132e+02,-3.097431958906781801e+00,4.506926047801698587e+01,1.180359270663752795e+02,1.211110096694405911e+02,9.446745872497558594e+00,-1.529837548732757568e-01,-4.589512646198272705e-01,4.800000000000000000e+02
7.140710777156527911e+00,2.527684103819342454e+01,1.037606058465901242e+02,1.160593694024205433e+02,2.776733701042758184e+00,4.814001167905735201e+01,1.227890205528153729e+02,1.260972544412884417e+02,9.446745872497558594e+00,-1.529837548732757568e-01,-4.589512646198272705e-01,4.810000000000000000e+02
9.958271023526094723e+00,2.965271342721962355e+01,1.052790005120709793e+02,1.181817062357536088e+02,6.595349469467691961e+00,5.051300021553697661e+01,1.240549733365542124e+02,1.285710267147439936e+02,9.446745872497558594e+00,-1.529837548732757568e-01,-4.589512646198272705e-01,4.820000000000000000e+02
8.180754977722472177e+00,2.833020198576764415e+01,1.019803200931751235e+02,1.169861855860362994e+02,6.627667928541995934e+00,5.070511407408730520e+01,1.205306186747729953e+02,1.269977337858429109e+02,9.446745872497558594e+00,-1.529837548732757568e-01,-4.589512646198272705e-01,4.830000000000000000e+02
5.633430984066990277e+00,2.586720433074901848e+01,9.870749422766994030e+01,1.153060206709724298e+02,5.706639837800139503e+00,5.013499446399509907e+01,1.166988707773091392e+02,1.251268885514609792e+02,9.446745872497558594e+00,-1.529837548732757568e-01,-4.589512646198272705e-01,4.840000000000000000e+02
8.169759478340665737e+00,2.911110858908227783e+01,1.017580897866603209e+02,1.181606708515205355e+02,8.807446393147984054e+00,5.204709460366575513e+01,1.191300918517922582e+02,1.287256688498289350e+02,9.446745872497558594e+00,-1.529837548732757568e-01,-4.589512646198272705e-01,4.850000000000000000e+02
1.640863985072155629e+01,3.875362230845348677e+01,1.109949585688809748e+02,1.266224774083477769e+02,1.690118811501179152e+01,5.750828134502853572e+01,1.285288266143522833e+02,1.382210977436056965e+02,9.446745872497558594e+00,-1.529837548732757568e-01,-4.589512646198272705e-01,4.860000000000000000e+02
2.129611714866723560e+01,4.457527655063995553e+01,1.159376762505883107e+02,1.333619515885457076e+02,2.274863385034541352e+01,6.214135340660095608e+01,1.350991338168830680e+02,1.442781196047844787e+02,9.446745872497558594e+00,-1.529837548732757568e-01,-4.589512646198272705e-01,4.870000000000000000e+02
8.165598590126592171e+00,3.048674143725588692e+01,1.011566781619926587e+02,1.252485069320330240e+02,1.367287959257919283e+01,5.733565434568299679e+01,1.231093154335317195e+02,1.319791390197526653e+02,9.446745872497558594e+00,-1.529837548732757568e-01,-4.589512646198272705e-01,4.880000000000000000e+02
-3.242842311117101417e+01,-1.318916787136799940e+01,5.799707603071919948e+01,9.242015268718660082e+01,-1.955624049268226372e+01,3.590513696933885512e+01,8.246809600744109048e+01,9.174950251807740642e+01,9.446745872497558594e+00,-1.529837548732757568e-01,-4.589512646198272705e-01,4.890000000000000000e+02
-9.577024641356592838e+01,-8.022635924655060080e+01,-6.961418612761690383e+00,3.683974276302501494e+01,-7.459468193399561642e+01,-2.113079195069985872e+00,1.801202632337572140e+01,2.829259393514166732e+01,9.446745872497558594e+00,-1.529837548732757568e-01,-4.589512646198272705e-01,4.900000000000000000e+02
-1.640325131187610168e+02,-1.505238775159098168e+02,-7.445033291114077656e+01,-2.714032628846689477e+01,-1.372228009309319532e+02,-4.844725192984697060e+01,-5.178458019641630017e+01,-4.049417179991110061e+01,9.446745872497558594e+00,-1.529837548732757568e-01,-4.589512646198272705e-01,4.910000000000000000e+02
-2.172115671330102487e+02,-2.028009283071910431e+02,-1.246142981167720336e+02,-8.128697949890124619e+01,-1.896904524086330639e+02,-9.144305098275935961e+01,-1.062391832544342378e+02,-9.444201525999937985e+01,9.446745872497558594e+00,-1.529837548732757568e-01,-4.589512646198272705e-01,4.920000000000000000e+02
-2.453559736965667071e+02,-2.278580429065875705e+02,-1.490442404040620659e+02,-1.144902513168526639e+02,-2.213104583044066658e+02,-1.229629690304336691e+02,-1.350172594654920886e+02,-1.233249762565426408e+02,9.446745872497558594e+00,-1.529837548732757568e-01,-4.589512646198272705e-01,4.930000000000000000e+02
-2.525851006921984663e+02,-2.320045719642084805e+02,-1.535021601768658002e+02,-1.277798679399843422e+02,-2.332336695403168960e+02,-1.420419507032329420e+02,-1.421976089678280459e+02,-1.309960442856397549e+02,9.446745872497558594e+00,-1.529837548732757568e-01,-4.589512646198272705e-01,4.940000000000000000e+02
-2.507547937469953467e+02,-2.290225576184357124e+02,-1.504475030861037794e+02,-1.303265839212579067e+02,-2.345759494026756329e+02,-1.531004036157210066e+02,-1.398818185307898148e+02,-1.293133083455495580e+02,9.446745872497558594e+00,-1.529837548732757568e-01,-4.589512646198272705e-01,4.950000000000000000e+02
-2.492848194821851848e+02,-2.286221295665277466e+02,-1.488474947484348831e+02,-1.309645217071763454e+02,-2.342327856757081008e+02,-1.611221314774352322e+02,-1.379784815036364307e+02,-1.281441614509058127e+02,9.446745872497558594e+00,-1.529837548732757568e-01,-4.589512646198272705e-01,4.960000000000000000e+02
-2.497932708941075362e+02,-2.311201401415169130e+02,-1.497011544426025011e+02,-1.326323474790806358e+02,-2.353891566614888688e+02,-1.681452230222362232e+02,-1.387099303193981541e+02,-1.298294491181527519e+02,9.446745872497558594e+00,-1.529837548732757568e-01,-4.589512646198272705e-01,4.970000000000000000e+02
-2.485993621330610495e+02,-2.312312983256103962e+02,-1.492971896502897380e+02,-1.332885713181694882e+02,-2.361485132255604640e+02,-1.733723048397241655e+02,-1.388177199094179741e+02,-1.311929834936267980e+02,9.446745872497558594e+00,-1.529837548732757568e-01,-4.589512646198272705e-01,4.980000000000000000e+02
-2.428803467591258141e+02,-2.255683965566142888e+02,-1.452541395337857466e+02,-1.306624437915529597e+02,-2.339495345216430451e+02,-1.756332428494188207e+02,-1.354132805277349689e+02,-1.292540833252026005e+02,9.446745872497558594e+00,-1.529837548732757568e-01,-4.589512646198272705e-01,4.990000000000000000e+02
-2.340815784252185949e+02,-2.163392654366300576e+02,-1.392086005063165430e+02,-1.255509707372366393e+02,-2.288968448325990721e+02,-1.752799875185746714e+02,-1.293759547229128657e+02,-1.246378428327316215e+02,9.561484336853027344e+00,-1.529837548732757568e-01,-4.589512646198272705e-01,5.000000000000000000e+02
-2.261702562811340158e+02,-2.087232205712502946e+02,-1.346233267121710924e+02,-1.209999747359236153e+02,-2.234332122248231371e+02,-1.739439908011222542e+02,-1.239956781958194370e+02,-1.203255461602252581e+02,9.561484336853027344e+00,-1.529837548732757568e-01,-4.589512646198272705e-01,5.010000000000000000e+02
-2.216515661405937863e+02,-2.057066639846043472e+02,-1.331338483251588514e+02,-1.191668381316917475e+02,-2.197807370175189590e+02,-1.730121091672845068e+02,-1.214851552372790593e+02,-1.182722541145169544e+02,9.561484336853027344e+00,-1.529837548732757568e-01,-4.589512646198272705e-01,5.020000000000000000e+02
-2.197021872204563806e+02,-2.057534756918096264e+02,-1.334131017313361554e+02,-1.194652666169918120e+02,-2.181994949359807379e+02,-1.726599360897589577e+02,-1.212546991598273962e+02,-1.177714773944549052e+02,9.561484336853027344e+00,-1.529837548732757568e-01,-4.589512646198272705e-01,5.030000000000000000e+02
-2.177759044022316175e+02,-2.049830464318906706e+02,-1.331231100609056739e+02,-1.195799164625648245e+02,-2.174578426959437820e+02,-1.722333841469330764e+02,-1.211363784359768943e+02,-1.167793273122156279e+02,9.561484336853027344e+00,-1.529837548732757568e-01,-4.589512646198272705e-01,5.040000000000000000e+02
-2.143967137276131325e+02,-2.010129341404590377e+02,-1.313250519806069860e+02,-1.178412954800585339e+02,-2.163891895030994874e+02,-1.712130821016239679e+02,-1.196122958482642389e+02,-1.142111508623045211e+02,9.561484336853027344e+00,-1.529837548732757568e-01,-4.589512646198272705e-01,5.050000000000000000e+02
-2.102476070293175781e+02,-1.946773684547601988e+02,-1.288731837992113469e+02,-1.144752660687338448e+02,-2.147060608882170527e+02,-1.696322485788068661e+02,-1.166917042658978971e+02,-1.107209853039880727e+02,9.561484336853027344e+00,-1.529837548732757568e-01,-4.589512646198272705e-01,5.060000000000000000e+02
-2.069705620555532732e+02,-1.885895748233490394e+02,-1.269147838855262762e+02,-1.108546564994185246e+02,-2.125736243668370662e+02,-1.677098245458805650e+02,-1.130768638429724433e+02,-1.075642692963783702e+02,9.561484336853027344e+00,-1.529837548732757568e-01,-4.589512646198272705e-01,5.070000000000000000e+02
-2.053981323216287365e+02,-1.845873222836771674e+02,-1.255096532499474051e+02,-1.079580957330251749e+02,-2.099089472228911291e+02,-1.653859906788763965e+02,-1.090808456027821194e+02,-1.051627331630047593e+02,9.561484336853027344e+00,-1.529837548732757568e-01,-4.589512646198272705e-01,5.080000000000000000e+02
-2.049724096398153961e+02,-1.825338290376309942e+02,-1.237679902577037865e+02,-1.056544831504979811e+02,-2.063754251549053151e+02,-1.623780135527938455e+02,-1.045583960053327246e+02,-1.028955438743575996e+02,9.561484336853027344e+00,-1.529837548732757568e-01,-4.589512646198272705e-01,5.090000000000000000e+02
-2.044450122944174382e+02,-1.810468347111188905e+02,-1.209550909952647544e+02,-1.031888774595147424e+02,-2.019331525776149192e+02,-1.586090545898839537e+02,-9.959541339171664731e+01,-9.999631908330479746e+01,9.561484336853027344e+00,-1.529837548732757568e-01,-4.589512646198272705e-01,5.100000000000000000e+02
-2.027641485019753418e+02,-1.788820711167813897e+02,-1.171397673336909975e+02,-1.000156964419036285e+02,-1.971209356589442905e+02,-1.544185645007491985e+02,-9.486462658970003758e+01,-9.632443938676010475e+01,9.561484336853027344e+00,-1.529837548732757568e-01,-4.589512646198272705e-01,5.110000000000000000e+02
-1.993854957851565359e+02,-1.756143439531520016e+02,-1.128299013775858839e+02,-9.612467749413076490e+01,-1.926718537606518566e+02,-1.502997416298539974e+02,-9.116995599436813791e+01,-9.224166986745649410e+01,9.561484336853027344e+00,-1.529837548732757568e-01,-4.589512646198272705e-01,5.120000000000000000e+02
-1.942167859163264438e+02,-1.714296891395408693e+02,-1.082924547375223483e+02,-9.181414939309593137e+01,-1.888884433520186121e+02,-1.464836212547002106e+02,-8.874927637028349636e+01,-8.797036747312290572e+01,9.561484336853027344e+00,-1.529837548732757568e-01,-4.589512646198272705e-01,5.130000000000000000e+02
-1.876896489866592219e+02,-1.667253191054999206e+02,-1.034565445103030470e+02,-8.741186778559995219e+01,-1.854353545642156860e+02,-1.428240591167177627e+02,-8.713196333319024234e+01,-8.330969076610290358e+01,9.561484336853027344e+00,-1.529837548732757568e-01,-4.589512646198272705e-01,5.140000000000000000e+02
-1.808918405774404619e+02,-1.620158382979559519e+02,-9.841277268790668131e+01,-8.325655097739672783e+01,-1.817250589205218603e+02,-1.390793011817868319e+02,-8.564205455667479328e+01,-7.803403936489030457e+01,9.561484336853027344e+00,-1.529837548732757568e-01,-4.589512646198272705e-01,5.150000000000000000e+02
-1.752688653101490672e+02,-1.579634383247523601e+02,-9.376883506042577210e+01,-7.975975457188769724e+01,-1.774924982652612471e+02,-1.352635860075467917e+02,-8.391880837282451466e+01,-7.246563886399212606e+01,9.561484336853027344e+00,-1.529837548732757568e-01,-4.589512646198272705e-01,5.160000000000000000e+02
-1.718041911235391126e+02,-1.551613483637320314e+02,-9.036331015856694648e+01,-7.728713589685526131e+01,-1.730764139217333195e+02,-1.317336545820639913e+02,-8.194337569971662560e+01,-6.755078088221443977e+01,9.561484336853027344e+00,-1.529837548732757568e-01,-4.589512646198272705e-01,5.170000000000000000e+02
-1.703172413696495369e+02,-1.537089238882126665e+02,-8.864235644041195883e+01,-7.591944272026512408e+01,-1.692817123927477496e+02,-1.289843618367108320e+02,-7.972911959630141610e+01,-6.434681740052246823e+01,9.561484336853027344e+00,-1.529837548732757568e-01,-4.589512646198272705e-01,5.180000000000000000e+02
-1.695951588080642978e+02,-1.530055059348289888e+02,-8.836153271688317545e+01,-7.537629507909559834e+01,-1.669720441474473773e+02,-1.273489095615741462e+02,-7.719312871629517758e+01,-6.338582390012311407e+01,9.561484336853027344e+00,-1.529837548732757568e-01,-4.589512646198272705e-01,5.190000000000000000e+02
-1.683131227663968730e+02,-1.520784002816352540e+02,-8.884306098745526015e+01,-7.521847097263935211e+01,-1.665877337840840937e+02,-1.267954613161446105e+02,-7.440297644414943079e+01,-6.439995872725808113e+01,9.561484336853027344e+00,-1.529837548732757568e-01,-4.589512646198272705e-01,5.200000000000000000e+02
-1.659304435136905340e+02,-1.502472650282934410e+02,-8.942444693055176685e+01,-7.513370240797053157e+01,-1.677856184285781183e+02,-1.269083314767228785e+02,-7.185670188023732408e+01,-6.651740427882202766e+01,9.523238182067871094e+00,-2.677215635776519775e-01,-4.589512646198272705e-01,5.210000000000000000e+02
-1.627991373589917430e+02,-1.475864847586075257e+02,-8.965343313814832982e+01,-7.502152375603247947e+01,-1.694405531340586322e+02,-1.270637946778340392e+02,-7.034014621510038978e+01,-6.868895302495184296e+01,9.523238182067871094e+00,-2.677215635776519775e-01,-4.589512646198272705e-01,5.220000000000000000e+02
-1.595243207972213213e+02,-1.448012454159259050e+02,-8.919122844036314746e+01,-7.482008342333801920e+01,-1.701261716737149072e+02,-1.267234046933424452e+02,-7.032014169817966831e+01,-7.004493863758523275e+01,9.523238182067871094e+00,-2.677215635776519775e-01,-4.589512646198272705e-01,5.230000000000000000e+02
-1.563064237441891464e+02,-1.426164815340973746e+02,-8.774355498334762160e+01,-7.430304875535193787e+01,-1.688665149669374159e+02,-1.256735010290763057e+02,-7.137072217825186726e+01,-7.006606163708067925e+01,9.523238182067871094e+00,-2.677215635776519775e-01,-4.589512646198272705e-01,5.240000000000000000e+02
-1.528838358070228196e+02,-1.411608104520985307e+02,-8.520811025284615425e+01,-7.307801557329514708e+01,-1.656477320293159892e+02,-1.240114290877843359e+02,-7.219044680326180696e+01,-6.860724262583732980e+01,9.523238182067871094e+00,-2.677215635776519775e-01,-4.589512646198272705e-01,5.250000000000000000e+02
-1.490065146540219985e+02,-1.398276393519116709e+02,-8.187059563426691966e+01,-7.081008735273485399e+01,-1.613022403828636016e+02,-1.218742876371489956e+02,-7.132100130702497154e+01,-6.585759649171973251e+01,9.523238182067871094e+00,-2.677215635776519775e-01,-4.589512646198272705e-01,5.260000000000000000e+02
-1.448655204496541273e+02,-1.377333949455799029e+02,-7.836826756340235534e+01,-6.749431026588331406e+01,-1.569011728745952041e+02,-1.191939016970407010e+02,-6.811806761323293813e+01,-6.229031003058275928e+01,9.523238182067871094e+00,-2.677215635776519775e-01,-4.589512646198272705e-01,5.270000000000000000e+02
-1.410462184116821618e+02,-1.344314998293097005e+02,-7.538055482302911514e+01,-6.357022813735591171e+01,-1.531818677800498563e+02,-1.157980998806975776e+02,-6.328154348911346005e+01,-5.858779134452947801e+01,9.523238182067871094e+00,-2.677215635776519775e-01,-4.589512646198272705e-01,5.280000000000000000e+02
-1.380936699572528141e+02,-1.303297773919822475e+02,-7.327728572044259181e+01,-5.978254067815794315e+01,-1.503954608512757432e+02,-1.118247888236661538e+02,-5.851198860119211531e+01,-5.547211794892075432e+01,9.523238182067871094e+00,-2.677215635776519775e-01,-4.589512646198272705e-01,5.290000000000000000e+02
-1.361424970795389982e+02,-1.264678726126402353e+02,-7.197818781227226737e+01,-5.684995442907404595e+01,-1.484717243442785275e+02,-1.079865544291012611e+02,-5.546764394602683979e+01,-5.340499281647112184e+01,9.523238182067871094e+00,-2.677215635776519775e-01,-4.589512646198272705e-01,5.300000000000000000e+02
-1.349251773959207981e+02,-1.238186436406242592e+02,-7.107359222086745376e+01,-5.511667261276130603e+01,-1.471421819687840298e+02,-1.052610571757115849e+02,-5.471723580158459299e+01,-5.227790033475804421e+01,9.523238182067871094e+00,-2.677215635776519775e-01,-4.589512646198272705e-01,5.310000000000000000e+02
-1.340817385722879180e+02,-1.226586966465994806e+02,-7.006619358711361656e+01,-5.439551632686482208e+01,-1.459011616782955230e+02,-1.041323788869062241e+02,-5.540595303035473762e+01,-5.134144907495465304e+01,9.523238182067871094e+00,-2.677215635776519775e-01,-4.589512646198272705e-01,5.320000000000000000e+02
-1.334061557293860290e+02,-1.224492341163664832e+02,-6.857028148458809369e+01,-5.409434750200290409e+01,-1.440362969325634594e+02,-1.040459823539638933e+02,-5.584204958750711967e+01,-4.954616114295049556e+01,9.523238182067871094e+00,-2.677215635776519775e-01,-4.589512646198272705e-01,5.330000000000000000e+02
-1.327707178611553331e+02,-1.222216199362686382e+02,-6.641138711036728637e+01,-5.353498452141013786e+01,-1.409616325616107133e+02,-1.036652875882259082e+02,-5.454049859182424598e+01,-4.616674925842045241e+01,9.523238182067871094e+00,-2.677215635776519775e-01,-4.589512646198272705e-01,5.340000000000000000e+02
-1.319425308904995120e+02,-1.212006410257969122e+02,-6.373904820496117907e+01,-5.231257914559648725e+01,-1.367622357130279624e+02,-1.018557333279891850e+02,-5.106607541862432242e+01,-4.138148323163331099e+01,9.523238182067871094e+00,-2.677215635776519775e-01,-4.589512646198272705e-01,5.350000000000000000e+02
-1.305650690454735638e+02,-1.192133943292230924e+02,-6.104306396390498435e+01,-5.048401777432974313e+01,-1.324142530459100158e+02,-9.859133697048422107e+01,-4.616953746619320498e+01,-3.634393666313112448e+01,9.523238182067871094e+00,-2.677215635776519775e-01,-4.589512646198272705e-01,5.360000000000000000e+02
-1.283732044678783666e+02,-1.166577483413575749e+02,-5.891421186471249882e+01,-4.846173819407000849e+01,-1.292584579437491925e+02,-9.496199547446231293e+01,-4.122337145375166756e+01,-3.254076796235747082e+01,9.523238182067871094e+00,-2.677215635776519775e-01,-4.589512646198272705e-01,5.370000000000000000e+02
-1.254696919443335901e+02,-1.141893606293695598e+02,-5.764843924226036620e+01,-4.672168085602689303e+01,-1.280174512472319179e+02,-9.224940604264307353e+01,-3.745823240598232928e+01,-3.082080433753827720e+01,9.523238182067871094e+00,-2.677215635776519775e-01,-4.589512646198272705e-01,5.380000000000000000e+02
-1.223767968201184146e+02,-1.123818913863846944e+02,-5.700716635475760086e+01,-4.554061589746021355e+01,-1.281715788965348111e+02,-9.088563893488850454e+01,-3.549230475637580184e+01,-3.080113805619799905e+01,9.523238182067871094e+00,-2.677215635776519775e-01,-4.589512646198272705e-01,5.390000000000000000e+02
-1.197366814808949016e+02,-1.114862061121145871e+02,-5.638030670019438162e+01,-4.490706735937698113e+01,-1.282882919431179403e+02,-9.020019665298923428e+01,-3.527257998754163282e+01,-3.112498632638050822e+01,9.523238182067871094e+00,-2.677215635776519775e-01,-4.589512646198272705e-01,5.400000000000000000e+02
-1.178709868328804760e+02,-1.113039023275566706e+02,-5.527588593169451769e+01,-4.460678955000054202e+01,-1.271057756097476954e+02,-8.913541807708702436e+01,-3.624292524439124463e+01,-3.041178867691991172e+01,9.523238182067871094e+00,-2.677215635776519775e-01,-4.589512646198272705e-01,5.410000000000000000e+02
-1.165734857614762632e+02,-1.112270101936329638e+02,-5.372454550878887858e+01,-4.438118089432748548e+01,-1.244819619923516711e+02,-8.723494763400879037e+01,-3.753373876166199352e+01,-2.817817651322297934e+01,9.523238182067871094e+00,-2.677215635776519775e-01,-4.589512646198272705e-01,5.420000000000000000e+02
-1.153304753058434926e+02,-1.105222466310656273e+02,-5.221917651589706111e+01,-4.404795382664690351e+01,-1.214059202763398844e+02,-8.499158216890168660e+01,-3.815957956471584112e+01,-2.502240513556444057e+01,9.523238182067871094e+00,-2.677215635776519775e-01,-4.589512646198272705e-01,5.430000000000000000e+02
-1.137815474717257302e+02,-1.087854190071550420e+02,-5.122346457144396936e+01,-4.352325180049172104e+01,-1.190710178205416696e+02,-8.327407053283172900e+01,-3.731744742639966717e+01,-2.197048503265500585e+01,9.523238182067871094e+00,-2.677215635776519775e-01,-4.589512646198272705e-01,5.440000000000000000e+02
-1.120171367918169381e+02,-1.062722653545223466e+02,-5.069742904603583611e+01,-4.275339908209730311e+01,-1.178143566769836070e+02,-8.241500282081449313e+01,-3.473873020511950926e+01,-1.956698832526376464e+01,9.523238182067871094e+00,-2.677215635776519775e-01,-4.589512646198272705e-01,5.450000000000000000e+02
-1.104884190431685056e+02,-1.037976486342940916e+02,-5.012358290479210154e+01,-4.165426967393136692e+01,-1.168760046012528164e+02,-8.185297118292442065e+01,-3.088999781669929234e+01,-1.751980027011961738e+01,9.484992027282714844e+00,-2.294756323099136353e-01,-4.207052886486053467e-01,5.460000000000000000e+02
-1.096348014121376764e+02,-1.021716498304913330e+02,-4.902690026315576688e+01,-4.013856768033838307e+01,-1.151828182058245602e+02,-8.065550790537736248e+01,-2.679279142986570150e+01,-1.517321157497212880e+01,9.484992027282714844e+00,-2.294756323099136353e-01,-4.207052886486053467e-01,5.470000000000000000e+02
-1.095562043801796790e+02,-1.015668462599502391e+02,-4.749561443151378626e+01,-3.822278544726350447e+01,-1.124137048916602453e+02,-7.838903413274374543e+01,-2.349721264447180147e+01,-1.230897232171992073e+01,9.484992027282714844e+00,-2.294756323099136353e-01,-4.207052886486053467e-01,5.480000000000000000e+02
-1.099771136120612027e+02,-1.013437810528398586e+02,-4.618632777323205119e+01,-3.611843180588766700e+01,-1.093507428616762809e+02,-7.549261760222975681e+01,-2.155496800466607965e+01,-9.486514665784625322e+00,9.484992027282714844e+00,-2.294756323099136353e-01,-4.207052886486053467e-01,5.490000000000000000e+02
-1.104638028625563493e+02,-1.005176800654055569e+02,-4.576367957439970269e+01,-3.418714086224804305e+01,-1.071854394622234850e+02,-7.283354705985607325e+01,-2.087402724235698770e+01,-7.596312071877491690e+00,9.484992027282714844e+00,-2.294756323099136353e-01,-4.207052886486053467e-01,5.500000000000000000e+02
-1.106605164747220442e+02,-9.851112950871333851e+01,-4.627563776821125430e+01,-3.273296034756822337e+01,-1.064496895091294846e+02,-7.094523790925973117e+01,-2.103552537704649694e+01,-7.078155345534241860e+00,9.484992027282714844e+00,-2.294756323099136353e-01,-4.207052886486053467e-01,5.510000000000000000e+02
-1.103639598694494453e+02,-9.559152782079445387e+01,-4.705549348511908647e+01,-3.177149637780121338e+01,-1.066111067057295259e+02,-6.972693682187741615e+01,-2.176816069229425921e+01,-7.576301002012314711e+00,9.484992027282714844e+00,-2.294756323099136353e-01,-4.207052886486053467e-01,5.520000000000000000e+02
-1.094601792076744005e+02,-9.266679842337953232e+01,-4.726041743071118617e+01,-3.098716037692975078e+01,-1.067092293726993830e+02,-6.883943951092896896e+01,-2.312803750842999762e+01,-8.339112512939891531e+00,9.484992027282714844e+00,-2.294756323099136353e-01,-4.207052886486053467e-01,5.530000000000000000e+02
-1.078743072497557023e+02,-9.063318214047217225e+01,-4.656522435368697188e+01,-2.995656608624722139e+01,-1.063628731315420737e+02,-6.825326818781149996e+01,-2.521016717252564376e+01,-8.897309192328521021e+00,9.484992027282714844e+00,-2.294756323099136353e-01,-4.207052886486053467e-01,5.540000000000000000e+02
-1.056454398641992611e+02,-8.980921126904195262e+01,-4.540410862150838511e+01,-2.850025529739878039e+01,-1.061034917614713322e+02,-6.827000180464392542e+01,-2.769059024546368164e+01,-9.310326584241693126e+00,9.484992027282714844e+00,-2.294756323099136353e-01,-4.207052886486053467e-01,5.550000000000000000e+02
-1.030753913068774636e+02,-8.986492176017964084e+01,-4.457570086367172735e+01,-2.688690161698013981e+01,-1.066907609612967462e+02,-6.897994071952689410e+01,-2.971472688032326914e+01,-9.778390688513809437e+00,9.484992027282714844e+00,-2.294756323099136353e-01,-4.207052886486053467e-01,5.560000000000000000e+02
-1.007686354376737654e+02,-9.019676081369834719e+01,-4.457490198655546010e+01,-2.569499055649748698e+01,-1.081209745271680731e+02,-6.982170851943556045e+01,-3.036299917287806238e+01,-1.012552182488070684e+01,9.484992027282714844e+00,-2.294756323099136353e-01,-4.207052886486053467e-01,5.570000000000000000e+02
-9.940845022878238524e+01,-9.036036219240122591e+01,-4.520154561702338469e+01,-2.540338612671894225e+01,-1.093565909148592254e+02,-6.985046199127191358e+01,-2.934511088404224211e+01,-9.797020528527809802e+00,9.484992027282714844e+00,-2.294756323099136353e-01,-4.207052886486053467e-01,5.580000000000000000e+02
-9.932816263395898204e+01,-9.022450965568077663e+01,-4.571366963193213451e+01,-2.600922990819572078e+01,-1.090887679081038186e+02,-6.853732899575197735e+01,-2.729717295815680700e+01,-8.423362678272951598e+00,9.484992027282714844e+00,-2.294756323099136353e-01,-4.207052886486053467e-01,5.590000000000000000e+02
-1.001649467908737279e+02,-8.982149579345787060e+01,-4.532948602556916740e+01,-2.696304188626845644e+01,-1.068040914280450124e+02,-6.626891507851405549e+01,-2.533972836997281775e+01,-6.315791825125415926e+00,9.484992027282714844e+00,-2.294756323099136353e-01,-4.207052886486053467e-01,5.600000000000000000e+02
-1.009307958873846474e+02,-8.914154777110115901e+01,-4.368825066853560202e+01,-2.748787011716012785e+01,-1.031550573417925989e+02,-6.397101517227747536e+01,-2.421134173046266369e+01,-4.277023913447010273e+00,9.484992027282714844e+00,-2.294756323099136353e-01,-4.207052886486053467e-01,5.610000000000000000e+02
-1.005854281787005675e+02,-8.811776327900497563e+01,-4.100837361193180186e+01,-2.706558576508905389e+01,-9.935295796571017490e+01,-6.220530772431584410e+01,-2.371942674840238396e+01,-2.834057515371569025e+00,9.484992027282714844e+00,-2.294756323099136353e-01,-4.207052886486053467e-01,5.620000000000000000e+02
-9.877317285821118276e+01,-8.679736116354433761e+01,-3.793482129214498855e+01,-2.573502017982946199e+01,-9.623404560150038378e+01,-6.066886312427050143e+01,-2.300916599361607950e+01,-1.658268348106048506e+00,9.484992027282714844e+00,-2.294756323099136353e-01,-4.207052886486053467e-01,5.630000000000000000e+02
-9.615344579162592709e+01,-8.547934387022132796e+01,-3.522260259733639032e+01,-2.399915745040061665e+01,-9.386682380220463529e+01,-5.862035803007529466e+01,-2.143746404468220135e+01,1.807035920787711802e-01,9.484992027282714844e+00,-2.294756323099136353e-01,-4.207052886486053467e-01,5.640000000000000000e+02
-9.397364018265488994e+01,-8.459912442677614308e+01,-3.341953985070267663e+01,-2.242696718372189935e+01,-9.190699624870239859e+01,-5.576627995175476826e+01,-1.928478665338388964e+01,3.304054521312536963e+00,9.484992027282714844e+00,-2.294756323099136353e-01,-4.207052886486053467e-01,5.650000000000000000e+02
-9.315298263831027725e+01,-8.440243521353431788e+01,-3.268270292873648941e+01,-2.126989627805187411e+01,-9.017805090539195589e+01,-5.266786004808636790e+01,-1.767722552715304118e+01,7.296239212279488129e+00,9.484992027282714844e+00,-2.294756323099136353e-01,-4.207052886486053467e-01,5.660000000000000000e+02
-9.361200240119160298e+01,-8.470731669118049467e+01,-3.279605264563542733e+01,-2.039860512247014412e+01,-8.884852094748157469e+01,-5.025509600502937246e+01,-1.776344833834582460e+01,1.086382365836607278e+01,9.484992027282714844e+00,-2.294756323099136353e-01,-4.207052886486053467e-01,5.670000000000000000e+02
-9.440601152685940178e+01,-8.501659248373653099e+01,-3.335810859720004373e+01,-1.958671786483864707e+01,-8.811216454340592463e+01,-4.897717892443961318e+01,-1.981536244971630367e+01,1.274704423406228671e+01,9.484992027282714844e+00,-2.294756323099136353e-01,-4.207052886486053467e-01,5.680000000000000000e+02
-9.453493341488365331e+01,-8.493175392769262544e+01,-3.399054445652791401e+01,-1.886434400695725344e+01,-8.781026843301333429e+01,-4.847324032908909430e+01,-2.295932149253167154e+01,1.257743846048470004e+01,9.484992027282714844e+00,-2.294756323099136353e-01,-4.207052886486053467e-01,5.690000000000000000e+02
-9.370123303903710621e+01,-8.450216236474352627e+01,-3.439629704711023805e+01,-1.858167353867565907e+01,-8.741316614797233342e+01,-4.804945544037491345e+01,-2.569820442188847665e+01,1.100891289169658194e+01,9.484992027282714844e+00,-2.294756323099136353e-01,-4.207052886486053467e-01,5.700000000000000000e+02
-9.236281052371850819e+01,-8.415749814239097759e+01,-3.425652919665344598e+01,-1.907692600480004330e+01,-8.635203612494842673e+01,-4.739870996508398093e+01,-2.678335676809774668e+01,9.149357297443657444e+00,9.484992027282714844e+00,-2.294756323099136353e-01,-4.207052886486053467e-01,5.710000000000000000e+02
-9.110944764096802828e+01,-8.425021557265699812e+01,-3.316758932721450037e+01,-2.021384040116026881e+01,-8.436046044398153754e+01,-4.678848068067782151e+01,-2.579901443073140399e+01,7.905249650973928510e+00,9.484992027282714844e+00,-2.294756323099136353e-01,-4.207052886486053467e-01,5.720000000000000000e+02
-9.003590327871552290e+01,-8.463202975568083275e+01,-3.083906233818561304e+01,-2.122575721528482973e+01,-8.157098312545349472e+01,-4.656481432770669926e+01,-2.315469568724802230e+01,7.757820588381036941e+00,9.561484336853027344e+00,-1.529837548732757568e-01,-3.059675097465515137e-01,5.730000000000000000e+02
-8.873957112697917182e+01,-8.469616643195240613e+01,-2.749649248982677818e+01,-2.110130626140653476e+01,-7.841173210275974270e+01,-4.656606846542399580e+01,-1.966384008776003611e+01,8.905181359782545769e+00,9.561484336853027344e+00,-1.529837548732757568e-01,-3.059675097465515137e-01,5.740000000000000000e+02
-8.688153325541952654e+01,-8.387576748394621973e+01,-2.409565346197632607e+01,-1.928869185088751692e+01,-7.546537990756405634e+01,-4.611317060944747936e+01,-1.609614280588903057e+01,1.135753752032906050e+01,9.561484336853027344e+00,-1.529837548732757568e-01,-3.059675097465515137e-01,5.750000000000000000e+02
-8.466423414754081023e+01,-8.213083272790481715e+01,-2.196809321474665921e+01,-1.617384364969257149e+01,-7.332940122792751936e+01,-4.460541126627867925e+01,-1.295789325655186985e+01,1.478056681198540900e+01,9.561484336853027344e+00,-1.529837548732757568e-01,-3.059675097465515137e-01,5.760000000000000000e+02
-8.269810740456159692e+01,-7.995570820028115122e+01,-2.198171965375331638e+01,-1.290964269683991006e+01,-7.239864537987887161e+01,-4.212212294153869152e+01,-1.049506831684448116e+01,1.833796681914736837e+01,9.561484336853027344e+00,-1.529837548732757568e-01,-3.059675097465515137e-01,5.770000000000000000e+02
-8.140265253839152138e+01,-7.791399026784165471e+01,-2.383238265704221703e+01,-1.067392307257978246e+01,-7.259041939392045606e+01,-3.943599696341152594e+01,-8.777958201715591713e+00,2.091888507645035133e+01,9.561484336853027344e+00,-1.529837548732757568e-01,-3.059675097465515137e-01,5.780000000000000000e+02
-8.058305751027182851e+01,-7.617277975763499853e+01,-2.612966053817581269e+01,-9.897095842779890518e+00,-7.325564277203466190e+01,-3.744059520517203055e+01,-7.774810203950437426e+00,2.174912222059265332e+01,9.561484336853027344e+00,-1.529837548732757568e-01,-3.059675097465515137e-01,5.790000000000000000e+02
-7.964801800590157654e+01,-7.450904831418938556e+01,-2.734447525690393377e+01,-1.006303778460187459e+01,-7.352023171242854005e+01,-3.654614696101816662e+01,-7.417781424793247425e+00,2.089119127077265148e+01,9.561484336853027344e+00,-1.529837548732757568e-01,-3.059675097465515137e-01,5.800000000000000000e+02
-7.825446430740066717e+01,-7.275277258501864708e+01,-2.692250176929428562e+01,-1.024388923285459896e+01,-7.293219058889098960e+01,-3.657343488118294772e+01,-7.665525599262764445e+00,1.913492733982729987e+01,9.561484336853027344e+00,-1.529837548732757568e-01,-3.059675097465515137e-01,5.810000000000000000e+02
-7.670578335612117371e+01,-7.115993560358310788e+01,-2.565392076226635254e+01,-9.917819049248464580e+00,-7.189865641521373618e+01,-3.713752777815716399e+01,-8.499486509757844033e+00,1.733891991815198708e+01,9.561484336853027344e+00,-1.529837548732757568e-01,-3.059675097465515137e-01,5.820000000000000000e+02
-7.567977793618956639e+01,-7.029700508329369768e+01,-2.497387808552684874e+01,-9.387275263772608014e+00,-7.143387138034086092e+01,-3.804520027635771839e+01,-9.814939074248286488e+00,1.583548892816179432e+01,9.561484336853027344e+00,-1.529837548732757568e-01,-3.059675097465515137e-01,5.830000000000000000e+02
-7.555492024372961168e+01,-7.054960668020612502e+01,-2.578308115390973398e+01,-9.462337708239829226e+00,-7.231275908769021044e+01,-3.930549759554378397e+01,-1.130727504683818552e+01,1.444269436934246187e+01,9.561484336853027344e+00,-1.529837548732757568e-01,-3.059675097465515137e-01,5.840000000000000000e+02
-7.601643637231336470e+01,-7.176846421193567949e+01,-2.778090577689636120e+01,-1.070462854743436765e+01,-7.433260284040261467e+01,-4.082377201422787039e+01,-1.252544565890730155e+01,1.299591147900991928e+01,9.561484336853027344e+00,-1.529837548732757568e-01,-3.059675097465515137e-01,5.850000000000000000e+02
-7.632761399627997889e+01,-7.339847027562063886e+01,-2.982811522951487859e+01,-1.288517333591062197e+01,-7.637753608046750742e+01,-4.220949084707535803e+01,-1.313287383273654996e+01,1.177023807875229977e+01,9.561484336853027344e+00,-1.529837548732757568e-01,-3.059675097465515137e-01,5.860000000000000000e+02
-7.599001307539310801e+01,-7.493384562837582052e+01,-3.094659359138222499e+01,-1.511895664066014433e+01,-7.728922960073487047e+01,-4.300802525523613440e+01,-1.318617821428779280e+01,1.128899005603670957e+01,9.561484336853027344e+00,-1.529837548732757568e-01,-3.059675097465515137e-01,5.870000000000000000e+02
-7.514213766134344041e+01,-7.623044584591207240e+01,-3.103175571896372276e+01,-1.654598345069280185e+01,-7.677542284410901630e+01,-4.317193352106551174e+01,-1.312609792321563873e+01,1.171524679664071300e+01,9.561484336853027344e+00,-1.529837548732757568e-01,-3.059675097465515137e-01,5.880000000000000000e+02
-7.433333459568075341e+01,-7.740854922146991157e+01,-3.070343470652369433e+01,-1.696204136633150483e+01,-7.552182844093658787e+01,-4.326022586316503293e+01,-1.340621117384307581e+01,1.252095114231451589e+01,9.561484336853027344e+00,-1.529837548732757568e-01,-3.059675097465515137e-01,5.890000000000000000e+02
-7.394802792586142459e+01,-7.853137794794020010e+01,-3.055111298472365888e+01,-1.686550002559761197e+01,-7.442819102741032111e+01,-4.405085814085396123e+01,-1.404283990387648373e+01,1.289293261729744700e+01,9.561484336853027344e+00,-1.529837548732757568e-01,-3.059675097465515137e-01,5.900000000000000000e+02
-7.386727407552643854e+01,-7.943721988637844333e+01,-3.055967878263254534e+01,-1.691099658077746426e+01,-7.374618378611648950e+01,-4.583128058406146010e+01,-1.449888525114329241e+01,1.253210311642396846e+01,9.561484336853027344e+00,-1.529837548732757568e-01,-3.059675097465515137e-01,5.910000000000000000e+02
-7.367235998099931749e+01,-7.988191245561756659e+01,-3.024188871082424157e+01,-1.727485859674561652e+01,-7.296346358353730466e+01,-4.801130947759156697e+01,-1.404471833337993303e+01,1.201066247809194465e+01,9.561484336853027344e+00,-1.529837548732757568e-01,-3.059675097465515137e-01,5.920000000000000000e+02
-7.309810183770514413e+01,-7.977499677680771129e+01,-2.922869727412671637e+01,-1.747115732687416312e+01,-7.146498682646233647e+01,-4.944849765358412697e+01,-1.227154578576846689e+01,1.224875058496036218e+01,9.561484336853027344e+00,-1.529837548732757568e-01,-3.059675097465515137e-01,5.930000000000000000e+02
-7.221370412571377528e+01,-7.923597167497428018e+01,-2.764319497616816079e+01,-1.674853541750235308e+01,-6.920316508924406662e+01,-4.924723196738705155e+01,-9.298258650667776237e+00,1.356669314257760561e+01,9.561484336853027344e+00,-1.529837548732757568e-01,-3.059675097465515137e-01,5.940000000000000000e+02
-7.116721163557667751e+01,-7.845147860769975523e+01,-2.590623728890568600e+01,-1.470481165788623912e+01,-6.667647357694841048e+01,-4.736291786567562667e+01,-5.556968650267663179e+00,1.523353739926278649e+01,9.561484336853027344e+00,-1.529837548732757568e-01,-3.059675097465515137e-01,5.950000000000000000e+02
-6.985390071717665705e+01,-7.755850451488367980e+01,-2.427938325254763186e+01,-1.161904097133265168e+01,-6.433870079066218750e+01,-4.452737788241211092e+01,-1.480504146238672547e+00,1.598036506650714728e+01,9.561484336853027344e+00,-1.529837548732757568e-01,-3.059675097465515137e-01,5.960000000000000000e+02
-6.797726779590630031e+01,-7.670713904852436826e+01,-2.272959503280253557e+01,-8.277271426142760902e+00,-6.219805885352434416e+01,-4.162654397756523394e+01,2.537817609374542371e+00,1.501697159719878982e+01,9.561484336853027344e+00,-1.529837548732757568e-01,-3.059675097465515137e-01,5.970000000000000000e+02
-6.552249020994713646e+01,-7.618996627065644134e+01,-2.128686514048786194e+01,-5.499542795660090633e+00,-6.009682712818721484e+01,-3.912068427315716690e+01,5.930569297212059610e+00,1.259581908498876146e+01,9.561484336853027344e+00,-1.529837548732757568e-01,-3.059675097465515137e-01,5.980000000000000000e+02
-6.311619512274046429e+01,-7.638008237417125201e+01,-2.041391199327335926e+01,-3.747958433714302373e+00,-5.827757520907107391e+01,-3.696556283849713509e+01,7.903415672659320990e+00,9.650003480186569504e+00,9.561484336853027344e+00,-1.529837548732757568e-01,-3.059675097465515137e-01,5.990000000000000000e+02
-6.174610820272027922e+01,-7.743422813124561799e+01,-2.080168403937022958e+01,-3.027979907310509589e+00,-5.740817287683239556e+01,-3.495644258961328887e+01,7.860074699876349769e+00,6.960267330799979391e+00,9.561484336853027344e+00,-1.529837548732757568e-01,-3.059675097465515137e-01,6.000000000000000000e+02
-6.195143617959365656e+01,-7.902494377284892835e+01,-2.263742904886385077e+01,-3.028745574778440641e+00,-5.785088121389344451e+01,-3.305274217986334406e+01,6.025864593295409577e+00,4.697018569271676824e+00,9.561484336853027344e+00,-1.529837548732757568e-01,-3.059675097465515137e-01,6.010000000000000000e+02
-6.321185189142124727e+01,-8.041966664555184252e+01,-2.507074120202560152e+01,-3.314540000428678468e+00,-5.893196399302723876e+01,-3.135154964363209729e+01,3.614654112800053554e+00,2.703380854400165845e+00,9.561484336853027344e+00,-1.529837548732757568e-01,-3.059675097465515137e-01,6.020000000000000000e+02
-6.418981567138507671e+01,-8.092173530670515902e+01,-2.657088239484255610e+01,-3.454794804856646806e+00,-5.913948358948800887e+01,-2.981132589079061290e+01,2.195438481938253972e+00,1.072479692960769171e+00,9.561484336853027344e+00,-1.529837548732757568e-01,-3.059675097465515137e-01,6.030000000000000000e+02
-6.373137841950847360e+01,-8.033202335890018730e+01,-2.604766824646321766e+01,-3.132149676146582351e+00,-5.728492707489021996e+01,-2.811430205497708812e+01,2.648952875037139165e+00,2.755414329476479907e-01,9.484992027282714844e+00,-2.294756323099136353e-01,-4.207052886486053467e-01,6.040000000000000000e+02
-6.177781506106293818e+01,-7.904304752354073571e+01,-2.379932368991285330e+01,-2.286490497455815785e+00,-5.359942187996421126e+01,-2.591007537632322055e+01,4.561034863250824856e+00,6.331898054504563333e-01,9.484992027282714844e+00,-2.294756323099136353e-01,-4.207052886486053467e-01,6.050000000000000000e+02
-5.936719652316787688e+01,-7.769587616446551692e+01,-2.139252529474651965e+01,-1.220640312569230446e+00,-4.968495975183213886e+01,-2.326043959025446384e+01,6.578298976313817548e+00,1.693503123664413579e+00,9.484992027282714844e+00,-2.294756323099136353e-01,-4.207052886486053467e-01,6.060000000000000000e+02
-5.772515054016730573e+01,-7.671063718363802764e+01,-2.051532567748108704e+01,-5.153289410263823811e-01,-4.731903069264626538e+01,-2.083440298306777549e+01,7.428028372047265293e+00,2.254633229118553572e+00,9.484992027282714844e+00,-2.294756323099136353e-01,-4.207052886486053467e-01,6.070000000000000000e+02
-5.727664636308873014e+01,-7.608906026861222927e+01,-2.177328209782899648e+01,-7.069515625644271495e-01,-4.721221992541177315e+01,-1.957085983897923143e+01,6.732822032123294775e+00,1.138866716564734816e+00,9.484992027282714844e+00,-2.294756323099136353e-01,-4.207052886486053467e-01,6.080000000000000000e+02
-5.746325670791702578e+01,-7.560395478084683418e+01,-2.441564073723930051e+01,-1.912754661989310989e+00,-4.877884631459892262e+01,-1.998554724711175368e+01,5.010372138109232765e+00,-1.935458840182036511e+00,9.484992027282714844e+00,-2.294756323099136353e-01,-4.207052886486053467e-01,6.090000000000000000e+02
-5.745101729226007592e+01,-7.513878459943953203e+01,-2.709794627123119426e+01,-3.704648800438008038e+00,-5.092150871943340462e+01,-2.166521009965617850e+01,3.024804193155432586e+00,-6.153073847861378454e+00,9.484992027282714844e+00,-2.294756323099136353e-01,-4.207052886486053467e-01,6.100000000000000000e+02
-5.696844189514013124e+01,-7.481817099285399308e+01,-2.887445357728938689e+01,-5.354258138184377458e+00,-5.288967035775567638e+01,-2.341361637929730932e+01,1.188606595635064878e+00,-1.021038492078150739e+01,9.484992027282714844e+00,-2.294756323099136353e-01,-4.207052886486053467e-01,6.110000000000000000e+02
-5.645477431135441293e+01,-7.479983854860256542e+01,-2.954805745010344253e+01,-6.263733257310377667e+00,-5.440256940303333977e+01,-2.401081937532580923e+01,-4.428891381030553021e-01,-1.314380130607969477e+01,9.484992027282714844e+00,-2.294756323099136353e-01,-4.207052886486053467e-01,6.120000000000000000e+02
-5.643422579018260876e+01,-7.493788339565435308e+01,-2.925775748229534656e+01,-6.242274629774328787e+00,-5.517944383176836709e+01,-2.302556931129583973e+01,-1.700720633183664177e+00,-1.469187955275810964e+01,9.484992027282714844e+00,-2.294756323099136353e-01,-4.207052886486053467e-01,6.130000000000000000e+02
-5.681574437799099542e+01,-7.466998610819609894e+01,-2.794178022438791231e+01,-5.432283299582195468e+00,-5.466080708514891739e+01,-2.102738478383980691e+01,-1.956702037907234626e+00,-1.504869802113717014e+01,9.484992027282714844e+00,-2.294756323099136353e-01,-4.207052886486053467e-01,6.140000000000000000e+02
-5.686167494302208070e+01,-7.330351362135661475e+01,-2.533951965355117864e+01,-4.022101055481471121e+00,-5.238963190757385746e+01,-1.902850392672917224e+01,-3.624141371565201553e-01,-1.445384393952735991e+01,9.484992027282714844e+00,-2.294756323099136353e-01,-4.207052886486053467e-01,6.150000000000000000e+02
-5.587369547875641729e+01,-7.052562422297523881e+01,-2.152760163523998926e+01,-2.071528170188685181e+00,-4.866373031537841598e+01,-1.764057861398032401e+01,3.445328686941138585e+00,-1.310189068297040649e+01,9.484992027282714844e+00,-2.294756323099136353e-01,-4.207052886486053467e-01,6.160000000000000000e+02
-5.391273310882570513e+01,-6.674391188283880183e+01,-1.735763019733531110e+01,3.840834703005384654e-01,-4.466853827178056235e+01,-1.668364821357681649e+01,8.758295150726553402e+00,-1.137625713846500730e+01,9.484992027282714844e+00,-2.294756323099136353e-01,-4.207052886486053467e-01,6.170000000000000000e+02
-5.183982199156525894e+01,-6.296054310942054144e+01,-1.421034758123278152e+01,3.099813339184038341e+00,-4.179999081531241245e+01,-1.556475915194096160e+01,1.389880510321927432e+01,-9.974311742671488901e+00,9.484992027282714844e+00,-2.294756323099136353e-01,-4.207052886486053467e-01,6.180000000000000000e+02
-5.063373358151147841e+01,-6.023699745224985236e+01,-1.314836762878621812e+01,5.556317483025850379e+00,-4.072145900661053020e+01,-1.403076074149066699e+01,1.705207204385078512e+01,-9.610736136322884704e+00,9.484992027282714844e+00,-2.294756323099136353e-01,-4.207052886486053467e-01,6.190000000000000000e+02
-5.061112943113039364e+01,-5.913881740580472979e+01,-1.416246656642579183e+01,7.180754299468389945e+00,-4.098026490560914681e+01,-1.254632322885663598e+01,1.729019305625661218e+01,-1.049618946417831467e+01,9.484992027282714844e+00,-2.294756323099136353e-01,-4.207052886486053467e-01,6.200000000000000000e+02
-5.123145201753141009e+01,-5.954543514774923096e+01,-1.616097470077511389e+01,7.668614222166070249e+00,-4.148396066104214697e+01,-1.191546235360146966e+01,1.506996765813528327e+01,-1.211445304060362105e+01,9.484992027282714844e+00,-2.294756323099136353e-01,-4.207052886486053467e-01,6.210000000000000000e+02
-5.157503224295760447e+01,-6.087918099743728817e+01,-1.772630192827818973e+01,7.136791178008934367e+00,-4.135950723395944806e+01,-1.249424964471836574e+01,1.187394497143213812e+01,-1.357911266739574785e+01,9.484992027282714844e+00,-2.294756323099136353e-01,-4.207052886486053467e-01,6.220000000000000000e+02
-5.100182535647400073e+01,-6.248753019244213647e+01,-1.801353844015648065e+01,6.019955766183556989e+00,-4.045206419491296401e+01,-1.374165431021538097e+01,9.283296430021437118e+00,-1.427332440480495279e+01,9.484992027282714844e+00,-2.294756323099136353e-01,-4.207052886486053467e-01,6.230000000000000000e+02
-4.945496354312490439e+01,-6.386262200827695779e+01,-1.710722531119427003e+01,4.850767328582151094e+00,-3.917297798683284782e+01,-1.454868178665128653e+01,8.154891639183915686e+00,-1.422253193236610969e+01,9.484992027282714844e+00,-2.294756323099136353e-01,-4.207052886486053467e-01,6.240000000000000000e+02
-4.730575647115620086e+01,-6.461827663882104389e+01,-1.567819359691930003e+01,4.103086392893601442e+00,-3.801007235029101139e+01,-1.405617405220255023e+01,8.438797651049753767e+00,-1.391242509036601405e+01,9.484992027282714844e+00,-1.529837548732757568e-01,-4.207052886486053467e-01,6.250000000000000000e+02
-4.503548975659941789e+01,-6.442621843473352783e+01,-1.436353446155953861e+01,4.123887751116853906e+00,-3.720609729300122126e+01,-1.224594738715313724e+01,9.616289728672199999e+00,-1.379060359017603332e+01,9.484992027282714844e+00,-1.529837548732757568e-01,-4.207052886486053467e-01,6.260000000000000000e+02
-4.304785581644682679e+01,-6.312569115556289034e+01,-1.342182871127442922e+01,5.061681163875618950e+00,-3.678730632350561791e+01,-9.834720304992515594e+00,1.125566984848774155e+01,-1.393574047942456673e+01,9.484992027282714844e+00,-1.529837548732757568e-01,-4.207052886486053467e-01,6.270000000000000000e+02
-4.161564133433785173e+01,-6.095169165230254293e+01,-1.283253095566578850e+01,6.768751208452158608e+00,-3.671857998858104111e+01,-7.641911298593186075e+00,1.319005863606798812e+01,-1.413013706745550735e+01,9.484992027282714844e+00,-1.529837548732757568e-01,-4.207052886486053467e-01,6.280000000000000000e+02
-4.081301022614570684e+01,-5.859429904543321754e+01,-1.255293998871820804e+01,8.785637954435514985e+00,-3.692012666134178289e+01,-6.030275210137915565e+00,1.527297247884416720e+01,-1.415140114996756893e+01,9.484992027282714844e+00,-1.529837548732757568e-01,-4.207052886486053467e-01,6.290000000000000000e+02
-4.042314958396309521e+01,-5.689356773667896050e+01,-1.257408123879031336e+01,1.051548422202904476e+01,-3.716291899804127752e+01,-4.869426634555566125e+00,1.711077352730717394e+01,-1.395063586038304493e+01,9.484992027282714844e+00,-1.529837548732757568e-01,-4.207052886486053467e-01,6.300000000000000000e+02
-3.998706924975340371e+01,-5.631749844925070647e+01,-1.273316964525656658e+01,1.153070904075502767e+01,-3.707161467622063356e+01,-3.940456853029900230e+00,1.817630065550110885e+01,-1.358913014580684830e+01,9.484992027282714844e+00,-1.529837548732757568e-01,-4.207052886486053467e-01,6.310000000000000000e+02
-3.910801124136924045e+01,-5.664509350852677017e+01,-1.262321648608485702e+01,1.178971188161449390e+01,-3.636422871961985948e+01,-3.317743663948931498e+00,1.824523676648823312e+01,-1.310318112820823444e+01,9.484992027282714844e+00,-1.529837548732757568e-01,-4.207052886486053467e-01,6.320000000000000000e+02
-3.782082672921023914e+01,-5.715920706274118857e+01,-1.187001364663956338e+01,1.159539603425218957e+01,-3.514725990603619721e+01,-3.345078115020442056e+00,1.769425402165506966e+01,-1.249610784372271155e+01,9.484992027282714844e+00,-1.529837548732757568e-01,-4.207052886486053467e-01,6.330000000000000000e+02
-3.665971515737328446e+01,-5.722470089238777291e+01,-1.059039805418069591e+01,1.134128000567579875e+01,-3.394543215905650868e+01,-4.245284275926678674e+00,1.726723230969582801e+01,-1.184097991632734193e+01,9.484992027282714844e+00,-1.529837548732757568e-01,-4.207052886486053467e-01,6.340000000000000000e+02
-3.627331629883337882e+01,-5.676210398170587723e+01,-9.522466974300186848e+00,1.126786397631076397e+01,-3.336052705698239151e+01,-5.747807523457595380e+00,1.744481754987646127e+01,-1.131422858594669378e+01,9.484992027282714844e+00,-1.529837548732757568e-01,-4.207052886486053467e-01,6.350000000000000000e+02
-3.687230423569781124e+01,-5.619393996876169695e+01,-9.513569051698141266e+00,1.140783052145707188e+01,-3.361052549511441612e+01,-7.106563822642783634e+00,1.801070982436067425e+01,-1.105709636640676763e+01,9.484992027282714844e+00,-1.529837548732757568e-01,-4.207052886486053467e-01,6.360000000000000000e+02
-3.798582549198908964e+01,-5.591520313570072176e+01,-1.069999656410800526e+01,1.170558532679206110e+01,-3.433860663498489885e+01,-7.535397351421124768e+00,1.828161714698580909e+01,-1.098617266074143117e+01,9.484992027282714844e+00,-1.529837548732757568e-01,-4.207052886486053467e-01,6.370000000000000000e+02
-3.873228094446676550e+01,-5.575571356198270223e+01,-1.212892075494892197e+01,1.218399293740367284e+01,-3.483165114425355569e+01,-6.701380226841138210e+00,1.786714338127421797e+01,-1.074516325013973983e+01,9.484992027282714844e+00,-1.529837548732757568e-01,-4.207052886486053467e-01,6.380000000000000000e+02
-3.837406138574442593e+01,-5.493276119851725525e+01,-1.229774917000395362e+01,1.301840825713952654e+01,-3.445407778575099655e+01,-4.890588290963933105e+00,1.725309001893765526e+01,-9.883074466208199738e+00,9.484992027282714844e+00,-1.529837548732757568e-01,-4.207052886486053467e-01,6.390000000000000000e+02
