F3,F4,C3,C4,P3,P4,Cz,Pz,Accel_x,Accel_y,Accel_z,Sample
-7.003109203651547432e-11,-7.366907084360718727e-11,-5.820766091346740723e-11,-4.820321919396519661e-11,-6.093614501878619194e-11,-7.639755494892597198e-11,-5.729816621169447899e-11,-4.274625098332762718e-11,9.561484336853027344e+00,-2.677215635776519775e-01,-1.147378161549568176e-01,2.010000000000000000e+02
-4.632904903646340244e+01,-4.509197675198993238e+01,-2.242767408191866707e+01,-2.775197230750836752e+01,-5.102813346115544846e+01,-4.774257346499143750e+01,-2.870778624412014324e+01,-2.679936960875511431e+01,9.561484336853027344e+00,-2.677215635776519775e-01,-1.147378161549568176e-01,2.020000000000000000e+02
-9.049123319242426078e+01,-9.099799653892387141e+01,-4.386223070868527429e+01,-5.205675967346360267e+01,-9.671961055085830594e+01,-9.237300483371836890e+01,-5.511005186533293454e+01,-5.102558755879181263e+01,9.561484336853027344e+00,-2.677215635776519775e-01,-1.147378161549568176e-01,2.030000000000000000e+02
-1.315682202414400308e+02,-1.370590590269275708e+02,-6.365590182790856488e+01,-7.192632231668176246e+01,-1.356727638019219739e+02,-1.327989039869826229e+02,-7.810805082005754230e+01,-7.173580215278707328e+01,9.561484336853027344e+00,-2.677215635776519775e-01,-1.147378161549568176e-01,2.040000000000000000e+02
-1.701118406625255375e+02,-1.812615490401894931e+02,-8.184377496586603229e+01,-8.908408229756423680e+01,-1.708661206061178746e+02,-1.701909575886093080e+02,-9.816825959123525536e+01,-8.992965701082539454e+01,9.561484336853027344e+00,-2.677215635776519775e-01,-1.147378161549568176e-01,2.050000000000000000e+02
-2.073315697548096068e+02,-2.218215815003804892e+02,-9.922971728166521643e+01,-1.059448805743359117e+02,-2.064742462353115116e+02,-2.063951568846605369e+02,-1.166498863516399069e+02,-1.073892721323118167e+02,9.561484336853027344e+00,-2.677215635776519775e-01,-1.147378161549568176e-01,2.060000000000000000e+02
-2.441673870083232032e+02,-2.585847862568334676e+02,-1.169557171035048668e+02,-1.234108705562684918e+02,-2.442681815091364115e+02,-2.421914650073722441e+02,-1.347131760286856661e+02,-1.251702521163260826e+02,9.561484336853027344e+00,-2.677215635776519775e-01,-1.147378161549568176e-01,2.070000000000000000e+02
-2.810443577696205466e+02,-2.929193831705160846e+02,-1.357246733891533950e+02,-1.405947302493723328e+02,-2.828707797619463236e+02,-2.770556572645018605e+02,-1.526947023979955702e+02,-1.431170491251368730e+02,9.446745872497558594e+00,-3.442134261131286621e-01,-2.294756323099136353e-01,2.080000000000000000e+02
-3.182036220682402927e+02,-3.264639457385410424e+02,-1.553176884863150917e+02,-1.565272154312433486e+02,-3.200803444958573891e+02,-3.104312118674151861e+02,-1.703784111638533432e+02,-1.607288773445470724e+02,9.446745872497558594e+00,-3.442134261131286621e-01,-2.294756323099136353e-01,2.090000000000000000e+02
-3.559047540264218696e+02,-3.601826471668728118e+02,-1.749124480041664356e+02,-1.719085585001084837e+02,-3.555461815291073435e+02,-3.429817890506437834e+02,-1.878099136896780692e+02,-1.783921881303585906e+02,9.446745872497558594e+00,-3.442134261131286621e-01,-2.294756323099136353e-01,2.100000000000000000e+02
-3.941272771502008254e+02,-3.945263828374709192e+02,-1.939441751519916579e+02,-1.889780052146224989e+02,-3.910963460896555262e+02,-3.763856387560781513e+02,-2.058138345810393730e+02,-1.976130892057190067e+02,9.446745872497558594e+00,-3.442134261131286621e-01,-2.294756323099136353e-01,2.110000000000000000e+02
-4.321785206324311730e+02,-4.300138253191380500e+02,-2.126362791557694436e+02,-2.095226729710302607e+02,-4.286565514625772266e+02,-4.118261446145588707e+02,-2.256160068868548478e+02,-2.198206588773837211e+02,9.446745872497558594e+00,-3.442134261131286621e-01,-2.294756323099136353e-01,2.120000000000000000e+02
-4.688371213951550089e+02,-4.670796273623445813e+02,-2.316074726695105710e+02,-2.329283925404733964e+02,-4.680590129994207018e+02,-4.486985188318813016e+02,-2.477645129083093707e+02,-2.447450697396297983e+02,9.446745872497558594e+00,-3.442134261131286621e-01,-2.294756323099136353e-01,2.130000000000000000e+02
-5.030832240418940273e+02,-5.051299288148729829e+02,-2.509350213178513513e+02,-2.561739861309542903e+02,-5.069224160841104094e+02,-4.848624271007074640e+02,-2.712672963269615138e+02,-2.699514868713158648e+02,9.446745872497558594e+00,-3.442134261131286621e-01,-2.294756323099136353e-01,2.140000000000000000e+02
-5.347549488580898469e+02,-5.420509408073612576e+02,-2.696996169011335951e+02,-2.758900192527662512e+02,-5.425977414319495438e+02,-5.182679347114244592e+02,-2.938375720179219570e+02,-2.922237245618644010e+02,9.446745872497558594e+00,-3.442134261131286621e-01,-2.294756323099136353e-01,2.150000000000000000e+02
-5.645068443838708845e+02,-5.752512738153300234e+02,-2.866220097631967292e+02,-2.907694907655650240e+02,-5.742826924283335757e+02,-5.484952861059846327e+02,-3.132906251648992111e+02,-3.098672122524876613e+02,9.446745872497558594e+00,-3.442134261131286621e-01,-2.294756323099136353e-01,2.160000000000000000e+02
-5.931995127524533018e+02,-6.036996826664271794e+02,-3.012914038340795742e+02,-3.023913282670382614e+02,-6.035134776419590708e+02,-5.769197228865905345e+02,-3.291103812575238408e+02,-3.240683557594811646e+02,9.446745872497558594e+00,-3.442134261131286621e-01,-2.294756323099136353e-01,2.170000000000000000e+02
-6.214279306675807675e+02,-6.291215404877075343e+02,-3.148090443574783421e+02,-3.139287051888259157e+02,-6.328581634870570269e+02,-6.054914448365607313e+02,-3.429047757757243744e+02,-3.380995139727592687e+02,9.446745872497558594e+00,-3.442134261131286621e-01,-2.294756323099136353e-01,2.180000000000000000e+02
-6.496157768695857158e+02,-6.550355990414909684e+02,-3.291292007023757833e+02,-3.278973071890259234e+02,-6.640806501387178287e+02,-6.352786359664123665e+02,-3.572562647629092680e+02,-3.549047747109452757e+02,9.446745872497558594e+00,-3.442134261131286621e-01,-2.294756323099136353e-01,2.190000000000000000e+02
-6.783527170225124792e+02,-6.842470869980170391e+02,-3.455731528108635757e+02,-3.446613627051592630e+02,-6.971485682464845013e+02,-6.659213329443791736e+02,-3.737929198586261919e+02,-3.749387753688806697e+02,9.446745872497558594e+00,-3.442134261131286621e-01,-2.294756323099136353e-01,2.200000000000000000e+02
-7.083374541772564044e+02,-7.168835373711126522e+02,-3.637689434465828526e+02,-3.626043174204496609e+02,-7.305255833656647155e+02,-6.962006478903658717e+02,-3.920201592986813921e+02,-3.959300783697190127e+02,9.446745872497558594e+00,-3.442134261131286621e-01,-2.294756323099136353e-01,2.210000000000000000e+02
-7.397889648172849775e+02,-7.505708121705620215e+02,-3.819045393396900181e+02,-3.795500835504772112e+02,-7.622589511676924303e+02,-7.250479809222561016e+02,-4.098741317505418920e+02,-4.146748242462936105e+02,9.446745872497558594e+00,-3.442134261131286621e-01,-2.294756323099136353e-01,2.220000000000000000e+02
-7.719018297048169188e+02,-7.824521908236456511e+02,-3.980587344525220033e+02,-3.942546427387978838e+02,-7.910555807159580581e+02,-7.521723851845781610e+02,-4.255091217204380882e+02,-4.293967744391866290e+02,9.446745872497558594e+00,-3.442134261131286621e-01,-2.294756323099136353e-01,2.230000000000000000e+02
-8.030324323144232039e+02,-8.112253911708812666e+02,-4.115128740603931874e+02,-4.069942009885162406e+02,-8.168143625455722940e+02,-7.780081385871189923e+02,-4.387860496388002502e+02,-4.408869829817185746e+02,9.446745872497558594e+00,-3.442134261131286621e-01,-2.294756323099136353e-01,2.240000000000000000e+02
-8.316084917784946811e+02,-8.375755400055586506e+02,-4.230379646208493796e+02,-4.190527613992353508e+02,-8.404646847102203537e+02,-8.032379733663383377e+02,-4.512130848921360666e+02,-4.516983341876557461e+02,9.446745872497558594e+00,-3.442134261131286621e-01,-2.294756323099136353e-01,2.250000000000000000e+02
-8.570140567163034575e+02,-8.629439700023540354e+02,-4.340554464604329041e+02,-4.316298783128031573e+02,-8.632931078305909978e+02,-8.282997628689390694e+02,-4.644484873266555951e+02,-4.641655510143318679e+02,9.446745872497558594e+00,-3.442134261131286621e-01,-2.294756323099136353e-01,2.260000000000000000e+02
-8.797172944002641088e+02,-8.879772514504984429e+02,-4.454678292487378712e+02,-4.449590238678356400e+02,-8.861899727810841796e+02,-8.531545282315810255e+02,-4.787271148154495677e+02,-4.787762779652739482e+02,9.446745872497558594e+00,-3.442134261131286621e-01,-2.294756323099136353e-01,2.270000000000000000e+02
-9.006383959621862232e+02,-9.120260084409187584e+02,-4.570978160772283445e+02,-4.581447586636686538e+02,-9.092450757540527775e+02,-8.773388744987296377e+02,-4.925728642610638417e+02,-4.939615362909016767e+02,9.446745872497558594e+00,-3.442134261131286621e-01,-2.294756323099136353e-01,2.280000000000000000e+02
-9.204511034382503567e+02,-9.339412922370333945e+02,-4.680898196441962682e+02,-4.697493443330067748e+02,-9.319067272558131663e+02,-9.002175087098266886e+02,-5.040120300205708190e+02,-5.072876114634927944e+02,9.446745872497558594e+00,-3.442134261131286621e-01,-2.294756323099136353e-01,2.290000000000000000e+02
-9.394704673503092636e+02,-9.533058309275634201e+02,-4.778470004331434211e+02,-4.787405625392575530e+02,-9.535549289187838440e+02,-9.213245424547394578e+02,-5.122643013456527115e+02,-5.171674257147369644e+02,9.446745872497558594e+00,-3.442134261131286621e-01,-2.294756323099136353e-01,2.300000000000000000e+02
-9.580794412866098355e+02,-9.710012569165864988e+02,-4.866768788124759340e+02,-4.852155398899813008e+02,-9.740412586554002701e+02,-9.406248896969664202e+02,-5.185406558506165311e+02,-5.239870779761531594e+02,9.446745872497558594e+00,-3.442134261131286621e-01,-2.294756323099136353e-01,2.310000000000000000e+02
-9.770710195545275383e+02,-9.887005162324962839e+02,-4.956175334499798737e+02,-4.904788374874187866e+02,-9.938146745382564404e+02,-9.585691391204882166e+02,-5.253551892430323278e+02,-5.299743852174619860e+02,9.446745872497558594e+00,-3.442134261131286621e-01,-2.294756323099136353e-01,2.320000000000000000e+02
-9.974089888949292799e+02,-1.007763340367329420e+03,-5.056251086602842406e+02,-4.964153889565350255e+02,-1.013568558913329070e+03,-9.758980609720738357e+02,-5.349137647530992581e+02,-5.378845374803609047e+02,9.446745872497558594e+00,-3.442134261131286621e-01,-2.294756323099136353e-01,2.330000000000000000e+02
-1.019543514318873349e+03,-1.028397555035276582e+03,-5.168240482632063504e+02,-5.045180039999913788e+02,-1.033692136429415768e+03,-9.933030929173191907e+02,-5.477649178517785913e+02,-5.492811701004584393e+02,9.446745872497558594e+00,-3.442134261131286621e-01,-2.294756323099136353e-01,2.340000000000000000e+02
-1.042909367657201074e+03,-1.049636607320631811e+03,-5.284436940512073306e+02,-5.151321673022148389e+02,-1.053949095447251239e+03,-1.011127833442345036e+03,-5.625907849938221261e+02,-5.635237684112194074e+02,9.446745872497558594e+00,-3.442134261131286621e-01,-2.294756323099136353e-01,2.350000000000000000e+02
-1.066099136917648593e+03,-1.070032270714574679e+03,-5.394560045478719985e+02,-5.273351359998578118e+02,-1.073617462299226190e+03,-1.029260034874889243e+03,-5.771623751781580722e+02,-5.781999053647809887e+02,9.446745872497558594e+00,-3.442134261131286621e-01,-2.294756323099136353e-01,2.360000000000000000e+02
-1.087605710105503022e+03,-1.088499907026124220e+03,-5.493214540006329116e+02,-5.394829536273509802e+02,-1.091991958003962282e+03,-1.047253773088718845e+03,-5.897165400342742032e+02,-5.907515169214966591e+02,9.446745872497558594e+00,-3.442134261131286621e-01,-2.294756323099136353e-01,2.370000000000000000e+02
-1.106567425931807520e+03,-1.104782993705493027e+03,-5.581729304506047811e+02,-5.500588944158057529e+02,-1.108868294160993173e+03,-1.064585764040275535e+03,-5.998126210643567902e+02,-6.001203074053896671e+02,9.446745872497558594e+00,-3.442134261131286621e-01,-2.294756323099136353e-01,2.380000000000000000e+02
-1.123013548111253385e+03,-1.119370985678891429e+03,-5.663243158337113528e+02,-5.583341580903211252e+02,-1.124623742018721714e+03,-1.080903974147577173e+03,-6.081947134798433581e+02,-6.071705175399874861e+02,9.523238182067871094e+00,-3.442134261131286621e-01,-2.294756323099136353e-01,2.390000000000000000e+02
-1.137563944433372853e+03,-1.133086014173901276e+03,-5.736641878990640180e+02,-5.645390511173973209e+02,-1.139827557906492984e+03,-1.096139334123219669e+03,-6.159342553957371820e+02,-6.136319103923297007e+02,9.523238182067871094e+00,-3.442134261131286621e-01,-2.294756323099136353e-01,2.400000000000000000e+02
-1.150930142839295058e+03,-1.146698618610162612e+03,-5.796216542559395748e+02,-5.695697716110134934e+02,-1.154710940504434348e+03,-1.110438566585327862e+03,-6.235981550693436475e+02,-6.205562571628383921e+02,9.523238182067871094e+00,-3.442134261131286621e-01,-2.294756323099136353e-01,2.410000000000000000e+02
-1.163612984878368025e+03,-1.160764488664697183e+03,-5.838332368531141583e+02,-5.744979627550405894e+02,-1.169000180882452241e+03,-1.124013403689261395e+03,-6.310624907262867964e+02,-6.276591917219361676e+02,9.523238182067871094e+00,-3.442134261131286621e-01,-2.294756323099136353e-01,2.420000000000000000e+02
-1.175911810040048294e+03,-1.175618189141006042e+03,-5.869013586358105385e+02,-5.801519138210564961e+02,-1.182326325967475441e+03,-1.137033752575626750e+03,-6.379924485478450151e+02,-6.340382711566630860e+02,9.523238182067871094e+00,-3.442134261131286621e-01,-2.294756323099136353e-01,2.430000000000000000e+02
-1.188085258486029034e+03,-1.191331343830382139e+03,-5.904345422721312389e+02,-5.868786541916711030e+02,-1.194846812121652874e+03,-1.149638429854982860e+03,-6.444377253439797641e+02,-6.394337483141648590e+02,9.523238182067871094e+00,-3.442134261131286621e-01,-2.294756323099136353e-01,2.440000000000000000e+02
-1.200446943664730952e+03,-1.207583452688382295e+03,-5.961532017436720707e+02,-5.944953289773652614e+02,-1.207442601864633616e+03,-1.162011835220581816e+03,-6.509820392897354395e+02,-6.447354130963713033e+02,9.523238182067871094e+00,-3.442134261131286621e-01,-2.294756323099136353e-01,2.450000000000000000e+02
-1.213312193592181757e+03,-1.223621778309734509e+03,-6.047105501732226003e+02,-6.024212647264457701e+02,-1.221174160673251663e+03,-1.174398015910939648e+03,-6.583437606232600956e+02,-6.512607584434722412e+02,9.523238182067871094e+00,-3.442134261131286621e-01,-2.294756323099136353e-01,2.460000000000000000e+02
-1.226879795049313543e+03,-1.238525884108993978e+03,-6.152038305863825371e+02,-6.099978351349845980e+02,-1.236419333948830626e+03,-1.187027939296083787e+03,-6.668555428483045944e+02,-6.595813168943409437e+02,9.523238182067871094e+00,-3.442134261131286621e-01,-2.294756323099136353e-01,2.470000000000000000e+02
-1.241169722724105213e+03,-1.251753287815403837e+03,-6.258093231392781490e+02,-6.169093975879627578e+02,-1.252500036704824197e+03,-1.200050202422210532e+03,-6.763086751702198853e+02,-6.690830554133290207e+02,9.523238182067871094e+00,-3.442134261131286621e-01,-2.294756323099136353e-01,2.480000000000000000e+02
-1.256032787968146749e+03,-1.263599114044508951e+03,-6.350264330075460748e+02,-6.234438869988312035e+02,-1.268164931762173183e+03,-1.213503646206824214e+03,-6.862087970281090747e+02,-6.786066689771932943e+02,9.523238182067871094e+00,-3.442134261131286621e-01,-2.294756323099136353e-01,2.490000000000000000e+02
-1.271159424039022724e+03,-1.275114217962029215e+03,-6.425152077540919890e+02,-6.303151792930902957e+02,-1.282479124106125710e+03,-1.227277889720674011e+03,-6.960877554259391218e+02,-6.874012973435014828e+02,9.523238182067871094e+00,-3.442134261131286621e-01,-2.294756323099136353e-01,2.500000000000000000e+02
-1.286045476097613118e+03,-1.287367200119702829e+03,-6.489109104876088168e+02,-6.380610059365808411e+02,-1.295295657552674129e+03,-1.241004467518531328e+03,-7.055380977263566820e+02,-6.954039349415465949e+02,9.523238182067871094e+00,-3.442134261131286621e-01,-2.294756323099136353e-01,2.510000000000000000e+02
-1.299985279602785340e+03,-1.300518871327378292e+03,-6.549175100087627470e+02,-6.464260473360182004e+02,-1.306957848045393803e+03,-1.253962483726505980e+03,-7.140533781966323659e+02,-7.026846099855965804e+02,9.523238182067871094e+00,-3.442134261131286621e-01,-2.294756323099136353e-01,2.520000000000000000e+02
-1.312215621915066095e+03,-1.313459022280779209e+03,-6.605695220860297923e+02,-6.542575193653442511e+02,-1.317674555878181309e+03,-1.265211106746085534e+03,-7.210237507245965389e+02,-7.088355602660467412e+02,9.523238182067871094e+00,-3.442134261131286621e-01,-2.294756323099136353e-01,2.530000000000000000e+02
-1.322238030272249034e+03,-1.324443420378707287e+03,-6.653072877844679169e+02,-6.601019310240876621e+02,-1.327273839948751629e+03,-1.274019664237304369e+03,-7.260573577195764301e+02,-7.131029943134485620e+02,9.523238182067871094e+00,-3.442134261131286621e-01,-2.294756323099136353e-01,2.540000000000000000e+02
-1.330155639325205811e+03,-1.332352289267780179e+03,-6.687001878621840660e+02,-6.631209788677188044e+02,-1.335536818706173563e+03,-1.280345301997377192e+03,-7.293692455702444022e+02,-7.151724063158408171e+02,9.523238182067871094e+00,-3.442134261131286621e-01,-2.294756323099136353e-01,2.550000000000000000e+02
-1.336766519383559171e+03,-1.337598995609526355e+03,-6.710386664011307403e+02,-6.636583707454105934e+02,-1.342639937607346837e+03,-1.284956636521070322e+03,-7.317976285457061749e+02,-7.157444583320839229e+02,9.523238182067871094e+00,-3.442134261131286621e-01,-2.294756323099136353e-01,2.560000000000000000e+02
-1.343281063627580806e+03,-1.341910598403735548e+03,-6.732077118682032051e+02,-6.630495757500611944e+02,-1.349155296650520086e+03,-1.289049356472634827e+03,-7.343278439959321986e+02,-7.162376915985810228e+02,9.523238182067871094e+00,-3.442134261131286621e-01,-2.294756323099136353e-01,2.570000000000000000e+02
-1.350768714147809078e+03,-1.347119815378148814e+03,-6.759964874501729355e+02,-6.628472038696495474e+02,-1.355610015307174763e+03,-1.293649358673825191e+03,-7.374902991675562589e+02,-7.178499353686383984e+02,9.523238182067871094e+00,-3.442134261131286621e-01,-2.294756323099136353e-01,2.580000000000000000e+02
-1.359641512854791472e+03,-1.353941402763653514e+03,-6.795318697891839292e+02,-6.640417019097926641e+02,-1.362113411349493163e+03,-1.299259687686718280e+03,-7.411421424269265117e+02,-7.208441563716496603e+02,9.523238182067871094e+00,-3.442134261131286621e-01,-2.294756323099136353e-01,2.590000000000000000e+02
-1.369479474507555096e+03,-1.361704075206911284e+03,-6.833586364472971582e+02,-6.667599658581984841e+02,-1.368459077267923021e+03,-1.305912090634860760e+03,-7.447776436320345965e+02,-7.246484072647986068e+02,9.561484336853027344e+00,-3.442134261131286621e-01,-1.147378161549568176e-01,2.600000000000000000e+02
-1.379288285902844109e+03,-1.369166686242898777e+03,-6.870255082982416752e+02,-6.705119238916136055e+02,-1.374545404930874156e+03,-1.313390678740108342e+03,-7.480567187523861321e+02,-7.285572253129239471e+02,9.561484336853027344e+00,-3.442134261131286621e-01,-1.147378161549568176e-01,2.610000000000000000e+02
-1.388033565018541594e+03,-1.375604061700237480e+03,-6.905460024911494656e+02,-6.746736316230731063e+02,-1.380597271497560996e+03,-1.321327673042852439e+03,-7.510809021129853136e+02,-7.323109062601251935e+02,9.561484336853027344e+00,-3.442134261131286621e-01,-1.147378161549568176e-01,2.620000000000000000e+02
-1.395134546130782383e+03,-1.381201777599601201e+03,-6.942543374172964832e+02,-6.788273225213438309e+02,-1.386902964049977072e+03,-1.329161804753425713e+03,-7.541985568729060105e+02,-7.360640758289396217e+02,9.561484336853027344e+00,-3.442134261131286621e-01,-1.147378161549568176e-01,2.630000000000000000e+02
-1.400639068050143806e+03,-1.386558278763538965e+03,-6.982208635872839295e+02,-6.827946170197092215e+02,-1.393337426876052405e+03,-1.336194738918935400e+03,-7.575595436905116458e+02,-7.399224740561344333e+02,9.561484336853027344e+00,-3.442134261131286621e-01,-1.147378161549568176e-01,2.640000000000000000e+02
-1.405030185671269237e+03,-1.391953668800201740e+03,-7.018812302385050543e+02,-6.864856992812583485e+02,-1.399239078831294592e+03,-1.341892346365091271e+03,-7.608620706043340078e+02,-7.436204092323270061e+02,9.561484336853027344e+00,-3.442134261131286621e-01,-1.147378161549568176e-01,2.650000000000000000e+02
-1.408836866372387249e+03,-1.397143185125868285e+03,-7.043096812204121306e+02,-6.897732096604531762e+02,-1.403845640302097308e+03,-1.346208300590420095e+03,-7.635146184717556253e+02,-7.466560968556939315e+02,9.561484336853027344e+00,-3.442134261131286621e-01,-1.147378161549568176e-01,2.660000000000000000e+02
-1.412308573326480200e+03,-1.401749076017037623e+03,-7.049143250739374480e+02,-6.924978440648540072e+02,-1.406902637835032465e+03,-1.349574532457653959e+03,-7.650611030311899867e+02,-7.486784938064304242e+02,9.561484336853027344e+00,-3.442134261131286621e-01,-1.147378161549568176e-01,2.670000000000000000e+02
-1.415338036365419612e+03,-1.405667587755525346e+03,-7.039235061159604356e+02,-6.945484573435471702e+02,-1.408876180845239787e+03,-1.352512704185974371e+03,-7.655046195777633784e+02,-7.497193182222579253e+02,9.561484336853027344e+00,-3.442134261131286621e-01,-1.147378161549568176e-01,2.680000000000000000e+02
-1.417639564390082569e+03,-1.408986103258357161e+03,-7.022329645111232139e+02,-6.958963346760801869e+02,-1.410554158594457476e+03,-1.355215774116270040e+03,-7.652511528010616075e+02,-7.500847644268399108e+02,9.561484336853027344e+00,-3.442134261131286621e-01,-1.147378161549568176e-01,2.690000000000000000e+02
-1.419040802876066437e+03,-1.411583310329446476e+03,-7.008036086709552137e+02,-6.965486530530740765e+02,-1.412401616281170845e+03,-1.357497108820067751e+03,-7.647421953847087934e+02,-7.500874203072164619e+02,9.561484336853027344e+00,-3.442134261131286621e-01,-1.147378161549568176e-01,2.700000000000000000e+02
-1.419709886487993799e+03,-1.413036258804973841e+03,-7.001783641958189719e+02,-6.965213182946506549e+02,-1.414295205280742721e+03,-1.359135972087133723e+03,-7.641295729477566283e+02,-7.499397177372807164e+02,9.561484336853027344e+00,-3.442134261131286621e-01,-1.147378161549568176e-01,2.710000000000000000e+02
-1.420183385568451058e+03,-1.413119486411599610e+03,-7.004880458473701310e+02,-6.959482152262702357e+02,-1.415901530830125921e+03,-1.360263068827103780e+03,-7.633152211318995342e+02,-7.498937766082125336e+02,9.561484336853027344e+00,-3.442134261131286621e-01,-1.147378161549568176e-01,2.720000000000000000e+02
-1.421159656320854310e+03,-1.412403607404491140e+03,-7.017623170552870988e+02,-6.952552452915009553e+02,-1.417326514519976399e+03,-1.361418884648052199e+03,-7.623282446680983639e+02,-7.503973535630573224e+02,9.561484336853027344e+00,-3.442134261131286621e-01,-1.147378161549568176e-01,2.730000000000000000e+02
-1.423138120470063541e+03,-1.412181813204516402e+03,-7.040691764722215567e+02,-6.951620546268603675e+02,-1.419326745904290874e+03,-1.363238650886247797e+03,-7.616206221904969880e+02,-7.519709568248313190e+02,9.561484336853027344e+00,-3.442134261131286621e-01,-1.147378161549568176e-01,2.740000000000000000e+02
-1.426093558608162766e+03,-1.413554823256203690e+03,-7.072628107591613116e+02,-6.963254068638793797e+02,-1.422710612947623304e+03,-1.366018675528163612e+03,-7.618521653816192156e+02,-7.547585502371837265e+02,9.561484336853027344e+00,-3.442134261131286621e-01,-1.147378161549568176e-01,2.750000000000000000e+02
-1.429412657874813476e+03,-1.416434668236510561e+03,-7.106445900005810472e+02,-6.987742546693016266e+02,-1.427358828556539720e+03,-1.369454426701900047e+03,-7.632308464547064659e+02,-7.580834429694830305e+02,9.561484336853027344e+00,-3.442134261131286621e-01,-1.147378161549568176e-01,2.760000000000000000e+02
-1.432211521310286116e+03,-1.419455427983672962e+03,-7.130428355586982434e+02,-7.016195106308475715e+02,-1.431820464498021238e+03,-1.372680088533518756e+03,-7.650216973406404577e+02,-7.604880037489677989e+02,9.561484336853027344e+00,-3.442134261131286621e-01,-1.147378161549568176e-01,2.770000000000000000e+02
-1.433881858238522909e+03,-1.420984150973771875e+03,-7.134359534002901455e+02,-7.034437724812520401e+02,-1.434087540104914297e+03,-1.374609281098849806e+03,-7.658461761091871267e+02,-7.604535784033971595e+02,9.561484336853027344e+00,-3.442134261131286621e-01,-1.147378161549568176e-01,2.780000000000000000e+02
-1.434485978318801244e+03,-1.420400369916177169e+03,-7.116833730217924767e+02,-7.032270335302368949e+02,-1.433104698719122325e+03,-1.374465301866035588e+03,-7.647159247963924145e+02,-7.574269787014334270e+02,9.561484336853027344e+00,-3.442134261131286621e-01,-1.147378161549568176e-01,2.790000000000000000e+02
-1.434654028477392785e+03,-1.418534480596239518e+03,-7.087342224987572763e+02,-7.011011013007042720e+02,-1.429739142705771883e+03,-1.372268006780392625e+03,-7.619599462797457363e+02,-7.523920321244908109e+02,9.561484336853027344e+00,-3.442134261131286621e-01,-1.147378161549568176e-01,2.800000000000000000e+02
-1.435029868215900933e+03,-1.416924641934671172e+03,-7.060789012094261352e+02,-6.982503812056936567e+02,-1.426237422421244673e+03,-1.368945919577813129e+03,-7.591486531072474691e+02,-7.474282043593891558e+02,9.561484336853027344e+00,-3.442134261131286621e-01,-1.147378161549568176e-01,2.810000000000000000e+02
-1.435735510937159461e+03,-1.416607663158970354e+03,-7.048553373700914335e+02,-6.959913114150332376e+02,-1.424509125036462137e+03,-1.365886335278452407e+03,-7.579519656877953366e+02,-7.444466589816175883e+02,9.561484336853027344e+00,-3.442134261131286621e-01,-1.147378161549568176e-01,2.820000000000000000e+02
-1.436346855053503759e+03,-1.417484408342194911e+03,-7.052817387963746114e+02,-6.948205165575835736e+02,-1.424704881146171147e+03,-1.364136005326818577e+03,-7.588700538849932400e+02,-7.440010122996776545e+02,9.561484336853027344e+00,-3.442134261131286621e-01,-1.147378161549568176e-01,2.830000000000000000e+02
-1.436397337505940641e+03,-1.418673655475433634e+03,-7.067585680965785286e+02,-6.942655655926657801e+02,-1.425356890858666247e+03,-1.363802952019759005e+03,-7.609258360534292933e+02,-7.450847186424570054e+02,9.561484336853027344e+00,-3.442134261131286621e-01,-1.147378161549568176e-01,2.840000000000000000e+02
-1.435904777342531361e+03,-1.419366633446797096e+03,-7.084179835283374587e+02,-6.936119438421493442e+02,-1.424921678468842401e+03,-1.364133681287114314e+03,-7.625528727316079767e+02,-7.460693204561534913e+02,9.484992027282714844e+00,-3.059675097465515137e-01,-1.529837548732757568e-01,2.850000000000000000e+02
-1.435381984390776552e+03,-1.419364319416794615e+03,-7.096334081043198694e+02,-6.927404226660884206e+02,-1.423250497804882571e+03,-1.364192142888094850e+03,-7.628384697779800945e+02,-7.459985656504566123e+02,9.484992027282714844e+00,-3.059675097465515137e-01,-1.529837548732757568e-01,2.860000000000000000e+02
-1.435318830257291665e+03,-1.418948718240013932e+03,-7.101880056254788087e+02,-6.922302809427761758e+02,-1.421611788252022507e+03,-1.363547061865574506e+03,-7.620450800592655014e+02,-7.451787299564362002e+02,9.484992027282714844e+00,-3.059675097465515137e-01,-1.529837548732757568e-01,2.870000000000000000e+02
-1.435678968379713069e+03,-1.418394236565790379e+03,-7.101755117622162743e+02,-6.926555304330892113e+02,-1.421331485203458669e+03,-1.362408806053258104e+03,-7.611034907100952296e+02,-7.446489383923155856e+02,9.484992027282714844e+00,-3.059675097465515137e-01,-1.529837548732757568e-01,2.880000000000000000e+02
-1.435938430463510031e+03,-1.417656939473288503e+03,-7.098476755997870669e+02,-6.938215793792868453e+02,-1.422433467019937325e+03,-1.361193765931185453e+03,-7.607197061528090671e+02,-7.450914366792223973e+02,9.484992027282714844e+00,-3.059675097465515137e-01,-1.529837548732757568e-01,2.890000000000000000e+02
-1.435603255759525837e+03,-1.416484494352924230e+03,-7.094838476791549056e+02,-6.947458803545456476e+02,-1.423580043953539644e+03,-1.360023632057239183e+03,-7.609243682004118909e+02,-7.461706671042568360e+02,9.484992027282714844e+00,-3.059675097465515137e-01,-1.529837548732757568e-01,2.900000000000000000e+02
-1.434606067402148710e+03,-1.414726763894273063e+03,-7.092141985473759860e+02,-6.944365484662085919e+02,-1.423276242772856222e+03,-1.358672079700530958e+03,-7.612784813257601400e+02,-7.468267500831559573e+02,9.484992027282714844e+00,-3.059675097465515137e-01,-1.529837548732757568e-01,2.910000000000000000e+02
-1.433146294154978023e+03,-1.412510778109767216e+03,-7.088226009170825819e+02,-6.927424977122810787e+02,-1.421096004772996821e+03,-1.356957357671169575e+03,-7.612901976505368111e+02,-7.461828092432285757e+02,9.484992027282714844e+00,-3.059675097465515137e-01,-1.529837548732757568e-01,2.920000000000000000e+02
-1.431204517093643517e+03,-1.410157306449156522e+03,-7.077465202018784112e+02,-6.904867198144706890e+02,-1.417785377858729589e+03,-1.355095451798824342e+03,-7.605982422627574806e+02,-7.442287009776252944e+02,9.484992027282714844e+00,-3.059675097465515137e-01,-1.529837548732757568e-01,2.930000000000000000e+02
-1.428393777518843535e+03,-1.407969314706747355e+03,-7.054502959250855838e+02,-6.887791757846600831e+02,-1.414322512204072609e+03,-1.353575421015743814e+03,-7.589565412252718488e+02,-7.417503164540564740e+02,9.484992027282714844e+00,-3.059675097465515137e-01,-1.529837548732757568e-01,2.940000000000000000e+02
-1.424454425306653775e+03,-1.406069711437452497e+03,-7.019833523507917334e+02,-6.881308001987931675e+02,-1.411013594056103784e+03,-1.352633177867334325e+03,-7.563354833892504985e+02,-7.396696548147710928e+02,9.484992027282714844e+00,-3.059675097465515137e-01,-1.529837548732757568e-01,2.950000000000000000e+02
-1.419908265838104626e+03,-1.404359275394320775e+03,-6.982279712892641328e+02,-6.881317428048537295e+02,-1.407535474633934655e+03,-1.351880871684811382e+03,-7.531980168025838793e+02,-7.384253929506210170e+02,9.484992027282714844e+00,-3.059675097465515137e-01,-1.529837548732757568e-01,2.960000000000000000e+02
-1.416072356190618393e+03,-1.402582808613086854e+03,-6.954920140253523186e+02,-6.879098166969140493e+02,-1.403758557009398828e+03,-1.350546198453593661e+03,-7.505733937464724477e+02,-7.378650968396185590e+02,9.484992027282714844e+00,-3.059675097465515137e-01,-1.529837548732757568e-01,2.970000000000000000e+02
-1.414207628775915282e+03,-1.400496109505782670e+03,-6.946711433007856158e+02,-6.869211017786986986e+02,-1.400367830898987449e+03,-1.348175555852233856e+03,-7.495761358104646206e+02,-7.375865475216263576e+02,9.484992027282714844e+00,-3.059675097465515137e-01,-1.529837548732757568e-01,2.980000000000000000e+02
-1.414463879270885855e+03,-1.398091274009926110e+03,-6.956404027210321601e+02,-6.853970399122285926e+02,-1.398528319119701109e+03,-1.345121634773119013e+03,-7.505710636943873624e+02,-7.372896672608679864e+02,9.484992027282714844e+00,-3.059675097465515137e-01,-1.529837548732757568e-01,2.990000000000000000e+02
-1.415599380638179355e+03,-1.395720487762965604e+03,-6.973968162117319025e+02,-6.841133800619924159e+02,-1.398845261374580559e+03,-1.342270143343831478e+03,-7.526912857476033878e+02,-7.368125118401657119e+02,9.484992027282714844e+00,-3.059675097465515137e-01,-1.529837548732757568e-01,3.000000000000000000e+02
-1.415808765357606717e+03,-1.393922652822737973e+03,-6.988275309719851975e+02,-6.837108262220364168e+02,-1.400617244328384004e+03,-1.340179645562276846e+03,-7.542507348760866535e+02,-7.359340347972286054e+02,9.484992027282714844e+00,-3.059675097465515137e-01,-1.529837548732757568e-01,3.010000000000000000e+02
-1.413987682220501938e+03,-1.392939416149220733e+03,-6.994343526607074182e+02,-6.841334812503185958e+02,-1.402141844183560352e+03,-1.338446972552010720e+03,-7.538332295751231413e+02,-7.342925460354799725e+02,9.484992027282714844e+00,-3.059675097465515137e-01,-1.529837548732757568e-01,3.020000000000000000e+02
-1.410378006240362993e+03,-1.392262906008379105e+03,-6.994399455769321321e+02,-6.846374682802769485e+02,-1.401861714370875006e+03,-1.335987181572084410e+03,-7.512188552594527664e+02,-7.316267836528832049e+02,9.484992027282714844e+00,-3.059675097465515137e-01,-1.529837548732757568e-01,3.030000000000000000e+02
-1.406128727627689159e+03,-1.390714633208069927e+03,-6.992940291683610212e+02,-6.843574551688943757e+02,-1.399369939572964086e+03,-1.332050120231629535e+03,-7.474354727505203755e+02,-7.281456614615822218e+02,9.484992027282714844e+00,-3.059675097465515137e-01,-1.529837548732757568e-01,3.040000000000000000e+02
-1.402271073279305028e+03,-1.387201874947195392e+03,-6.990972077179969801e+02,-6.829616196359853575e+02,-1.395419983701759065e+03,-1.327000745865394492e+03,-7.439373791636335227e+02,-7.245741683533605055e+02,9.484992027282714844e+00,-3.059675097465515137e-01,-1.529837548732757568e-01,3.050000000000000000e+02
-1.399004067600909593e+03,-1.381641405772206099e+03,-6.984455126884242873e+02,-6.808396861275650735e+02,-1.391007701887085204e+03,-1.322036438715300392e+03,-7.415898683645962137e+02,-7.216609538397614187e+02,9.484992027282714844e+00,-3.059675097465515137e-01,-1.529837548732757568e-01,3.060000000000000000e+02
-1.395773328062593464e+03,-1.375215049992325930e+03,-6.967451636350207309e+02,-6.786564842732407214e+02,-1.386425000002335764e+03,-1.318034033116005958e+03,-7.401985503519970280e+02,-7.194833864020069996e+02,9.484992027282714844e+00,-3.059675097465515137e-01,-1.529837548732757568e-01,3.070000000000000000e+02
-1.391886257533578828e+03,-1.369574218110076799e+03,-6.936671645160863591e+02,-6.766732669861656859e+02,-1.381184245811466099e+03,-1.314651849137030695e+03,-7.388398046743301393e+02,-7.172372113272992920e+02,9.484992027282714844e+00,-3.059675097465515137e-01,-1.529837548732757568e-01,3.080000000000000000e+02
-1.387053688245592411e+03,-1.365559395688642098e+03,-6.894108066748071906e+02,-6.744917970738686108e+02,-1.374847714131758948e+03,-1.310639359670795102e+03,-7.366752038754605110e+02,-7.138827989455717216e+02,9.484992027282714844e+00,-3.059675097465515137e-01,-1.529837548732757568e-01,3.090000000000000000e+02
-1.381488647130840718e+03,-1.362522462557241852e+03,-6.846706607866037757e+02,-6.715031571557880170e+02,-1.367893668217501727e+03,-1.305115323305094080e+03,-7.336298085617397646e+02,-7.092205375727396586e+02,9.484992027282714844e+00,-3.059675097465515137e-01,-1.529837548732757568e-01,3.100000000000000000e+02
-1.375650463966850339e+03,-1.358898974685524536e+03,-6.803654569233933671e+02,-6.676473890443975279e+02,-1.361678088152165628e+03,-1.298572529122552169e+03,-7.304741396755259757e+02,-7.044138259835872304e+02,9.484992027282714844e+00,-3.059675097465515137e-01,-1.529837548732757568e-01,3.110000000000000000e+02
-1.369960709419009618e+03,-1.353576387233123342e+03,-6.772598674249300075e+02,-6.637439593271997182e+02,-1.357431338229299399e+03,-1.292582546206928328e+03,-7.282960570095160620e+02,-7.013222930105524711e+02,9.446745872497558594e+00,-3.824593424797058105e-01,-2.677215635776519775e-01,3.120000000000000000e+02
-1.364667666546573628e+03,-1.346850390416776918e+03,-6.756215776410542730e+02,-6.609936619614499023e+02,-1.355196057676652799e+03,-1.288440855972676218e+03,-7.277457632548774882e+02,-7.010343083523810037e+02,9.446745872497558594e+00,-3.824593424797058105e-01,-2.677215635776519775e-01,3.130000000000000000e+02
-1.359827011217346353e+03,-1.340148295427503399e+03,-6.750899162250258314e+02,-6.600361021381780802e+02,-1.353722640946508363e+03,-1.286044813517818966e+03,-7.285782416964665344e+02,-7.028216830007187355e+02,9.446745872497558594e+00,-3.824593424797058105e-01,-2.677215635776519775e-01,3.140000000000000000e+02
-1.355312918274392359e+03,-1.334813407653054355e+03,-6.748933701956144660e+02,-6.604071884733984916e+02,-1.351460770762455468e+03,-1.284051945769487475e+03,-7.298069067589668748e+02,-7.045117451949724909e+02,9.446745872497558594e+00,-3.824593424797058105e-01,-2.677215635776519775e-01,3.150000000000000000e+02
-1.350856363003779279e+03,-1.331051572863426372e+03,-6.743271745544731175e+02,-6.609017304685686440e+02,-1.347751642980523911e+03,-1.281094014798533863e+03,-7.303310672202453588e+02,-7.040646049437793863e+02,9.446745872497558594e+00,-3.824593424797058105e-01,-2.677215635776519775e-01,3.160000000000000000e+02
-1.346151132714676351e+03,-1.327920025968307073e+03,-6.731520173187659566e+02,-6.605106130752463969e+02,-1.343149264709952604e+03,-1.276838408862756069e+03,-7.295438640329839473e+02,-7.010516588967964253e+02,9.446745872497558594e+00,-3.824593424797058105e-01,-2.677215635776519775e-01,3.170000000000000000e+02
-1.340997395113435232e+03,-1.324233190125553392e+03,-6.715928270754554887e+02,-6.590944366699364991e+02,-1.338677473341933592e+03,-1.271964210224854014e+03,-7.274891324579702996e+02,-6.968128808379079828e+02,9.446745872497558594e+00,-3.824593424797058105e-01,-2.677215635776519775e-01,3.180000000000000000e+02
-1.335384366689045692e+03,-1.319472327837373768e+03,-6.699652364504994466e+02,-6.572482352619338144e+02,-1.334824016340123308e+03,-1.267263448142856305e+03,-7.245520857204120375e+02,-6.932519942866861129e+02,9.446745872497558594e+00,-3.824593424797058105e-01,-2.677215635776519775e-01,3.190000000000000000e+02
-1.329444736041809620e+03,-1.313926700176829172e+03,-6.683007403992235140e+02,-6.555876420734082330e+02,-1.331209089939476144e+03,-1.262874620052800537e+03,-7.210689907326316188e+02,-6.913911131917323019e+02,9.446745872497558594e+00,-3.824593424797058105e-01,-2.677215635776519775e-01,3.200000000000000000e+02
-1.323355109076221424e+03,-1.308111022106962992e+03,-6.663268181144884466e+02,-6.541780588820219009e+02,-1.327111072910379335e+03,-1.258353087432640677e+03,-7.172230135258541850e+02,-6.908604375546287883e+02,9.446745872497558594e+00,-3.824593424797058105e-01,-2.677215635776519775e-01,3.210000000000000000e+02
-1.317301321873020697e+03,-1.302147929777385343e+03,-6.637708479639798043e+02,-6.525843160469552231e+02,-1.322177994717152842e+03,-1.253324230900110706e+03,-7.131862852851785419e+02,-6.904968996879714496e+02,9.446745872497558594e+00,-3.824593424797058105e-01,-2.677215635776519775e-01,3.220000000000000000e+02
-1.311525690377279489e+03,-1.295707569668931228e+03,-6.606503335525944749e+02,-6.503657820652603050e+02,-1.316598694385243789e+03,-1.247922003604879365e+03,-7.091914201284347428e+02,-6.892596467667518709e+02,9.446745872497558594e+00,-3.824593424797058105e-01,-2.677215635776519775e-01,3.230000000000000000e+02
-1.306344311751515079e+03,-1.288475358643902382e+03,-6.572761748526854717e+02,-6.474669711599843822e+02,-1.310691745594926033e+03,-1.242579664804873346e+03,-7.053530304128664739e+02,-6.866482284205618498e+02,9.446745872497558594e+00,-3.824593424797058105e-01,-2.677215635776519775e-01,3.240000000000000000e+02
-1.302022105667904498e+03,-1.280638412081672868e+03,-6.540380287245105819e+02,-6.441722476209954493e+02,-1.304494614525912311e+03,-1.237512359177781036e+03,-7.014650909295754673e+02,-6.825725466326508695e+02,9.446745872497558594e+00,-3.824593424797058105e-01,-2.677215635776519775e-01,3.250000000000000000e+02
-1.298562711583845385e+03,-1.272947432297050455e+03,-6.512492004787573023e+02,-6.408057033704808418e+02,-1.297854789832887036e+03,-1.232505543289298430e+03,-6.971482774234252702e+02,-6.771971061256944040e+02,9.446745872497558594e+00,-3.824593424797058105e-01,-2.677215635776519775e-01,3.260000000000000000e+02
-1.295603854698903888e+03,-1.266332881607266927e+03,-6.491629022929033681e+02,-6.375675962601093261e+02,-1.290878915732215773e+03,-1.227212551851249373e+03,-6.923457304441357110e+02,-6.710670201692371393e+02,9.446745872497558594e+00,-3.824593424797058105e-01,-2.677215635776519775e-01,3.270000000000000000e+02
-1.292548755427508240e+03,-1.261400246849982295e+03,-6.479979427335908895e+02,-6.346263731654254343e+02,-1.284146280220178141e+03,-1.221584610920657042e+03,-6.876779951163971418e+02,-6.652045396023324884e+02,9.446745872497558594e+00,-3.824593424797058105e-01,-2.677215635776519775e-01,3.280000000000000000e+02
-1.288856776844414753e+03,-1.258138510144667407e+03,-6.477924885529150743e+02,-6.322424563445341619e+02,-1.278345922552549837e+03,-1.215952097689724724e+03,-6.841791248677363910e+02,-6.607151206948331037e+02,9.446745872497558594e+00,-3.824593424797058105e-01,-2.677215635776519775e-01,3.290000000000000000e+02
-1.284265912979200948e+03,-1.255956628121826270e+03,-6.481954132234372992e+02,-6.306700010428999121e+02,-1.273655379072060441e+03,-1.210699635398565306e+03,-6.825314594186436352e+02,-6.580298469069772409e+02,9.446745872497558594e+00,-3.824593424797058105e-01,-2.677215635776519775e-01,3.300000000000000000e+02
-1.278826500825188305e+03,-1.253978596798067883e+03,-6.485285675482117540e+02,-6.299180196005498829e+02,-1.269535478617442550e+03,-1.205922694583942530e+03,-6.825058928580326665e+02,-6.565265041695897708e+02,9.446745872497558594e+00,-3.824593424797058105e-01,-2.677215635776519775e-01,3.310000000000000000e+02
-1.272825401688921829e+03,-1.251442634612903021e+03,-6.482473155108237961e+02,-6.296962176044256694e+02,-1.265241019212755418e+03,-1.201431739400021115e+03,-6.831913021772888897e+02,-6.550866775839123193e+02,9.446745872497558594e+00,-3.824593424797058105e-01,-2.677215635776519775e-01,3.320000000000000000e+02
-1.266733444893116484e+03,-1.248025168019519015e+03,-6.474314850936334551e+02,-6.296837500486325325e+02,-1.260607389071179114e+03,-1.197067542573088986e+03,-6.838012672445574935e+02,-6.531963952125811375e+02,9.446745872497558594e+00,-3.824593424797058105e-01,-2.677215635776519775e-01,3.330000000000000000e+02
-1.261165642102738275e+03,-1.243926153219257230e+03,-6.467597761878797655e+02,-6.298415483420287728e+02,-1.256310415442622343e+03,-1.192952489110823990e+03,-6.842098334441889165e+02,-6.515130530377180094e+02,9.446745872497558594e+00,-3.824593424797058105e-01,-2.677215635776519775e-01,3.340000000000000000e+02
-1.256712412519967756e+03,-1.239629165263752839e+03,-6.468488923191587219e+02,-6.303612435006012902e+02,-1.253236284159909701e+03,-1.189364002575741779e+03,-6.846320533388312697e+02,-6.512229865110431319e+02,9.446745872497558594e+00,-3.824593424797058105e-01,-2.677215635776519775e-01,3.350000000000000000e+02
-1.253594721930946889e+03,-1.235452315351491052e+03,-6.474984391469048433e+02,-6.312015826241165541e+02,-1.251453026772996964e+03,-1.186314227832195684e+03,-6.848186176052402061e+02,-6.526896933035397979e+02,9.446745872497558594e+00,-3.824593424797058105e-01,-2.677215635776519775e-01,3.360000000000000000e+02
-1.251358423084649530e+03,-1.231209924323346058e+03,-6.475998654343079579e+02,-6.316794094013920358e+02,-1.249747629601530207e+03,-1.183237156006134910e+03,-6.837446328032615384e+02,-6.546837484077892668e+02,9.446745872497558594e+00,-3.824593424797058105e-01,-2.677215635776519775e-01,3.370000000000000000e+02
-1.248956522120843829e+03,-1.226290499110669771e+03,-6.459342553710253014e+02,-6.306532079964617878e+02,-1.246277160487129549e+03,-1.179125544681830434e+03,-6.803238001914918414e+02,-6.550204270840786194e+02,9.446745872497558594e+00,-3.824593424797058105e-01,-2.677215635776519775e-01,3.380000000000000000e+02
-1.245301973049037542e+03,-1.220150900264404754e+03,-6.422239177798791161e+02,-6.273130430689515151e+02,-1.239899276279882088e+03,-1.173082177327676163e+03,-6.745642132356450702e+02,-6.521231288905039492e+02,9.446745872497558594e+00,-3.824593424797058105e-01,-2.677215635776519775e-01,3.390000000000000000e+02
-1.239934534357887514e+03,-1.212865482169675943e+03,-6.375003698300326960e+02,-6.219575318594875171e+02,-1.231091160132223649e+03,-1.164902014406216949e+03,-6.679913781713556773e+02,-6.461797085127869877e+02,9.446745872497558594e+00,-3.824593424797058105e-01,-2.677215635776519775e-01,3.400000000000000000e+02
-1.233274068646987189e+03,-1.205274253776936803e+03,-6.334373726890462422e+02,-6.160460079809171248e+02,-1.221667575133963510e+03,-1.155277992285434948e+03,-6.627797521700083507e+02,-6.389764016981664554e+02,9.446745872497558594e+00,-3.824593424797058105e-01,-2.677215635776519775e-01,3.410000000000000000e+02
-1.226254999181760468e+03,-1.198564633754052466e+03,-6.312052538907690860e+02,-6.113967053285772408e+02,-1.213529134894675053e+03,-1.145498360438122972e+03,-6.602658615087589169e+02,-6.326759598866124179e+02,9.446745872497558594e+00,-3.824593424797058105e-01,-2.677215635776519775e-01,3.420000000000000000e+02
-1.219665488935611165e+03,-1.193566286083742852e+03,-6.308044891568567891e+02,-6.091238820346120519e+02,-1.207477671984938979e+03,-1.136840819837456593e+03,-6.601266734908704166e+02,-6.286183467099381232e+02,9.484992027282714844e+00,-3.059675097465515137e-01,-1.147378161549568176e-01,3.430000000000000000e+02
-1.213748577564062543e+03,-1.190267524439100498e+03,-6.313755716496972354e+02,-6.090865155356316336e+02,-1.203005366082762293e+03,-1.130016007971712952e+03,-6.608821262686984710e+02,-6.269756270669402056e+02,9.484992027282714844e+00,-3.059675097465515137e-01,-1.147378161549568176e-01,3.440000000000000000e+02
-1.208331436374347959e+03,-1.187886955173079514e+03,-6.321051882599049350e+02,-6.101574715590495543e+02,-1.199069692864170065e+03,-1.124932785010548741e+03,-6.611656773780586036e+02,-6.272116411866354611e+02,9.484992027282714844e+00,-3.059675097465515137e-01,-1.147378161549568176e-01,3.450000000000000000e+02
-1.203223072757261207e+03,-1.185391812458929053e+03,-6.328531632180518045e+02,-6.109671140889454364e+02,-1.195019043054035365e+03,-1.120839317736167686e+03,-6.605638785218927751e+02,-6.286442344143988521e+02,9.484992027282714844e+00,-3.059675097465515137e-01,-1.147378161549568176e-01,3.460000000000000000e+02
-1.198400839239831839e+03,-1.182073174624733156e+03,-6.339586222225739220e+02,-6.105435690649471780e+02,-1.190832985941229026e+03,-1.116717634439102312e+03,-6.593925677432437169e+02,-6.305930265183410484e+02,9.484992027282714844e+00,-3.059675097465515137e-01,-1.147378161549568176e-01,3.470000000000000000e+02
-1.193813886130863011e+03,-1.177823832380232261e+03,-6.355088718552716500e+02,-6.085518364756107985e+02,-1.186633929238109886e+03,-1.111741026834702097e+03,-6.578772423976579375e+02,-6.322454261141058396e+02,9.484992027282714844e+00,-3.059675097465515137e-01,-1.147378161549568176e-01,3.480000000000000000e+02
-1.189102458791774552e+03,-1.173024951529090004e+03,-6.368628602954065627e+02,-6.052299752487251681e+02,-1.182149585359758476e+03,-1.105588414117883758e+03,-6.556962345373434573e+02,-6.327208949100659083e+02,9.484992027282714844e+00,-3.059675097465515137e-01,-1.147378161549568176e-01,3.490000000000000000e+02
-1.183658285303542243e+03,-1.168222143304925339e+03,-6.369471344869061795e+02,-6.012361339440894881e+02,-1.176773661398653985e+03,-1.098488595903178521e+03,-6.523266546272193409e+02,-6.315310804883588389e+02,9.484992027282714844e+00,-3.059675097465515137e-01,-1.147378161549568176e-01,3.500000000000000000e+02
-1.177083276240337227e+03,-1.163827772632188498e+03,-6.351031795170238183e+02,-5.974574367866441662e+02,-1.170168215997812467e+03,-1.091016810563125546e+03,-6.477401938991197312e+02,-6.290789979840722026e+02,9.484992027282714844e+00,-3.059675097465515137e-01,-1.147378161549568176e-01,3.510000000000000000e+02
-1.169653664383291698e+03,-1.159974936180960867e+03,-6.317236768683472974e+02,-5.946999551311641881e+02,-1.162739377757485499e+03,-1.083791257299734525e+03,-6.426656072429836968e+02,-6.266281164831673323e+02,9.484992027282714844e+00,-3.059675097465515137e-01,-1.147378161549568176e-01,3.520000000000000000e+02
-1.162318662135086697e+03,-1.156516361194951514e+03,-6.280821796578406975e+02,-5.932974125062055464e+02,-1.155439438020816624e+03,-1.077252074796524994e+03,-6.381285147515645804e+02,-6.255647540323984686e+02,9.484992027282714844e+00,-3.059675097465515137e-01,-1.147378161549568176e-01,3.530000000000000000e+02
-1.156155449716093472e+03,-1.153119586242730747e+03,-6.254694427310018909e+02,-5.928830328635576734e+02,-1.149019871094263635e+03,-1.071583588029779094e+03,-6.347167457288219339e+02,-6.264279923043579856e+02,9.484992027282714844e+00,-3.059675097465515137e-01,-1.147378161549568176e-01,3.540000000000000000e+02
-1.151693018637014347e+03,-1.149439411351802846e+03,-6.243511252924045039e+02,-5.925721324741225544e+02,-1.143425576921305719e+03,-1.066706940989918621e+03,-6.322611578247872330e+02,-6.284768369617727330e+02,9.484992027282714844e+00,-3.059675097465515137e-01,-1.147378161549568176e-01,3.550000000000000000e+02
-1.148622107344913502e+03,-1.145326407570833680e+03,-6.242420115698764675e+02,-5.915194008055768791e+02,-1.137922417739838465e+03,-1.062281807836688131e+03,-6.301863032616922737e+02,-6.302074649444618899e+02,9.484992027282714844e+00,-3.059675097465515137e-01,-1.147378161549568176e-01,3.560000000000000000e+02
-1.146062254710593152e+03,-1.140958345601172368e+03,-6.243371646909972696e+02,-5.894780179892145497e+02,-1.131868616974614270e+03,-1.057780369380278898e+03,-6.281490578477498730e+02,-6.304858835485861164e+02,9.484992027282714844e+00,-3.059675097465515137e-01,-1.147378161549568176e-01,3.570000000000000000e+02
-1.143119145675733989e+03,-1.136753957279516044e+03,-6.242733760733099189e+02,-5.869578318270907857e+02,-1.125435603118887911e+03,-1.052743187080512598e+03,-6.263489004540942915e+02,-6.294268351592086219e+02,9.484992027282714844e+00,-3.059675097465515137e-01,-1.147378161549568176e-01,3.580000000000000000e+02
-1.139295143452989578e+03,-1.133068111754898609e+03,-6.243209323725363902e+02,-5.848517346971698316e+02,-1.119598386791099301e+03,-1.047136599728178226e+03,-6.252528643662287777e+02,-6.282917513052500453e+02,9.484992027282714844e+00,-3.059675097465515137e-01,-1.147378161549568176e-01,3.590000000000000000e+02
-1.134539565186525579e+03,-1.129847678906644433e+03,-6.248729388698266121e+02,-5.837991890210446400e+02,-1.115350723516427252e+03,-1.041507157159250710e+03,-6.250330574917647937e+02,-6.284393009591979080e+02,9.484992027282714844e+00,-3.059675097465515137e-01,-1.147378161549568176e-01,3.600000000000000000e+02
-1.129050844820387738e+03,-1.126521979585239706e+03,-6.257774037258000135e+02,-5.837310161691189023e+02,-1.112782793574428524e+03,-1.036663512751955295e+03,-6.252472161145060454e+02,-6.301532617555401430e+02,9.484992027282714844e+00,-3.059675097465515137e-01,-1.147378161549568176e-01,3.610000000000000000e+02
-1.123072875867356970e+03,-1.122276088283643503e+03,-6.262042665896844937e+02,-5.838910574982332946e+02,-1.110798725274569506e+03,-1.033019312391967560e+03,-6.250614145193296736e+02,-6.323022601614941323e+02,9.484992027282714844e+00,-3.059675097465515137e-01,-1.147378161549568176e-01,3.620000000000000000e+02
-1.116825583803129803e+03,-1.116567343325492857e+03,-6.252317658009978913e+02,-5.833081842777783095e+02,-1.107761874491699473e+03,-1.030146808149352637e+03,-6.238458782335706019e+02,-6.331265132289897792e+02,9.484992027282714844e+00,-3.059675097465515137e-01,-1.147378161549568176e-01,3.630000000000000000e+02
-1.110515720225942232e+03,-1.109520384895657116e+03,-6.226289178889314826e+02,-5.813898867679445175e+02,-1.102582992071682838e+03,-1.026988007557017227e+03,-6.216397827852219962e+02,-6.315110014903902993e+02,9.484992027282714844e+00,-3.442134261131286621e-01,-7.649187743663787842e-02,3.640000000000000000e+02
-1.104314658975861448e+03,-1.101884327194748721e+03,-6.191137775442020938e+02,-5.782460975566573325e+02,-1.095427398280420675e+03,-1.022595860103866471e+03,-6.190862300638357283e+02,-6.277136422585676883e+02,9.484992027282714844e+00,-3.442134261131286621e-01,-7.649187743663787842e-02,3.650000000000000000e+02
-1.098289539988155639e+03,-1.094565114871824790e+03,-6.158518560272977993e+02,-5.745548539588207859e+02,-1.087540666814765700e+03,-1.016774426035913621e+03,-6.168888260680105304e+02,-6.230275804623388467e+02,9.484992027282714844e+00,-3.442134261131286621e-01,-7.649187743663787842e-02,3.660000000000000000e+02
-1.092377870109532978e+03,-1.088072498311870731e+03,-6.136425106370470530e+02,-5.710984488682756819e+02,-1.080392924006011754e+03,-1.010077108907541515e+03,-6.152501516737156635e+02,-6.187774240924118203e+02,9.484992027282714844e+00,-3.442134261131286621e-01,-7.649187743663787842e-02,3.670000000000000000e+02
-1.086471969040956992e+03,-1.082299964224843734e+03,-6.124803651343243018e+02,-5.683238110355000572e+02,-1.074825482022371943e+03,-1.003253481264364382e+03,-6.137693454177046988e+02,-6.155409611495924764e+02,9.484992027282714844e+00,-3.442134261131286621e-01,-7.649187743663787842e-02,3.680000000000000000e+02
-1.080561187662429120e+03,-1.076785246263591489e+03,-6.117759301839964792e+02,-5.662287605149849696e+02,-1.070753034375425386e+03,-9.967116952927024158e+02,-6.118678878321657066e+02,-6.131467178601631076e+02,9.484992027282714844e+00,-3.442134261131286621e-01,-7.649187743663787842e-02,3.690000000000000000e+02
-1.074784650401314593e+03,-1.071193599120982981e+03,-6.108966355287316219e+02,-5.645847693850623727e+02,-1.067441877016787885e+03,-9.904294539106042521e+02,-6.093286687634908958e+02,-6.112084478090689572e+02,9.484992027282714844e+00,-3.442134261131286621e-01,-7.649187743663787842e-02,3.700000000000000000e+02
-1.069314070043870515e+03,-1.065588088722302928e+03,-6.094981573725222006e+02,-5.632260537581100834e+02,-1.063983020955554593e+03,-9.842278973644290545e+02,-6.064393671949635518e+02,-6.095342182601125387e+02,9.484992027282714844e+00,-3.442134261131286621e-01,-7.649187743663787842e-02,3.710000000000000000e+02
-1.064151421465386193e+03,-1.060250863089594532e+03,-6.074491105357947163e+02,-5.621069445150355932e+02,-1.059626821596854825e+03,-9.779958200988062345e+02,-6.036174003368116701e+02,-6.080447283557634819e+02,9.484992027282714844e+00,-3.442134261131286621e-01,-7.649187743663787842e-02,3.720000000000000000e+02
-1.059025750594014653e+03,-1.055241674946876856e+03,-6.046236482880838139e+02,-5.610988021665762062e+02,-1.053952637671416142e+03,-9.716578922867906840e+02,-6.009025963012982174e+02,-6.064575500159844523e+02,9.484992027282714844e+00,-3.442134261131286621e-01,-7.649187743663787842e-02,3.730000000000000000e+02
-1.053510222823022559e+03,-1.050138164750238730e+03,-6.009243733995931507e+02,-5.598052443195449541e+02,-1.046993342620093699e+03,-9.650778403646313564e+02,-5.978414051788154211e+02,-6.042483403667938546e+02,9.484992027282714844e+00,-3.442134261131286621e-01,-7.649187743663787842e-02,3.740000000000000000e+02
-1.047285506543823431e+03,-1.044249647730568995e+03,-5.965303819686087081e+02,-5.576825976680061103e+02,-1.039290621457530051e+03,-9.581464595096808807e+02,-5.938927859480586449e+02,-6.010408841733287773e+02,9.484992027282714844e+00,-3.442134261131286621e-01,-7.649187743663787842e-02,3.750000000000000000e+02
-1.040341322257581169e+03,-1.037172269547340420e+03,-5.920238417218170071e+02,-5.544594811091428710e+02,-1.031708044963038219e+03,-9.509905541417160748e+02,-5.889869488354743225e+02,-5.970405934239818180e+02,9.484992027282714844e+00,-3.442134261131286621e-01,-7.649187743663787842e-02,3.760000000000000000e+02
-1.032946017794969066e+03,-1.029200890798784485e+03,-5.881236329956946065e+02,-5.504908760424432330e+02,-1.024950590783809503e+03,-9.439787565580527371e+02,-5.837174012807283816e+02,-5.929993951783255852e+02,9.484992027282714844e+00,-3.442134261131286621e-01,-7.649187743663787842e-02,3.770000000000000000e+02
-1.025414091829944255e+03,-1.021195886888261612e+03,-5.851830054160395775e+02,-5.466590587091404814e+02,-1.019090686275005055e+03,-9.374083892981784629e+02,-5.789975165343239496e+02,-5.896624397657308236e+02,9.484992027282714844e+00,-3.442134261131286621e-01,-7.649187743663787842e-02,3.780000000000000000e+02
-1.017866208462672603e+03,-1.013958125412166510e+03,-5.829062240442051461e+02,-5.437922381469331867e+02,-1.013518219096921939e+03,-9.311707614189581363e+02,-5.754890387694931633e+02,-5.871753390290205061e+02,9.484992027282714844e+00,-3.442134261131286621e-01,-7.649187743663787842e-02,3.790000000000000000e+02
-1.010179328366290974e+03,-1.007608321442268789e+03,-5.805693600979213898e+02,-5.420272269463525845e+02,-1.007425752381028133e+03,-9.248075869497424719e+02,-5.732572739316394745e+02,-5.849885720429492721e+02,9.484992027282714844e+00,-3.442134261131286621e-01,-7.649187743663787842e-02,3.800000000000000000e+02
-1.002164511843321179e+03,-1.001496785653011557e+03,-5.775639305950073776e+02,-5.406542284241370453e+02,-1.000448051156759902e+03,-9.179743817213679904e+02,-5.718249661637075860e+02,-5.823259971967081583e+02,9.484992027282714844e+00,-3.442134261131286621e-01,-7.649187743663787842e-02,3.810000000000000000e+02
-9.938145910915616241e+02,-9.947414099627881114e+02,-5.738012389609793900e+02,-5.386127239989716600e+02,-9.929067860780428418e+02,-9.108478286245058371e+02,-5.704600642103428072e+02,-5.787762488921212025e+02,9.484992027282714844e+00,-3.442134261131286621e-01,-7.649187743663787842e-02,3.820000000000000000e+02
-9.854284557635178317e+02,-9.869763887606306980e+02,-5.696941036996652201e+02,-5.352809141133079720e+02,-9.854805009015851738e+02,-9.040260646322699358e+02,-5.684710537136361381e+02,-5.745205822712625832e+02,9.484992027282714844e+00,-3.442134261131286621e-01,-7.649187743663787842e-02,3.830000000000000000e+02
-9.775222813755008247e+02,-9.787142530618712044e+02,-5.658316165839960377e+02,-5.309591962799388511e+02,-9.786384282612293646e+02,-8.979902937184269831e+02,-5.654481216731414861e+02,-5.701050743477867400e+02,9.484992027282714844e+00,-3.442134261131286621e-01,-7.649187743663787842e-02,3.840000000000000000e+02
-9.705833880673658314e+02,-9.710250280080267657e+02,-5.626617709414842921e+02,-5.266849198203067317e+02,-9.723481668898643875e+02,-8.926629452236697944e+02,-5.614769194697821604e+02,-5.660580177402684967e+02,9.484992027282714844e+00,-3.442134261131286621e-01,-7.649187743663787842e-02,3.850000000000000000e+02
-9.648217312539366048e+02,-9.647580319213489020e+02,-5.603617286242679256e+02,-5.235297376318817442e+02,-9.662466801477794434e+02,-8.874945962419387797e+02,-5.572262230628541602e+02,-5.626655066821840592e+02,9.484992027282714844e+00,-3.442134261131286621e-01,-7.649187743663787842e-02,3.860000000000000000e+02
-9.600539830075626924e+02,-9.598837737374467451e+02,-5.588401311317315958e+02,-5.219021822435172453e+02,-9.600232114993627874e+02,-8.819618533692828350e+02,-5.536983356396153795e+02,-5.599642640491299517e+02,9.484992027282714844e+00,-3.442134261131286621e-01,-7.649187743663787842e-02,3.870000000000000000e+02
-9.557748667994810603e+02,-9.554510896311908255e+02,-5.577642616479390654e+02,-5.213285273243368465e+02,-9.536560178553040714e+02,-8.759723338012749991e+02,-5.516215619015990796e+02,-5.578105751835187220e+02,9.484992027282714844e+00,-3.442134261131286621e-01,-7.649187743663787842e-02,3.880000000000000000e+02
-9.513850383601832164e+02,-9.502072114842533210e+02,-5.566362401476442301e+02,-5.208003752172407985e+02,-9.473650432184394958e+02,-8.698196482834055132e+02,-5.508512036393090057e+02,-5.559168190693449105e+02,9.561484336853027344e+00,-2.294756323099136353e-01,-1.529837548732757568e-01,3.890000000000000000e+02
-9.464747461952185859e+02,-9.434561434325478331e+02,-5.550214102397083025e+02,-5.194000629580136774e+02,-9.414431729740076662e+02,-8.638265971359842297e+02,-5.503259009959062951e+02,-5.539119783589317194e+02,9.561484336853027344e+00,-2.294756323099136353e-01,-1.529837548732757568e-01,3.900000000000000000e+02
-9.410308343709571091e+02,-9.355517617032473936e+02,-5.528639684283662064e+02,-5.167971048664651335e+02,-9.361480235619851555e+02,-8.580938629909528572e+02,-5.487689791558418619e+02,-5.515083572742764773e+02,9.561484336853027344e+00,-2.294756323099136353e-01,-1.529837548732757568e-01,3.910000000000000000e+02
-9.354402021008102110e+02,-9.276790405862775515e+02,-5.506290471286540651e+02,-5.133641084570249404e+02,-9.316575015831008386e+02,-8.525864821318787108e+02,-5.456695838740051840e+02,-5.486945405566139016e+02,9.561484336853027344e+00,-2.294756323099136353e-01,-1.529837548732757568e-01,3.920000000000000000e+02
-9.302604284064927924e+02,-9.210723286323068351e+02,-5.490553734670529593e+02,-5.099344825908005987e+02,-9.279873292251363637e+02,-8.473885724278129601e+02,-5.417458269676221789e+02,-5.457448215202725805e+02,9.561484336853027344e+00,-2.294756323099136353e-01,-1.529837548732757568e-01,3.930000000000000000e+02
-9.258661067640059628e+02,-9.162149669720756719e+02,-5.486136025698876892e+02,-5.073891301576263686e+02,-9.248607267616716854e+02,-8.427979321820716905e+02,-5.384569365544832635e+02,-5.429837063629342992e+02,9.561484336853027344e+00,-2.294756323099136353e-01,-1.529837548732757568e-01,3.940000000000000000e+02
-9.221742240263702115e+02,-9.125824027110779753e+02,-5.490570105626952682e+02,-5.062808947340106442e+02,-9.216682643226745313e+02,-8.391431559055263278e+02,-5.369345704163465598e+02,-5.404950875882086621e+02,9.561484336853027344e+00,-2.294756323099136353e-01,-1.529837548732757568e-01,3.950000000000000000e+02
-9.186356406075665291e+02,-9.090975890144643472e+02,-5.494478372885753288e+02,-5.066389440002624269e+02,-9.176609496131968626e+02,-8.365134604405739083e+02,-5.372047542441493988e+02,-5.380621408715517191e+02,9.561484336853027344e+00,-2.294756323099136353e-01,-1.529837548732757568e-01,3.960000000000000000e+02
-9.145194792693937416e+02,-9.049358670301817256e+02,-5.486865677462233180e+02,-5.079859542162130310e+02,-9.123329513849748764e+02,-8.346495622186898800e+02,-5.382827221122583978e+02,-5.353933404868832895e+02,9.561484336853027344e+00,-2.294756323099136353e-01,-1.529837548732757568e-01,3.970000000000000000e+02
-9.093172102449739214e+02,-9.000559487261207323e+02,-5.461815138913148076e+02,-5.095327433843444851e+02,-9.057441531794861476e+02,-8.330539886178521556e+02,-5.389410714610062314e+02,-5.323707499170127448e+02,9.561484336853027344e+00,-2.294756323099136353e-01,-1.529837548732757568e-01,3.980000000000000000e+02
-9.030191375945814798e+02,-8.950569374913457068e+02,-5.422161696961106827e+02,-5.104603040845854593e+02,-8.985338996801633584e+02,-8.311598543865779902e+02,-5.384468790712749069e+02,-5.290383255816022938e+02,9.561484336853027344e+00,-2.294756323099136353e-01,-1.529837548732757568e-01,3.990000000000000000e+02
-8.961154244149302031e+02,-8.905052778156132263e+02,-5.377967103422051878e+02,-5.101731571613954657e+02,-8.915907129625311427e+02,-8.284268354760665716e+02,-5.367317079642396038e+02,-5.253539861802637461e+02,9.561484336853027344e+00,-2.294756323099136353e-01,-1.529837548732757568e-01,4.000000000000000000e+02
-8.893373462815729908e+02,-8.863113958279186591e+02,-5.340844562475469957e+02,-5.084539685448735327e+02,-8.855817569640144029e+02,-8.244139119947399195e+02,-5.340658143817506698e+02,-5.210456623485677028e+02,9.561484336853027344e+00,-2.294756323099136353e-01,-1.529837548732757568e-01,4.010000000000000000e+02
-8.832931210423885204e+02,-8.816932434146333435e+02,-5.317362897121022343e+02,-5.055131658832465291e+02,-8.806411236648928025e+02,-8.189338597993732947e+02,-5.307262857805749263e+02,-5.158372365957729926e+02,9.561484336853027344e+00,-2.294756323099136353e-01,-1.529837548732757568e-01,4.020000000000000000e+02
-8.781671003070059669e+02,-8.757892679617898466e+02,-5.305209711761349354e+02,-5.019351496574354314e+02,-8.763754814863123102e+02,-8.122444247529997483e+02,-5.269671742062535031e+02,-5.098925704230807696e+02,9.561484336853027344e+00,-2.294756323099136353e-01,-1.529837548732757568e-01,4.030000000000000000e+02
-8.735976356516948726e+02,-8.684418528894530027e+02,-5.294609716072259289e+02,-4.984997290944047563e+02,-8.721439278667221515e+02,-8.050628683771924443e+02,-5.231622445400669221e+02,-5.040191413958907560e+02,9.561484336853027344e+00,-2.294756323099136353e-01,-1.529837548732757568e-01,4.040000000000000000e+02
-8.687995313632436591e+02,-8.604907553691082285e+02,-5.274783054919039387e+02,-4.958747520977599379e+02,-8.674315830770065077e+02,-7.982582775218766074e+02,-5.197929522577394437e+02,-4.993233045417209723e+02,9.561484336853027344e+00,-2.294756323099136353e-01,-1.529837548732757568e-01,4.050000000000000000e+02
-8.629452773367238478e+02,-8.532925058046539561e+02,-5.241714767790078895e+02,-4.942883090606851511e+02,-8.621164263601795028e+02,-7.923714096038206662e+02,-5.171810234050540203e+02,-4.965184937946069113e+02,9.561484336853027344e+00,-2.294756323099136353e-01,-1.529837548732757568e-01,4.060000000000000000e+02
-8.556864921388960283e+02,-8.478088647604681682e+02,-5.201701162640943039e+02,-4.934003659951695226e+02,-8.564990846717050772e+02,-7.873451024372861866e+02,-5.152329772046350627e+02,-4.954422512485652987e+02,9.561484336853027344e+00,-2.294756323099136353e-01,-1.529837548732757568e-01,4.070000000000000000e+02
-8.475054563907960983e+02,-8.439560098419387941e+02,-5.166914911880728596e+02,-4.925227033790447422e+02,-8.510557020031228603e+02,-7.827059285290993103e+02,-5.134794107667321441e+02,-4.951407054126739240e+02,9.561484336853027344e+00,-2.294756323099136353e-01,-1.529837548732757568e-01,4.080000000000000000e+02
-8.395589975429502374e+02,-8.406974257024367034e+02,-5.145371624078256900e+02,-4.910622895507258363e+02,-8.460211485847876247e+02,-7.780225241952521174e+02,-5.113944540613779282e+02,-4.944019673937696098e+02,9.561484336853027344e+00,-2.294756323099136353e-01,-1.529837548732757568e-01,4.090000000000000000e+02
-8.329827426498018212e+02,-8.367753793089204919e+02,-5.133204888948330336e+02,-4.888517506838588815e+02,-8.410734076693725001e+02,-7.731962625238684268e+02,-5.086944128871455177e+02,-4.923154382685511337e+02,9.561484336853027344e+00,-2.294756323099136353e-01,-1.529837548732757568e-01,4.100000000000000000e+02
-8.280915838641499249e+02,-8.314752679841508325e+02,-5.116481185323980299e+02,-4.860775767486225050e+02,-8.354198531081910915e+02,-7.683091503856480813e+02,-5.053565574442850448e+02,-4.885496880446307841e+02,9.561484336853027344e+00,-2.294756323099136353e-01,-1.529837548732757568e-01,4.110000000000000000e+02
-8.241194539151665595e+02,-8.248670214278827189e+02,-5.082264490508293875e+02,-4.828791749366678232e+02,-8.283396986524562635e+02,-7.632332837694489172e+02,-5.014341951642109052e+02,-4.833656068049936039e+02,9.561484336853027344e+00,-2.294756323099136353e-01,-1.529837548732757568e-01,4.120000000000000000e+02
-8.197841310902217629e+02,-8.174675295400675168e+02,-5.030003027063362424e+02,-4.790438665358233266e+02,-8.198289352165224955e+02,-7.574769133355580379e+02,-4.969333648324241040e+02,-4.774902163394795025e+02,9.561484336853027344e+00,-2.294756323099136353e-01,-1.529837548732757568e-01,4.130000000000000000e+02
-8.142477858363849919e+02,-8.097455722514846457e+02,-4.972834613144577816e+02,-4.741468199098121659e+02,-8.107733161601831853e+02,-7.504844251295307913e+02,-4.918752604585542940e+02,-4.718507433207450958e+02,9.561484336853027344e+00,-2.294756323099136353e-01,-1.529837548732757568e-01,4.140000000000000000e+02
-8.076547018371566082e+02,-8.019286502155546259e+02,-4.926811897422956008e+02,-4.680635902064059337e+02,-8.023719364633725490e+02,-7.421206563974628807e+02,-4.864200337068955378e+02,-4.671336312556727535e+02,9.561484336853027344e+00,-2.294756323099136353e-01,-1.529837548732757568e-01,4.150000000000000000e+02
-8.007871263703941622e+02,-7.941923038956520031e+02,-4.897122921536188187e+02,-4.613848200137254025e+02,-7.951982177192130621e+02,-7.328624406755075142e+02,-4.808732810964202145e+02,-4.633560370035820597e+02,9.484992027282714844e+00,-2.677215635776519775e-01,-1.912296712398529053e-01,4.160000000000000000e+02
-7.942148137764115745e+02,-7.869172004042511617e+02,-4.873730010849628798e+02,-4.552900876690200676e+02,-7.887337311848255013e+02,-7.235340033968795979e+02,-4.755797241933241821e+02,-4.598555618894583858e+02,9.484992027282714844e+00,-2.677215635776519775e-01,-1.912296712398529053e-01,4.170000000000000000e+02
-7.877999863429454308e+02,-7.806607750445796228e+02,-4.840909287857291474e+02,-4.509134495413950390e+02,-7.818971507014980489e+02,-7.148794456523119152e+02,-4.708561513378322161e+02,-4.558903655297926889e+02,9.484992027282714844e+00,-2.677215635776519775e-01,-1.912296712398529053e-01,4.180000000000000000e+02
-7.810544003641698509e+02,-7.758143034826584881e+02,-4.792324438072766952e+02,-4.486788972077629296e+02,-7.741696814166989498e+02,-7.073458588570806569e+02,-4.670098530979471434e+02,-4.514317774637161165e+02,9.484992027282714844e+00,-2.677215635776519775e-01,-1.912296712398529053e-01,4.190000000000000000e+02
-7.739317551420531345e+02,-7.722309307008140422e+02,-4.737847659121080142e+02,-4.480899169096314836e+02,-7.662605773816794681e+02,-7.011316042757962350e+02,-4.642882655628391149e+02,-4.473709094713472041e+02,9.484992027282714844e+00,-2.677215635776519775e-01,-1.912296712398529053e-01,4.200000000000000000e+02
-7.671408963270860113e+02,-7.691435281748035777e+02,-4.695672931557794527e+02,-4.480507472567046534e+02,-7.595978522158484338e+02,-6.962356655655298709e+02,-4.626339370820019212e+02,-4.447837043410013393e+02,9.484992027282714844e+00,-2.677215635776519775e-01,-1.912296712398529053e-01,4.210000000000000000e+02
-7.615651793342667588e+02,-7.654699651756563981e+02,-4.676672296238054969e+02,-4.474190857363337273e+02,-7.550370731100456396e+02,-6.923459401860277467e+02,-4.614241538329720242e+02,-4.438430264034700485e+02,9.484992027282714844e+00,-2.677215635776519775e-01,-1.912296712398529053e-01,4.220000000000000000e+02
-7.573383342561346581e+02,-7.603432409810179706e+02,-4.674916591434994189e+02,-4.454453733010650467e+02,-7.520049286215248685e+02,-6.887696648497731076e+02,-4.595901095536905814e+02,-4.434483274086987876e+02,9.484992027282714844e+00,-2.677215635776519775e-01,-1.912296712398529053e-01,4.230000000000000000e+02
-7.535495435128882491e+02,-7.535773630657085960e+02,-4.672464624332887979e+02,-4.419637246220981979e+02,-7.489206078434604024e+02,-6.846968324330887299e+02,-4.562484612086759626e+02,-4.420526279057216925e+02,9.484992027282714844e+00,-2.677215635776519775e-01,-1.912296712398529053e-01,4.240000000000000000e+02
-7.489737901498397150e+02,-7.458187006127541281e+02,-4.653788408969805914e+02,-4.373852905852472759e+02,-7.445270269255211133e+02,-6.797316927221058904e+02,-4.514269926938077333e+02,-4.389773980237305295e+02,9.484992027282714844e+00,-2.677215635776519775e-01,-1.912296712398529053e-01,4.250000000000000000e+02
-7.431759866074189631e+02,-7.382653881315432045e+02,-4.617235374387425964e+02,-4.325557337281497894e+02,-7.388893413798305119e+02,-6.742182284530954348e+02,-4.462005421892267805e+02,-4.349510086500304169e+02,9.484992027282714844e+00,-2.677215635776519775e-01,-1.912296712398529053e-01,4.260000000000000000e+02
-7.369204033122273358e+02,-7.320395231440343196e+02,-4.574509265895151202e+02,-4.284599581733996274e+02,-7.331516959468899586e+02,-6.689663599413843258e+02,-4.419572739647419439e+02,-4.313339164483186323e+02,9.484992027282714844e+00,-2.677215635776519775e-01,-1.912296712398529053e-01,4.270000000000000000e+02
-7.314759991686478315e+02,-7.275460887443573483e+02,-4.540131690720393181e+02,-4.258131749244212187e+02,-7.283680222112830052e+02,-6.645671034060183047e+02,-4.393285536861608307e+02,-4.288114229949310356e+02,9.484992027282714844e+00,-2.677215635776519775e-01,-1.912296712398529053e-01,4.280000000000000000e+02
-7.274734034275084014e+02,-7.242438623343568906e+02,-4.520685943451701405e+02,-4.247185555679616300e+02,-7.245685894013267898e+02,-6.609223491342618217e+02,-4.377149975174070278e+02,-4.268684140161785763e+02,9.484992027282714844e+00,-2.677215635776519775e-01,-1.912296712398529053e-01,4.290000000000000000e+02
-7.243835315028272817e+02,-7.210377868781870347e+02,-4.512026191576169367e+02,-4.246325877534882238e+02,-7.208941023096185745e+02,-6.574366739707111265e+02,-4.358777698620556293e+02,-4.245281888590948256e+02,9.484992027282714844e+00,-2.677215635776519775e-01,-1.912296712398529053e-01,4.300000000000000000e+02
-7.210526726224134109e+02,-7.170507986418751898e+02,-4.504682900477719159e+02,-4.247115703864219540e+02,-7.165327976953421967e+02,-6.536650480242210506e+02,-4.331231844906674269e+02,-4.215345297813341858e+02,9.484992027282714844e+00,-2.677215635776519775e-01,-1.912296712398529053e-01,4.310000000000000000e+02
-7.167168250482877738e+02,-7.121890164408800956e+02,-4.491435238831791139e+02,-4.243127366189173699e+02,-7.114678813151231225e+02,-6.497518614770388012e+02,-4.300253182902388289e+02,-4.187197104202564333e+02,9.484992027282714844e+00,-2.677215635776519775e-01,-1.912296712398529053e-01,4.320000000000000000e+02
-7.115450999395079634e+02,-7.070467716868847674e+02,-4.470923292653274075e+02,-4.232885278563535394e+02,-7.063553610299832144e+02,-6.462368222398918078e+02,-4.279950559691433227e+02,-4.171847098740117872e+02,9.484992027282714844e+00,-2.677215635776519775e-01,-1.912296712398529053e-01,4.330000000000000000e+02
-7.063064151004978157e+02,-7.022508464691968584e+02,-4.445965994306134235e+02,-4.218588942031165061e+02,-7.017664607014121430e+02,-6.434496968172957168e+02,-4.279971340944725853e+02,-4.171460625504491873e+02,9.484992027282714844e+00,-2.677215635776519775e-01,-1.912296712398529053e-01,4.340000000000000000e+02
-7.016140376109651697e+02,-6.978291183394176187e+02,-4.419703353265447276e+02,-4.201927087489666519e+02,-6.976034068254971316e+02,-6.411026821050636499e+02,-4.294904547835681115e+02,-4.176001905350835841e+02,9.484992027282714844e+00,-2.677215635776519775e-01,-1.912296712398529053e-01,4.350000000000000000e+02
-6.975091784291803378e+02,-6.931499846302749575e+02,-4.393210915358097282e+02,-4.180789254252476894e+02,-6.932365560535090481e+02,-6.384455837418349802e+02,-4.305394342740096363e+02,-4.170672859080946182e+02,9.484992027282714844e+00,-2.677215635776519775e-01,-1.912296712398529053e-01,4.360000000000000000e+02
-6.936796924218260756e+02,-6.874521416838065306e+02,-4.365848625720971086e+02,-4.150000572304425077e+02,-6.881626971144241907e+02,-6.348005121343908286e+02,-4.290905088159411207e+02,-4.146470706726800017e+02,9.484992027282714844e+00,-2.677215635776519775e-01,-1.912296712398529053e-01,4.370000000000000000e+02
-6.899429104495734464e+02,-6.804849727168966638e+02,-4.336943547642222256e+02,-4.105907434500809359e+02,-6.825002444666938572e+02,-6.299905946859580581e+02,-4.244401132458624488e+02,-4.104435693751015606e+02,9.484992027282714844e+00,-2.677215635776519775e-01,-1.912296712398529053e-01,4.380000000000000000e+02
-6.864267918363975696e+02,-6.727655746018604077e+02,-4.306802176989763211e+02,-4.051327177084122013e+02,-6.768505287049592880e+02,-6.243556421587454679e+02,-4.177604640524309616e+02,-4.051803050138105391e+02,9.484992027282714844e+00,-2.677215635776519775e-01,-1.912296712398529053e-01,4.390000000000000000e+02
-6.832852292791058062e+02,-6.653223168116260240e+02,-4.276017784246553219e+02,-3.996490583959371179e+02,-6.716734671256554066e+02,-6.184493684132535236e+02,-4.112731884883169187e+02,-3.995941443538449676e+02,9.484992027282714844e+00,-2.677215635776519775e-01,-1.912296712398529053e-01,4.400000000000000000e+02
-6.802898666491664699e+02,-6.591463047056686264e+02,-4.243716481195033339e+02,-3.954219038771702799e+02,-6.667647274607579675e+02,-6.127170485608485251e+02,-4.067061673420694206e+02,-3.941829406457954974e+02,9.484992027282714844e+00,-2.677215635776519775e-01,-1.912296712398529053e-01,4.410000000000000000e+02
-6.767764520997775435e+02,-6.546734535923706062e+02,-4.206804940241017903e+02,-3.932038680276582454e+02,-6.613558812004598622e+02,-6.073579491384762150e+02,-4.042112440181649617e+02,-3.893073361348428989e+02,9.484992027282714844e+00,-2.677215635776519775e-01,-1.912296712398529053e-01,4.420000000000000000e+02
-6.720681098806035152e+02,-6.515290725163827119e+02,-4.161815428255179086e+02,-3.926860870850282481e+02,-6.548254311867926845e+02,-6.023767471979963375e+02,-4.025238947381644721e+02,-3.852523523039235442e+02,9.484992027282714844e+00,-2.677215635776519775e-01,-1.912296712398529053e-01,4.430000000000000000e+02
-6.660440428645479187e+02,-6.486628067905721764e+02,-4.108815893347943984e+02,-3.926671406610321355e+02,-6.474587021532497602e+02,-5.977141175888759790e+02,-4.001491957599453144e+02,-3.820766887130853320e+02,9.484992027282714844e+00,-2.677215635776519775e-01,-1.912296712398529053e-01,4.440000000000000000e+02
-6.593793166456425752e+02,-6.448975507723766896e+02,-4.054328980871700878e+02,-3.918623135901711976e+02,-6.405708001851407971e+02,-5.933447526186164396e+02,-3.965647043480930733e+02,-3.795135740117400474e+02,9.484992027282714844e+00,-2.677215635776519775e-01,-1.912296712398529053e-01,4.450000000000000000e+02
-6.532263000503467083e+02,-6.396761348469372024e+02,-4.009703597108707527e+02,-3.897746225904111270e+02,-6.357655098349141554e+02,-5.892996279525791579e+02,-3.925158701147863667e+02,-3.772003941057673728e+02,9.484992027282714844e+00,-2.677215635776519775e-01,-1.912296712398529053e-01,4.460000000000000000e+02
-6.485352117715160603e+02,-6.335237221907950698e+02,-3.984655857706497954e+02,-3.869576754269742196e+02,-6.338134232345109922e+02,-5.856122890222304704e+02,-3.892884010891650632e+02,-3.750761330363213801e+02,9.523238182067871094e+00,-1.912296712398529053e-01,-1.529837548732757568e-01,4.470000000000000000e+02
-6.454639969575810028e+02,-6.277648344129047473e+02,-3.980251021547906021e+02,-3.844504743506699924e+02,-6.340081568005930421e+02,-5.822209584855213507e+02,-3.876696359441716595e+02,-3.734568968345026860e+02,9.523238182067871094e+00,-1.912296712398529053e-01,-1.529837548732757568e-01,4.480000000000000000e+02
-6.432860373090638859e+02,-6.235530132378642065e+02,-3.987187031257210492e+02,-3.828401871827491050e+02,-6.345363687182366448e+02,-5.788962945621988183e+02,-3.874577929800209404e+02,-3.725792377854897950e+02,9.523238182067871094e+00,-1.912296712398529053e-01,-1.529837548732757568e-01,4.490000000000000000e+02
-6.408715157886149427e+02,-6.209145607525176729e+02,-3.991284984462993179e+02,-3.817173503066239846e+02,-6.335670846240900573e+02,-5.752536798556784561e+02,-3.877603987177903946e+02,-3.720219005330566233e+02,9.523238182067871094e+00,-1.912296712398529053e-01,-1.529837548732757568e-01,4.500000000000000000e+02
-6.374181960818527841e+02,-6.186234626442178524e+02,-3.981963819512145619e+02,-3.799679193489644149e+02,-6.302047405039525074e+02,-5.708710750272766745e+02,-3.876316921281015766e+02,-3.706628610918837694e+02,9.523238182067871094e+00,-1.912296712398529053e-01,-1.529837548732757568e-01,4.510000000000000000e+02
-6.329286250397115055e+02,-6.151010939159439204e+02,-3.957120506682010728e+02,-3.766683845659074450e+02,-6.246498493650319688e+02,-5.654770275735272662e+02,-3.864656351057708434e+02,-3.673845994634743874e+02,9.523238182067871094e+00,-1.912296712398529053e-01,-1.529837548732757568e-01,4.520000000000000000e+02
-6.281022305159267489e+02,-6.096205958910534264e+02,-3.921579971060500611e+02,-3.718719443092136316e+02,-6.176880367304001993e+02,-5.591457959308190766e+02,-3.840100325930063718e+02,-3.620079619635157542e+02,9.523238182067871094e+00,-1.912296712398529053e-01,-1.529837548732757568e-01,4.530000000000000000e+02
-6.237378106972173555e+02,-6.027944716855167826e+02,-3.882093686862772302e+02,-3.666754675168751874e+02,-6.101560352313299518e+02,-5.523949084605701501e+02,-3.802954815525724825e+02,-3.556478635222201774e+02,9.523238182067871094e+00,-1.912296712398529053e-01,-1.529837548732757568e-01,4.540000000000000000e+02
-6.201341769982066126e+02,-5.959669778700124425e+02,-3.843991925695365808e+02,-3.625242679980890443e+02,-6.028309387699932813e+02,-5.460802246005482630e+02,-3.757261341455414367e+02,-3.501531482685118135e+02,9.523238182067871094e+00,-1.912296712398529053e-01,-1.529837548732757568e-01,4.550000000000000000e+02
-6.169661567358768934e+02,-5.901167597428939189e+02,-3.811207508549518934e+02,-3.602791573407787382e+02,-5.965549089111398189e+02,-5.410516835020534927e+02,-3.711695074912404380e+02,-3.470362395250374448e+02,9.523238182067871094e+00,-1.912296712398529053e-01,-1.529837548732757568e-01,4.560000000000000000e+02
-6.136807634188487555e+02,-5.852478431804340744e+02,-3.786885437213466048e+02,-3.596984807523081145e+02,-5.920818438132209849e+02,-5.376944308503743741e+02,-3.676905762311728267e+02,-3.466448517277658539e+02,9.523238182067871094e+00,-1.912296712398529053e-01,-1.529837548732757568e-01,4.570000000000000000e+02
-6.099984296390643976e+02,-5.806901066277600876e+02,-3.771695208783239650e+02,-3.596425537998009077e+02,-5.895338430890024028e+02,-5.356381375104442668e+02,-3.659099074150794877e+02,-3.480690170353989288e+02,9.523238182067871094e+00,-1.912296712398529053e-01,-1.529837548732757568e-01,4.580000000000000000e+02
-6.060345491550156112e+02,-5.758553457241421256e+02,-3.761161310021293502e+02,-3.587944567213144182e+02,-5.879834897363957680e+02,-5.338787187887037362e+02,-3.654746842705444578e+02,-3.497142661133166257e+02,9.523238182067871094e+00,-1.912296712398529053e-01,-1.529837548732757568e-01,4.590000000000000000e+02
-6.019543443935610867e+02,-5.706744788406913358e+02,-3.746164905488776640e+02,-3.563928406878521855e+02,-5.857730534510651523e+02,-5.312944017002673718e+02,-3.651939596587560573e+02,-3.501047279579820497e+02,9.523238182067871094e+00,-1.912296712398529053e-01,-1.529837548732757568e-01,4.600000000000000000e+02
-5.975677027969111350e+02,-5.653972767849645606e+02,-3.718197075920215866e+02,-3.525265332439546455e+02,-5.815243347714917945e+02,-5.272220452670972008e+02,-3.638176270019030198e+02,-3.484752590635207525e+02,9.523238182067871094e+00,-1.912296712398529053e-01,-1.529837548732757568e-01,4.610000000000000000e+02
-5.923392077110775062e+02,-5.601250149275397234e+02,-3.675459265074787254e+02,-3.478826527403255113e+02,-5.750597455062170411e+02,-5.216992780400059928e+02,-3.608234616195059061e+02,-3.449401514688670431e+02,9.523238182067871094e+00,-1.912296712398529053e-01,-1.529837548732757568e-01,4.620000000000000000e+02
-5.858448031872208048e+02,-5.546400253047213482e+02,-3.623949773356091555e+02,-3.431896160909791433e+02,-5.674376953974351636e+02,-5.152498417417937162e+02,-3.565485077168382304e+02,-3.402509779715301192e+02,9.523238182067871094e+00,-1.912296712398529053e-01,-1.529837548732757568e-01,4.630000000000000000e+02
-5.782218503375800083e+02,-5.486750113268758469e+02,-3.572039491223436016e+02,-3.387636628268346612e+02,-5.600686198906162190e+02,-5.084538677195048422e+02,-3.516318661250218156e+02,-3.353043512222261597e+02,9.523238182067871094e+00,-1.912296712398529053e-01,-1.529837548732757568e-01,4.640000000000000000e+02
-5.701608674554581739e+02,-5.422867549198317647e+02,-3.523718099168193021e+02,-3.344543728016383284e+02,-5.537004872262498338e+02,-5.016755239780925422e+02,-3.463907840157182818e+02,-3.306690514451534000e+02,9.523238182067871094e+00,-1.912296712398529053e-01,-1.529837548732757568e-01,4.650000000000000000e+02
-5.624474715141063825e+02,-5.359277035032991989e+02,-3.477104741166060649e+02,-3.299704573050553336e+02,-5.481216119127402635e+02,-4.951027430954236479e+02,-3.407510725097749855e+02,-3.264082569795268682e+02,9.523238182067871094e+00,-1.912296712398529053e-01,-1.529837548732757568e-01,4.660000000000000000e+02
-5.554092453573782677e+02,-5.300412109553888058e+02,-3.428158414157510379e+02,-3.251966103940440007e+02,-5.426176757421071670e+02,-4.888800981341182705e+02,-3.346081852001789230e+02,-3.221819271206245503e+02,9.523238182067871094e+00,-1.912296712398529053e-01,-1.529837548732757568e-01,4.670000000000000000e+02
-5.487485431525003605e+02,-5.245485489285895255e+02,-3.375025421257323615e+02,-3.201953580876772776e+02,-5.365944152829142695e+02,-4.831020751315327288e+02,-3.280937482311792337e+02,-3.175032015227652664e+02,9.523238182067871094e+00,-2.677215635776519775e-01,-1.529837548732757568e-01,4.680000000000000000e+02
-5.419256299261091954e+02,-5.187968765296711808e+02,-3.319193187471889814e+02,-3.150023455679104245e+02,-5.298497103200015772e+02,-4.777010959718668346e+02,-3.214998158843918645e+02,-3.120533514984854264e+02,9.523238182067871094e+00,-2.677215635776519775e-01,-1.529837548732757568e-01,4.690000000000000000e+02
-5.347765378446642899e+02,-5.121528602854309611e+02,-3.264104001676021198e+02,-3.095954806084055235e+02,-5.225108058504627024e+02,-4.724692680616817597e+02,-3.151195459067123466e+02,-3.059892632183241403e+02,9.523238182067871094e+00,-2.677215635776519775e-01,-1.529837548732757568e-01,4.700000000000000000e+02
-5.279085954261245206e+02,-5.048661428701593650e+02,-3.214948970570164875e+02,-3.042791163149483964e+02,-5.150233477860879248e+02,-4.673600746570368756e+02,-3.094172651848539317e+02,-3.001961616701914863e+02,9.523238182067871094e+00,-2.677215635776519775e-01,-1.529837548732757568e-01,4.710000000000000000e+02
-5.225903208783070113e+02,-4.984767847159234861e+02,-3.180203268847310483e+02,-3.001658713105221068e+02,-5.083180980771621762e+02,-4.628562015657676056e+02,-3.054203798213092114e+02,-2.962862055821310605e+02,9.523238182067871094e+00,-2.677215635776519775e-01,-1.529837548732757568e-01,4.720000000000000000e+02
-5.201471484842143127e+02,-4.952094153036342732e+02,-3.170678848272692676e+02,-2.990524027920364460e+02,-5.037745693887886773e+02,-4.599619144715970833e+02,-3.046558489070359883e+02,-2.960414591186770394e+02,9.523238182067871094e+00,-2.677215635776519775e-01,-1.529837548732757568e-01,4.730000000000000000e+02
-5.211549497969504046e+02,-4.965312100895127969e+02,-3.193040277346309495e+02,-3.023626829389448858e+02,-5.026031362104206437e+02,-4.596078458186314037e+02,-3.082027251704815853e+02,-3.003395462048584932e+02,9.523238182067871094e+00,-2.677215635776519775e-01,-1.529837548732757568e-01,4.740000000000000000e+02
-5.249118090559388747e+02,-5.018570528974902345e+02,-3.241750097282040315e+02,-3.097740824036563936e+02,-5.048941365135585784e+02,-4.618144138682232551e+02,-3.154295240315798310e+02,-3.082099034473567372e+02,9.523238182067871094e+00,-2.677215635776519775e-01,-1.529837548732757568e-01,4.750000000000000000e+02
-5.296165175463111154e+02,-5.085179647598148449e+02,-3.298221430965219270e+02,-3.187580872695511971e+02,-5.091832005655985540e+02,-4.653180190219807173e+02,-3.236622240331573721e+02,-3.168964433074964973e+02,9.523238182067871094e+00,-2.677215635776519775e-01,-1.529837548732757568e-01,4.760000000000000000e+02
-5.332907305366638866e+02,-5.132425159652296998e+02,-3.341097920553596623e+02,-3.257595812224560632e+02,-5.131318146543992498e+02,-4.680935094229209881e+02,-3.294689057771859098e+02,-3.231989604699841721e+02,9.523238182067871094e+00,-2.677215635776519775e-01,-1.529837548732757568e-01,4.770000000000000000e+02
-5.348833819877511360e+02,-5.141348732890114661e+02,-3.360259080282648938e+02,-3.283363669161458347e+02,-5.149170283399591881e+02,-4.684857173487262116e+02,-3.307657397547334313e+02,-3.252567829958052243e+02,9.523238182067871094e+00,-2.677215635776519775e-01,-1.529837548732757568e-01,4.780000000000000000e+02
-5.347123710220965904e+02,-5.116187230147252194e+02,-3.361635891898189925e+02,-3.265941531528603718e+02,-5.141691496564330919e+02,-4.661124163419101478e+02,-3.280223987468031623e+02,-3.234004166255140262e+02,9.523238182067871094e+00,-2.677215635776519775e-01,-1.529837548732757568e-01,4.790000000000000000e+02
-5.338399484319689918e+02,-5.076387995069721910e+02,-3.357969680043709104e+02,-3.227495733840867160e+02,-5.116925059956936366e+02,-4.618948741759628547e+02,-3.235578479372942979e+02,-3.194442871409020768e+02,9.523238182067871094e+00,-2.677215635776519775e-01,-1.529837548732757568e-01,4.800000000000000000e+02
-5.328747771779111417e+02,-5.039052157823448397e+02,-3.354373914379863209e+02,-3.192475274096577209e+02,-5.083711818993888301e+02,-4.572803448691566928e+02,-3.195921485463596809e+02,-3.151401070828688376e+02,9.523238182067871094e+00,-2.677215635776519775e-01,-1.529837548732757568e-01,4.810000000000000000e+02
-5.312840068797246431e+02,-5.007572666298329978e+02,-3.343072022759300808e+02,-3.171038178575281563e+02,-5.044092808878884284e+02,-4.533421475809271897e+02,-3.167776924850887781e+02,-3.111895994716070390e+02,9.523238182067871094e+00,-2.677215635776519775e-01,-1.529837548732757568e-01,4.820000000000000000e+02
-5.279113173074998713e+02,-4.975192137175201879e+02,-3.312808984359511442e+02,-3.157945623595439884e+02,-4.996190539990009256e+02,-4.504109672553809105e+02,-3.143672896396403189e+02,-3.075299918835993367e+02,9.523238182067871094e+00,-2.677215635776519775e-01,-1.529837548732757568e-01,4.830000000000000000e+02
-5.222848637483876928e+02,-4.937598754592761452e+02,-3.263699671113243994e+02,-3.144796486867306839e+02,-4.942943089317399199e+02,-4.483182568186416574e+02,-3.115768748908084831e+02,-3.042975573546785313e+02,9.523238182067871094e+00,-2.677215635776519775e-01,-1.529837548732757568e-01,4.840000000000000000e+02
-5.155250771989825580e+02,-4.901008261358821301e+02,-3.212993231002492394e+02,-3.131921227071719613e+02,-4.896019467340955771e+02,-4.468268169505365108e+02,-3.087186059516399155e+02,-3.023066471162939592e+02,9.523238182067871094e+00,-2.677215635776519775e-01,-1.529837548732757568e-01,4.850000000000000000e+02
-5.099968713621444749e+02,-4.878521220799799494e+02,-3.186354239113356357e+02,-3.129033292406759301e+02,-4.870322785009850577e+02,-4.458455428949175143e+02,-3.071563523478669140e+02,-3.026018570976262936e+02,9.523238182067871094e+00,-2.677215635776519775e-01,-1.529837548732757568e-01,4.860000000000000000e+02
-5.079371816507540416e+02,-4.879999875531798352e+02,-3.202422779092709675e+02,-3.146385773883479260e+02,-4.874883616449716328e+02,-4.454209997758305803e+02,-3.083539867167291959e+02,-3.057164961849113070e+02,9.523238182067871094e+00,-2.677215635776519775e-01,-1.529837548732757568e-01,4.870000000000000000e+02
-5.101039710454904252e+02,-4.905634874542270154e+02,-3.262517019760398966e+02,-3.186506551857761451e+02,-4.908930308223699512e+02,-4.457127164004241422e+02,-3.129360091810058293e+02,-3.114424300191691941e+02,9.523238182067871094e+00,-2.677215635776519775e-01,-1.529837548732757568e-01,4.880000000000000000e+02
-5.153435331160926580e+02,-4.947220687733698696e+02,-3.350604007611124189e+02,-3.243101027936924083e+02,-4.964840433470506014e+02,-4.469861378787416015e+02,-3.203250472339119597e+02,-3.191340319769157645e+02,9.523238182067871094e+00,-2.677215635776519775e-01,-1.529837548732757568e-01,4.890000000000000000e+02
-5.212048809149544013e+02,-4.993042586897204274e+02,-3.440530614312984881e+02,-3.305078114717167068e+02,-5.032152063793676007e+02,-4.494539287317948038e+02,-3.288991235602337042e+02,-3.279264346511243957e+02,9.523238182067871094e+00,-2.677215635776519775e-01,-1.529837548732757568e-01,4.900000000000000000e+02
-5.251211830653975312e+02,-5.031448651752546084e+02,-3.505826912719203960e+02,-3.360497873027937885e+02,-5.098116659524634997e+02,-4.529295508793751424e+02,-3.364816621334600768e+02,-3.365846942743939962e+02,9.523238182067871094e+00,-2.677215635776519775e-01,-1.529837548732757568e-01,4.910000000000000000e+02
-5.255829023082441154e+02,-5.053257185619247593e+02,-3.529979126004784575e+02,-3.399217519611397620e+02,-5.147693478224455248e+02,-4.566060869241566706e+02,-3.411693038783012071e+02,-3.434864071142623061e+02,9.523238182067871094e+00,-2.677215635776519775e-01,-1.529837548732757568e-01,4.920000000000000000e+02
-5.228409580865516091e+02,-5.055329406767157252e+02,-3.514794282535331149e+02,-3.416464926817225205e+02,-5.168509071209800823e+02,-4.593485777706951012e+02,-3.423476396046291939e+02,-3.473062044331994684e+02,9.523238182067871094e+00,-1.529837548732757568e-01,-1.912296712398529053e-01,4.930000000000000000e+02
-5.187200102932742993e+02,-5.043036275207539347e+02,-3.480697652746692938e+02,-3.416248025770065624e+02,-5.159102734354578388e+02,-4.603786362548339639e+02,-3.411594000745631092e+02,-3.479915921365452505e+02,9.523238182067871094e+00,-1.529837548732757568e-01,-1.912296712398529053e-01,4.940000000000000000e+02
-5.153901514858443988e+02,-5.025694274676150144e+02,-3.454033297575909955e+02,-3.408943480250043194e+02,-5.130894766627243371e+02,-4.596968493060305718e+02,-3.396536032577323567e+02,-3.468613774624961934e+02,9.523238182067871094e+00,-1.529837548732757568e-01,-1.912296712398529053e-01,4.950000000000000000e+02
-5.136884583971827851e+02,-5.005414521257384877e+02,-3.447306970530564740e+02,-3.401186197103425002e+02,-5.098255930927505233e+02,-4.577681001444250342e+02,-3.389485719479941963e+02,-3.453540674857729300e+02,9.523238182067871094e+00,-1.529837548732757568e-01,-1.912296712398529053e-01,4.960000000000000000e+02
-5.123578694485720462e+02,-4.970971784335329176e+02,-3.449303087011066964e+02,-3.386792896307586034e+02,-5.065098578851755065e+02,-4.548173589114421702e+02,-3.380701551986014692e+02,-3.435952766016609985e+02,9.523238182067871094e+00,-1.529837548732757568e-01,-1.912296712398529053e-01,4.970000000000000000e+02
-5.092588035821304402e+02,-4.908675077495797723e+02,-3.437765912517797915e+02,-3.351498031892106155e+02,-5.023772552685943538e+02,-4.506479800238303142e+02,-3.349876568372585552e+02,-3.405591300893418065e+02,9.523238182067871094e+00,-1.529837548732757568e-01,-1.912296712398529053e-01,4.980000000000000000e+02
-5.038628335690561926e+02,-4.824981062125041262e+02,-3.405944917970623464e+02,-3.292087076031029937e+02,-4.970252622770224207e+02,-4.453510900946898801e+02,-3.292845769591858698e+02,-3.359986889068095479e+02,9.523238182067871094e+00,-1.529837548732757568e-01,-1.912296712398529053e-01,4.990000000000000000e+02
-4.985815919629560540e+02,-4.755827582074502970e+02,-3.375336451738094183e+02,-3.231027002640014416e+02,-4.918561495298181399e+02,-4.400700256701697981e+02,-3.237006089801420785e+02,-3.319608212644575360e+02,9.523238182067871094e+00,-1.529837548732757568e-01,-1.912296712398529053e-01,5.000000000000000000e+02
-4.968038331217437644e+02,-4.741115197759886541e+02,-3.373928448741858119e+02,-3.204026532866992056e+02,-4.891865274180149754e+02,-4.365009451186606384e+02,-3.221006994882379786e+02,-3.313874417783649733e+02,9.523238182067871094e+00,-1.529837548732757568e-01,-1.912296712398529053e-01,5.010000000000000000e+02
-4.984105615973712702e+02,-4.774955016749704555e+02,-3.392024687242153504e+02,-3.220890682752965404e+02,-4.889098028561493265e+02,-4.349020558485708534e+02,-3.246840971290425841e+02,-3.340339039508498900e+02,9.523238182067871094e+00,-1.529837548732757568e-01,-1.912296712398529053e-01,5.020000000000000000e+02
-4.966357094594113732e+02,-4.775161273163989790e+02,-3.356546265443785160e+02,-3.231031184134326395e+02,-4.856194886613748167e+02,-4.321763734503638261e+02,-3.245839650697548677e+02,-3.333118142340767918e+02,9.523238182067871094e+00,-1.529837548732757568e-01,-1.912296712398529053e-01,5.030000000000000000e+02
-4.800740898526751153e+02,-4.611870015378513017e+02,-3.157814235174062105e+02,-3.131774791646967060e+02,-4.697164925460087943e+02,-4.221923572855585007e+02,-3.098772539661576957e+02,-3.180184704332009460e+02,9.523238182067871094e+00,-1.529837548732757568e-01,-1.912296712398529053e-01,5.040000000000000000e+02
-4.396750062694527514e+02,-4.188798522315819355e+02,-2.719875707900521320e+02,-2.826377080908482640e+02,-4.329631685336680675e+02,-3.989252744092054854e+02,-2.708150016139125000e+02,-2.790837409674677474e+02,9.523238182067871094e+00,-1.529837548732757568e-01,-1.912296712398529053e-01,5.050000000000000000e+02
-3.758510839603450222e+02,-3.519464331285803382e+02,-2.063312586034408014e+02,-2.293655214087370950e+02,-3.747247136317200784e+02,-3.604706792270994811e+02,-2.072619574664117863e+02,-2.166616158488509427e+02,9.523238182067871094e+00,-1.529837548732757568e-01,-1.912296712398529053e-01,5.060000000000000000e+02
-2.998473107595496003e+02,-2.734865919086987560e+02,-1.308525650942406173e+02,-1.614463801466304176e+02,-3.038317473662655175e+02,-3.108688710926508065e+02,-1.304312481923584528e+02,-1.417687925256132075e+02,9.523238182067871094e+00,-1.529837548732757568e-01,-1.912296712398529053e-01,5.070000000000000000e+02
-2.277284531222858277e+02,-2.010564964836753461e+02,-6.123379924706023303e+01,-9.310158980030291787e+01,-2.341694071252650247e+02,-2.581879941031370436e+02,-5.714916180237014487e+01,-7.066306679845047256e+01,9.523238182067871094e+00,-1.529837548732757568e-01,-1.912296712398529053e-01,5.080000000000000000e+02
-1.712991524372955610e+02,-1.466574475342385995e+02,-8.341864204789089854e+00,-3.678858041440753368e+01,-1.771019473604733321e+02,-2.102156406889967002e+02,-6.698167443796592124e-01,-1.593157562702481300e+01,9.523238182067871094e+00,-1.529837548732757568e-01,-1.912296712398529053e-01,5.090000000000000000e+02
-1.326989439087574283e+02,-1.114396583200241366e+02,2.631874495712327189e+01,2.778048884800227825e+00,-1.362509285662099501e+02,-1.708561984032680812e+02,3.546009092095482629e+01,1.928141371687615901e+01,9.523238182067871094e+00,-1.529837548732757568e-01,-1.912296712398529053e-01,5.100000000000000000e+02
-1.061498318023132015e+02,-8.832364788327822680e+01,4.864965734719226020e+01,2.888367125706599836e+01,-1.079211637719681676e+02,-1.395081287521452396e+02,5.678372246867274953e+01,4.038244021362334024e+01,9.523238182067871094e+00,-1.529837548732757568e-01,-1.912296712398529053e-01,5.110000000000000000e+02
-8.436592511774324521e+01,-6.918194060527503098e+01,6.606536233389124391e+01,4.832796490407008605e+01,-8.581094418448219585e+01,-1.131874068391725814e+02,7.219847914141428191e+01,5.564345757695537031e+01,9.523238182067871094e+00,-1.529837548732757568e-01,-1.912296712398529053e-01,5.120000000000000000e+02
-6.386629591149903717e+01,-5.022303051740891533e+01,8.264205530695744528e+01,6.641179559734064242e+01,-6.573125334781025231e+01,-8.925873726267036545e+01,8.800928815208226297e+01,7.070080415971187904e+01,9.523238182067871094e+00,-1.529837548732757568e-01,-1.912296712398529053e-01,5.130000000000000000e+02
-4.542014136580110062e+01,-3.204830976795255992e+01,9.839432303896137455e+01,8.489219614245894263e+01,-4.703155003699703229e+01,-6.676310129381272418e+01,1.056466478932079553e+02,8.682409739864851872e+01,9.523238182067871094e+00,-1.529837548732757568e-01,-1.912296712398529053e-01,5.140000000000000000e+02
-3.069121699267088843e+01,-1.614910642666745844e+01,1.118408077188259995e+02,1.031022229970849367e+02,-3.081269298482311569e+01,-4.595912786769076774e+01,1.232572631951484254e+02,1.027045125518602617e+02,9.523238182067871094e+00,-1.529837548732757568e-01,-1.912296712398529053e-01,5.150000000000000000e+02
-1.919537582174598356e+01,-2.244731363842220162e+00,1.226748805814613661e+02,1.199481283225832158e+02,-1.750705906500024867e+01,-2.715620719106573233e+01,1.385781224867068886e+02,1.169748493799379503e+02,9.523238182067871094e+00,-1.529837548732757568e-01,-1.912296712398529053e-01,5.160000000000000000e+02
-8.450804109818818688e+00,1.115363348220489570e+01,1.322084163062336302e+02,1.347755715602779674e+02,-6.128645986696938053e+00,-1.009835928630491253e+01,1.505811810020272787e+02,1.292248227603631676e+02,9.523238182067871094e+00,-1.529837548732757568e-01,-1.912296712398529053e-01,5.170000000000000000e+02
3.473568020544007595e+00,2.446745293553249212e+01,1.418535599873557658e+02,1.470879117732793020e+02,4.664763421532370558e+00,5.746328855667343305e+00,1.593968883520174131e+02,1.395355065322737573e+02,9.523238182067871094e+00,-1.529837548732757568e-01,-1.912296712398529053e-01,5.180000000000000000e+02
1.605332593907860428e+01,3.616537817832340806e+01,1.516430634902462771e+02,1.563737720892149810e+02,1.527833466299125575e+01,2.058317293853633601e+01,1.656540873914591430e+02,1.479417784467459569e+02,9.523238182067871094e+00,-1.529837548732757568e-01,-1.912296712398529053e-01,5.190000000000000000e+02
2.701133762406607275e+01,4.441840867507198709e+01,1.603340164406999975e+02,1.627150602283381886e+02,2.508250582502023462e+01,3.411408391681743524e+01,1.703019367291417439e+02,1.546687859787170964e+02,9.446745872497558594e+00,-2.294756323099136353e-01,-2.294756323099136353e-01,5.200000000000000000e+02
3.472199837935841060e+01,4.944199299966930994e+01,1.668426183829215006e+02,1.674766741506182370e+02,3.345390738798596431e+01,4.594417814384178200e+01,1.748236656284925630e+02,1.606257949053770062e+02,9.446745872497558594e+00,-2.294756323099136353e-01,-2.294756323099136353e-01,5.210000000000000000e+02
3.980221116415032157e+01,5.387670284483374417e+01,1.714955399564605614e+02,1.729633409029593167e+02,4.073755052881278971e+01,5.611750236705574935e+01,1.810360505620301410e+02,1.672045664926545214e+02,9.446745872497558594e+00,-2.294756323099136353e-01,-2.294756323099136353e-01,5.220000000000000000e+02
4.442712585329536523e+01,6.064402398031961638e+01,1.758926341801407034e+02,1.809542706810789241e+02,4.810700109224217158e+01,6.522705044520898809e+01,1.901184044298006484e+02,1.752674311017808577e+02,9.446745872497558594e+00,-2.294756323099136353e-01,-2.294756323099136353e-01,5.230000000000000000e+02
5.026697796491771442e+01,7.032284722941403743e+01,1.815678441574536919e+02,1.913077207926507981e+02,5.646825985546092852e+01,7.397433481495863816e+01,2.015242479096086754e+02,1.842394447352980933e+02,9.446745872497558594e+00,-2.294756323099136353e-01,-2.294756323099136353e-01,5.240000000000000000e+02
5.714027573032217333e+01,8.055416980751033407e+01,1.887092794045693154e+02,2.019265471814796911e+02,6.547827480370324338e+01,8.257448252433823654e+01,2.128260570470310995e+02,1.922603772745496826e+02,9.446745872497558594e+00,-2.294756323099136353e-01,-2.294756323099136353e-01,5.250000000000000000e+02
6.350973129092562885e+01,8.797666395456235477e+01,1.960782428670700028e+02,2.101946624290476393e+02,7.363195156744859560e+01,9.055840872290264087e+01,2.209114987426728476e+02,1.974041278368458734e+02,9.446745872497558594e+00,-2.294756323099136353e-01,-2.294756323099136353e-01,5.260000000000000000e+02
6.808250449686784123e+01,9.085870486078601971e+01,2.021404202736339357e+02,2.147097397977513538e+02,7.939412178679776844e+01,9.717638896787866543e+01,2.238353646156629111e+02,1.990227832544860576e+02,9.446745872497558594e+00,-2.294756323099136353e-01,-2.294756323099136353e-01,5.270000000000000000e+02
7.086911042405426997e+01,9.014285456730249280e+01,2.063200870058581131e+02,2.159632377178413662e+02,8.240473899874996278e+01,1.020579889926993928e+02,2.220280856985336868e+02,1.981717950556649157e+02,9.446745872497558594e+00,-2.294756323099136353e-01,-2.294756323099136353e-01,5.280000000000000000e+02
7.283876890232295409e+01,8.828317903187780757e+01,2.092224141137430706e+02,2.156158581991585379e+02,8.372233051905277534e+01,1.055442580079725303e+02,2.179963694437101367e+02,1.968377935455582701e+02,9.446745872497558594e+00,-2.294756323099136353e-01,-2.294756323099136353e-01,5.290000000000000000e+02
7.476702049034338415e+01,8.721732868722483545e+01,2.116671093853101411e+02,2.151603750314952777e+02,8.490006506396548502e+01,1.083874163608688832e+02,2.147219978809425811e+02,1.965989396978457080e+02,9.446745872497558594e+00,-2.294756323099136353e-01,-2.294756323099136353e-01,5.300000000000000000e+02
7.651382559337889688e+01,8.729195419064581074e+01,2.135261317088770738e+02,2.150740997906514167e+02,8.670107455198376556e+01,1.110951414584997110e+02,2.138912792298251588e+02,1.976953845692705727e+02,9.446745872497558594e+00,-2.294756323099136353e-01,-2.294756323099136353e-01,5.310000000000000000e+02
7.734340132835222903e+01,8.777461039748322946e+01,2.135857317767622590e+02,2.149464474637534295e+02,8.854715410274638998e+01,1.135210672649373009e+02,2.151414819258761781e+02,1.991032952173090962e+02,9.446745872497558594e+00,-2.294756323099136353e-01,-2.294756323099136353e-01,5.320000000000000000e+02
7.680522069382186601e+01,8.807774310206605151e+01,2.106946396831917809e+02,2.142161836264840531e+02,8.913306160314459703e+01,1.150816405588375346e+02,2.167313274781354266e+02,1.994771404736020486e+02,9.446745872497558594e+00,-2.294756323099136353e-01,-2.294756323099136353e-01,5.330000000000000000e+02
7.526560888575204444e+01,8.840056760370680422e+01,2.051935780282847190e+02,2.128124645467905793e+02,8.765771096741082147e+01,1.154063984395961597e+02,2.170305596019297809e+02,1.982479383653644618e+02,9.446745872497558594e+00,-2.294756323099136353e-01,-2.294756323099136353e-01,5.340000000000000000e+02
7.366151885449835390e+01,8.932331439403787954e+01,1.992311069671523001e+02,2.112610231976423165e+02,8.460979087450687075e+01,1.148152307183790981e+02,2.156906051937503435e+02,1.960779929823356724e+02,9.446745872497558594e+00,-2.294756323099136353e-01,-2.294756323099136353e-01,5.350000000000000000e+02
7.282407990855244861e+01,9.099180570426506165e+01,1.955087152489986693e+02,2.103150999383569797e+02,8.148404673810364329e+01,1.141743489578657318e+02,2.136995709749662637e+02,1.943468048012127838e+02,9.446745872497558594e+00,-2.294756323099136353e-01,-2.294756323099136353e-01,5.360000000000000000e+02
7.302745449558278779e+01,9.283402556155124330e+01,1.954345230885483033e+02,2.104541634711094957e+02,7.973966757516427606e+01,1.142607809385644941e+02,2.124104071437004677e+02,1.940800438199748896e+02,9.446745872497558594e+00,-2.294756323099136353e-01,-2.294756323099136353e-01,5.370000000000000000e+02
7.404874711562661105e+01,9.407339432766639220e+01,1.982401803868306160e+02,2.115822991725344764e+02,7.990154449476176524e+01,1.152147586733899516e+02,2.123860487728652515e+02,1.951816973418071939e+02,9.446745872497558594e+00,-2.294756323099136353e-01,-2.294756323099136353e-01,5.380000000000000000e+02
7.548410605560638942e+01,9.443826227481986280e+01,2.017497215315497670e+02,2.130652019308672607e+02,8.147155247826594859e+01,1.165475797649905871e+02,2.129599516433172539e+02,1.965791111075541266e+02,9.446745872497558594e+00,-2.294756323099136353e-01,-2.294756323099136353e-01,5.390000000000000000e+02
7.694276211922988296e+01,9.430429609327075013e+01,2.040416630636182163e+02,2.140483647733508406e+02,8.353834356991865207e+01,1.176434830206471815e+02,2.128043580842513620e+02,1.971354662043740973e+02,9.446745872497558594e+00,-2.294756323099136353e-01,-2.294756323099136353e-01,5.400000000000000000e+02
7.802822132081928430e+01,9.415436733938258840e+01,2.045592583637153439e+02,2.138814470264405827e+02,8.541885465276936884e+01,1.182553274500660336e+02,2.110017854477973742e+02,1.965313591739195545e+02,9.446745872497558594e+00,-2.294756323099136353e-01,-2.294756323099136353e-01,5.410000000000000000e+02
7.831963542581979709e+01,9.397054068903162261e+01,2.038846434695733478e+02,2.124329715794538060e+02,8.680287290622800356e+01,1.185729634323415667e+02,2.077599706422115560e+02,1.953668532912633964e+02,9.446745872497558594e+00,-2.294756323099136353e-01,-2.294756323099136353e-01,5.420000000000000000e+02
7.754595279313798528e+01,9.323430263165391807e+01,2.026790465573594702e+02,2.101170269125868799e+02,8.747948531627480406e+01,1.188924184040879481e+02,2.042285231425848906e+02,1.944553208757970424e+02,9.446745872497558594e+00,-2.294756323099136353e-01,-2.294756323099136353e-01,5.430000000000000000e+02
7.583847874225466512e+01,9.154579557639954146e+01,2.009445215183586697e+02,2.076144825804931315e+02,8.714708893646457000e+01,1.192921618619675428e+02,2.016128389314762899e+02,1.940209793343656202e+02,9.446745872497558594e+00,-2.294756323099136353e-01,-2.294756323099136353e-01,5.440000000000000000e+02
7.375254104121268028e+01,8.920318069696259045e+01,1.982386875454576511e+02,2.054618697175428679e+02,8.561950509721827984e+01,1.196482315943103458e+02,2.003119722961382649e+02,1.935503073024683545e+02,9.446745872497558594e+00,-2.294756323099136353e-01,-2.294756323099136353e-01,5.450000000000000000e+02
7.194439320536366722e+01,8.709997019558431930e+01,1.944445229131306405e+02,2.037775448372485698e+02,8.319864864911505720e+01,1.199115584938881511e+02,1.997401465268885659e+02,1.923917144355273194e+02,9.446745872497558594e+00,-2.294756323099136353e-01,-2.294756323099136353e-01,5.460000000000000000e+02
7.075078064948320389e+01,8.597803080465018866e+01,1.902130026465001720e+02,2.023045800756135577e+02,8.071302883833959640e+01,1.202769401929817832e+02,1.989089203228286351e+02,1.904758065575224464e+02,9.446745872497558594e+00,-2.294756323099136353e-01,-2.294756323099136353e-01,5.470000000000000000e+02
7.003175041636313836e+01,8.570949055616074475e+01,1.866200075418892084e+02,2.006963620403257664e+02,7.901873542552129948e+01,1.209961003929474828e+02,1.972170429427515046e+02,1.884283783142582251e+02,9.446745872497558594e+00,-2.294756323099136353e-01,-2.294756323099136353e-01,5.480000000000000000e+02
6.936071759172773454e+01,8.524399563598126406e+01,1.843711857045782381e+02,1.987807141964203765e+02,7.831708114730281522e+01,1.219881682714076305e+02,1.947570792525948491e+02,1.869353301866231050e+02,9.446745872497558594e+00,-2.294756323099136353e-01,-2.294756323099136353e-01,5.490000000000000000e+02
6.836040062483698421e+01,8.332533121340566140e+01,1.833160079682547803e+02,1.966261772649922932e+02,7.794010893771337578e+01,1.226849432777962647e+02,1.919897026839880709e+02,1.859950200537350611e+02,9.446745872497558594e+00,-2.294756323099136353e-01,-2.294756323099136353e-01,5.500000000000000000e+02
6.691812575706717325e+01,7.949174459870300780e+01,1.826968255953306652e+02,1.944700049396451504e+02,7.690438317049665784e+01,1.223696655163021205e+02,1.892845929459635954e+02,1.848540965231895825e+02,9.599730491638183594e+00,-1.912296712398529053e-01,-1.529837548732757568e-01,5.510000000000000000e+02
6.511260341949127906e+01,7.457685095622218796e+01,1.817592123951217218e+02,1.926074795991407882e+02,7.474311757985014992e+01,1.207490786126181774e+02,1.867951616560640105e+02,1.826812437710177619e+02,9.599730491638183594e+00,-1.912296712398529053e-01,-1.529837548732757568e-01,5.520000000000000000e+02
6.302903192815756483e+01,7.034566905625979416e+01,1.801671308311451867e+02,1.913044607202773477e+02,7.187416670434322441e+01,1.182475000073536648e+02,1.847139843396307697e+02,1.793598223433200474e+02,9.599730491638183594e+00,-1.912296712398529053e-01,-1.529837548732757568e-01,5.530000000000000000e+02
6.071115549849491799e+01,6.849284834966420021e+01,1.779701571836758376e+02,1.907070398428768385e+02,6.919568478560358926e+01,1.157473267631939962e+02,1.834763403534107056e+02,1.756744228065199422e+02,9.599730491638183594e+00,-1.912296712398529053e-01,-1.529837548732757568e-01,5.540000000000000000e+02
5.826075968575241859e+01,6.958658216112416994e+01,1.753231921203023376e+02,1.906953243378484331e+02,6.730407676910908776e+01,1.139785960209301265e+02,1.834864668190512020e+02,1.726969826484892110e+02,9.599730491638183594e+00,-1.912296712398529053e-01,-1.529837548732757568e-01,5.550000000000000000e+02
5.589627846343501005e+01,7.257665926445588411e+01,1.723235204499396787e+02,1.907607859743966401e+02,6.605366070955278701e+01,1.130471465522459766e+02,1.845231751582214201e+02,1.709136324467253871e+02,9.599730491638183594e+00,-1.912296712398529053e-01,-1.529837548732757568e-01,5.560000000000000000e+02
5.383493615022780432e+01,7.519994995627348544e+01,1.690772681955932057e+02,1.900828398430967354e+02,6.480505726007322664e+01,1.124323013546782022e+02,1.854661540848810546e+02,1.698503183040120348e+02,9.599730491638183594e+00,-1.912296712398529053e-01,-1.529837548732757568e-01,5.570000000000000000e+02
5.210464332785886654e+01,7.512828267097211210e+01,1.658079190831904270e+02,1.878982439252613403e+02,6.306502291303695529e+01,1.113913805008596682e+02,1.848186288751930988e+02,1.685015500403223996e+02,9.599730491638183594e+00,-1.912296712398529053e-01,-1.529837548732757568e-01,5.580000000000000000e+02
5.050671612479163741e+01,7.123515552490971459e+01,1.627977712216561486e+02,1.840074548941665853e+02,6.091641042414812546e+01,1.094403757541731466e+02,1.817487555034804245e+02,1.661702290877474297e+02,9.599730491638183594e+00,-1.912296712398529053e-01,-1.529837548732757568e-01,5.590000000000000000e+02
4.881251446433270758e+01,6.422886818981169199e+01,1.601927700757296407e+02,1.790580163489921688e+02,5.890084424370070337e+01,1.066190209573651373e+02,1.767951222297742788e+02,1.630056061764335027e+02,9.599730491638183594e+00,-1.912296712398529053e-01,-1.529837548732757568e-01,5.600000000000000000e+02
4.701203515297129343e+01,5.624685785507426772e+01,1.578870843074782897e+02,1.743353613350118394e+02,5.754353236349925282e+01,1.034581436730513815e+02,1.715899354236662475e+02,1.598240161027260910e+02,9.599730491638183594e+00,-1.912296712398529053e-01,-1.529837548732757568e-01,5.610000000000000000e+02
4.534388825136556989e+01,4.965814235740799631e+01,1.556293999472018186e+02,1.711210975350786612e+02,5.695777792333319667e+01,1.007159860300234868e+02,1.678001678433374764e+02,1.574091983847010852e+02,9.599730491638183594e+00,-1.912296712398529053e-01,-1.529837548732757568e-01,5.620000000000000000e+02
4.404729617110569961e+01,4.582069146825415373e+01,1.532306268713182362e+02,1.699844476171219867e+02,5.678732026239595143e+01,9.898854460435177316e+01,1.661336985664311214e+02,1.558689403200569359e+02,9.599730491638183594e+00,-1.912296712398529053e-01,-1.529837548732757568e-01,5.630000000000000000e+02
4.308421903747148463e+01,4.451411048259433301e+01,1.506381336870454106e+02,1.704498723951346619e+02,5.643616285688767675e+01,9.835107361083282740e+01,1.661151781566568388e+02,1.545280260470808571e+02,9.599730491638183594e+00,-1.912296712398529053e-01,-1.529837548732757568e-01,5.640000000000000000e+02
4.212795656804155442e+01,4.427110983539932931e+01,1.478320458800008055e+02,1.712552121076278127e+02,5.539156231825108989e+01,9.826744553084790823e+01,1.666338194461040985e+02,1.524101671022963274e+02,9.599730491638183594e+00,-1.912296712398529053e-01,-1.529837548732757568e-01,5.650000000000000000e+02
4.081691401773423422e+01,4.326279341676490731e+01,1.446965933733663405e+02,1.710202783301465388e+02,5.346559122682447196e+01,9.789479780399778974e+01,1.666513161681632482e+02,1.488992763863789150e+02,9.599730491638183594e+00,-1.912296712398529053e-01,-1.529837548732757568e-01,5.660000000000000000e+02
3.900436996160351555e+01,4.017942873804713599e+01,1.410619481883841217e+02,1.689189452570644789e+02,5.086680515841362649e+01,9.663527117900594021e+01,1.655198922368144849e+02,1.440762061408149748e+02,9.599730491638183594e+00,-1.912296712398529053e-01,-1.529837548732757568e-01,5.670000000000000000e+02
3.675838275458590942e+01,3.470245332110062009e+01,1.369094683844396059e+02,1.649851782858859224e+02,4.806460948642052244e+01,9.452258260178496130e+01,1.629242723201787157e+02,1.385153102751792176e+02,9.599730491638183594e+00,-1.912296712398529053e-01,-1.529837548732757568e-01,5.680000000000000000e+02
3.415904005551783484e+01,2.746079162103342242e+01,1.325081439302430226e+02,1.599511151859260281e+02,4.549357768570553162e+01,9.212348959154041950e+01,1.588116490876454918e+02,1.327759341853052319e+02,9.599730491638183594e+00,-1.912296712398529053e-01,-1.529837548732757568e-01,5.690000000000000000e+02
3.116150006804309669e+01,1.959923255641479045e+01,1.282884099604652874e+02,1.547917355431127362e+02,4.326211894186417339e+01,9.003281711938689114e+01,1.535003824870655080e+02,1.270320350638539821e+02,9.599730491638183594e+00,-1.912296712398529053e-01,-1.529837548732757568e-01,5.700000000000000000e+02
2.769323787742177956e+01,1.221080546719167614e+01,1.245281489258468355e+02,1.502635667218419258e+02,4.107548133657837752e+01,8.839915651574847288e+01,1.477494384711571911e+02,1.211204330854452564e+02,9.599730491638183594e+00,-1.912296712398529053e-01,-1.529837548732757568e-01,5.710000000000000000e+02
2.384474536414563772e+01,5.921151271148119122e+00,1.211259072147659026e+02,1.466449681041922304e+02,3.843217488152731676e+01,8.686808677153021563e+01,1.424713016771165712e+02,1.148823109321601805e+02,9.484992027282714844e+00,-2.294756323099136353e-01,-1.147378161549568176e-01,5.720000000000000000e+02
1.986751093390194001e+01,8.275852188708086032e-01,1.176594774006662192e+02,1.437252321063388081e+02,3.492134196789629641e+01,8.490645519950339803e+01,1.381404985065164510e+02,1.084147496213117847e+02,9.484992027282714844e+00,-2.294756323099136353e-01,-1.147378161549568176e-01,5.730000000000000000e+02
1.592663702019126504e+01,-3.252074137402814813e+00,1.136639855468565656e+02,1.409660442270542262e+02,3.038555039931088686e+01,8.215616233597756946e+01,1.343677821777018835e+02,1.019688231959371478e+02,9.484992027282714844e+00,-2.294756323099136353e-01,-1.147378161549568176e-01,5.740000000000000000e+02
1.187390684879937908e+01,-6.509236240570317023e+00,1.088915697874908801e+02,1.377405709223094163e+02,2.487242374501875020e+01,7.853500508762226673e+01,1.300880066871832241e+02,9.562306563830134110e+01,9.484992027282714844e+00,-2.294756323099136353e-01,-1.147378161549568176e-01,5.750000000000000000e+02
7.338424714449502062e+00,-9.135932449302345049e+00,1.033883564264324377e+02,1.335946277076036495e+02,1.854652328586962540e+01,7.414579993611914688e+01,1.243208780396307702e+02,8.914488020919088740e+01,9.484992027282714844e+00,-2.294756323099136353e-01,-1.147378161549568176e-01,5.760000000000000000e+02
2.108769943508377764e+00,-1.154073607734244433e+01,9.742730509471948608e+01,1.284778022143909766e+02,1.173974502923374530e+01,6.923654925805021776e+01,1.169651756634339108e+02,8.229755543150167796e+01,9.484992027282714844e+00,-2.294756323099136353e-01,-1.147378161549568176e-01,5.770000000000000000e+02
-3.566378680785419419e+00,-1.443443571849275031e+01,9.141602462719311006e+01,1.228458123994569178e+02,5.073749759027123218e+00,6.427400107239736826e+01,1.090376855754984717e+02,7.536533261874137679e+01,9.484992027282714844e+00,-2.294756323099136353e-01,-1.147378161549568176e-01,5.780000000000000000e+02
-9.085762289687409066e+00,-1.850079370399544132e+01,8.582070364009996410e+01,1.175030191122386896e+02,-5.889120074607490096e-01,5.992556195433644461e+01,1.021646749813771748e+02,6.931938160692152451e+01,9.484992027282714844e+00,-2.294756323099136353e-01,-1.147378161549568176e-01,5.790000000000000000e+02
-1.391464719725263421e+01,-2.382715634657870396e+01,8.105118495497299591e+01,1.131688332766134408e+02,-4.509018975677463459e+00,5.675372413580407738e+01,9.766334612889841083e+01,6.526931078817870002e+01,9.484992027282714844e+00,-2.294756323099136353e-01,-1.147378161549568176e-01,5.800000000000000000e+02
-1.791336053302075015e+01,-2.965262517049268354e+01,7.728169539135706145e+01,1.099805358094708936e+02,-6.555978997257625451e+00,5.476190166121523362e+01,9.577875189566475456e+01,6.350249737962440122e+01,9.484992027282714844e+00,-2.294756323099136353e-01,-1.147378161549568176e-01,5.810000000000000000e+02
-2.128286610219947761e+01,-3.481104134600172983e+01,7.430687953998858575e+01,1.072978086899493064e+02,-7.405333999013237190e+00,5.320663339384555002e+01,9.549420020462639513e+01,6.291764058535045478e+01,9.484992027282714844e+00,-2.294756323099136353e-01,-1.147378161549568176e-01,5.820000000000000000e+02
-2.425711175577089307e+01,-3.860058229623609805e+01,7.159128456419057329e+01,1.040535761925311817e+02,-8.225894910847273422e+00,5.095928216594620608e+01,9.499953137337070075e+01,6.147936755283444654e+01,9.484992027282714844e+00,-2.294756323099136353e-01,-1.147378161549568176e-01,5.830000000000000000e+02
-2.692514602394294343e+01,-4.131357207485052641e+01,6.854233547027979512e+01,9.949499201264916337e+01,-1.002935336733207805e+01,4.723901776917045936e+01,9.258455526719990303e+01,5.751624836124392459e+01,9.484992027282714844e+00,-2.294756323099136353e-01,-1.147378161549568176e-01,5.840000000000000000e+02
-2.935354451943931053e+01,-4.391073869472529623e+01,6.485507276995485881e+01,9.380786593928132788e+01,-1.312871927237210912e+01,4.219088928726705490e+01,8.752412636450026184e+01,5.093793543794163270e+01,9.484992027282714844e+00,-2.294756323099136353e-01,-1.147378161549568176e-01,5.850000000000000000e+02
-3.180315456603784696e+01,-4.711568667971732793e+01,6.068705514359680819e+01,8.811552152210424538e+01,-1.705665742569181020e+01,3.685456518593127839e+01,8.046808884356869385e+01,4.341510864939482417e+01,9.484992027282714844e+00,-2.294756323099136353e-01,-1.147378161549568176e-01,5.860000000000000000e+02
-3.470675677798863035e+01,-5.077813865748248645e+01,5.653528537595775560e+01,8.378213074681116268e+01,-2.095597957561403746e+01,3.252561514079934568e+01,7.305824879501960822e+01,3.732144001720007509e+01,9.484992027282714844e+00,-2.294756323099136353e-01,-1.147378161549568176e-01,5.870000000000000000e+02
-3.834937816568708513e+01,-5.412093137685587863e+01,5.290137439975660527e+01,8.147440922179885092e+01,-2.414349640014916076e+01,2.993762189379776828e+01,6.695317794149377733e+01,3.417288727099730750e+01,9.484992027282714844e+00,-2.294756323099136353e-01,-1.147378161549568176e-01,5.880000000000000000e+02
