F3,F4,C3,C4,P3,P4,Cz,Pz,Accel_x,Accel_y,Accel_z,Sample
-5.638867150992155075e-11,-6.730260793119668961e-11,-4.183675628155469894e-11,-5.184119800105690956e-11,-6.730260793119668961e-11,-6.730260793119668961e-11,-6.730260793119668961e-11,-3.637978807091712952e-11,9.446745872497558594e+00,-9.179025292396545410e-01,-6.119350194931030273e-01,2.260000000000000000e+02
-1.161629464694760827e+01,-1.174954675061599119e+01,-4.836807919051352656e+00,-5.168935518955549924e+00,-7.528892403977806680e+00,-5.399851640719134593e+00,4.134534421045827912e-01,-9.366829590362613089e-01,9.446745872497558594e+00,-9.179025292396545410e-01,-6.119350194931030273e-01,2.270000000000000000e+02
-2.488501297835045989e+01,-2.556576675283577060e+01,-1.283052616947861679e+01,-1.269265333618113800e+01,-2.118569652156656957e+01,-1.578460418644317542e+01,-2.956856414899448282e+00,-5.446060148095057230e+00,9.446745872497558594e+00,-9.179025292396545410e-01,-6.119350194931030273e-01,2.280000000000000000e+02
-4.026802817172483628e+01,-4.204352652128181944e+01,-2.542525462348203291e+01,-2.325004117943353776e+01,-4.261191432372834242e+01,-3.241136049792476115e+01,-1.158412409969969303e+01,-1.488013392006178037e+01,9.446745872497558594e+00,-9.179025292396545410e-01,-6.119350194931030273e-01,2.290000000000000000e+02
-5.674870455586642493e+01,-6.003096318914140284e+01,-4.165090702768429765e+01,-3.561966052085426782e+01,-6.825937546569002734e+01,-5.241530124876771879e+01,-2.397835019084141095e+01,-2.783349127770452469e+01,9.446745872497558594e+00,-9.179025292396545410e-01,-6.119350194931030273e-01,2.300000000000000000e+02
-7.259685624592475506e+01,-7.769703755166665360e+01,-5.876772305682879960e+01,-4.799633715902564290e+01,-9.270222560345246166e+01,-7.183716826451563975e+01,-3.705306458879658749e+01,-4.155215609616789152e+01,9.446745872497558594e+00,-9.179025292396545410e-01,-6.119350194931030273e-01,2.310000000000000000e+02
-8.652257469348569430e+01,-9.393989157264968526e+01,-7.375645723035268020e+01,-5.952177926980311895e+01,-1.126543055508191173e+02,-8.897445257621075143e+01,-4.831764656503855804e+01,-5.395712268223633146e+01,9.446745872497558594e+00,-9.179025292396545410e-01,-6.119350194931030273e-01,2.320000000000000000e+02
-9.836021738462750363e+01,-1.089462461465554952e+02,-8.471587557568545890e+01,-7.059974013993178232e+01,-1.282284879339185864e+02,-1.049722878187549213e+02,-5.717268271685952641e+01,-6.458757538787449448e+01,9.446745872497558594e+00,-9.179025292396545410e-01,-6.119350194931030273e-01,2.330000000000000000e+02
-1.089069177187284367e+02,-1.235694430915118573e+02,-9.144008925093021389e+01,-8.183656277872250939e+01,-1.410497756820841460e+02,-1.215559869498447370e+02,-6.448051043917894276e+01,-7.390078956891466078e+01,9.446745872497558594e+00,-9.179025292396545410e-01,-6.119350194931030273e-01,2.340000000000000000e+02
-1.192024930260276960e+02,-1.382662433846844579e+02,-9.508522523500232637e+01,-9.283929333525338734e+01,-1.518196947982114580e+02,-1.385881967025525228e+02,-7.111065836871421197e+01,-8.194051750435846770e+01,9.408499717712402344e+00,-8.031646609306335449e-01,-5.736890435218811035e-01,2.350000000000000000e+02
-1.298441518208410344e+02,-1.526469759256433463e+02,-9.735943544214023859e+01,-1.022383319538257638e+02,-1.599272316424885503e+02,-1.539880132089128892e+02,-7.695675467676210246e+01,-8.790955432340069819e+01,9.408499717712402344e+00,-8.031646609306335449e-01,-5.736890435218811035e-01,2.360000000000000000e+02
-1.407617578630261050e+02,-1.660194393384635987e+02,-9.978749292763404810e+01,-1.090214198053290602e+02,-1.651123998692555688e+02,-1.659023312381250435e+02,-8.130345228759961174e+01,-9.116386148574383697e+01,9.408499717712402344e+00,-8.031646609306335449e-01,-5.736890435218811035e-01,2.370000000000000000e+02
-1.514991244630609799e+02,-1.783207762668325813e+02,-1.033537255191440636e+02,-1.138739496720791067e+02,-1.689956460996309033e+02,-1.747826340395022271e+02,-8.400793119164518430e+01,-9.258547632430418162e+01,9.408499717712402344e+00,-8.031646609306335449e-01,-5.736890435218811035e-01,2.380000000000000000e+02
-1.617397470510250059e+02,-1.904796806939739326e+02,-1.084922768035003173e+02,-1.190925760091531629e+02,-1.746332848447100332e+02,-1.832843214619570062e+02,-8.615929328490801709e+01,-9.476793881780395168e+01,9.408499717712402344e+00,-8.031646609306335449e-01,-5.736890435218811035e-01,2.390000000000000000e+02
-1.716939419504615216e+02,-2.038199965736084778e+02,-1.152442120590958439e+02,-1.269410888897145924e+02,-1.844609490738439490e+02,-1.941620055695375413e+02,-8.945181493926065741e+01,-1.005130147859963472e+02,9.408499717712402344e+00,-8.031646609306335449e-01,-5.736890435218811035e-01,2.400000000000000000e+02
-1.820432167079798091e+02,-2.190241630581658683e+02,-1.234286963335207474e+02,-1.378252166487573049e+02,-1.986271782845997222e+02,-2.081883312185073009e+02,-9.486336353497790697e+01,-1.108175547607215776e+02,9.408499717712402344e+00,-8.031646609306335449e-01,-5.736890435218811035e-01,2.410000000000000000e+02
-1.934325683670103899e+02,-2.355799729021673556e+02,-1.327670035232313239e+02,-1.499111770264089500e+02,-2.152228648520504066e+02,-2.238912146841994399e+02,-1.019649169303638701e+02,-1.241722493871930055e+02,9.408499717712402344e+00,-8.031646609306335449e-01,-5.736890435218811035e-01,2.420000000000000000e+02
-2.058747568741891882e+02,-2.521787198442534645e+02,-1.429395270110217098e+02,-1.605640791473870195e+02,-2.320175202832551804e+02,-2.391152026396275687e+02,-1.095385602456972265e+02,-1.378807700462893990e+02,9.408499717712402344e+00,-8.031646609306335449e-01,-5.736890435218811035e-01,2.430000000000000000e+02
-2.186027994148143989e+02,-2.676946177840663950e+02,-1.535882528504116635e+02,-1.683946151413310872e+02,-2.480236578598605774e+02,-2.528748689761314381e+02,-1.168369138252783159e+02,-1.502529825522788087e+02,9.408499717712402344e+00,-8.031646609306335449e-01,-5.736890435218811035e-01,2.440000000000000000e+02
-2.306119755606923718e+02,-2.819176769936220808e+02,-1.643139160179543978e+02,-1.742083252565880684e+02,-2.636273161332628661e+02,-2.659435749446811315e+02,-1.241672720627529998e+02,-1.617187721195941776e+02,9.408499717712402344e+00,-8.031646609306335449e-01,-5.736890435218811035e-01,2.450000000000000000e+02
-2.415128547667600287e+02,-2.954907782101372504e+02,-1.747311653162605580e+02,-1.801815695688655978e+02,-2.795030774182305322e+02,-2.798962725133524145e+02,-1.322368432521943760e+02,-1.739387839400696976e+02,9.408499717712402344e+00,-8.031646609306335449e-01,-5.736890435218811035e-01,2.460000000000000000e+02
-2.519250397762843932e+02,-3.092269147591487126e+02,-1.845856349433943251e+02,-1.881089181106772230e+02,-2.955506449929307564e+02,-2.955969418384393066e+02,-1.410330190981694614e+02,-1.878638367024423133e+02,9.408499717712402344e+00,-8.031646609306335449e-01,-5.736890435218811035e-01,2.470000000000000000e+02
-2.629521388119037510e+02,-3.234504120679239350e+02,-1.938294063408811780e+02,-1.982007044275342196e+02,-3.108192561301502792e+02,-3.124086974314122926e+02,-1.495016285541387333e+02,-2.026052631981983723e+02,9.408499717712402344e+00,-8.031646609306335449e-01,-5.736890435218811035e-01,2.480000000000000000e+02
-2.750905679452489494e+02,-3.378637723262581858e+02,-2.025267322650615824e+02,-2.092228359416767489e+02,-3.242825548238706688e+02,-3.286468968692997805e+02,-1.564142246475857974e+02,-2.160932814756652078e+02,9.408499717712402344e+00,-8.031646609306335449e-01,-5.736890435218811035e-01,2.490000000000000000e+02
-2.875347080794017529e+02,-3.518877143726094801e+02,-2.106200837121605218e+02,-2.195692662314022527e+02,-3.355746507434059822e+02,-3.427642610918155697e+02,-1.615212646320142085e+02,-2.267661713338611662e+02,9.408499717712402344e+00,-8.031646609306335449e-01,-5.736890435218811035e-01,2.500000000000000000e+02
-2.986071199351517862e+02,-3.650326145094504682e+02,-2.177972127583716428e+02,-2.282431705495109782e+02,-3.450202531009808808e+02,-3.542663569012011067e+02,-1.657749471104307304e+02,-2.346519097029258774e+02,9.408499717712402344e+00,-8.031646609306335449e-01,-5.736890435218811035e-01,2.510000000000000000e+02
-3.070786591508767742e+02,-3.769797607086793505e+02,-2.236869800940330606e+02,-2.350827132913191235e+02,-3.530923497531011890e+02,-3.636993743213170092e+02,-1.703697563224541227e+02,-2.409374091014378791e+02,9.408499717712402344e+00,-8.031646609306335449e-01,-5.736890435218811035e-01,2.520000000000000000e+02
-3.132807095841462797e+02,-3.874485488806067224e+02,-2.282685523001491674e+02,-2.403509576476963048e+02,-3.599676053223593044e+02,-3.718861492018313584e+02,-1.755423807319493790e+02,-2.466164709468848741e+02,9.408499717712402344e+00,-8.031646609306335449e-01,-5.736890435218811035e-01,2.530000000000000000e+02
-3.189908962622457693e+02,-3.961377251786761917e+02,-2.320584296351034936e+02,-2.442487705103294502e+02,-3.656093978389635595e+02,-3.791642777431734430e+02,-1.802891787478492915e+02,-2.515841890480587608e+02,9.408499717712402344e+00,-8.031646609306335449e-01,-5.736890435218811035e-01,2.540000000000000000e+02
-3.260780662023571495e+02,-4.028787833767364646e+02,-2.357473035726479793e+02,-2.467599962034037162e+02,-3.701704186401329935e+02,-3.852815364587304430e+02,-1.832273519874379417e+02,-2.549608026723535659e+02,9.408499717712402344e+00,-8.031646609306335449e-01,-5.736890435218811035e-01,2.550000000000000000e+02
-3.349804660585732563e+02,-4.078554320362200087e+02,-2.395272796558674600e+02,-2.478715415833603402e+02,-3.741896865560638616e+02,-3.899699721768301970e+02,-1.837909174196802269e+02,-2.562089376474932578e+02,9.408499717712402344e+00,-8.031646609306335449e-01,-5.736890435218811035e-01,2.560000000000000000e+02
-3.443053906435234239e+02,-4.116693682762233948e+02,-2.428069688867544755e+02,-2.479480035746373687e+02,-3.783703870850658859e+02,-3.936199811177821175e+02,-1.827752925342429080e+02,-2.559642994559944782e+02,9.408499717712402344e+00,-8.031646609306335449e-01,-5.736890435218811035e-01,2.570000000000000000e+02
-3.519318489470797431e+02,-4.151976018904269949e+02,-2.447879912055077511e+02,-2.479661067498736884e+02,-3.832490484873451351e+02,-3.974154745775549600e+02,-1.819480524911614339e+02,-2.558787204723685136e+02,9.408499717712402344e+00,-8.031646609306335449e-01,-5.736890435218811035e-01,2.580000000000000000e+02
-3.567318247104276452e+02,-4.193873854814492006e+02,-2.455282112031891302e+02,-2.493713377571466481e+02,-3.891633147063830620e+02,-4.027890337415428803e+02,-1.831948353664256501e+02,-2.576916257288448833e+02,9.408499717712402344e+00,-8.031646609306335449e-01,-5.736890435218811035e-01,2.590000000000000000e+02
-3.594917359458067949e+02,-4.250912386884228908e+02,-2.464494064716918729e+02,-2.534806594367928483e+02,-3.964699808775567362e+02,-4.106215432450844673e+02,-1.877596078571341423e+02,-2.622838681597359027e+02,9.408499717712402344e+00,-8.031646609306335449e-01,-5.736890435218811035e-01,2.600000000000000000e+02
-3.622972188073581492e+02,-4.328568594155476603e+02,-2.495844872027628298e+02,-2.606623904353255057e+02,-4.055550230261633260e+02,-4.207576944345582888e+02,-1.957739211760226681e+02,-2.692972521346300709e+02,9.408499717712402344e+00,-8.031646609306335449e-01,-5.736890435218811035e-01,2.610000000000000000e+02
-3.669400952033483918e+02,-4.425852977458525856e+02,-2.560058821583506870e+02,-2.698397378365534678e+02,-4.163933334536150142e+02,-4.321155321548258144e+02,-2.060389279918617831e+02,-2.773972757464789538e+02,9.408499717712402344e+00,-8.031646609306335449e-01,-5.736890435218811035e-01,2.620000000000000000e+02
-3.736969670923808735e+02,-4.532511542755155460e+02,-2.647493275771321350e+02,-2.788369969449349810e+02,-4.280713029467087836e+02,-4.432574760929064723e+02,-2.161831630008773573e+02,-2.849206476165381901e+02,9.408499717712402344e+00,-8.031646609306335449e-01,-5.736890435218811035e-01,2.630000000000000000e+02
-3.814411211470342096e+02,-4.631042199888461255e+02,-2.732708968983797604e+02,-2.855445352818096580e+02,-4.389593302814746494e+02,-4.530555982940386457e+02,-2.234648630664250959e+02,-2.905860468804203265e+02,9.408499717712402344e+00,-8.031646609306335449e-01,-5.736890435218811035e-01,2.640000000000000000e+02
-3.888461647889844244e+02,-4.705362604635492971e+02,-2.791554593929045041e+02,-2.891456539254195377e+02,-4.476554563153458730e+02,-4.610842451639646242e+02,-2.261201363725758711e+02,-2.939848140895874167e+02,9.408499717712402344e+00,-8.031646609306335449e-01,-5.736890435218811035e-01,2.650000000000000000e+02
-3.955253709648150107e+02,-4.751624762036999527e+02,-2.817069971936784896e+02,-2.905000989286108961e+02,-4.539450136143077543e+02,-4.675786396697949385e+02,-2.245121078716101692e+02,-2.956461955955746816e+02,9.484992027282714844e+00,-9.179025292396545410e-01,-5.736890435218811035e-01,2.660000000000000000e+02
-4.021190451193351691e+02,-4.782487023075264005e+02,-2.821941724454363793e+02,-2.914171440143873042e+02,-4.588425266822541744e+02,-4.730659480459480619e+02,-2.211457317360591333e+02,-2.966286578167319021e+02,9.484992027282714844e+00,-9.179025292396545410e-01,-5.736890435218811035e-01,2.670000000000000000e+02
-4.093922550683500958e+02,-4.819621950717510117e+02,-2.827044875802803290e+02,-2.934498140731784588e+02,-4.636340834510174318e+02,-4.779746040987301967e+02,-2.192740012866288453e+02,-2.978706262883042655e+02,9.484992027282714844e+00,-9.179025292396545410e-01,-5.736890435218811035e-01,2.680000000000000000e+02
-4.172997291208962451e+02,-4.878747325644562807e+02,-2.846644906646852178e+02,-2.971686755697896842e+02,-4.688348475461853013e+02,-4.825244871317818252e+02,-2.209228805894181278e+02,-2.997351326594398415e+02,9.484992027282714844e+00,-9.179025292396545410e-01,-5.736890435218811035e-01,2.690000000000000000e+02
-4.249018401194002763e+02,-4.958596711017876260e+02,-2.881387546458336146e+02,-3.022992820372805909e+02,-4.740404458161056027e+02,-4.869428002768572696e+02,-2.257243591192018357e+02,-3.020489739543299947e+02,9.484992027282714844e+00,-9.179025292396545410e-01,-5.736890435218811035e-01,2.700000000000000000e+02
-4.311514719923166012e+02,-5.042796474409246912e+02,-2.921776960132078784e+02,-3.082970802005452242e+02,-4.787186320684650127e+02,-4.917310234975284402e+02,-2.314045966901785505e+02,-3.045375019237071683e+02,9.484992027282714844e+00,-9.179025292396545410e-01,-5.736890435218811035e-01,2.710000000000000000e+02
-4.357782570103727267e+02,-5.112873744438420545e+02,-2.956670877642063715e+02,-3.146725453634985570e+02,-4.830145764784228959e+02,-4.975906874139564025e+02,-2.355390437651271895e+02,-3.072338189346683066e+02,9.484992027282714844e+00,-9.179025292396545410e-01,-5.736890435218811035e-01,2.720000000000000000e+02
-4.394876781389139069e+02,-5.161272773602663619e+02,-2.980028270641082599e+02,-3.208655175761600731e+02,-4.877180090050305807e+02,-5.049252021266329393e+02,-2.372518459305306351e+02,-3.105024655671859364e+02,9.484992027282714844e+00,-9.179025292396545410e-01,-5.736890435218811035e-01,2.730000000000000000e+02
-4.433815538614003344e+02,-5.193956063969590105e+02,-2.993035091459159958e+02,-3.260856261291464762e+02,-4.935074542639167703e+02,-5.133178244399587129e+02,-2.376361139811597241e+02,-3.146921071547262727e+02,9.484992027282714844e+00,-9.179025292396545410e-01,-5.736890435218811035e-01,2.740000000000000000e+02
-4.481754606254644386e+02,-5.222098727704478733e+02,-3.002443562903231395e+02,-3.295538585853814766e+02,-5.003337774342476223e+02,-5.215364487394535900e+02,-2.387080917840489747e+02,-3.197597392924899395e+02,9.484992027282714844e+00,-9.179025292396545410e-01,-5.736890435218811035e-01,2.750000000000000000e+02
-4.538370508108637296e+02,-5.252006650882449321e+02,-3.016753586340819311e+02,-3.310555951487876882e+02,-5.075545449526675839e+02,-5.282235510612799771e+02,-2.418194076281138223e+02,-3.252027893213944481e+02,9.484992027282714844e+00,-9.179025292396545410e-01,-5.736890435218811035e-01,2.760000000000000000e+02
-4.598065470577221276e+02,-5.282586256961608342e+02,-3.041489864824684446e+02,-3.312403774115960005e+02,-5.145455930132548019e+02,-5.327772041187654395e+02,-2.467650520196134494e+02,-3.303103304354613101e+02,9.484992027282714844e+00,-9.179025292396545410e-01,-5.736890435218811035e-01,2.770000000000000000e+02
-4.654916048571581086e+02,-5.311009258276299079e+02,-3.075846983567034840e+02,-3.312707429070192120e+02,-5.210598465317675618e+02,-5.356946850224985610e+02,-2.521962214886743823e+02,-3.345007320146273742e+02,9.484992027282714844e+00,-9.179025292396545410e-01,-5.736890435218811035e-01,2.780000000000000000e+02
-4.706497146947108376e+02,-5.339039003430575576e+02,-3.113507892399311459e+02,-3.320623645945793214e+02,-5.270273204297859593e+02,-5.380963519778192676e+02,-2.568772776734808758e+02,-3.375293748132476139e+02,9.484992027282714844e+00,-9.179025292396545410e-01,-5.736890435218811035e-01,2.790000000000000000e+02
-4.754801021291123106e+02,-5.372816665128248133e+02,-3.147911576330698153e+02,-3.337600351265236895e+02,-5.321998092955086577e+02,-5.408491000592171076e+02,-2.606715817444037384e+02,-3.394964036025912719e+02,9.484992027282714844e+00,-9.179025292396545410e-01,-5.736890435218811035e-01,2.800000000000000000e+02
-4.804457284293748671e+02,-5.416504740678478811e+02,-3.177947223537485115e+02,-3.358798725744982221e+02,-5.361854503469630799e+02,-5.440432002793268111e+02,-2.644280754384708416e+02,-3.407083764399958454e+02,9.484992027282714844e+00,-9.179025292396545410e-01,-5.736890435218811035e-01,2.810000000000000000e+02
-4.859120410374794119e+02,-5.466907964374768198e+02,-3.208108664404176125e+02,-3.379215475282580883e+02,-5.388534397528278532e+02,-5.472160643257070660e+02,-2.688752784954472190e+02,-3.414505430542121758e+02,9.484992027282714844e+00,-9.179025292396545410e-01,-5.736890435218811035e-01,2.820000000000000000e+02
-4.917460656068442404e+02,-5.515226181944990458e+02,-3.241663112654200631e+02,-3.398652927315142733e+02,-5.405542385298708723e+02,-5.500146873297544516e+02,-2.735025648387768342e+02,-3.417392221736745341e+02,9.484992027282714844e+00,-9.179025292396545410e-01,-5.736890435218811035e-01,2.830000000000000000e+02
-4.971327080631331228e+02,-5.554415851943772395e+02,-3.272930887846623591e+02,-3.421246871302546424e+02,-5.417792168047426458e+02,-5.526068757210969125e+02,-2.764898734948037600e+02,-3.411993728529432701e+02,9.484992027282714844e+00,-9.179025292396545410e-01,-5.736890435218811035e-01,2.840000000000000000e+02
-5.008568032509751902e+02,-5.584919830657036073e+02,-3.287275895103844050e+02,-3.450619366805372010e+02,-5.425936884499624284e+02,-5.554656408109799486e+02,-2.759388021392555856e+02,-3.392818367794134247e+02,9.484992027282714844e+00,-9.179025292396545410e-01,-5.736890435218811035e-01,2.850000000000000000e+02
-5.020307738884885111e+02,-5.613447027213533147e+02,-3.271525785110588913e+02,-3.485852547316089840e+02,-5.425670438585698321e+02,-5.588240099721861043e+02,-2.715806488934522349e+02,-3.358713173793371425e+02,9.484992027282714844e+00,-9.179025292396545410e-01,-5.736890435218811035e-01,2.860000000000000000e+02
-5.008263377789130573e+02,-5.646376034181271280e+02,-3.227236218504053795e+02,-3.522225287982196278e+02,-5.414325764076529595e+02,-5.624267676860208667e+02,-2.656068959826593527e+02,-3.319076321290058331e+02,9.523238182067871094e+00,-8.414105772972106934e-01,-5.736890435218811035e-01,2.870000000000000000e+02
-4.986201775153149356e+02,-5.684539839994904469e+02,-3.174768829314730283e+02,-3.556044752544162293e+02,-5.398726529342143294e+02,-5.658800301319429309e+02,-2.617777736690450183e+02,-3.293943305461552882e+02,9.523238182067871094e+00,-8.414105772972106934e-01,-5.736890435218811035e-01,2.880000000000000000e+02
-4.973046356245074548e+02,-5.724046893854227847e+02,-3.142459812840079394e+02,-3.588905273368400231e+02,-5.395200642693447435e+02,-5.692337008715310276e+02,-2.631934409762286577e+02,-3.304422269531389702e+02,9.523238182067871094e+00,-8.414105772972106934e-01,-5.736890435218811035e-01,2.890000000000000000e+02
-4.981795976624098898e+02,-5.761341215452348479e+02,-3.147733137977181741e+02,-3.626788872851467431e+02,-5.419328058780282618e+02,-5.731140184419969046e+02,-2.701818046997482270e+02,-3.357906153016090229e+02,9.523238182067871094e+00,-8.414105772972106934e-01,-5.736890435218811035e-01,2.900000000000000000e+02
-5.012360648685076967e+02,-5.796601873684985549e+02,-3.184880497075940866e+02,-3.673959974286995021e+02,-5.473385735155454768e+02,-5.781446094781281317e+02,-2.798513300398283263e+02,-3.439274026131124629e+02,9.523238182067871094e+00,-8.414105772972106934e-01,-5.736890435218811035e-01,2.910000000000000000e+02
-5.053751798983306003e+02,-5.832102666283542476e+02,-3.229904602672039573e+02,-3.727052028838595561e+02,-5.543088261211742065e+02,-5.841809244846443789e+02,-2.877940882281905033e+02,-3.517422022982968883e+02,9.523238182067871094e+00,-8.414105772972106934e-01,-5.736890435218811035e-01,2.920000000000000000e+02
-5.093576867248098097e+02,-5.867923280244273201e+02,-3.259388924053611163e+02,-3.775608851630164509e+02,-5.607752393212538209e+02,-5.901894739505983125e+02,-2.908913154965524654e+02,-3.565163251125017041e+02,9.523238182067871094e+00,-8.414105772972106934e-01,-5.736890435218811035e-01,2.930000000000000000e+02
-5.126978631605369401e+02,-5.900057925593421260e+02,-3.268774213530107318e+02,-3.809828309794371535e+02,-5.655852774306237052e+02,-5.950314072877615672e+02,-2.892857419146604343e+02,-3.578188831675435040e+02,9.523238182067871094e+00,-8.414105772972106934e-01,-5.736890435218811035e-01,2.940000000000000000e+02
-5.158121293538722512e+02,-5.923068103107075331e+02,-3.275426156452246005e+02,-3.828853085898557538e+02,-5.692375171577153878e+02,-5.984555427259039107e+02,-2.860787184451269241e+02,-3.577033513645440053e+02,9.523238182067871094e+00,-8.414105772972106934e-01,-5.736890435218811035e-01,2.950000000000000000e+02
-5.193951908375403264e+02,-5.934662574990214807e+02,-3.303908877327291975e+02,-3.841170546326085287e+02,-5.731357439409410972e+02,-6.012776908854598332e+02,-2.849736815524872782e+02,-3.588847973597232794e+02,9.523238182067871094e+00,-8.414105772972106934e-01,-5.736890435218811035e-01,2.960000000000000000e+02
-5.236457803815578700e+02,-5.937746821168204860e+02,-3.365252446630382792e+02,-3.855311012106465114e+02,-5.780355848779508960e+02,-6.044472118200097839e+02,-2.876364270988408407e+02,-3.623186594821493145e+02,9.523238182067871094e+00,-8.414105772972106934e-01,-5.736890435218811035e-01,2.970000000000000000e+02
-5.280361419581803375e+02,-5.938323440725781666e+02,-3.446871169856566439e+02,-3.869282794227081013e+02,-5.831258438049312645e+02,-6.078600618224041909e+02,-2.927563992186005635e+02,-3.662522128750605361e+02,9.523238182067871094e+00,-8.414105772972106934e-01,-5.736890435218811035e-01,2.980000000000000000e+02
-5.317776620467329849e+02,-5.941716949576100433e+02,-3.520878199992214377e+02,-3.870357707451266833e+02,-5.866161268123823902e+02,-6.101735610646378518e+02,-2.974193832595991580e+02,-3.676593389790325546e+02,9.523238182067871094e+00,-8.414105772972106934e-01,-5.736890435218811035e-01,2.990000000000000000e+02
-5.344877518572380950e+02,-5.950691931336705238e+02,-3.563359653407192127e+02,-3.847788798218184638e+02,-5.872878270348487604e+02,-6.099713918074677395e+02,-2.995311925137050366e+02,-3.648996598089752297e+02,9.523238182067871094e+00,-8.414105772972106934e-01,-5.736890435218811035e-01,3.000000000000000000e+02
-5.364190052574122092e+02,-5.966228346178712627e+02,-3.568980217495255829e+02,-3.807649342044694549e+02,-5.855843738661435509e+02,-6.072789321253571870e+02,-2.992856777576711238e+02,-3.593234080377718556e+02,9.523238182067871094e+00,-8.414105772972106934e-01,-5.736890435218811035e-01,3.010000000000000000e+02
-5.380688762073098133e+02,-5.988802437890058172e+02,-3.550567146540360000e+02,-3.774570263697631844e+02,-5.832615545952023695e+02,-6.039720681157664330e+02,-2.986446134553510774e+02,-3.544270329260249355e+02,9.523238182067871094e+00,-8.414105772972106934e-01,-5.736890435218811035e-01,3.020000000000000000e+02
-5.395850559306181822e+02,-6.018082129677395642e+02,-3.526559221043860362e+02,-3.775828935305044070e+02,-5.819825397407632863e+02,-6.025846401435976532e+02,-2.995566014660790870e+02,-3.532878508440044243e+02,9.523238182067871094e+00,-8.414105772972106934e-01,-5.736890435218811035e-01,3.030000000000000000e+02
-5.405597578560539205e+02,-6.051555370764173176e+02,-3.508513487116190390e+02,-3.820089896508766287e+02,-5.821809684860377274e+02,-6.045077725548576382e+02,-3.025829306246483270e+02,-3.564489833197180815e+02,9.523238182067871094e+00,-8.414105772972106934e-01,-5.736890435218811035e-01,3.040000000000000000e+02
-5.404198573083101564e+02,-6.084409135638583166e+02,-3.498223792213179877e+02,-3.889605847438449473e+02,-5.831397514650534504e+02,-6.091256400786713812e+02,-3.069488031940867359e+02,-3.619083659995636708e+02,9.523238182067871094e+00,-8.414105772972106934e-01,-5.736890435218811035e-01,3.050000000000000000e+02
-5.390346769996056082e+02,-6.111680771264764189e+02,-3.493173953435229464e+02,-3.953376550246703118e+02,-5.839928957441319426e+02,-6.145171506887536452e+02,-3.115774485683923558e+02,-3.669534260806465227e+02,9.523238182067871094e+00,-8.414105772972106934e-01,-5.736890435218811035e-01,3.060000000000000000e+02
-5.369549485292953932e+02,-6.130870178763962031e+02,-3.491731564792686413e+02,-3.989738796354841384e+02,-5.845347725924043516e+02,-6.189319422659982592e+02,-3.158640078203928283e+02,-3.700779755526352801e+02,9.523238182067871094e+00,-8.414105772972106934e-01,-5.736890435218811035e-01,3.070000000000000000e+02
-5.350661084149237467e+02,-6.142326155243003996e+02,-3.492376744823516219e+02,-3.998541346939932168e+02,-5.850912577021424568e+02,-6.216873724472550293e+02,-3.195168710682058872e+02,-3.714297399856047832e+02,9.523238182067871094e+00,-8.414105772972106934e-01,-5.736890435218811035e-01,3.080000000000000000e+02
-5.340079717732380686e+02,-6.147148613308373797e+02,-3.490066380901619141e+02,-3.993620305144531812e+02,-5.858078400455539168e+02,-6.229095677108550717e+02,-3.219777167737343575e+02,-3.717995546715224009e+02,9.523238182067871094e+00,-8.414105772972106934e-01,-5.736890435218811035e-01,3.090000000000000000e+02
-5.339146115011907341e+02,-6.145298889659979977e+02,-3.477170504727799312e+02,-3.985192069778402129e+02,-5.863028494369109467e+02,-6.227416626126008623e+02,-3.223914472247770959e+02,-3.714736584772962260e+02,9.523238182067871094e+00,-8.414105772972106934e-01,-5.736890435218811035e-01,3.100000000000000000e+02
-5.346549579444108531e+02,-6.136393241044308979e+02,-3.450763725934295962e+02,-3.970369411686653507e+02,-5.861245092264013010e+02,-6.210501338326459972e+02,-3.203694210862761338e+02,-3.701297859751422266e+02,9.523238182067871094e+00,-8.414105772972106934e-01,-5.736890435218811035e-01,3.110000000000000000e+02
-5.362228601907946768e+02,-6.122679269622203719e+02,-3.419189341058500418e+02,-3.940534046590382218e+02,-5.854471409834349060e+02,-6.179397401095236546e+02,-3.167669007064029074e+02,-3.677013937820923957e+02,9.484992027282714844e+00,-8.414105772972106934e-01,-5.736890435218811035e-01,3.120000000000000000e+02
-5.387712558780741574e+02,-6.110768995552946308e+02,-3.399091177312682817e+02,-3.896629969160079554e+02,-5.850956638800527116e+02,-6.143811240986173061e+02,-3.134993296693332354e+02,-3.650766811156141785e+02,9.484992027282714844e+00,-8.414105772972106934e-01,-5.736890435218811035e-01,3.130000000000000000e+02
-5.421895371193729716e+02,-6.109356134962749820e+02,-3.402756707298270271e+02,-3.855654155483131262e+02,-5.856958798013072283e+02,-6.120571341878006706e+02,-3.123450936571396142e+02,-3.637038622033562660e+02,9.484992027282714844e+00,-8.414105772972106934e-01,-5.736890435218811035e-01,3.140000000000000000e+02
-5.456691369291881983e+02,-6.123824737757462344e+02,-3.426308884569571660e+02,-3.840788663930300117e+02,-5.867663760493678637e+02,-6.123300168986810377e+02,-3.137340518273838370e+02,-3.643653040093438449e+02,9.484992027282714844e+00,-8.414105772972106934e-01,-5.736890435218811035e-01,3.150000000000000000e+02
-5.478198684347444214e+02,-6.151839305853941369e+02,-3.450454206983875451e+02,-3.863686016721605938e+02,-5.867691423106532511e+02,-6.151681576375780196e+02,-3.165869519406810468e+02,-3.662911263745542669e+02,9.484992027282714844e+00,-8.414105772972106934e-01,-5.736890435218811035e-01,3.160000000000000000e+02
-5.474360360628493254e+02,-6.183624187084826644e+02,-3.454827939001345953e+02,-3.914714340082668400e+02,-5.842607972749274268e+02,-6.190158557224950755e+02,-3.192891839676240693e+02,-3.675485748051822839e+02,9.484992027282714844e+00,-8.414105772972106934e-01,-5.736890435218811035e-01,3.170000000000000000e+02
-5.443836179914861759e+02,-6.206747514927104703e+02,-3.434344799561896480e+02,-3.969142809658779925e+02,-5.792256342263385704e+02,-6.218031368023328014e+02,-3.208597515465009451e+02,-3.664973097144957137e+02,9.484992027282714844e+00,-8.414105772972106934e-01,-5.736890435218811035e-01,3.180000000000000000e+02
-5.398898911010322763e+02,-6.211834078380459232e+02,-3.403594938788174886e+02,-4.002993547756709631e+02,-5.734233820261861183e+02,-6.222976780519494469e+02,-3.213067240568611851e+02,-3.631210209071086865e+02,9.484992027282714844e+00,-8.414105772972106934e-01,-5.736890435218811035e-01,3.190000000000000000e+02
-5.359344438546717129e+02,-6.195622548716984284e+02,-3.385570154629779722e+02,-4.005290940361812773e+02,-5.693738029591818304e+02,-6.207240904948810112e+02,-3.210339871766560691e+02,-3.591049138087972210e+02,9.484992027282714844e+00,-8.414105772972106934e-01,-5.736890435218811035e-01,3.200000000000000000e+02
-5.341308449175257920e+02,-6.160642969579354258e+02,-3.394525252859328930e+02,-3.979154387941089226e+02,-5.687511839224231380e+02,-6.182576804865859685e+02,-3.200899733263295843e+02,-3.565788648689547244e+02,9.484992027282714844e+00,-8.414105772972106934e-01,-5.736890435218811035e-01,3.210000000000000000e+02
-5.348753716830522080e+02,-6.113447071242213724e+02,-3.427141538105463496e+02,-3.935437125960860385e+02,-5.714297386316909524e+02,-6.159824482250419351e+02,-3.181015506203804080e+02,-3.565703829820335500e+02,9.484992027282714844e+00,-8.414105772972106934e-01,-5.736890435218811035e-01,3.220000000000000000e+02
-5.373076539249960888e+02,-6.063095413350752096e+02,-3.467740191843736284e+02,-3.887231425731641252e+02,-5.758166929757496746e+02,-6.142638936921389359e+02,-3.149166928221675334e+02,-3.584043612071786811e+02,9.484992027282714844e+00,-8.414105772972106934e-01,-5.736890435218811035e-01,3.230000000000000000e+02
-5.400106910998404146e+02,-6.019735318547453744e+02,-3.500815061813476632e+02,-3.848615888747904137e+02,-5.800472798360719935e+02,-6.129663637302738834e+02,-3.111905422182994698e+02,-3.604361444844171842e+02,9.484992027282714844e+00,-8.414105772972106934e-01,-5.736890435218811035e-01,3.240000000000000000e+02
-5.418785047330277393e+02,-5.992235537055453278e+02,-3.519346457530080556e+02,-3.833760410960149443e+02,-5.830356390377106663e+02,-6.120902031471521241e+02,-3.081925487294305981e+02,-3.614104234023556614e+02,9.484992027282714844e+00,-8.414105772972106934e-01,-5.736890435218811035e-01,3.250000000000000000e+02
-5.425528995646770909e+02,-5.984839713069038680e+02,-3.523451230638409015e+02,-3.851726790612282230e+02,-5.846663313541298521e+02,-6.120483643817524353e+02,-3.069024117156874922e+02,-3.612882388441041144e+02,9.484992027282714844e+00,-8.414105772972106934e-01,-5.736890435218811035e-01,3.260000000000000000e+02
-5.422491361179520482e+02,-5.994782340062176900e+02,-3.513772062515172365e+02,-3.898767925123591453e+02,-5.852236185614840451e+02,-6.132608973515789330e+02,-3.072138414306253935e+02,-3.609291731012512514e+02,9.484992027282714844e+00,-8.414105772972106934e-01,-5.736890435218811035e-01,3.270000000000000000e+02
-5.412854480825008068e+02,-6.013135340251342313e+02,-3.488379174504668754e+02,-3.955934261616685035e+02,-5.847664831315563561e+02,-6.155182679160417365e+02,-3.080221528274564093e+02,-3.610454598490819649e+02,9.484992027282714844e+00,-8.414105772972106934e-01,-5.736890435218811035e-01,3.280000000000000000e+02
-5.397891625443098746e+02,-6.029032590237553677e+02,-3.446882993304129741e+02,-3.997483282863437353e+02,-5.830498677191710613e+02,-6.178320783299579944e+02,-3.081695235445216667e+02,-3.614351381139094883e+02,9.484992027282714844e+00,-8.414105772972106934e-01,-5.736890435218811035e-01,3.290000000000000000e+02
-5.378034466188291844e+02,-6.034692149978318412e+02,-3.397078013165092898e+02,-4.006244173031916489e+02,-5.799794503880561933e+02,-6.190083542641825716e+02,-3.074355575213676843e+02,-3.611733850434449096e+02,9.484992027282714844e+00,-8.414105772972106934e-01,-5.736890435218811035e-01,3.300000000000000000e+02
-5.356002916700912238e+02,-6.027991514432601434e+02,-3.355929335046063784e+02,-3.984279873188508532e+02,-5.760686736654431570e+02,-6.184454798652629961e+02,-3.067023326241285872e+02,-3.595226232776278721e+02,9.484992027282714844e+00,-8.414105772972106934e-01,-5.736890435218811035e-01,3.310000000000000000e+02
-5.338012184239090629e+02,-6.011229639144208932e+02,-3.341641783149623848e+02,-3.949771291387719430e+02,-5.723940370408615763e+02,-6.164434722738078563e+02,-3.071541839396130058e+02,-3.566704033306154997e+02,9.484992027282714844e+00,-8.414105772972106934e-01,-5.736890435218811035e-01,3.320000000000000000e+02
-5.330877625648668072e+02,-5.987674755034165628e+02,-3.361834635937643725e+02,-3.922278305412729651e+02,-5.700292652766661377e+02,-6.137994830754337272e+02,-3.091895916259560408e+02,-3.535938442504866543e+02,9.484992027282714844e+00,-8.414105772972106934e-01,-5.736890435218811035e-01,3.330000000000000000e+02
-5.336742924278321425e+02,-5.958754151163298047e+02,-3.406756033170009914e+02,-3.908266966802161733e+02,-5.694006562169813606e+02,-6.111452832733873493e+02,-3.119170393562282015e+02,-3.511799741136723014e+02,9.484992027282714844e+00,-8.414105772972106934e-01,-5.736890435218811035e-01,3.340000000000000000e+02
-5.349762265289656398e+02,-5.923749446865048185e+02,-3.453080547508611744e+02,-3.898340418674155217e+02,-5.700479683983944597e+02,-6.086425036069304042e+02,-3.136009422071224435e+02,-3.494329960401246353e+02,9.484992027282714844e+00,-8.414105772972106934e-01,-5.736890435218811035e-01,3.350000000000000000e+02
-5.357930522003854321e+02,-5.881693594335129092e+02,-3.476001254181300624e+02,-3.877359565808483239e+02,-5.709214256344198475e+02,-6.061919216577155112e+02,-3.126781394845042996e+02,-3.475053075440894190e+02,9.484992027282714844e+00,-8.414105772972106934e-01,-5.736890435218811035e-01,3.360000000000000000e+02
-5.349218345289175431e+02,-5.833586756573538423e+02,-3.461650133228757227e+02,-3.838101380752907517e+02,-5.709471628906211436e+02,-6.037807779338522778e+02,-3.086310245320576087e+02,-3.445217275775180497e+02,9.484992027282714844e+00,-8.414105772972106934e-01,-5.736890435218811035e-01,3.370000000000000000e+02
-5.317999441413541035e+02,-5.783271527620653387e+02,-3.412581804870092697e+02,-3.787453305747360446e+02,-5.694935398062593777e+02,-6.015524483821581043e+02,-3.022466229508858078e+02,-3.404598558970043314e+02,9.484992027282714844e+00,-8.414105772972106934e-01,-5.736890435218811035e-01,3.380000000000000000e+02
-5.267791602574002354e+02,-5.736461679161121765e+02,-3.344340321445981772e+02,-3.741338248170170573e+02,-5.665330179044258330e+02,-5.995919044118293186e+02,-2.952421794355409475e+02,-3.362994731356409375e+02,9.484992027282714844e+00,-8.414105772972106934e-01,-6.119350194931030273e-01,3.390000000000000000e+02
-5.209076097261718132e+02,-5.698411526666214968e+02,-3.276538883368391453e+02,-3.713596390237562446e+02,-5.624994548114852932e+02,-5.977527848436872091e+02,-2.895253344908446707e+02,-3.332851756242737338e+02,9.484992027282714844e+00,-8.414105772972106934e-01,-6.119350194931030273e-01,3.400000000000000000e+02
-5.154191286811374084e+02,-5.671331554492478517e+02,-3.224120059360088817e+02,-3.707331304327422004e+02,-5.579794386467955292e+02,-5.957638847857490418e+02,-2.863843196192515279e+02,-3.319049880778262605e+02,9.484992027282714844e+00,-8.414105772972106934e-01,-6.119350194931030273e-01,3.410000000000000000e+02
-5.112275822783290096e+02,-5.652837512192952545e+02,-3.192825373441867214e+02,-3.713715434693269799e+02,-5.534120487264128769e+02,-5.934773759695228819e+02,-2.858760300517502628e+02,-3.314112983959937537e+02,9.484992027282714844e+00,-8.414105772972106934e-01,-6.119350194931030273e-01,3.420000000000000000e+02
-5.086132488638002087e+02,-5.636571787803862890e+02,-3.179514834612652976e+02,-3.717526282558374078e+02,-5.489470556485539419e+02,-5.909606825967723580e+02,-2.867043388702429638e+02,-3.302603639908194282e+02,9.484992027282714844e+00,-8.414105772972106934e-01,-6.119350194931030273e-01,3.430000000000000000e+02
-5.071543840143946227e+02,-5.615313142884867830e+02,-3.175539324528087946e+02,-3.705416416467210183e+02,-5.445296441316535265e+02,-5.883544865077310533e+02,-2.867989193904163585e+02,-3.271455005299405912e+02,9.484992027282714844e+00,-8.414105772972106934e-01,-6.119350194931030273e-01,3.440000000000000000e+02
-5.059028789283864853e+02,-5.585138735824629066e+02,-3.170803968035438629e+02,-3.672636732958826542e+02,-5.401114320234014485e+02,-5.857047190221961728e+02,-2.844548780707466449e+02,-3.218792013843951736e+02,9.484992027282714844e+00,-8.414105772972106934e-01,-6.119350194931030273e-01,3.450000000000000000e+02
-5.037900718422740738e+02,-5.547825981780182474e+02,-3.157174388500370696e+02,-3.625173634122095336e+02,-5.357952199282924539e+02,-5.829911914067806720e+02,-2.794246956622147309e+02,-3.155295099338190994e+02,9.484992027282714844e+00,-8.414105772972106934e-01,-6.119350194931030273e-01,3.460000000000000000e+02
-5.001705411769813736e+02,-5.509403847129815404e+02,-3.130967689312540188e+02,-3.576177574666103283e+02,-5.317883684514845299e+02,-5.803042338903468362e+02,-2.732089299716415098e+02,-3.097629238576580519e+02,9.484992027282714844e+00,-8.414105772972106934e-01,-6.119350194931030273e-01,3.470000000000000000e+02
-4.952672432444664992e+02,-5.475640077173673035e+02,-3.094424155484121002e+02,-3.538402711450912648e+02,-5.282421658072828450e+02,-5.779121146071921657e+02,-2.682247739532399464e+02,-3.058639903122150372e+02,9.484992027282714844e+00,-8.414105772972106934e-01,-6.119350194931030273e-01,3.480000000000000000e+02
-4.901951912741199067e+02,-5.447903588713045337e+02,-3.055142681130695337e+02,-3.517073064771992676e+02,-5.251504238664412014e+02,-5.760687240703613270e+02,-2.663061146171406790e+02,-3.040443281411965017e+02,9.484992027282714844e+00,-8.414105772972106934e-01,-6.119350194931030273e-01,3.490000000000000000e+02
-4.864126955440542588e+02,-5.422872175073400740e+02,-3.022671120272457301e+02,-3.508136438443498264e+02,-5.223876730542106088e+02,-5.747393494011059829e+02,-2.675305724182769609e+02,-3.034219734606622296e+02,9.484992027282714844e+00,-8.414105772972106934e-01,-6.119350194931030273e-01,3.500000000000000000e+02
-4.848499796875389620e+02,-5.396325206645941535e+02,-3.003236888391331831e+02,-3.503207294505286882e+02,-5.197965165019766118e+02,-5.735699326991298221e+02,-2.701894114209327427e+02,-3.026363821554298283e+02,9.484992027282714844e+00,-8.414105772972106934e-01,-6.119350194931030273e-01,3.510000000000000000e+02
-4.852893328764683929e+02,-5.367543850166034645e+02,-2.995710508855704575e+02,-3.496830159361562664e+02,-5.171962879899704149e+02,-5.721774246748021824e+02,-2.719118659547767720e+02,-3.006871412203311138e+02,9.484992027282714844e+00,-8.414105772972106934e-01,-6.119350194931030273e-01,3.520000000000000000e+02
-4.864829466323014913e+02,-5.340194496098372383e+02,-2.992357786939190873e+02,-3.489637211496639111e+02,-5.143632738312155652e+02,-5.705027586955800416e+02,-2.711614153962070759e+02,-2.974857401160472818e+02,9.484992027282714844e+00,-8.414105772972106934e-01,-6.119350194931030273e-01,3.530000000000000000e+02
-4.869843778691908938e+02,-5.318959111780238800e+02,-2.984765140109273034e+02,-3.484766547002273001e+02,-5.111360546406516505e+02,-5.688597243716359344e+02,-2.681058886851520811e+02,-2.938009412135787670e+02,9.484992027282714844e+00,-8.414105772972106934e-01,-6.119350194931030273e-01,3.540000000000000000e+02
-4.861167124138924009e+02,-5.305169282628584142e+02,-2.970610336166832894e+02,-3.481495189598913385e+02,-5.076358288377539338e+02,-5.675760120489967449e+02,-2.643344602719641898e+02,-2.906465093327790328e+02,9.484992027282714844e+00,-8.414105772972106934e-01,-6.119350194931030273e-01,3.550000000000000000e+02
-4.843470458385888833e+02,-5.295540258952621571e+02,-2.955311085828227533e+02,-3.473061080206579163e+02,-5.043453400217001672e+02,-5.665232035011613334e+02,-2.616921702859390280e+02,-2.885208881807634498e+02,9.484992027282714844e+00,-8.414105772972106934e-01,-6.119350194931030273e-01,3.560000000000000000e+02
-4.827632273657542328e+02,-5.284900406082076643e+02,-2.946509961077504158e+02,-3.451489949078711561e+02,-5.018145051899299460e+02,-5.649957611045811063e+02,-2.610557699079190570e+02,-2.870258535288106714e+02,9.484992027282714844e+00,-8.414105772972106934e-01,-6.119350194931030273e-01,3.570000000000000000e+02
-4.820664369811281631e+02,-5.269942972816493238e+02,-2.946254950892911211e+02,-3.415280843687041852e+02,-5.001388355025101191e+02,-5.621476785732320423e+02,-2.618684397154121370e+02,-2.851720341201919382e+02,9.484992027282714844e+00,-8.414105772972106934e-01,-6.119350194931030273e-01,3.580000000000000000e+02
-4.819037404000712286e+02,-5.250479179909214054e+02,-2.948533581305362077e+02,-3.372789739400692497e+02,-4.987198133646415954e+02,-5.577157048191638751e+02,-2.627044267086118907e+02,-2.822000247095620580e+02,9.484992027282714844e+00,-8.414105772972106934e-01,-6.119350194931030273e-01,3.590000000000000000e+02
-4.811042044343137150e+02,-5.227796885960409554e+02,-2.945107802402626476e+02,-3.338031978667095245e+02,-4.966670667800299270e+02,-5.524703986713411723e+02,-2.623963442901414282e+02,-2.783179104296973492e+02,9.484992027282714844e+00,-8.414105772972106934e-01,-6.119350194931030273e-01,3.600000000000000000e+02
-4.786357752997912485e+02,-5.202816986843623681e+02,-2.934208701647603448e+02,-3.322199873461714787e+02,-4.935760402687662918e+02,-5.479592293723701459e+02,-2.608501134502866989e+02,-2.747272796465115334e+02,9.484992027282714844e+00,-8.414105772972106934e-01,-6.119350194931030273e-01,3.610000000000000000e+02
-4.744894789699950479e+02,-5.176206171857243135e+02,-2.922987749438585752e+02,-3.327223445873660239e+02,-4.899487735700822668e+02,-5.456100878675779313e+02,-2.589207725638868851e+02,-2.728046963898621016e+02,9.484992027282714844e+00,-8.414105772972106934e-01,-6.119350194931030273e-01,3.620000000000000000e+02
-4.697507117421030216e+02,-5.149671249185239503e+02,-2.920219520632728063e+02,-3.345108854598028074e+02,-4.867742013825547929e+02,-5.457666516686783780e+02,-2.574843489864520052e+02,-2.729933658986083174e+02,9.484992027282714844e+00,-8.414105772972106934e-01,-6.119350194931030273e-01,3.630000000000000000e+02
-4.657993417735384583e+02,-5.125720587998612245e+02,-2.925850409101416290e+02,-3.362158840192480511e+02,-4.845982081864156044e+02,-5.473350137473278210e+02,-2.565654808222645897e+02,-2.742908900894863109e+02,9.484992027282714844e+00,-8.414105772972106934e-01,-6.119350194931030273e-01,3.640000000000000000e+02
-4.633011762831467877e+02,-5.104810314174046653e+02,-2.928242917478556819e+02,-3.364778305636789355e+02,-4.829717007817739614e+02,-5.483391984950583264e+02,-2.553588694674554063e+02,-2.748230528646558923e+02,9.484992027282714844e+00,-8.414105772972106934e-01,-6.119350194931030273e-01,3.650000000000000000e+02
-4.618084435256103006e+02,-5.082536516334271255e+02,-2.912992492833493543e+02,-3.344542110050933843e+02,-4.808261332820413827e+02,-5.470572402923348818e+02,-2.531519969934261098e+02,-2.731208720935535439e+02,9.484992027282714844e+00,-8.414105772972106934e-01,-6.119350194931030273e-01,3.660000000000000000e+02
-4.602424498820757890e+02,-5.050729654694309829e+02,-2.875838770233974628e+02,-3.301482804921001843e+02,-4.774305940885990367e+02,-5.430115930552949521e+02,-2.502461082634301874e+02,-2.691175488332667101e+02,9.484992027282714844e+00,-8.414105772972106934e-01,-6.119350194931030273e-01,3.670000000000000000e+02
-4.577848291498899016e+02,-5.002938381376193320e+02,-2.827528650487367941e+02,-3.244457934166098312e+02,-4.730268963218675253e+02,-5.372009203888278535e+02,-2.478829903818434559e+02,-2.640966690053041930e+02,9.484992027282714844e+00,-8.414105772972106934e-01,-6.119350194931030273e-01,3.680000000000000000e+02
-4.544040239461451165e+02,-4.940226778296566863e+02,-2.785678743158837278e+02,-3.187464128710550995e+02,-4.685895745780860580e+02,-5.314652923890284910e+02,-2.471076904630829176e+02,-2.597048658044047897e+02,9.484992027282714844e+00,-8.414105772972106934e-01,-6.119350194931030273e-01,3.690000000000000000e+02
-4.506421065045828982e+02,-4.872057666062580665e+02,-2.761137981108324766e+02,-3.142804639851933644e+02,-4.650282634469945151e+02,-5.274337974227439645e+02,-2.476148169705927558e+02,-2.568998199477437083e+02,9.484992027282714844e+00,-8.796565532684326172e-01,-6.119350194931030273e-01,3.700000000000000000e+02
-4.469892189844354107e+02,-4.810969030105741240e+02,-2.751417031608652906e+02,-3.115047612715093237e+02,-4.626282996310430917e+02,-5.257057269736233138e+02,-2.478003400255029192e+02,-2.556538466637211968e+02,9.484992027282714844e+00,-8.796565532684326172e-01,-6.119350194931030273e-01,3.710000000000000000e+02
-4.435040419609399578e+02,-4.765133088555862741e+02,-2.746304130582286689e+02,-3.099965426759583806e+02,-4.611493216361279792e+02,-5.256785123016218222e+02,-2.461328303066704848e+02,-2.554192485941255200e+02,9.484992027282714844e+00,-8.796565532684326172e-01,-6.119350194931030273e-01,3.720000000000000000e+02
-4.400062906348696288e+02,-4.734499524213586028e+02,-2.738498648222951033e+02,-3.088882046373378216e+02,-4.602350105269174492e+02,-5.259957155132572098e+02,-2.425867649087417703e+02,-2.556434303418773197e+02,9.484992027282714844e+00,-8.796565532684326172e-01,-6.119350194931030273e-01,3.730000000000000000e+02
-4.365377133004167263e+02,-4.712836106957527136e+02,-2.727796821901235944e+02,-3.074386570389792723e+02,-4.595174073698094617e+02,-5.252555672606886219e+02,-2.386865902606291456e+02,-2.557463611357688933e+02,9.484992027282714844e+00,-8.796565532684326172e-01,-6.119350194931030273e-01,3.740000000000000000e+02
-4.335072286287181669e+02,-4.693047287883848639e+02,-2.715426801314765726e+02,-3.052921120806377075e+02,-4.583120220686955690e+02,-5.225972186582246195e+02,-2.360355161086208682e+02,-2.547832905142572599e+02,9.484992027282714844e+00,-8.796565532684326172e-01,-6.119350194931030273e-01,3.750000000000000000e+02
-4.312735503892452016e+02,-4.671207621881394516e+02,-2.696575468469004591e+02,-3.023723609995208790e+02,-4.554694907672287627e+02,-5.179619319943856226e+02,-2.347591770214216922e+02,-2.515526207230154796e+02,9.484992027282714844e+00,-8.796565532684326172e-01,-6.119350194931030273e-01,3.760000000000000000e+02
-4.295625329789054376e+02,-4.646820706333960516e+02,-2.661446193268234310e+02,-2.987351236451213481e+02,-4.499331744849800998e+02,-5.120387429167949449e+02,-2.334718880716518470e+02,-2.454792193959042379e+02,9.484992027282714844e+00,-8.796565532684326172e-01,-6.119350194931030273e-01,3.770000000000000000e+02
-4.273884929643777468e+02,-4.620371256506132340e+02,-2.605541612606380113e+02,-2.946299527530566138e+02,-4.417543759817822320e+02,-5.060026087522221587e+02,-2.308606158133782174e+02,-2.375789686247085228e+02,9.484992027282714844e+00,-8.796565532684326172e-01,-6.119350194931030273e-01,3.780000000000000000e+02
-4.237235858233855197e+02,-4.591075566845556750e+02,-2.538380144752109118e+02,-2.906133659075173910e+02,-4.325668091593861391e+02,-5.011023683195751346e+02,-2.272633693790401139e+02,-2.303341642766890800e+02,9.484992027282714844e+00,-8.796565532684326172e-01,-6.119350194931030273e-01,3.790000000000000000e+02
-4.184001658235606556e+02,-4.556806733390756108e+02,-2.479577910737405091e+02,-2.873516900442346014e+02,-4.247621458155517757e+02,-4.981364883503817964e+02,-2.245199092258480960e+02,-2.261143527146589349e+02,9.484992027282714844e+00,-8.796565532684326172e-01,-6.119350194931030273e-01,3.800000000000000000e+02
-4.124075253279270328e+02,-4.515985618763299954e+02,-2.443582832539862011e+02,-2.850910884729414647e+02,-4.197909402446230160e+02,-4.970060726328192686e+02,-2.241011692730858158e+02,-2.252601830555904598e+02,9.484992027282714844e+00,-8.796565532684326172e-01,-6.119350194931030273e-01,3.810000000000000000e+02
-4.072307572568690830e+02,-4.469693747974276903e+02,-2.426991202026313204e+02,-2.833142170909168271e+02,-4.170339290822453222e+02,-4.966703198023342338e+02,-2.253873816371324210e+02,-2.256072979795605988e+02,9.484992027282714844e+00,-8.796565532684326172e-01,-6.119350194931030273e-01,3.820000000000000000e+02
-4.037398503676215569e+02,-4.422214592463762983e+02,-2.411484586303854485e+02,-2.810923999440099124e+02,-4.143774133613792401e+02,-4.957047371477440265e+02,-2.259546659554077905e+02,-2.241530112832899704e+02,9.484992027282714844e+00,-8.796565532684326172e-01,-6.119350194931030273e-01,3.830000000000000000e+02
-4.015885133755632523e+02,-4.379133918349282339e+02,-2.380794344357348109e+02,-2.779541181246224824e+02,-4.101105923106383671e+02,-4.932085327424242678e+02,-2.237289760438602571e+02,-2.195888614660398162e+02,9.484992027282714844e+00,-8.796565532684326172e-01,-6.119350194931030273e-01,3.840000000000000000e+02
-3.996506787861812882e+02,-4.343794073307130930e+02,-2.336026642021154203e+02,-2.744304742020699450e+02,-4.044622468806221605e+02,-4.894142632933701407e+02,-2.189284729572536889e+02,-2.134537204773296253e+02,9.484992027282714844e+00,-8.796565532684326172e-01,-6.119350194931030273e-01,3.850000000000000000e+02
-3.970887814430725484e+02,-4.314538100234326521e+02,-2.294551809799258990e+02,-2.716046178672158931e+02,-3.993175473200672059e+02,-4.854486325346756530e+02,-2.138456893892534936e+02,-2.087714284116673298e+02,9.484992027282714844e+00,-8.796565532684326172e-01,-6.119350194931030273e-01,3.860000000000000000e+02
-3.940898476713291529e+02,-4.285371910146905066e+02,-2.273465180822217917e+02,-2.699833832103622626e+02,-3.963622408866590376e+02,-4.823766933936581154e+02,-2.106644725641674540e+02,-2.073477606337125962e+02,9.484992027282714844e+00,-8.796565532684326172e-01,-6.119350194931030273e-01,3.870000000000000000e+02
-3.916370831643960173e+02,-4.250477595858856148e+02,-2.273818315685871312e+02,-2.688080071062283878e+02,-3.954503252865008562e+02,-4.803456492761758909e+02,-2.094907078559965612e+02,-2.082189056194933983e+02,9.484992027282714844e+00,-8.796565532684326172e-01,-6.119350194931030273e-01,3.880000000000000000e+02
-3.905942087028536207e+02,-4.209291329265483910e+02,-2.280921266500756701e+02,-2.666054283158800899e+02,-3.947937727019677823e+02,-4.785859975158164161e+02,-2.085285509003172137e+02,-2.086834448401659756e+02,9.484992027282714844e+00,-8.796565532684326172e-01,-6.119350194931030273e-01,3.890000000000000000e+02
-3.909808738621959492e+02,-4.167650467666180703e+02,-2.279834836818201893e+02,-2.625764435093074098e+02,-3.927783971996066157e+02,-4.762394967659488429e+02,-2.061373796560656046e+02,-2.068976376032001099e+02,9.484992027282714844e+00,-8.796565532684326172e-01,-6.119350194931030273e-01,3.900000000000000000e+02
-3.920591180089652426e+02,-4.133417381517701870e+02,-2.269981009159801033e+02,-2.575264570974698017e+02,-3.895640305117767639e+02,-4.731914089268334465e+02,-2.026275873980810047e+02,-2.035235928800275360e+02,9.523238182067871094e+00,-8.796565532684326172e-01,-5.736890435218811035e-01,3.910000000000000000e+02
-3.930226472340580131e+02,-4.110158093784286848e+02,-2.263894600451051247e+02,-2.534101267182563788e+02,-3.868261054781037274e+02,-4.701082732802265127e+02,-1.999941456582037063e+02,-2.008745017093435763e+02,9.523238182067871094e+00,-8.796565532684326172e-01,-5.736890435218811035e-01,3.920000000000000000e+02
-3.935334643422936551e+02,-4.094882413579566673e+02,-2.271597006587571741e+02,-2.518827946618521310e+02,-3.859045476907449483e+02,-4.677389829384560471e+02,-1.999453066144697004e+02,-2.005004340446103015e+02,9.523238182067871094e+00,-8.796565532684326172e-01,-5.736890435218811035e-01,3.930000000000000000e+02
-3.936111243174177616e+02,-4.082158941106088150e+02,-2.287081351715485198e+02,-2.531822763308916819e+02,-3.862753205616932064e+02,-4.663041054363652620e+02,-2.022694333254025878e+02,-2.016937038894945999e+02,9.523238182067871094e+00,-8.796565532684326172e-01,-5.736890435218811035e-01,3.940000000000000000e+02
-3.931221418398490641e+02,-4.070272237504073018e+02,-2.291559757632614946e+02,-2.562651564763361876e+02,-3.859727062116890011e+02,-4.656345938401300373e+02,-2.051101614278459238e+02,-2.024146472487675510e+02,9.523238182067871094e+00,-8.796565532684326172e-01,-5.736890435218811035e-01,3.950000000000000000e+02
-3.915725770900144198e+02,-4.062505414163117621e+02,-2.271289278647709580e+02,-2.598346728170338338e+02,-3.835998595486694285e+02,-4.657848170803226822e+02,-2.067117833587853966e+02,-2.016307903026165604e+02,9.523238182067871094e+00,-8.796565532684326172e-01,-5.736890435218811035e-01,3.960000000000000000e+02
-3.885674438985645338e+02,-4.061565029923656311e+02,-2.232659818935835574e+02,-2.631133053107078013e+02,-3.798939281389282314e+02,-4.672278057640742190e+02,-2.067979994568122493e+02,-2.005698063438001100e+02,9.523238182067871094e+00,-8.796565532684326172e-01,-5.736890435218811035e-01,3.970000000000000000e+02
-3.845200446436670063e+02,-4.063019362379679933e+02,-2.199206633974276883e+02,-2.657156699160962035e+02,-3.772068955027862103e+02,-4.702116541140794652e+02,-2.063356693619571161e+02,-2.014858780803365335e+02,9.523238182067871094e+00,-8.796565532684326172e-01,-5.736890435218811035e-01,3.980000000000000000e+02
-3.807882147827324388e+02,-4.055662937831475574e+02,-2.192114656707115046e+02,-2.670838571315196077e+02,-3.773065843951299030e+02,-4.739000851665778100e+02,-2.061681745269029307e+02,-2.050817083769527471e+02,9.523238182067871094e+00,-8.796565532684326172e-01,-5.736890435218811035e-01,3.990000000000000000e+02
-3.788646860885430669e+02,-4.030211756387350306e+02,-2.211544462179388120e+02,-2.664295866390034462e+02,-3.795574229299895705e+02,-4.763721133231015301e+02,-2.060493264175370314e+02,-2.091751755692835104e+02,9.523238182067871094e+00,-8.796565532684326172e-01,-5.736890435218811035e-01,4.000000000000000000e+02
-3.791644163989503795e+02,-3.988586242006624616e+02,-2.235503819518237378e+02,-2.634532223718210844e+02,-3.811964546152612456e+02,-4.757957480730183306e+02,-2.049853605632199560e+02,-2.100847049592023268e+02,9.523238182067871094e+00,-8.796565532684326172e-01,-5.736890435218811035e-01,4.010000000000000000e+02
-3.804579869163994772e+02,-3.944086073512485200e+02,-2.237063902793067882e+02,-2.590581808884717248e+02,-3.794650129851352176e+02,-4.718446782731498388e+02,-2.023587182378635134e+02,-2.055998929163738467e+02,9.523238182067871094e+00,-8.796565532684326172e-01,-5.736890435218811035e-01,4.020000000000000000e+02
-3.805555166634712805e+02,-3.911062468030479522e+02,-2.204800034927975503e+02,-2.551004840733412493e+02,-3.737020252348788745e+02,-4.660535644966362270e+02,-1.986105109973591425e+02,-1.968778906300385643e+02,9.523238182067871094e+00,-8.796565532684326172e-01,-5.736890435218811035e-01,4.030000000000000000e+02
-3.777826399875900734e+02,-3.892926921442935964e+02,-2.149535239269678186e+02,-2.531289026671363445e+02,-3.656768883603103859e+02,-4.607229046070342520e+02,-1.948732028860113132e+02,-1.876090145917519294e+02,9.523238182067871094e+00,-8.796565532684326172e-01,-5.736890435218811035e-01,4.040000000000000000e+02
-3.721000275805577076e+02,-3.879559597604543342e+02,-2.093751437737910237e+02,-2.531897558521186511e+02,-3.581487733303861205e+02,-4.573398379012382975e+02,-1.920776975290270912e+02,-1.813198548773666516e+02,9.523238182067871094e+00,-8.796565532684326172e-01,-5.736890435218811035e-01,4.050000000000000000e+02
-3.650140668286408072e+02,-3.856558846335019552e+02,-2.054926532395561480e+02,-2.538438623893416661e+02,-3.530919213844240403e+02,-4.558735633267233425e+02,-1.904375735252988306e+02,-1.792219269328747941e+02,9.523238182067871094e+00,-8.796565532684326172e-01,-5.736890435218811035e-01,4.060000000000000000e+02
-3.584237980111727211e+02,-3.817494112464942191e+02,-2.036727622453972799e+02,-2.534017186210198815e+02,-3.509448453706854707e+02,-4.553428388177621855e+02,-1.896167631927137336e+02,-1.801701850901417856e+02,9.523238182067871094e+00,-8.796565532684326172e-01,-5.736890435218811035e-01,4.070000000000000000e+02
-3.533804966191139556e+02,-3.768060104127162049e+02,-2.032298723161586622e+02,-2.512262887606416371e+02,-3.509942329197442632e+02,-4.548261617670432315e+02,-1.891567448976147716e+02,-1.821662530998987677e+02,9.523238182067871094e+00,-8.796565532684326172e-01,-5.736890435218811035e-01,4.080000000000000000e+02
-3.496945622046955577e+02,-3.719514269984765633e+02,-2.032574183428910146e+02,-2.479338436732207356e+02,-3.520058662275941970e+02,-4.538501236518864062e+02,-1.886525055317329134e+02,-1.836299051263340516e+02,9.523238182067871094e+00,-8.796565532684326172e-01,-5.736890435218811035e-01,4.090000000000000000e+02
-3.465065017696751966e+02,-3.678838892182347990e+02,-2.030345031650426790e+02,-2.444550080957881164e+02,-3.524261025353448531e+02,-4.519961930069525806e+02,-1.876503786961425249e+02,-1.834361966407905129e+02,9.523238182067871094e+00,-8.796565532684326172e-01,-5.736890435218811035e-01,4.100000000000000000e+02
-3.431446854487348901e+02,-3.644974302787886700e+02,-2.018450145041513224e+02,-2.410212930886791582e+02,-3.504129924686476443e+02,-4.485317416562274957e+02,-1.856291407906974200e+02,-1.803950216680664198e+02,9.523238182067871094e+00,-8.796565532684326172e-01,-5.736890435218811035e-01,4.110000000000000000e+02
-3.395049028115768124e+02,-3.612957388166014425e+02,-1.988444447783579108e+02,-2.371172134116877714e+02,-3.444029047561634798e+02,-4.428171432289209406e+02,-1.822732334638667453e+02,-1.734861966865360046e+02,9.523238182067871094e+00,-8.796565532684326172e-01,-5.736890435218811035e-01,4.120000000000000000e+02
-3.357811548839968054e+02,-3.579718109178770646e+02,-1.935196629774950452e+02,-2.323725418637318398e+02,-3.342619533275847061e+02,-4.352343693335333228e+02,-1.778065244441359027e+02,-1.630592602374094895e+02,9.523238182067871094e+00,-8.796565532684326172e-01,-5.736890435218811035e-01,4.130000000000000000e+02
-3.320109203380570762e+02,-3.545177726571123458e+02,-1.864433730928424211e+02,-2.273936659576152124e+02,-3.220514821544074948e+02,-4.275787921375144833e+02,-1.729945891708357522e+02,-1.516768990804093846e+02,9.523238182067871094e+00,-8.796565532684326172e-01,-5.736890435218811035e-01,4.140000000000000000e+02
-3.279596465719878324e+02,-3.509096440618395718e+02,-1.794279183323785674e+02,-2.236128860447356601e+02,-3.113262363048829684e+02,-4.222145552120373395e+02,-1.687463336836040071e+02,-1.431862612717109187e+02,9.523238182067871094e+00,-8.796565532684326172e-01,-5.736890435218811035e-01,4.150000000000000000e+02
-3.234333234877226460e+02,-3.469421589358721576e+02,-1.746146108581087901e+02,-2.222836774756819977e+02,-3.050933190368450596e+02,-4.205207941415874302e+02,-1.656514072385830332e+02,-1.402778273714461648e+02,9.523238182067871094e+00,-8.796565532684326172e-01,-5.354431271553039551e-01,4.160000000000000000e+02
-3.186584823216430777e+02,-3.425448143747798895e+02,-1.730991345821571485e+02,-2.235871658662417758e+02,-3.039430011723370626e+02,-4.219695839441319549e+02,-1.638158721658119248e+02,-1.425266826357510581e+02,9.523238182067871094e+00,-8.796565532684326172e-01,-5.354431271553039551e-01,4.170000000000000000e+02
-3.143249799074028488e+02,-3.382032589979694421e+02,-1.742884681426967290e+02,-2.266415806784798406e+02,-3.059636132829296002e+02,-4.246899534820222470e+02,-1.630368211153613629e+02,-1.467965977805188231e+02,9.523238182067871094e+00,-8.796565532684326172e-01,-5.354431271553039551e-01,4.180000000000000000e+02
-3.112420922614346637e+02,-3.348387899783947432e+02,-1.765918738985483287e+02,-2.302610591435964125e+02,-3.085406459494233786e+02,-4.269959657970243825e+02,-1.630412280180148628e+02,-1.497969670428615245e+02,9.523238182067871094e+00,-8.796565532684326172e-01,-5.354431271553039551e-01,4.190000000000000000e+02
-3.098956474297710884e+02,-3.330495084026069890e+02,-1.787946125210071386e+02,-2.336182140319128848e+02,-3.104206972255251458e+02,-4.284771617768769829e+02,-1.635526021810032944e+02,-1.505519008752276022e+02,9.523238182067871094e+00,-8.796565532684326172e-01,-5.354431271553039551e-01,4.200000000000000000e+02
-3.102265547549136500e+02,-3.324101670160330286e+02,-1.808402873160734998e+02,-2.362297862502805401e+02,-3.121944205851445986e+02,-4.297382418343004247e+02,-1.642522879043053763e+02,-1.506147853473789837e+02,9.523238182067871094e+00,-8.796565532684326172e-01,-5.354431271553039551e-01,4.210000000000000000e+02
-3.117227255194684403e+02,-3.316321855341179798e+02,-1.833774391487413595e+02,-2.375354541340884680e+02,-3.149090006602382346e+02,-4.312201317030130667e+02,-1.648348636378477750e+02,-1.520065663269842844e+02,9.523238182067871094e+00,-8.796565532684326172e-01,-5.354431271553039551e-01,4.220000000000000000e+02
-3.136652496134065586e+02,-3.295743170541309155e+02,-1.866663761302047533e+02,-2.367747526332009329e+02,-3.183537059893324113e+02,-4.323794044096484868e+02,-1.651821600906687308e+02,-1.549689991143682164e+02,9.523238182067871094e+00,-8.796565532684326172e-01,-5.354431271553039551e-01,4.230000000000000000e+02
-3.153089031431950389e+02,-3.261680942824859812e+02,-1.900062196065514399e+02,-2.334303886758698354e+02,-3.207944288565290663e+02,-4.320276250604133566e+02,-1.654108122899110640e+02,-1.576378024571849892e+02,9.523238182067871094e+00,-8.796565532684326172e-01,-5.354431271553039551e-01,4.240000000000000000e+02
-3.159275632585104177e+02,-3.223293199863364862e+02,-1.921940688391136973e+02,-2.277580956329388755e+02,-3.203861528488223485e+02,-4.294087649676398541e+02,-1.655903418391421837e+02,-1.577598422222099543e+02,9.523238182067871094e+00,-8.796565532684326172e-01,-5.354431271553039551e-01,4.250000000000000000e+02
-3.148140004185975158e+02,-3.189200796988070579e+02,-1.924072318426979109e+02,-2.207372115676353133e+02,-3.167546414348721555e+02,-4.248795388000603452e+02,-1.653113003715734521e+02,-1.546345234537684519e+02,9.523238182067871094e+00,-8.796565532684326172e-01,-5.354431271553039551e-01,4.260000000000000000e+02
-3.113798669211446395e+02,-3.158337352405605998e+02,-1.905315009217406441e+02,-2.134067319819223485e+02,-3.111007315698107050e+02,-4.195519822371129521e+02,-1.635805966933266973e+02,-1.494425987334157071e+02,9.523238182067871094e+00,-8.796565532684326172e-01,-5.354431271553039551e-01,4.270000000000000000e+02
-3.054138280681704600e+02,-3.121899418700136266e+02,-1.866968615586933993e+02,-2.062866945917044177e+02,-3.047755775777468443e+02,-4.143572955551703672e+02,-1.593511430915573328e+02,-1.438998572312211763e+02,9.523238182067871094e+00,-8.796565532684326172e-01,-5.354431271553039551e-01,4.280000000000000000e+02
-2.973568661974773022e+02,-3.074798238980442875e+02,-1.807463815690684896e+02,-1.995186672672780333e+02,-2.978809544976747929e+02,-4.095114138704143443e+02,-1.524087851545800731e+02,-1.388024565779833210e+02,9.523238182067871094e+00,-8.796565532684326172e-01,-5.354431271553039551e-01,4.290000000000000000e+02
-2.883304572300107793e+02,-3.024694085862502106e+02,-1.724486980372084872e+02,-1.935382813157148121e+02,-2.894172984932883992e+02,-4.048458957955813275e+02,-1.438964110434835675e+02,-1.339247402674050136e+02,9.523238182067871094e+00,-8.796565532684326172e-01,-5.354431271553039551e-01,4.300000000000000000e+02
-2.797487190927322445e+02,-2.988397808252539107e+02,-1.623502972178284836e+02,-1.894126504563519120e+02,-2.788617174634846378e+02,-4.005013962519888082e+02,-1.359212456660402495e+02,-1.291522266993092671e+02,9.523238182067871094e+00,-8.796565532684326172e-01,-5.354431271553039551e-01,4.310000000000000000e+02
-2.726560742796136765e+02,-2.977977271600248059e+02,-1.522789667102747444e+02,-1.882405629030249656e+02,-2.675263503186224625e+02,-3.971168379223227021e+02,-1.304115876445398499e+02,-1.254214459245681610e+02,9.523238182067871094e+00,-8.796565532684326172e-01,-5.354431271553039551e-01,4.320000000000000000e+02
-2.672273386432839288e+02,-2.989629538840918030e+02,-1.447118492416452682e+02,-1.900316568712783010e+02,-2.582186943951910507e+02,-3.952706706794751881e+02,-1.280548741452471404e+02,-1.243360494100675169e+02,9.523238182067871094e+00,-8.796565532684326172e-01,-5.354431271553039551e-01,4.330000000000000000e+02
-2.628457733241957612e+02,-3.006105010233500252e+02,-1.413557619022858489e+02,-1.931900264311557294e+02,-2.533871295942039978e+02,-3.947752923811435721e+02,-1.281223175719551364e+02,-1.268135243876799905e+02,9.523238182067871094e+00,-8.796565532684326172e-01,-5.354431271553039551e-01,4.340000000000000000e+02
-2.587470819117111205e+02,-3.010503644060690931e+02,-1.421379314714890825e+02,-1.952929079171067315e+02,-2.533758774553148214e+02,-3.945998138306554210e+02,-1.292375041567115659e+02,-1.321309724646098402e+02,9.523238182067871094e+00,-8.796565532684326172e-01,-5.354431271553039551e-01,4.350000000000000000e+02
-2.547142277985249166e+02,-2.998520530342639177e+02,-1.454613272926271748e+02,-1.946468908211959388e+02,-2.562830275581259230e+02,-3.935569666938840783e+02,-1.303691856475898021e+02,-1.383156972959004634e+02,9.523238182067871094e+00,-8.796565532684326172e-01,-5.354431271553039551e-01,4.360000000000000000e+02
-2.512103526366963706e+02,-2.978275549556960868e+02,-1.493956557454130234e+02,-1.913092436696042569e+02,-2.594227771216528708e+02,-3.911421548164962587e+02,-1.312065191581050385e+02,-1.434903323162138804e+02,9.523238182067871094e+00,-8.796565532684326172e-01,-5.354431271553039551e-01,4.370000000000000000e+02
-2.488216159623948442e+02,-2.959277526089394996e+02,-1.526557674967934872e+02,-1.866976335094500428e+02,-2.610090079578321820e+02,-3.877820465002932906e+02,-1.317018662681712158e+02,-1.469112283885460783e+02,9.523238182067871094e+00,-8.796565532684326172e-01,-5.354431271553039551e-01,4.380000000000000000e+02
-2.475290435041256387e+02,-2.942197292552668841e+02,-1.546097573985052804e+02,-1.822060078156546297e+02,-2.606931782525521157e+02,-3.843244866917361833e+02,-1.313647061651467993e+02,-1.488665502847134121e+02,9.523238182067871094e+00,-8.796565532684326172e-01,-5.354431271553039551e-01,4.390000000000000000e+02
-2.465140119875522942e+02,-2.919294216017178769e+02,-1.546869551785948715e+02,-1.781342964449645478e+02,-2.588463706146021650e+02,-3.812931641783852683e+02,-1.291440843524665070e+02,-1.497845988375038360e+02,9.523238182067871094e+00,-8.796565532684326172e-01,-5.354431271553039551e-01,4.400000000000000000e+02
-2.447220197159176678e+02,-2.883957712777228153e+02,-1.521843323399261863e+02,-1.738705621262747627e+02,-2.556293733887787312e+02,-3.785801887175275624e+02,-1.241867767141002332e+02,-1.496096322620551291e+02,9.523238182067871094e+00,-8.796565532684326172e-01,-5.354431271553039551e-01,4.410000000000000000e+02
-2.416930244482268790e+02,-2.839056968828549543e+02,-1.469168252458216557e+02,-1.690276201684173429e+02,-2.508851589437376788e+02,-3.757799595751830566e+02,-1.168860567650317535e+02,-1.480819237424607309e+02,9.523238182067871094e+00,-8.796565532684326172e-01,-5.354431271553039551e-01,4.420000000000000000e+02
-2.379128924033170733e+02,-2.795936550516639727e+02,-1.400357651952467677e+02,-1.643276645327932783e+02,-2.448587000341135536e+02,-3.727935205007916011e+02,-1.092512335048336354e+02,-1.455306311491376619e+02,9.484992027282714844e+00,-9.561483860015869141e-01,-5.736890435218811035e-01,4.430000000000000000e+02
-2.343838794332555153e+02,-2.765679957994871074e+02,-1.339062563879761001e+02,-1.612978566361148296e+02,-2.387729025695020937e+02,-3.701158920939278687e+02,-1.040708691592944888e+02,-1.432140543964810604e+02,9.484992027282714844e+00,-9.561483860015869141e-01,-5.736890435218811035e-01,4.440000000000000000e+02
-2.317983492835228390e+02,-2.751176629808401231e+02,-1.307330709896546068e+02,-1.609884385233658577e+02,-2.343656697941864877e+02,-3.684974066349609529e+02,-1.032888719221064093e+02,-1.426502595011656922e+02,9.484992027282714844e+00,-9.561483860015869141e-01,-5.736890435218811035e-01,4.450000000000000000e+02
-2.300178926485705233e+02,-2.746511444879788542e+02,-1.309304265618407044e+02,-1.628651494041919250e+02,-2.325665367446749769e+02,-3.682081751412124504e+02,-1.066955665611626500e+02,-1.443797871174401735e+02,9.484992027282714844e+00,-9.561483860015869141e-01,-5.736890435218811035e-01,4.460000000000000000e+02
-2.282321977927263106e+02,-2.742705905907491797e+02,-1.326779987840891408e+02,-1.649060109019592346e+02,-2.324984513606509609e+02,-3.685165025815126683e+02,-1.119150143933984509e+02,-1.472524894121311263e+02,9.484992027282714844e+00,-9.561483860015869141e-01,-5.736890435218811035e-01,4.470000000000000000e+02
-2.255889292075407866e+02,-2.733572090487714377e+02,-1.331975792611801808e+02,-1.648762974652854609e+02,-2.319097644596008649e+02,-3.679190354002507775e+02,-1.157718713174499499e+02,-1.490084711663607777e+02,9.484992027282714844e+00,-9.561483860015869141e-01,-5.736890435218811035e-01,4.480000000000000000e+02
-2.217724825230184251e+02,-2.717317171742683968e+02,-1.307909977197646185e+02,-1.617576314666780490e+02,-2.289022974781119046e+02,-3.651167314292374613e+02,-1.161052588256347917e+02,-1.478711294594845640e+02,9.484992027282714844e+00,-9.561483860015869141e-01,-5.736890435218811035e-01,4.490000000000000000e+02
-2.171699645487096859e+02,-2.694842643843339829e+02,-1.259904343219509428e+02,-1.562449029265499121e+02,-2.235702506278371402e+02,-3.600928338843582424e+02,-1.128068514721630891e+02,-1.439719935307821288e+02,9.484992027282714844e+00,-9.561483860015869141e-01,-5.736890435218811035e-01,4.500000000000000000e+02
-2.126140487494853915e+02,-2.668060361811717485e+02,-1.209525692327292745e+02,-1.500417676221868533e+02,-2.180885813207737556e+02,-3.544214007245573157e+02,-1.074766820976451527e+02,-1.394486851689403011e+02,9.484992027282714844e+00,-9.561483860015869141e-01,-5.736890435218811035e-01,4.510000000000000000e+02
-2.089453812919932716e+02,-2.639665359143350543e+02,-1.177109125488418613e+02,-1.446511182496483343e+02,-2.150555618205444262e+02,-3.504115127047866736e+02,-1.021369768378240224e+02,-1.370335630288100219e+02,9.484992027282714844e+00,-9.561483860015869141e-01,-5.736890435218811035e-01,4.520000000000000000e+02
-2.066277328609221513e+02,-2.612904783248291096e+02,-1.167591025061014989e+02,-1.406272343194882524e+02,-2.154268106893287040e+02,-3.495803309543975956e+02,-9.804746257825217981e+01,-1.381189455410562914e+02,9.484992027282714844e+00,-9.561483860015869141e-01,-5.736890435218811035e-01,4.530000000000000000e+02
-2.055415969496270918e+02,-2.589970542679761820e+02,-1.169764193227915712e+02,-1.377169654518138486e+02,-2.177401378859067336e+02,-3.515535409766225712e+02,-9.537691851558520284e+01,-1.417270814411981519e+02,9.484992027282714844e+00,-9.561483860015869141e-01,-5.736890435218811035e-01,4.540000000000000000e+02
-2.050282450341114782e+02,-2.570098422082428442e+02,-1.167003003007948791e+02,-1.355023796786090315e+02,-2.192121497203811487e+02,-3.542350420880775346e+02,-9.367321339489399179e+01,-1.451484461460804596e+02,9.484992027282714844e+00,-9.561483860015869141e-01,-5.736890435218811035e-01,4.550000000000000000e+02
-2.041836218670737253e+02,-2.549520382113541928e+02,-1.148917786123602127e+02,-1.338230281999472027e+02,-2.176994774427544144e+02,-3.551247731698940697e+02,-9.245223125414031529e+01,-1.457380589690951638e+02,9.484992027282714844e+00,-9.561483860015869141e-01,-5.736890435218811035e-01,4.560000000000000000e+02
-2.023085474312729275e+02,-2.523848518630397848e+02,-1.115497111444406073e+02,-1.326624275411977578e+02,-2.129448557096811783e+02,-3.528267363232848766e+02,-9.137370045279294573e+01,-1.425509168305084131e+02,9.484992027282714844e+00,-9.561483860015869141e-01,-5.736890435218811035e-01,4.570000000000000000e+02
-1.993104976382837776e+02,-2.490990490893377682e+02,-1.073758726721403036e+02,-1.317962072456530223e+02,-2.063520193952303998e+02,-3.477307822187995043e+02,-9.008571209671345059e+01,-1.367317501986344723e+02,9.484992027282714844e+00,-9.561483860015869141e-01,-5.736890435218811035e-01,4.580000000000000000e+02
-1.958053292661752494e+02,-2.452292605321354131e+02,-1.032674813512485343e+02,-1.307194530605484033e+02,-1.998163664200164931e+02,-3.415467727194463805e+02,-8.818626759819562722e+01,-1.305908688433287352e+02,9.484992027282714844e+00,-9.561483860015869141e-01,-5.736890435218811035e-01,4.590000000000000000e+02
-1.927865173328955279e+02,-2.411430263130068852e+02,-1.000583856911111980e+02,-1.289961826439630386e+02,-1.947008951248953963e+02,-3.361772784501431488e+02,-8.550901032591627882e+01,-1.261990168301535959e+02,9.484992027282714844e+00,-9.561483860015869141e-01,-5.736890435218811035e-01,4.600000000000000000e+02
-1.910026343736499257e+02,-2.372330694034376393e+02,-9.842002837789004843e+01,-1.266611816635140713e+02,-1.915456431737438834e+02,-3.327306316691065149e+02,-8.242004781224613907e+01,-1.244743604601726474e+02,9.484992027282714844e+00,-9.561483860015869141e-01,-5.736890435218811035e-01,4.610000000000000000e+02
-1.904038266692737125e+02,-2.337440821337577290e+02,-9.865250338124178597e+01,-1.242089242081510747e+02,-1.902851366891177349e+02,-3.311893159406308769e+02,-7.967599819867064070e+01,-1.251476645406314674e+02,9.484992027282714844e+00,-9.561483860015869141e-01,-5.736890435218811035e-01,4.620000000000000000e+02
-1.900388083020402519e+02,-2.306617157637597302e+02,-1.003791500907309455e+02,-1.221099015728159429e+02,-1.904676229784327006e+02,-3.307135705997620789e+02,-7.783225553109969042e+01,-1.272784969950321283e+02,9.484992027282714844e+00,-9.561483860015869141e-01,-5.736890435218811035e-01,4.630000000000000000e+02
-1.885417710420201729e+02,-2.276953080525490805e+02,-1.024949274858327044e+02,-1.203129277074694983e+02,-1.913283257084658544e+02,-3.302472070283452013e+02,-7.675319536335473458e+01,-1.297831273162446450e+02,9.484992027282714844e+00,-9.561483860015869141e-01,-5.736890435218811035e-01,4.640000000000000000e+02
-1.849721065579096830e+02,-2.244382911608381619e+02,-1.036158160652353217e+02,-1.182480924116489405e+02,-1.919329589006674723e+02,-3.290675988361622331e+02,-7.575409898828957012e+01,-1.317109405757105378e+02,9.484992027282714844e+00,-9.561483860015869141e-01,-5.736890435218811035e-01,4.650000000000000000e+02
-1.794845703545574906e+02,-2.207260843919971194e+02,-1.027999884557912083e+02,-1.153674916747877432e+02,-1.915142182230306389e+02,-3.270323713599473194e+02,-7.427934718107826484e+01,-1.323455427878438968e+02,9.484992027282714844e+00,-9.561483860015869141e-01,-5.736890435218811035e-01,4.660000000000000000e+02
-1.733230924946738014e+02,-2.169712805521662631e+02,-9.998409198044282675e+01,-1.117210251521637474e+02,-1.897734268594886089e+02,-3.244590512039626446e+02,-7.242894130908689476e+01,-1.312923117925292900e+02,9.484992027282714844e+00,-9.561483860015869141e-01,-5.736890435218811035e-01,4.670000000000000000e+02
-1.680489306859735734e+02,-2.140906389542001307e+02,-9.579641673617697961e+01,-1.080060775057559113e+02,-1.868551876642986826e+02,-3.217551914977266279e+02,-7.075227060122097100e+01,-1.285580992888235414e+02,9.484992027282714844e+00,-9.561483860015869141e-01,-5.736890435218811035e-01,4.680000000000000000e+02
-1.644916766060155169e+02,-2.128740373818509397e+02,-9.097340497788627545e+01,-1.050064223942295030e+02,-1.830249914542523584e+02,-3.190622537317735805e+02,-6.949036122610868915e+01,-1.245189393620771625e+02,9.484992027282714844e+00,-9.561483860015869141e-01,-5.736890435218811035e-01,4.690000000000000000e+02
-1.622041475481464659e+02,-2.131964144268945347e+02,-8.594165209375069026e+01,-1.029166067054002269e+02,-1.784167566487835757e+02,-3.161854326323059468e+02,-6.807255035579828473e+01,-1.197507443728436556e+02,9.484992027282714844e+00,-9.561483860015869141e-01,-5.736890435218811035e-01,4.700000000000000000e+02
-1.598833513662120822e+02,-2.137888277812503475e+02,-8.087206308735903804e+01,-1.011673625066218847e+02,-1.731211800345681695e+02,-3.128642779503416023e+02,-6.547256678373560135e+01,-1.148331981647274915e+02,9.484992027282714844e+00,-9.561483860015869141e-01,-5.736890435218811035e-01,4.710000000000000000e+02
-1.564713292260589697e+02,-2.129316124617071182e+02,-7.599204174472151863e+01,-9.890569068113927642e+01,-1.674576717420682144e+02,-3.091252992185404764e+02,-6.116309446890500112e+01,-1.102412780913755341e+02,9.484992027282714844e+00,-9.561483860015869141e-01,-5.736890435218811035e-01,4.720000000000000000e+02
-1.520635172985234931e+02,-2.096199661711134468e+02,-7.170402924017298574e+01,-9.569336965911634252e+01,-1.620454696743368004e+02,-3.053609151483969981e+02,-5.576073611030187749e+01,-1.063167756390134855e+02,9.484992027282714844e+00,-9.561483860015869141e-01,-5.736890435218811035e-01,4.730000000000000000e+02
-1.478655413751221204e+02,-2.042639890539289809e+02,-6.835428165472285400e+01,-9.182403436561116905e+01,-1.575298297896415534e+02,-3.020286620279657654e+02,-5.071160281183620100e+01,-1.032596357575434922e+02,9.523238182067871094e+00,-7.649186849594116211e-01,-5.736890435218811035e-01,4.740000000000000000e+02
-1.452267574393576979e+02,-1.983197722067779978e+02,-6.594827536932280054e+01,-8.802828459061447575e+01,-1.542204012811994289e+02,-2.992377821031946041e+02,-4.726214847767550964e+01,-1.011082793705058975e+02,9.523238182067871094e+00,-7.649186849594116211e-01,-5.736890435218811035e-01,4.750000000000000000e+02
-1.445614268549015833e+02,-1.931706446060488815e+02,-6.418353562365132348e+01,-8.486823016580410695e+01,-1.520029824465741513e+02,-2.966233446664377880e+02,-4.560282779246654172e+01,-9.973551234989690784e+01,9.523238182067871094e+00,-7.649186849594116211e-01,-5.736890435218811035e-01,4.760000000000000000e+02
-1.450687266113545775e+02,-1.892203859639930670e+02,-6.281908446580109739e+01,-8.238067978360641064e+01,-1.505885471020619661e+02,-2.936777413563054324e+02,-4.490017412266888641e+01,-9.890983267256478939e+01,9.523238182067871094e+00,-7.649186849594116211e-01,-5.736890435218811035e-01,4.770000000000000000e+02
-1.454409892833086815e+02,-1.859288818141626507e+02,-6.197577855018539594e+01,-8.025618447153328816e+01,-1.497892433969236663e+02,-2.902586468002259608e+02,-4.409619464866591443e+01,-9.837657395005089711e+01,9.523238182067871094e+00,-7.649186849594116211e-01,-5.736890435218811035e-01,4.780000000000000000e+02
-1.448761126371891805e+02,-1.826264823746259935e+02,-6.197502006902914218e+01,-7.832078354429404499e+01,-1.495093817819965807e+02,-2.867857627385255910e+02,-4.270429406186531196e+01,-9.786918119253732584e+01,9.523238182067871094e+00,-7.649186849594116211e-01,-5.736890435218811035e-01,4.790000000000000000e+02
-1.435129631001796042e+02,-1.792759789142264708e+02,-6.281639912297282535e+01,-7.683390578919897962e+01,-1.495056279557084054e+02,-2.839021032804462266e+02,-4.097353604097042989e+01,-9.707494492914793227e+01,9.523238182067871094e+00,-7.649186849594116211e-01,-5.736890435218811035e-01,4.800000000000000000e+02
-1.420155794075576523e+02,-1.764969239714496325e+02,-6.383049006087435373e+01,-7.631594961544669786e+01,-1.492658699559883644e+02,-2.818605656544732483e+02,-3.945454415033600526e+01,-9.568830158854416368e+01,9.523238182067871094e+00,-7.649186849594116211e-01,-5.736890435218811035e-01,4.810000000000000000e+02
-1.408335181322681819e+02,-1.749389634446665696e+02,-6.395530425552010456e+01,-7.707884487867931966e+01,-1.482638803651379931e+02,-2.801867203465230887e+02,-3.850843847366832051e+01,-9.362630981379334116e+01,9.523238182067871094e+00,-7.649186849594116211e-01,-5.736890435218811035e-01,4.820000000000000000e+02
-1.398827561626408169e+02,-1.746687292847109347e+02,-6.248543717941697651e+01,-7.888074623221154980e+01,-1.464078181292884437e+02,-2.779472977368313877e+02,-3.818463405099282681e+01,-9.123643858978084609e+01,9.523238182067871094e+00,-7.649186849594116211e-01,-5.736890435218811035e-01,4.830000000000000000e+02
-1.388569468840505579e+02,-1.751143560746309049e+02,-5.962577935664967299e+01,-8.096548197517267909e+01,-1.441965465915609457e+02,-2.743899737423867009e+02,-3.839483765225668321e+01,-8.918197478197726014e+01,9.523238182067871094e+00,-7.649186849594116211e-01,-5.736890435218811035e-01,4.840000000000000000e+02
-1.376936510798916515e+02,-1.755083975666755123e+02,-5.629917249223763065e+01,-8.238273584115722770e+01,-1.422994787085708595e+02,-2.693695675774092706e+02,-3.902116769226449833e+01,-8.791728744767215176e+01,9.523238182067871094e+00,-7.649186849594116211e-01,-5.736890435218811035e-01,4.850000000000000000e+02
-1.366154195794347288e+02,-1.753370560568464498e+02,-5.334476511208208649e+01,-8.230912496997416383e+01,-1.408452984245250263e+02,-2.631995114867013399e+02,-3.980610592966854711e+01,-8.712321281829463260e+01,9.523238182067871094e+00,-7.649186849594116211e-01,-5.736890435218811035e-01,4.860000000000000000e+02
-1.357189689246847593e+02,-1.744181022908451268e+02,-5.084737689620646961e+01,-8.024028317566944679e+01,-1.390988395411861802e+02,-2.561576774845634645e+02,-4.023967928623824264e+01,-8.569576871268145624e+01,9.523238182067871094e+00,-7.649186849594116211e-01,-5.736890435218811035e-01,4.870000000000000000e+02
-1.346505103138806589e+02,-1.726782226732693744e+02,-4.823410008297378226e+01,-7.614991474554312845e+01,-1.359675456053357721e+02,-2.482247736690396778e+02,-3.973448109098990244e+01,-8.250590920922377336e+01,9.523238182067871094e+00,-7.649186849594116211e-01,-5.736890435218811035e-01,4.880000000000000000e+02
-1.328662736053934168e+02,-1.700099990277835786e+02,-4.505253912210423550e+01,-7.071229330982623651e+01,-1.310322953298914399e+02,-2.393765472830082217e+02,-3.805637128275861869e+01,-7.743094717608096289e+01,9.523238182067871094e+00,-7.649186849594116211e-01,-5.736890435218811035e-01,4.890000000000000000e+02
-1.303055392617311554e+02,-1.664146330431203751e+02,-4.164811406589979015e+01,-6.538117573315207665e+01,-1.251828035650364654e+02,-2.300779918507869297e+02,-3.559204738716152860e+01,-7.172696755499396204e+01,9.523238182067871094e+00,-7.649186849594116211e-01,-5.736890435218811035e-01,4.900000000000000000e+02
-1.277465433069171468e+02,-1.622385478437113306e+02,-3.902076834278045681e+01,-6.195744358256138185e+01,-1.201418886537849176e+02,-2.213100645510944560e+02,-3.310545860639331295e+01,-6.723708374688067124e+01,9.523238182067871094e+00,-7.649186849594116211e-01,-5.736890435218811035e-01,4.910000000000000000e+02
-1.263368977499862922e+02,-1.581646286694458468e+02,-3.793509895304032398e+01,-6.160122381912515266e+01,-1.171306457695595782e+02,-2.139097381486885752e+02,-3.113596446491055758e+01,-6.495780028744502488e+01,9.523238182067871094e+00,-7.649186849594116211e-01,-5.736890435218811035e-01,4.920000000000000000e+02
-1.266055791709768528e+02,-1.548607000541469461e+02,-3.811895643688626478e+01,-6.388231103238422293e+01,-1.158308117748701989e+02,-2.078116713146159782e+02,-2.959653566466340635e+01,-6.419336425446090288e+01,9.523238182067871094e+00,-7.649186849594116211e-01,-5.736890435218811035e-01,4.930000000000000000e+02
-1.278371800295133198e+02,-1.525480872981129323e+02,-3.834180068946125175e+01,-6.675161004846427204e+01,-1.146739154539732226e+02,-2.020286985148027270e+02,-2.797795621181376191e+01,-6.315646577541474471e+01,9.523238182067871094e+00,-7.649186849594116211e-01,-5.736890435218811035e-01,4.940000000000000000e+02
-1.284539768944218849e+02,-1.508824173025996060e+02,-3.735980848826829970e+01,-6.776180432229057260e+01,-1.123239734288324598e+02,-1.955494873004415695e+02,-2.598792863618587035e+01,-6.061573512218456017e+01,9.484992027282714844e+00,-9.179025292396545410e-01,-5.736890435218811035e-01,4.950000000000000000e+02
-1.271509539141516143e+02,-1.492655171147182500e+02,-3.490932425228083957e+01,-6.579820820482837007e+01,-1.090488171652725669e+02,-1.883828925806772077e+02,-2.399309828675541212e+01,-5.717120628323300480e+01,9.484992027282714844e+00,-9.179025292396545410e-01,-5.736890435218811035e-01,4.960000000000000000e+02
-1.238563665120975656e+02,-1.473319424074441031e+02,-3.190725943536426712e+01,-6.196195440442352265e+01,-1.066604605438265025e+02,-1.817113841160685297e+02,-2.280459622317425783e+01,-5.495503708969681611e+01,9.484992027282714844e+00,-9.179025292396545410e-01,-5.736890435218811035e-01,4.970000000000000000e+02
-1.197444107486307985e+02,-1.452091221344421683e+02,-2.974318712274794052e+01,-5.878058965288983018e+01,-1.069671770897659826e+02,-1.769003762252496017e+02,-2.297972116358232597e+01,-5.589192681424287912e+01,9.484992027282714844e+00,-9.179025292396545410e-01,-5.736890435218811035e-01,4.980000000000000000e+02
-1.163292030472405258e+02,-1.433542630491488126e+02,-2.930775320041152554e+01,-5.825938228923541828e+01,-1.100775074771838717e+02,-1.742113518267926793e+02,-2.427305397252416697e+01,-5.995464624154578814e+01,9.484992027282714844e+00,-9.179025292396545410e-01,-5.736890435218811035e-01,4.990000000000000000e+02
-1.144163005482391782e+02,-1.421363190669810592e+02,-3.052761600074438775e+01,-6.032942248488416226e+01,-1.141093521603474983e+02,-1.724038053345398112e+02,-2.573985092478483239e+01,-6.493336835641446214e+01,9.484992027282714844e+00,-9.179025292396545410e-01,-5.736890435218811035e-01,5.000000000000000000e+02
-1.136998730106453195e+02,-1.415075363636723296e+02,-3.261926096870502079e+01,-6.296071669714740437e+01,-1.165865691135719544e+02,-1.696103806310950404e+02,-2.639179068033945441e+01,-6.795828894610463067e+01,9.484992027282714844e+00,-9.179025292396545410e-01,-5.736890435218811035e-01,5.010000000000000000e+02
-1.131834425316587840e+02,-1.409916557885455859e+02,-3.466422043253851371e+01,-6.380876935755338764e+01,-1.162748320676214462e+02,-1.647197790130750263e+02,-2.580816187665232064e+01,-6.750861136762102888e+01,9.484992027282714844e+00,-9.179025292396545410e-01,-5.736890435218811035e-01,5.020000000000000000e+02
-1.119742083143441960e+02,-1.399516128326755506e+02,-3.599051215503141066e+01,-6.197336193770274804e+01,-1.138458768296977723e+02,-1.580899151224946309e+02,-2.419282780828962132e+01,-6.426052248077701279e+01,9.484992027282714844e+00,-9.179025292396545410e-01,-5.736890435218811035e-01,5.030000000000000000e+02
-1.098297616775804499e+02,-1.379174275535581273e+02,-3.620997016632031773e+01,-5.841366918506514594e+01,-1.108919699947236950e+02,-1.510746206268671585e+02,-2.192850951347838873e+01,-6.018754234048424223e+01,9.484992027282714844e+00,-9.179025292396545410e-01,-5.736890435218811035e-01,5.040000000000000000e+02
-1.071542337520494357e+02,-1.347749586161038451e+02,-3.513181182196615282e+01,-5.480110764424750869e+01,-1.083237687837809062e+02,-1.448786887662222398e+02,-1.914184648396940247e+01,-5.681313552710139447e+01,9.484992027282714844e+00,-9.179025292396545410e-01,-5.736890435218811035e-01,5.050000000000000000e+02
-1.045767963607525530e+02,-1.307651309250744589e+02,-3.277994141988898491e+01,-5.194901195080694833e+01,-1.056527922805488515e+02,-1.397131663371849299e+02,-1.570897827480047226e+01,-5.412861546960169790e+01,9.484992027282714844e+00,-9.179025292396545410e-01,-5.736890435218811035e-01,5.060000000000000000e+02
-1.024824034734634211e+02,-1.263666929361598363e+02,-2.948328094661354726e+01,-4.922304960303489452e+01,-1.017227582525828780e+02,-1.348196856268770034e+02,-1.165698542953157357e+01,-5.097490080698690917e+01,9.484992027282714844e+00,-9.179025292396545410e-01,-5.736890435218811035e-01,5.070000000000000000e+02
-1.008029668281839406e+02,-1.221343814008630488e+02,-2.583371267981323172e+01,-4.535809024273530099e+01,-9.607078907894555186e+01,-1.291750959996370511e+02,-7.508234037478700884e+00,-4.636573038415542669e+01,9.484992027282714844e+00,-9.179025292396545410e-01,-5.736890435218811035e-01,5.080000000000000000e+02
-9.916280757507013277e+01,-1.185144208797929650e+02,-2.242418109103616075e+01,-3.983241146464493454e+01,-8.960920082258414254e+01,-1.222727646454499109e+02,-4.157202490550673701e+00,-4.053170426358050804e+01,9.484992027282714844e+00,-9.179025292396545410e-01,-5.736890435218811035e-01,5.090000000000000000e+02
-9.721824078830405824e+01,-1.156691993664582867e+02,-1.952567082535125564e+01,-3.352191841350526147e+01,-8.404103266496395008e+01,-1.144875767939416846e+02,-2.289634549819410836e+00,-3.485593653076543319e+01,9.484992027282714844e+00,-9.179025292396545410e-01,-5.736890435218811035e-01,5.100000000000000000e+02
-9.489114737740817418e+01,-1.133921101846552233e+02,-1.694477477876819194e+01,-2.810052874398834888e+01,-8.058685231764994228e+01,-1.068830920387445929e+02,-1.764022618159884814e+00,-3.086571355611164336e+01,9.484992027282714844e+00,-9.179025292396545410e-01,-5.736890435218811035e-01,5.110000000000000000e+02
-9.230868609073627340e+01,-1.112073348095907193e+02,-1.418473594558625450e+01,-2.480131935010510347e+01,-7.915651748072622240e+01,-1.006339258982268916e+02,-1.476664187233808434e+00,-2.916224812688341217e+01,9.484992027282714844e+00,-9.179025292396545410e-01,-5.736890435218811035e-01,5.120000000000000000e+02
-8.955512903394691193e+01,-1.086633291757894426e+02,-1.084120734014629761e+01,-2.363803913348999686e+01,-7.860299651089235340e+01,-9.639587538535022304e+01,6.841772079980046328e-02,-2.909680410103931081e+01,9.484992027282714844e+00,-9.179025292396545410e-01,-5.736890435218811035e-01,5.130000000000000000e+02
-8.656482224828499739e+01,-1.056668350587984833e+02,-7.015072429214171734e+00,-2.367615820356758150e+01,-7.772674010443006409e+01,-9.397470288098156743e+01,3.752926673224123988e+00,-2.934133715433779344e+01,9.484992027282714844e+00,-9.179025292396545410e-01,-5.736890435218811035e-01,5.140000000000000000e+02
-8.334640804506125278e+01,-1.026071311480973236e+02,-3.473840164928560625e+00,-2.395956745698288159e+01,-7.614093213157741502e+01,-9.250385015439724157e+01,9.041619233528081168e+00,-2.884478092416111394e+01,9.484992027282714844e+00,-9.179025292396545410e-01,-5.736890435218811035e-01,5.150000000000000000e+02
-8.032652141315952576e+01,-1.001172698469424631e+02,-1.357233289645364493e+00,-2.417702519673275674e+01,-7.433628361889986991e+01,-9.102948940288604263e+01,1.402638610304734357e+01,-2.745752687634308131e+01,9.484992027282714844e+00,-9.179025292396545410e-01,-5.736890435218811035e-01,5.160000000000000000e+02
-7.832365931547928994e+01,-9.858298799995486661e+01,-1.459175131264714764e+00,-2.453342239393441560e+01,-7.302482978663329050e+01,-8.908590315463470688e+01,1.648839743892006027e+01,-2.581571839274874947e+01,9.484992027282714844e+00,-9.179025292396545410e-01,-5.736890435218811035e-01,5.170000000000000000e+02
-7.793922529497194773e+01,-9.775993546589529615e+01,-3.492047229735817382e+00,-2.510427059506980640e+01,-7.240037439938987518e+01,-8.681114905678850846e+01,1.541190795545026049e+01,-2.463416508181705922e+01,9.484992027282714844e+00,-9.179025292396545410e-01,-5.736890435218811035e-01,5.180000000000000000e+02
-7.881085629831750339e+01,-9.684546653231791424e+01,-5.945506897449263306e+00,-2.540766783602202850e+01,-7.192600490373069988e+01,-8.452648944866496095e+01,1.190295298569844817e+01,-2.398239819108630400e+01,9.484992027282714844e+00,-9.179025292396545410e-01,-5.736890435218811035e-01,5.190000000000000000e+02
-7.954427701893882841e+01,-9.503462815719126411e+01,-6.901440665559448462e+00,-2.466049069215341660e+01,-7.080010268440469190e+01,-8.221125187199186257e+01,8.673033061261548937e+00,-2.317335292415123149e+01,9.484992027282714844e+00,-8.796565532684326172e-01,-5.354431271553039551e-01,5.200000000000000000e+02
-7.865544452856670432e+01,-9.216825458094285750e+01,-5.416246462886192603e+00,-2.247287750469149614e+01,-6.870803001079343630e+01,-7.942908360300316417e+01,8.237856738879145269e+00,-2.141813695302471388e+01,9.484992027282714844e+00,-8.796565532684326172e-01,-5.354431271553039551e-01,5.210000000000000000e+02
-7.585471665242425843e+01,-8.894548424653885377e+01,-2.416557657025805383e+00,-1.931060749423409106e+01,-6.625156857530942034e+01,-7.581249711029340688e+01,1.107338732794937641e+01,-1.872036289770289841e+01,9.484992027282714844e+00,-8.796565532684326172e-01,-5.354431271553039551e-01,5.220000000000000000e+02
-7.247826448112914477e+01,-8.647841731943663035e+01,-2.070394695124377904e-01,-1.627159283444711946e+01,-6.468138798192512695e+01,-7.162305200776609126e+01,1.520386016269776519e+01,-1.616093905821071530e+01,9.484992027282714844e+00,-8.796565532684326172e-01,-5.354431271553039551e-01,5.230000000000000000e+02
-7.049910069555539849e+01,-8.548776942629319819e+01,-7.340799643195623503e-01,-1.433685231044864850e+01,-6.504742488285000945e+01,-6.775893470241089744e+01,1.768675900167704640e+01,-1.514755663090068083e+01,9.484992027282714844e+00,-8.796565532684326172e-01,-5.354431271553039551e-01,5.240000000000000000e+02
-7.087494667784744706e+01,-8.576131523331059725e+01,-3.901280607600710937e+00,-1.371334387469005378e+01,-6.731959151786850271e+01,-6.507929992260233121e+01,1.691065476507128551e+01,-1.613347694497201701e+01,9.484992027282714844e+00,-8.796565532684326172e-01,-5.354431271553039551e-01,5.250000000000000000e+02
-7.270971828982101215e+01,-8.631660614294878542e+01,-7.392885247311369312e+00,-1.377137509755584688e+01,-7.013483135032674909e+01,-6.361615394898535669e+01,1.385272323138678985e+01,-1.792370847454367322e+01,9.484992027282714844e+00,-8.796565532684326172e-01,-5.354431271553039551e-01,5.260000000000000000e+02
-7.402098688424712236e+01,-8.612731422854267294e+01,-8.294757308968883081e+00,-1.357377888641713071e+01,-7.146084734787154957e+01,-6.243684092677358421e+01,1.122841553629723421e+01,-1.833432267511670943e+01,9.484992027282714844e+00,-8.796565532684326172e-01,-5.354431271553039551e-01,5.270000000000000000e+02
-7.340295827528825612e+01,-8.480683284049746362e+01,-5.248324697689895402e+00,-1.253898589834534505e+01,-6.979219046870639431e+01,-6.033896946563982056e+01,1.125064610911249474e+01,-1.579500675310919178e+01,9.484992027282714844e+00,-8.796565532684326172e-01,-5.354431271553039551e-01,5.280000000000000000e+02
-7.104529239516887174e+01,-8.271580317658208514e+01,6.231129092925584700e-01,-1.074457210139325980e+01,-6.503835712605723529e+01,-5.676697567385372167e+01,1.392551123817747794e+01,-1.055527842380706716e+01,9.484992027282714844e+00,-8.796565532684326172e-01,-5.354431271553039551e-01,5.290000000000000000e+02
-6.825344349567467361e+01,-8.051253808548972302e+01,6.707612259845973313e+00,-8.738077053943015926e+00,-5.846741420632451991e+01,-5.214563873701627017e+01,1.729144837671265122e+01,-4.456166492656848277e+00,9.484992027282714844e+00,-8.796565532684326172e-01,-5.354431271553039551e-01,5.300000000000000000e+02
-6.612152774759533713e+01,-7.865385641351167578e+01,1.082965084630632191e+01,-7.118906086066090211e+00,-5.182887577899782627e+01,-4.741192147767651477e+01,1.922174676786016789e+01,4.696622089904849418e-01,9.484992027282714844e+00,-8.796565532684326172e-01,-5.354431271553039551e-01,5.310000000000000000e+02
-6.479042110644968488e+01,-7.731673103452476425e+01,1.239471609699421606e+01,-6.270976145252916467e+00,-4.645506344405293930e+01,-4.331105272634385983e+01,1.904814721220873253e+01,3.246607052430590556e+00,9.484992027282714844e+00,-8.796565532684326172e-01,-5.354431271553039551e-01,5.320000000000000000e+02
-6.397977166348891842e+01,-7.672769326127172462e+01,1.195189121267594601e+01,-6.415193496159645292e+00,-4.306166190943167749e+01,-4.018041810546901615e+01,1.757885974149985486e+01,3.977838594200875377e+00,9.484992027282714844e+00,-8.796565532684326172e-01,-5.354431271553039551e-01,5.330000000000000000e+02
-6.405394164181689121e+01,-7.743767723545988702e+01,9.945397994137692876e+00,-7.832288958084973274e+00,-4.219200660430851713e+01,-3.832284235767701830e+01,1.571566125165827543e+01,2.875047184083541651e+00,9.484992027282714844e+00,-8.796565532684326172e-01,-5.354431271553039551e-01,5.340000000000000000e+02
-6.628833264379954926e+01,-8.012349883991510069e+01,6.079995375439011696e+00,-1.092712772619779571e+01,-4.454970810133136183e+01,-3.835620314659809083e+01,1.321996445015020072e+01,-4.528193406058562687e-01,9.484992027282714844e+00,-8.796565532684326172e-01,-5.354431271553039551e-01,5.350000000000000000e+02
-7.188767434992178096e+01,-8.500621898074496130e+01,-1.153465229385801649e-01,-1.596248790583467780e+01,-5.062767471898860094e+01,-4.093809234822401777e+01,8.892021555482642725e+00,-6.575764741878174391e+00,9.484992027282714844e+00,-8.796565532684326172e-01,-5.354431271553039551e-01,5.360000000000000000e+02
-8.068976700799248647e+01,-9.143695508125892957e+01,-8.311540534865343943e+00,-2.265777437813267170e+01,-5.993370540687737957e+01,-4.601659683322941419e+01,1.905602739514961286e+00,-1.516414787340318071e+01,9.484992027282714844e+00,-8.796565532684326172e-01,-5.354431271553039551e-01,5.370000000000000000e+02
-9.090505672971085005e+01,-9.813524088432131975e+01,-1.720154446676406224e+01,-3.007676506639018044e+01,-7.075020960269466741e+01,-5.245122696312228072e+01,-7.139569729168215417e+00,-2.458642865881120088e+01,9.484992027282714844e+00,-8.796565532684326172e-01,-5.354431271553039551e-01,5.380000000000000000e+02
-1.002157182313185331e+02,-1.039761542710111826e+02,-2.536617505912272463e+01,-3.702006108515524829e+01,-8.092129808612207853e+01,-5.856799586620309128e+01,-1.650206565023927396e+01,-3.282574562608260749e+01,9.484992027282714844e+00,-8.796565532684326172e-01,-5.354431271553039551e-01,5.390000000000000000e+02
-1.072312045668186329e+02,-1.086886668558272504e+02,-3.222720784059083599e+01,-4.269396643871095876e+01,-8.906199053750697203e+01,-6.324927557872979378e+01,-2.455672384315585077e+01,-3.888591369542245957e+01,9.484992027282714844e+00,-8.796565532684326172e-01,-5.354431271553039551e-01,5.400000000000000000e+02
-1.120301121940101439e+02,-1.128738788349928654e+02,-3.805588697939765552e+01,-4.711505088428384624e+01,-9.505313434394520300e+01,-6.653380458662013552e+01,-3.074278856319961051e+01,-4.323802976101978857e+01,9.484992027282714844e+00,-8.796565532684326172e-01,-5.354431271553039551e-01,5.410000000000000000e+02
-1.155003979657240052e+02,-1.173120645926210273e+02,-4.310095015532260732e+01,-5.086258219486353482e+01,-9.936738333744142437e+01,-6.912029106562931702e+01,-3.536900015022365551e+01,-4.681815198860476812e+01,9.484992027282714844e+00,-8.796565532684326172e-01,-5.354431271553039551e-01,5.420000000000000000e+02
-1.183250458158872789e+02,-1.221142497869977888e+02,-4.693565681039854098e+01,-5.435873036883003806e+01,-1.020461802110112330e+02,-7.130633588672662881e+01,-3.872396052420663182e+01,-4.968071282713208348e+01,9.484992027282714844e+00,-8.796565532684326172e-01,-5.354431271553039551e-01,5.430000000000000000e+02
-1.205979452259298341e+02,-1.264056877163147874e+02,-4.887110096996002540e+01,-5.733827913214736327e+01,-1.025643496133307053e+02,-7.252446261042132392e+01,-4.061116826758916432e+01,-5.085578948421971290e+01,9.484992027282714844e+00,-8.796565532684326172e-01,-5.354431271553039551e-01,5.440000000000000000e+02
-1.221990610719285542e+02,-1.288230211645695817e+02,-4.899993494060800003e+01,-5.905030767103926337e+01,-1.008142700099197100e+02,-7.202665698640248593e+01,-4.080916646689001936e+01,-4.966905779891385464e+01,9.484992027282714844e+00,-8.796565532684326172e-01,-5.354431271553039551e-01,5.450000000000000000e+02
-1.232387634435381187e+02,-1.284873066121381271e+02,-4.858587332550450810e+01,-5.904903830801049480e+01,-9.804949722578021465e+01,-6.999993634241491236e+01,-3.980411521802307107e+01,-4.708320374377763073e+01,9.484992027282714844e+00,-8.796565532684326172e-01,-5.354431271553039551e-01,5.460000000000000000e+02
-1.239827123602399297e+02,-1.257652371202129871e+02,-4.911772681031197862e+01,-5.783153047308405803e+01,-9.646064255881083227e+01,-6.784340832911584585e+01,-3.879027709554338799e+01,-4.540651965686447511e+01,9.484992027282714844e+00,-9.179025292396545410e-01,-5.354431271553039551e-01,5.470000000000000000e+02
-1.244301120022691975e+02,-1.222556445383506798e+02,-5.083434110119196703e+01,-5.666103845166890096e+01,-9.744511550998231542e+01,-6.713777323081922077e+01,-3.877301262263426906e+01,-4.634923256109777867e+01,9.484992027282714844e+00,-9.179025292396545410e-01,-5.354431271553039551e-01,5.480000000000000000e+02
-1.241894913265969080e+02,-1.199482347555804154e+02,-5.227157204879040364e+01,-5.665864962113755610e+01,-1.001636769460892538e+02,-6.819297858028949122e+01,-3.967718793564927182e+01,-4.924015196104301140e+01,9.484992027282714844e+00,-9.179025292396545410e-01,-5.354431271553039551e-01,5.490000000000000000e+02
-1.229348611402938332e+02,-1.200778103870197810e+02,-5.150378683817780257e+01,-5.796351138424142846e+01,-1.019735549630959213e+02,-6.960417378633974295e+01,-4.047434840256482858e+01,-5.128920381354419078e+01,9.484992027282714844e+00,-9.179025292396545410e-01,-5.354431271553039551e-01,5.500000000000000000e+02
-1.209941655367019848e+02,-1.224308254724310245e+02,-4.805165222042887763e+01,-5.974251539334545669e+01,-1.006084386409702347e+02,-6.935712122569384519e+01,-4.031177696385657327e+01,-4.989089118819538271e+01,9.484992027282714844e+00,-9.179025292396545410e-01,-5.354431271553039551e-01,5.510000000000000000e+02
-1.193911707568904603e+02,-1.255725443910941976e+02,-4.366634839722792094e+01,-6.104123221772169927e+01,-9.621826016960494599e+01,-6.654750717396746040e+01,-3.953081309177650837e+01,-4.493156396332778968e+01,9.484992027282714844e+00,-9.179025292396545410e-01,-5.354431271553039551e-01,5.520000000000000000e+02
-1.191898388195922962e+02,-1.278195906143600951e+02,-4.117146501930710656e+01,-6.164284242416852067e+01,-9.138339143916346075e+01,-6.217495407514979888e+01,-3.948395183484353765e+01,-3.896204689168826008e+01,9.484992027282714844e+00,-9.179025292396545410e-01,-5.354431271553039551e-01,5.530000000000000000e+02
-1.206917303240898036e+02,-1.282543977422546959e+02,-4.233042060110983584e+01,-6.211192740718524874e+01,-8.906739216694404604e+01,-5.833704126332850137e+01,-4.124267624094500206e+01,-3.510240693606101559e+01,9.484992027282714844e+00,-9.179025292396545410e-01,-5.354431271553039551e-01,5.540000000000000000e+02
-1.231864717524413209e+02,-1.270684541698501562e+02,-4.659553341810169513e+01,-6.302103946607348917e+01,-9.036733073431787489e+01,-5.660282961664415780e+01,-4.444545468838077795e+01,-3.465580849349044001e+01,9.484992027282714844e+00,-9.179025292396545410e-01,-5.354431271553039551e-01,5.550000000000000000e+02
-1.254499736820616818e+02,-1.251003682345017296e+02,-5.176715261657864176e+01,-6.419939598316523188e+01,-9.404558441854533157e+01,-5.700794162572310597e+01,-4.748369397241458501e+01,-3.658062787075687083e+01,9.484992027282714844e+00,-9.179025292396545410e-01,-5.354431271553039551e-01,5.560000000000000000e+02
-1.265534778117025780e+02,-1.231009612570233003e+02,-5.586573017430146137e+01,-6.483306052995976643e+01,-9.808031271605614165e+01,-5.842600093948749418e+01,-4.896054802853177534e+01,-3.906232633724903280e+01,9.484992027282714844e+00,-9.179025292396545410e-01,-5.354431271553039551e-01,5.570000000000000000e+02
-1.263636877494336659e+02,-1.214123635487339925e+02,-5.851935001067067788e+01,-6.436965404778129596e+01,-1.015778241363732377e+02,-5.976787093591156008e+01,-4.906603292592080834e+01,-4.140588127945920860e+01,9.484992027282714844e+00,-9.179025292396545410e-01,-5.354431271553039551e-01,5.580000000000000000e+02
-1.254404696904821321e+02,-1.202360188143466075e+02,-6.071001292879191169e+01,-6.330549127011545352e+01,-1.051462721240477549e+02,-6.079422142790826911e+01,-4.946151738839034806e+01,-4.429330345374910394e+01,9.484992027282714844e+00,-9.179025292396545410e-01,-5.354431271553039551e-01,5.590000000000000000e+02
-1.244999892106334300e+02,-1.199873249807860702e+02,-6.325243217825118336e+01,-6.294590230738140235e+01,-1.094582214038600796e+02,-6.186069062984279299e+01,-5.160807769188613747e+01,-4.824886701702598657e+01,9.484992027282714844e+00,-9.179025292396545410e-01,-5.354431271553039551e-01,5.600000000000000000e+02
-1.238741416785487672e+02,-1.211559616483846185e+02,-6.552170404174466967e+01,-6.424894115878487355e+01,-1.136127717671988648e+02,-6.305186981895894860e+01,-5.501455940894265950e+01,-5.210313450763169385e+01,9.484992027282714844e+00,-9.179025292396545410e-01,-5.354431271553039551e-01,5.610000000000000000e+02
-1.233389025418473466e+02,-1.237029114150773239e+02,-6.569869018073040934e+01,-6.682896753646673460e+01,-1.151855169582067902e+02,-6.373347981317056110e+01,-5.713065473194910737e+01,-5.331532616558433801e+01,9.484992027282714844e+00,-9.179025292396545410e-01,-5.354431271553039551e-01,5.620000000000000000e+02
-1.224223941458949412e+02,-1.266644223120401875e+02,-6.244472881982437684e+01,-6.914400287073294749e+01,-1.122478580712013354e+02,-6.307921866941433109e+01,-5.527355986477778060e+01,-5.014546015481391805e+01,9.484992027282714844e+00,-9.179025292396545410e-01,-5.354431271553039551e-01,5.630000000000000000e+02
-1.209542465788708796e+02,-1.285554865955455170e+02,-5.657508696467994014e+01,-6.979323051933715760e+01,-1.055929179272152396e+02,-6.105861214078868215e+01,-4.909643608667465742e+01,-4.368127008502233366e+01,9.484992027282714844e+00,-9.179025292396545410e-01,-5.354431271553039551e-01,5.640000000000000000e+02
-1.193861964172047010e+02,-1.283723856620199513e+02,-5.113625582458553254e+01,-6.874355978948005941e+01,-9.892999173475072894e+01,-5.882060607754647208e+01,-4.140980907279845269e+01,-3.761754201997973723e+01,9.484992027282714844e+00,-9.179025292396545410e-01,-5.354431271553039551e-01,5.650000000000000000e+02
-1.185393422168308462e+02,-1.263414772194300895e+02,-4.955401716605774709e+01,-6.734356802040929324e+01,-9.648404569514059403e+01,-5.795860820284360670e+01,-3.644375106178995338e+01,-3.568605316888169909e+01,9.484992027282714844e+00,-9.179025292396545410e-01,-5.354431271553039551e-01,5.660000000000000000e+02
-1.188991475036764314e+02,-1.237136407740163122e+02,-5.314706415062391898e+01,-6.711445468228885147e+01,-9.979784040103913867e+01,-5.923724159767880337e+01,-3.681050086789582565e+01,-3.882215712897414051e+01,9.484992027282714844e+00,-9.179025292396545410e-01,-5.354431271553039551e-01,5.670000000000000000e+02
-1.200574559369142662e+02,-1.218029677219892619e+02,-5.999254442574419954e+01,-6.847272170386531798e+01,-1.064470068537702900e+02,-6.194831506898299267e+01,-4.162200430109078297e+01,-4.450108459970397234e+01,9.484992027282714844e+00,-9.179025292396545410e-01,-5.354431271553039551e-01,5.680000000000000000e+02
-1.208863087531553901e+02,-1.211791352294494573e+02,-6.616369785670576675e+01,-7.056804728922725189e+01,-1.118488101115653990e+02,-6.453093162443838082e+01,-4.731419404386360839e+01,-4.882218096481847169e+01,9.484992027282714844e+00,-9.179025292396545410e-01,-5.354431271553039551e-01,5.690000000000000000e+02
-1.204074009104770084e+02,-1.216791758755844057e+02,-6.846458106185673387e+01,-7.229145232968221535e+01,-1.127124179922284384e+02,-6.591265077967364050e+01,-5.047000869076509844e+01,-4.954884221292741131e+01,9.484992027282714844e+00,-9.179025292396545410e-01,-5.354431271553039551e-01,5.700000000000000000e+02
-1.186265781674046593e+02,-1.229837122099397675e+02,-6.655150669368777017e+01,-7.335717747293165303e+01,-1.092873705513156892e+02,-6.633040229425387224e+01,-5.028410061789872998e+01,-4.755760005789670686e+01,9.484992027282714844e+00,-9.179025292396545410e-01,-5.354431271553039551e-01,5.710000000000000000e+02
-1.165566257199006941e+02,-1.249413592076871282e+02,-6.285129967058310285e+01,-7.433572249225653650e+01,-1.046778726101620123e+02,-6.685868718786150566e+01,-4.873465988583848230e+01,-4.562113477016464458e+01,9.484992027282714844e+00,-9.179025292396545410e-01,-5.354431271553039551e-01,5.720000000000000000e+02
-1.153834530539570551e+02,-1.272302681463461340e+02,-6.050380775729718152e+01,-7.564157536973289098e+01,-1.020819789928882528e+02,-6.811408786707215768e+01,-4.856037620933238941e+01,-4.578139509842731059e+01,9.484992027282714844e+00,-9.179025292396545410e-01,-5.354431271553039551e-01,5.730000000000000000e+02
-1.155454637242146418e+02,-1.288600796147002256e+02,-6.111072022583721264e+01,-7.660597661690917448e+01,-1.024804570288924879e+02,-6.939643429940406349e+01,-5.094509007370470499e+01,-4.765812066645412415e+01,9.484992027282714844e+00,-9.179025292396545410e-01,-5.354431271553039551e-01,5.740000000000000000e+02
-1.165653199616663187e+02,-1.283809208234160906e+02,-6.401623065854255401e+01,-7.572551189822297601e+01,-1.045855686399045226e+02,-6.912419882801623316e+01,-5.483321362988863257e+01,-4.901909363776030659e+01,9.484992027282714844e+00,-9.179025292396545410e-01,-5.354431271553039551e-01,5.750000000000000000e+02
-1.176978141199779202e+02,-1.249704852548438794e+02,-6.733849734113755403e+01,-7.201300960994194611e+01,-1.065927152415424644e+02,-6.621012044089366100e+01,-5.815774717775093450e+01,-4.786814014334595413e+01,9.484992027282714844e+00,-9.179025292396545410e-01,-5.354431271553039551e-01,5.760000000000000000e+02
-1.186419875770407089e+02,-1.195054850878823345e+02,-6.952154693167722144e+01,-6.623456817513033457e+01,-1.077554948083852651e+02,-6.116443192519000149e+01,-5.961926184983167332e+01,-4.411745878496913065e+01,9.484992027282714844e+00,-9.179025292396545410e-01,-5.354431271553039551e-01,5.770000000000000000e+02
-1.195837068032706156e+02,-1.144515248921197781e+02,-7.006832152002425573e+01,-6.078970760604897805e+01,-1.083732003840832476e+02,-5.593212097939249361e+01,-5.942971651711377490e+01,-3.948534389865017147e+01,9.484992027282714844e+00,-8.796565532684326172e-01,-5.354431271553039551e-01,5.780000000000000000e+02
-1.206118409156442794e+02,-1.123464551486467826e+02,-6.918319638093453250e+01,-5.815783189497597050e+01,-1.086303550374650513e+02,-5.257256155357754324e+01,-5.862486898093447962e+01,-3.591268254677379446e+01,9.484992027282714844e+00,-8.796565532684326172e-01,-5.354431271553039551e-01,5.790000000000000000e+02
-1.212298738338522526e+02,-1.139683880402099021e+02,-6.710504080164901097e+01,-5.913605076514795655e+01,-1.078780804673551756e+02,-5.187941070390297682e+01,-5.790097655544923327e+01,-3.402863198128579825e+01,9.484992027282714844e+00,-8.796565532684326172e-01,-5.354431271553039551e-01,5.800000000000000000e+02
-1.205751483260792156e+02,-1.177222118739191501e+02,-6.396233294563899108e+01,-6.233276839753307286e+01,-1.052764206993997504e+02,-5.302860950088870595e+01,-5.719399205299305322e+01,-3.298820041846920503e+01,9.484992027282714844e+00,-8.796565532684326172e-01,-5.354431271553039551e-01,5.810000000000000000e+02
-1.181752400680943538e+02,-1.208213255988375749e+02,-6.015398734323935059e+01,-6.534148501188246883e+01,-1.010762569071412145e+02,-5.445007995950436452e+01,-5.628313271439219534e+01,-3.167892473543179221e+01,9.484992027282714844e+00,-8.796565532684326172e-01,-5.354431271553039551e-01,5.820000000000000000e+02
-1.145081875443029276e+02,-1.213476371597716934e+02,-5.660930606556212297e+01,-6.663064210832999379e+01,-9.703422290744856582e+01,-5.515125474216984003e+01,-5.562026484999478271e+01,-3.009904599560832139e+01,9.484992027282714844e+00,-8.796565532684326172e-01,-5.354431271553039551e-01,5.830000000000000000e+02
-1.108389603576706577e+02,-1.195557606510337791e+02,-5.447152303981783916e+01,-6.662694446608293219e+01,-9.531812377369715250e+01,-5.542507241888961289e+01,-5.637655530802658177e+01,-2.963060130031590234e+01,9.484992027282714844e+00,-8.796565532684326172e-01,-5.354431271553039551e-01,5.840000000000000000e+02
-1.084705243942626112e+02,-1.174325466560185305e+02,-5.443371400142132188e+01,-6.713636080050855526e+01,-9.684237178682087688e+01,-5.642301507295996998e+01,-5.950002824082912412e+01,-3.191982365295552881e+01,9.484992027282714844e+00,-8.796565532684326172e-01,-5.354431271553039551e-01,5.850000000000000000e+02
-1.080198801263395580e+02,-1.169708646540857444e+02,-5.634552863936914946e+01,-6.962898427941763657e+01,-1.005947730850566586e+02,-5.899971154777085758e+01,-6.461277889546181541e+01,-3.729653353818866890e+01,9.484992027282714844e+00,-8.796565532684326172e-01,-5.354431271553039551e-01,5.860000000000000000e+02
-1.091991325140152185e+02,-1.185987362828309415e+02,-5.939799401125674194e+01,-7.383460139942326350e+01,-1.045592673609608028e+02,-6.279903132663457654e+01,-6.984135204082849668e+01,-4.409778882503087516e+01,9.484992027282714844e+00,-8.796565532684326172e-01,-5.354431271553039551e-01,5.870000000000000000e+02
-1.111211329106408812e+02,-1.209683721797409817e+02,-6.263171035646519158e+01,-7.782139471849950496e+01,-1.073326860401029990e+02,-6.634916162126683048e+01,-7.293507275892261532e+01,-4.956107352581238956e+01,9.484992027282714844e+00,-8.796565532684326172e-01,-5.354431271553039551e-01,5.880000000000000000e+02
-1.128432256392079580e+02,-1.221570870808864129e+02,-6.532094077500551066e+01,-7.950249351313686930e+01,-1.089490204172034282e+02,-6.810710167949218885e+01,-7.290266063443777966e+01,-5.168432414712515310e+01,9.484992027282714844e+00,-8.796565532684326172e-01,-5.354431271553039551e-01,5.890000000000000000e+02
-1.138554616110523057e+02,-1.212275038577754458e+02,-6.707636217917388421e+01,-7.831074290399919846e+01,-1.102949939183490642e+02,-6.760079927378683351e+01,-7.083957180515790242e+01,-5.060764385716902325e+01,9.484992027282714844e+00,-8.796565532684326172e-01,-5.354431271553039551e-01,5.900000000000000000e+02
-1.143180086891879910e+02,-1.188883630883719889e+02,-6.782831785135931568e+01,-7.561032010102644563e+01,-1.118726065336813917e+02,-6.569246598707104567e+01,-6.916489290902609355e+01,-4.837222339281652239e+01,9.484992027282714844e+00,-8.796565532684326172e-01,-5.354431271553039551e-01,5.910000000000000000e+02
-1.148987272778394981e+02,-1.167746983251090569e+02,-6.782087952209985815e+01,-7.349090382730719284e+01,-1.131840501049955492e+02,-6.372934960528436932e+01,-6.975237662260042271e+01,-4.718856205502743251e+01,9.484992027282714844e+00,-8.796565532684326172e-01,-5.354431271553039551e-01,5.920000000000000000e+02
-1.162123731523752213e+02,-1.160040420560289931e+02,-6.751933982330592698e+01,-7.301136933951056562e+01,-1.132795858387689805e+02,-6.236307439138181508e+01,-7.241540103151783114e+01,-4.762944194066949422e+01,9.484992027282714844e+00,-8.796565532684326172e-01,-5.354431271553039551e-01,5.930000000000000000e+02
-1.181466473194341233e+02,-1.162299570824870898e+02,-6.727786239485794795e+01,-7.346876294608591706e+01,-1.118047396877736901e+02,-6.114317042387119727e+01,-7.499207726773602189e+01,-4.827954042753481190e+01,9.484992027282714844e+00,-8.796565532684326172e-01,-5.354431271553039551e-01,5.940000000000000000e+02
-1.196057839803543175e+02,-1.159710182524468109e+02,-6.691602491920275497e+01,-7.333681704443733906e+01,-1.094441060336357623e+02,-5.927285884859156795e+01,-7.500573998565960210e+01,-4.715773030136915622e+01,9.484992027282714844e+00,-8.796565532684326172e-01,-5.354431271553039551e-01,5.950000000000000000e+02
-1.190424815526712337e+02,-1.139107159561644949e+02,-6.564173834377652383e+01,-7.192937375602195971e+01,-1.073267734709806973e+02,-5.674988847930580960e+01,-7.156595264359930297e+01,-4.364344425794479321e+01,9.484992027282714844e+00,-8.796565532684326172e-01,-5.354431271553039551e-01,5.960000000000000000e+02
-1.155443584198801545e+02,-1.100432190303545212e+02,-6.258029108907066984e+01,-7.010914065564429620e+01,-1.060038588757561229e+02,-5.465226541548327077e+01,-6.597639820377298747e+01,-3.912302792251284700e+01,9.484992027282714844e+00,-8.796565532684326172e-01,-5.354431271553039551e-01,5.970000000000000000e+02
-1.096748291534604505e+02,-1.057001581550066476e+02,-5.760518753046562779e+01,-6.928816435811677366e+01,-1.049962036670222005e+02,-5.414175132756281528e+01,-6.062909666957420995e+01,-3.569817031458660495e+01,9.484992027282714844e+00,-8.796565532684326172e-01,-5.354431271553039551e-01,5.980000000000000000e+02
-1.033426131109736161e+02,-1.024863155333041504e+02,-5.174189902453872492e+01,-6.970805802303584642e+01,-1.032882961892391904e+02,-5.509292776158690685e+01,-5.720071320479110000e+01,-3.409692136745070457e+01,9.523238182067871094e+00,-9.179025292396545410e-01,-6.119350194931030273e-01,5.990000000000000000e+02
-9.870646821116679348e+01,-1.010890333280840423e+02,-4.665793790256429929e+01,-6.982262829087630962e+01,-1.002195627281726047e+02,-5.578301173438376281e+01,-5.565628781657142099e+01,-3.276725059774253168e+01,9.523238182067871094e+00,-9.179025292396545410e-01,-6.119350194931030273e-01,6.000000000000000000e+02
-9.689869572122188401e+01,-1.009626611938656424e+02,-4.354423502445570193e+01,-6.758974570688224048e+01,-9.593758628887007944e+01,-5.415243929454300087e+01,-5.473802188222180121e+01,-2.913794892944497406e+01,9.523238182067871094e+00,-9.179025292396545410e-01,-6.119350194931030273e-01,6.010000000000000000e+02
-9.749659684885409661e+01,-1.010298855436667509e+02,-4.230737187895647367e+01,-6.252844365048804320e+01,-9.112712868533344590e+01,-4.959907783568633022e+01,-5.330531561059979140e+01,-2.204067503734768252e+01,9.523238182067871094e+00,-9.179025292396545410e-01,-6.119350194931030273e-01,6.020000000000000000e+02
-9.905020514430361800e+01,-1.006428368093220342e+02,-4.180225500398955774e+01,-5.651583226595175802e+01,-8.648386662454868201e+01,-4.366323251259018434e+01,-5.129997564025325119e+01,-1.315042744158563437e+01,9.523238182067871094e+00,-9.179025292396545410e-01,-6.119350194931030273e-01,6.030000000000000000e+02
-1.001580455361799977e+02,-9.994698153204808477e+01,-4.094756219158443855e+01,-5.245423674565972760e+01,-8.252786881960491883e+01,-3.895136943167381105e+01,-4.965731382081139600e+01,-6.107795768584765028e+00,9.523238182067871094e+00,-9.179025292396545410e-01,-6.119350194931030273e-01,6.040000000000000000e+02
-1.002512319829183980e+02,-9.950070815758590470e+01,-3.973561333455654676e+01,-5.203113631871019606e+01,-7.978488150881821639e+01,-3.728099093484706827e+01,-4.947793240666942438e+01,-3.988195248773990897e+00,9.523238182067871094e+00,-9.179025292396545410e-01,-6.119350194931030273e-01,6.050000000000000000e+02
-9.961120224880505702e+01,-9.974574409169508726e+01,-3.919431346888814005e+01,-5.470219943012853037e+01,-7.882608827902004123e+01,-3.869826580970766372e+01,-5.127159775768086547e+01,-7.183794512169697555e+00,9.523238182067871094e+00,-9.179025292396545410e-01,-6.119350194931030273e-01,6.060000000000000000e+02
-9.880254377957317047e+01,-1.009137778998847352e+02,-4.027325454357560375e+01,-5.876566235482096090e+01,-7.980677621164795710e+01,-4.207560408210338210e+01,-5.475975250088595203e+01,-1.331556689138233196e+01,9.523238182067871094e+00,-9.179025292396545410e-01,-6.119350194931030273e-01,6.070000000000000000e+02
-9.808618338494488853e+01,-1.032871809160715202e+02,-4.261452597265815712e+01,-6.325664814407718950e+01,-8.184293519017228391e+01,-4.640737693522169138e+01,-5.910802001769843628e+01,-1.900882651657957467e+01,9.523238182067871094e+00,-9.179025292396545410e-01,-6.119350194931030273e-01,6.080000000000000000e+02
-9.726963731610521791e+01,-1.072301378745469265e+02,-4.437227752605394926e+01,-6.860380040523523348e+01,-8.300475726094737183e+01,-5.135738029721687781e+01,-6.323993003623763798e+01,-2.193237783927543205e+01,9.523238182067871094e+00,-9.179025292396545410e-01,-6.119350194931030273e-01,6.090000000000000000e+02
-9.602864467312610941e+01,-1.126684080032136990e+02,-4.342394205135133234e+01,-7.540103740522681619e+01,-8.134328549318524892e+01,-5.662659525121853221e+01,-6.613026049226391478e+01,-2.164568537255399860e+01,9.523238182067871094e+00,-9.179025292396545410e-01,-6.119350194931030273e-01,6.100000000000000000e+02
-9.437881432979702367e+01,-1.184606864981251420e+02,-3.912748579579420038e+01,-8.274352013196767075e+01,-7.640166832597969915e+01,-6.114710706378900795e+01,-6.717980945524686831e+01,-1.911835304380292655e+01,9.523238182067871094e+00,-9.179025292396545410e-01,-6.119350194931030273e-01,6.110000000000000000e+02
-9.289092715062724892e+01,-1.224724235253270308e+02,-3.321837820154541987e+01,-8.811162783869076520e+01,-7.000281198976881569e+01,-6.335543921728094574e+01,-6.659362272654470871e+01,-1.582653831371135311e+01,9.523238182067871094e+00,-9.179025292396545410e-01,-6.119350194931030273e-01,6.120000000000000000e+02
