F3,F4,C3,C4,P3,P4,Cz,Pz,Accel_x,Accel_y,Accel_z,Sample
-7.730704965069890022e-11,-5.366018740460276604e-11,-4.911271389573812485e-11,-7.275957614183425903e-11,-4.547473508864641190e-11,-6.730260793119668961e-11,-3.183231456205248833e-11,-5.911715561524033546e-11,9.446745872497558594e+00,-6.119350194931030273e-01,4.971971809864044189e-01,2.010000000000000000e+02
-7.243332363507761329e+00,-1.564212186218537681e+01,2.887904774838716548e+00,2.038784741453127936e+00,-3.652861972163918836e+00,2.696471531617135042e-01,3.202796890615900338e+00,5.503570981987650157e+00,9.446745872497558594e+00,-6.119350194931030273e-01,4.971971809864044189e-01,2.020000000000000000e+02
-1.866443812777379208e+01,-2.965580016509647976e+01,4.801909152800362790e+00,5.630471270869747968e-01,-8.173224450136331143e+00,-5.518882496262449422e+00,5.358413843816379085e+00,8.328263487513140717e+00,9.446745872497558594e+00,-6.119350194931030273e-01,4.971971809864044189e-01,2.030000000000000000e+02
-3.492877011005748500e+01,-4.167418291644298733e+01,5.201723870098248881e+00,-4.306540891968325013e+00,-1.402496533882731455e+01,-1.789093078880614485e+01,5.928631119903911895e+00,7.834713572201508214e+00,9.446745872497558594e+00,-6.119350194931030273e-01,4.971971809864044189e-01,2.040000000000000000e+02
-5.295869700699768146e+01,-5.275533540789274412e+01,4.140289096736523788e+00,-8.896527667113332427e+00,-2.107551631628484756e+01,-3.166114338372062775e+01,5.072882852592556446e+00,5.691491293311628397e+00,9.446745872497558594e+00,-6.119350194931030273e-01,4.971971809864044189e-01,2.050000000000000000e+02
-6.889592517975142982e+01,-6.434621028717356239e+01,2.101267046825341822e+00,-9.599844974324696523e+00,-2.870047319643435912e+01,-4.102566389409184922e+01,3.408567726788533037e+00,4.242149675096698047e+00,9.446745872497558594e+00,-6.119350194931030273e-01,4.971971809864044189e-01,2.060000000000000000e+02
-8.107418787081405753e+01,-7.702489288295964798e+01,-2.915047139549642452e-01,-6.295375610508017417e+00,-3.612214039884474914e+01,-4.473232781489423360e+01,1.525889381684464752e+00,4.532417250774415152e+00,9.446745872497558594e+00,-6.119350194931030273e-01,4.971971809864044189e-01,2.070000000000000000e+02
-9.026256977690809435e+01,-9.015934880109853111e+01,-2.448902723170249374e+00,-2.242775744211940037e+00,-4.279426745814453170e+01,-4.650011026477659470e+01,-3.570654155282682041e-01,5.721019638664074591e+00,9.446745872497558594e+00,-6.501809358596801758e-01,4.971971809864044189e-01,2.080000000000000000e+02
-9.764491939372510387e+01,-1.027225117351481458e+02,-3.815219122545386199e+00,-8.871181680506197154e-01,-4.859777124282663863e+01,-5.093684365039371187e+01,-2.327060754429112421e+00,6.202987183305594954e+00,9.446745872497558594e+00,-6.501809358596801758e-01,4.971971809864044189e-01,2.090000000000000000e+02
-1.033194917495911795e+02,-1.144170491984377804e+02,-3.881837863593318616e+00,-2.977509394549997523e+00,-5.376502074292693578e+01,-5.943761842837739096e+01,-4.427563491208275082e+00,5.169112243598647183e+00,9.446745872497558594e+00,-6.501809358596801758e-01,4.971971809864044189e-01,2.100000000000000000e+02
-1.070337312697456582e+02,-1.259788096118400063e+02,-2.406796871242477209e+00,-6.610845773057917540e+00,-5.862714639270234329e+01,-6.980222804664663272e+01,-6.439182374689153221e+00,3.129052872399370244e+00,9.446745872497558594e+00,-6.501809358596801758e-01,4.971971809864044189e-01,2.110000000000000000e+02
-1.099220687969709616e+02,-1.383400950792547519e+02,2.306257399231981253e-01,-9.579660425214569841e+00,-6.339274013174235733e+01,-7.909597758892414276e+01,-8.060870230767250177e+00,1.130988156545754464e+00,9.446745872497558594e+00,-6.501809358596801758e-01,4.971971809864044189e-01,2.120000000000000000e+02
-1.147569334178615463e+02,-1.514751908686121169e+02,2.916502129554828571e+00,-1.130933963934876374e+01,-6.812896522968094359e+01,-8.633616605322640680e+01,-9.308965404108676012e+00,-3.264200089524820214e-01,9.446745872497558594e+00,-6.501809358596801758e-01,4.971971809864044189e-01,2.130000000000000000e+02
-1.239801082329140627e+02,-1.641103562879807214e+02,4.232563664359986433e+00,-1.265541005961495102e+01,-7.292719276620573510e+01,-9.259231872436612321e+01,-1.064620901956095622e+01,-1.577682702809397597e+00,9.446745872497558594e+00,-6.501809358596801758e-01,4.971971809864044189e-01,2.140000000000000000e+02
-1.374548495016242668e+02,-1.747058832748134591e+02,3.287310943170268729e+00,-1.434731293312506750e+01,-7.804854228804288141e+01,-9.918057281744404463e+01,-1.259394281912227598e+01,-3.161660863245742803e+00,9.446745872497558594e+00,-6.501809358596801758e-01,4.971971809864044189e-01,2.150000000000000000e+02
-1.523745578046346054e+02,-1.828826929650977036e+02,3.586970634869430796e-01,-1.603773521004404756e+01,-8.385487344610373839e+01,-1.062564073433914018e+02,-1.517277837514484418e+01,-5.137489684670072165e+00,9.446745872497558594e+00,-6.501809358596801758e-01,4.971971809864044189e-01,2.160000000000000000e+02
-1.655175144006507253e+02,-1.899716081815849975e+02,-3.242713075510437193e+00,-1.685775530237424391e+01,-9.054949698803557112e+01,-1.130405171836555382e+02,-1.780990041350196407e+01,-7.132099772630681400e+00,9.446745872497558594e+00,-6.501809358596801758e-01,4.971971809864044189e-01,2.170000000000000000e+02
-1.756397462819768407e+02,-1.980804827459369335e+02,-6.071903003994520986e+00,-1.658073195685938117e+01,-9.796111776747602562e+01,-1.189174127646674606e+02,-1.989671634247679322e+01,-8.976060600063647144e+00,9.446745872497558594e+00,-6.501809358596801758e-01,4.971971809864044189e-01,2.180000000000000000e+02
-1.838090569300484276e+02,-2.083992317457332319e+02,-7.506148146340819949e+00,-1.601935727792260877e+01,-1.055836714709384978e+02,-1.240428077152591868e+02,-2.145459308028057421e+01,-1.108953593861042464e+01,9.446745872497558594e+00,-6.501809358596801758e-01,4.971971809864044189e-01,2.190000000000000000e+02
-1.917523097428029359e+02,-2.201831043530946772e+02,-7.977905454059509793e+00,-1.631021577468072792e+01,-1.128595249734526078e+02,-1.290478397661572671e+02,-2.316188608918218961e+01,-1.408812382890300796e+01,9.446745872497558594e+00,-6.501809358596801758e-01,4.971971809864044189e-01,2.200000000000000000e+02
-2.002378217372734071e+02,-2.313169577433236554e+02,-8.365454416667489568e+00,-1.790857189375128655e+01,-1.194938381934452991e+02,-1.344394235653744545e+02,-2.564691582894010935e+01,-1.800571815077910287e+01,9.446745872497558594e+00,-6.501809358596801758e-01,4.971971809864044189e-01,2.210000000000000000e+02
-2.090892472299556175e+02,-2.400422350015705888e+02,-9.219352900472586043e+00,-2.028515073690505233e+01,-1.255920449071772964e+02,-1.403451924065338972e+02,-2.881197146762133343e+01,-2.204372967518247606e+01,9.446745872497558594e+00,-6.501809358596801758e-01,4.971971809864044189e-01,2.220000000000000000e+02
-2.183657046984862973e+02,-2.464390283004186131e+02,-1.058353251291555353e+01,-2.250658407086211810e+01,-1.315552353251032400e+02,-1.466209521466789738e+02,-3.198338778580273356e+01,-2.523652271006540104e+01,9.446745872497558594e+00,-6.501809358596801758e-01,4.971971809864044189e-01,2.230000000000000000e+02
-2.289917586951733028e+02,-2.524658035201882740e+02,-1.246848428634439188e+01,-2.409274544516301830e+01,-1.378422661983540820e+02,-1.530249427670514706e+02,-3.482446678562928355e+01,-2.743645462975928240e+01,9.446745872497558594e+00,-6.501809358596801758e-01,4.971971809864044189e-01,2.240000000000000000e+02
-2.419435738802449123e+02,-2.605486230117330706e+02,-1.528264210067482054e+01,-2.541824355553035275e+01,-1.447253882473096382e+02,-1.593323668263083164e+02,-3.803394728693820070e+01,-2.960984112501137133e+01,9.446745872497558594e+00,-6.501809358596801758e-01,4.971971809864044189e-01,2.250000000000000000e+02
-2.568659342922119322e+02,-2.718355019587770585e+02,-1.953046372365679417e+01,-2.737117874710293108e+01,-1.520981354902269231e+02,-1.654307072025421803e+02,-4.292798561259587586e+01,-3.302895628861006116e+01,9.446745872497558594e+00,-6.501809358596801758e-01,4.971971809864044189e-01,2.260000000000000000e+02
-2.717086650568135155e+02,-2.854533326304945149e+02,-2.499391421179370809e+01,-3.058231178431742592e+01,-1.594336224164908344e+02,-1.713824050003895536e+02,-5.013965093835622611e+01,-3.804964321085935808e+01,9.446745872497558594e+00,-6.501809358596801758e-01,4.971971809864044189e-01,2.270000000000000000e+02
-2.839468289590131462e+02,-2.992408584862905627e+02,-3.035494171634854865e+01,-3.483278050821627403e+01,-1.660117448574055743e+02,-1.773180310311172434e+02,-5.865213750489419908e+01,-4.361713938187313033e+01,9.446745872497558594e+00,-6.501809358596801758e-01,4.971971809864044189e-01,2.280000000000000000e+02
-2.923634924884900101e+02,-3.112602057788535603e+02,-3.393748866971236566e+01,-3.913084495769726345e+01,-1.713877058302023215e+02,-1.831998300971872595e+02,-6.617833913131198642e+01,-4.799571046932487661e+01,9.446745872497558594e+00,-6.501809358596801758e-01,4.971971809864044189e-01,2.290000000000000000e+02
-2.978966838477617785e+02,-3.208960784571763725e+02,-3.510382939156806970e+01,-4.243748262743974919e+01,-1.758223923218956770e+02,-1.887388276401134135e+02,-7.067945056749522337e+01,-5.012708231904616696e+01,9.446745872497558594e+00,-6.501809358596801758e-01,4.971971809864044189e-01,2.300000000000000000e+02
-3.030036444368006414e+02,-3.288325145030048589e+02,-3.499910687029387191e+01,-4.446327498436403403e+01,-1.802870671481887257e+02,-1.936392963012749533e+02,-7.178392421102898879e+01,-5.051174784905106208e+01,9.446745872497558594e+00,-6.501809358596801758e-01,4.971971809864044189e-01,2.310000000000000000e+02
-3.101931832956170183e+02,-3.361895061024251845e+02,-3.580151958854457916e+01,-4.585953834753763658e+01,-1.859032634220166074e+02,-1.979649211205114625e+02,-7.100373974671992983e+01,-5.092925725945406157e+01,9.446745872497558594e+00,-6.501809358596801758e-01,4.971971809864044189e-01,2.320000000000000000e+02
-3.208013813401084917e+02,-3.436904826618801962e+02,-3.901466545055427559e+01,-4.761924341250778525e+01,-1.931648647034526221e+02,-2.022027202174876948e+02,-7.071145443278146558e+01,-5.326556733633242402e+01,9.446745872497558594e+00,-6.501809358596801758e-01,4.971971809864044189e-01,2.330000000000000000e+02
-3.345923421382813103e+02,-3.515023811290261619e+02,-4.427325019666841399e+01,-5.021374923883286101e+01,-2.015534385960127111e+02,-2.068908728356336724e+02,-7.277130630815736367e+01,-5.833285353248811589e+01,9.446745872497558594e+00,-6.501809358596801758e-01,4.971971809864044189e-01,2.340000000000000000e+02
-3.500920444814364600e+02,-3.596445780750268568e+02,-4.968362351168570967e+01,-5.322451333722347044e+01,-2.098639579799319108e+02,-2.121514493033282633e+02,-7.771805696644923955e+01,-6.542548284006534232e+01,9.446745872497558594e+00,-6.501809358596801758e-01,4.971971809864044189e-01,2.350000000000000000e+02
-3.653188112162370089e+02,-3.683636679892729262e+02,-5.331274332962402696e+01,-5.575037429182884807e+01,-2.169831561811015490e+02,-2.175910304821099999e+02,-8.474006224882305105e+01,-7.280216660753740143e+01,9.446745872497558594e+00,-6.501809358596801758e-01,4.971971809864044189e-01,2.360000000000000000e+02
-3.785843857243507955e+02,-3.780478850812710334e+02,-5.448738480428391995e+01,-5.718525088345813856e+01,-2.225212458419100585e+02,-2.226887251284824742e+02,-9.222644656170086819e+01,-7.873511907757711015e+01,9.446745872497558594e+00,-6.501809358596801758e-01,4.971971809864044189e-01,2.370000000000000000e+02
-3.890892830463558312e+02,-3.887949717078440699e+02,-5.391765854673712965e+01,-5.768853677235347277e+01,-2.268709742983492106e+02,-2.273114701088716174e+02,-9.854278848289868620e+01,-8.250110460207179131e+01,9.446745872497558594e+00,-6.501809358596801758e-01,4.971971809864044189e-01,2.380000000000000000e+02
-3.970833050545343212e+02,-4.001287054113172417e+02,-5.288825068470941915e+01,-5.804778464974515373e+01,-2.308082684167866319e+02,-2.319037502524533920e+02,-1.028043876160131731e+02,-8.476795452420356014e+01,9.484992027282714844e+00,-6.119350194931030273e-01,4.971971809864044189e-01,2.390000000000000000e+02
-4.035169361460393702e+02,-4.111525560409463651e+02,-5.248538741455922718e+01,-5.914638486015246599e+01,-2.350402800529018350e+02,-2.371803470874674531e+02,-1.053309770677324195e+02,-8.711183612528475351e+01,9.484992027282714844e+00,-6.119350194931030273e-01,4.971971809864044189e-01,2.400000000000000000e+02
-4.094523709709947070e+02,-4.209687793765078823e+02,-5.344231741905969102e+01,-6.143027376024747355e+01,-2.399563725357452313e+02,-2.435411719839848956e+02,-1.073911844396934612e+02,-9.086050377170522552e+01,9.484992027282714844e+00,-6.119350194931030273e-01,4.971971809864044189e-01,2.410000000000000000e+02
-4.156551686172701920e+02,-4.289744714732410102e+02,-5.630154413422587822e+01,-6.463193642615897261e+01,-2.455464791275771859e+02,-2.506456744790912126e+02,-1.102453613993625368e+02,-9.598135511548844079e+01,9.484992027282714844e+00,-6.119350194931030273e-01,4.971971809864044189e-01,2.420000000000000000e+02
-4.225431184330332144e+02,-4.348934171718910875e+02,-6.130277273200181298e+01,-6.782547923396032274e+01,-2.514027652814247631e+02,-2.574776482528777706e+02,-1.141708988410741767e+02,-1.009052734746701390e+02,9.484992027282714844e+00,-6.119350194931030273e-01,4.971971809864044189e-01,2.430000000000000000e+02
-4.302727261412478583e+02,-4.387678929437884108e+02,-6.795391236924888290e+01,-6.984706687213110854e+01,-2.568615153543491942e+02,-2.629210918889157256e+02,-1.183802272452353463e+02,-1.036270949412655682e+02,9.484992027282714844e+00,-6.119350194931030273e-01,4.971971809864044189e-01,2.440000000000000000e+02
-4.386464352928223889e+02,-4.411092861920255928e+02,-7.487318706079122421e+01,-6.999336182328806899e+01,-2.613504243354436767e+02,-2.664989954160100751e+02,-1.219937404175448137e+02,-1.033811182231420389e+02,9.484992027282714844e+00,-6.119350194931030273e-01,4.971971809864044189e-01,2.450000000000000000e+02
-4.468806693840601838e+02,-4.430456994324654261e+02,-8.036519189058435586e+01,-6.862081732730439398e+01,-2.647909887158039055e+02,-2.687555333237251034e+02,-1.251040422548771858e+02,-1.015333582704106448e+02,9.484992027282714844e+00,-6.119350194931030273e-01,4.971971809864044189e-01,2.460000000000000000e+02
-4.536297704784947200e+02,-4.460639125123370832e+02,-8.341682284039234219e+01,-6.710690420438277215e+01,-2.676902176292774129e+02,-2.709531975141117073e+02,-1.287108604485524666e+02,-1.007742611014100476e+02,9.484992027282714844e+00,-6.119350194931030273e-01,4.971971809864044189e-01,2.470000000000000000e+02
-4.575818522830440997e+02,-4.512284788355582350e+02,-8.426525107032466622e+01,-6.698390684240712289e+01,-2.707490895777409605e+02,-2.742596755304048202e+02,-1.334036536066109875e+02,-1.030933190950436256e+02,9.484992027282714844e+00,-6.119350194931030273e-01,4.971971809864044189e-01,2.480000000000000000e+02
-4.584162690089356147e+02,-4.583905152945890222e+02,-8.404309036874019512e+01,-6.879525157037915051e+01,-2.743123087123399273e+02,-2.790360604771194630e+02,-1.381294558451181729e+02,-1.081959259969366940e+02,9.484992027282714844e+00,-6.119350194931030273e-01,4.971971809864044189e-01,2.490000000000000000e+02
-4.574114478549231535e+02,-4.661360264362642738e+02,-8.388335416881227502e+01,-7.163853904515690374e+01,-2.781999844957090318e+02,-2.847559443386171552e+02,-1.405760213908079095e+02,-1.137698632783967696e+02,9.484992027282714844e+00,-6.119350194931030273e-01,4.971971809864044189e-01,2.500000000000000000e+02
-4.570795411332796903e+02,-4.727168492558826074e+02,-8.432330883082840955e+01,-7.389060803233815022e+01,-2.820907549902381106e+02,-2.905317687557962927e+02,-1.391838677781938713e+02,-1.174179152072133547e+02,9.484992027282714844e+00,-6.119350194931030273e-01,4.971971809864044189e-01,2.510000000000000000e+02
-4.598619950286711173e+02,-4.773116840183492968e+02,-8.543053070224232215e+01,-7.455551536827169912e+01,-2.860111224945449067e+02,-2.957191046455709511e+02,-1.350109808103570685e+02,-1.185754535963478702e+02,9.484992027282714844e+00,-6.119350194931030273e-01,4.971971809864044189e-01,2.520000000000000000e+02
-4.666840954706185585e+02,-4.805710623971167479e+02,-8.727989800453860880e+01,-7.407665806528939356e+01,-2.903349834248738262e+02,-3.001307801801413007e+02,-1.315104452610949011e+02,-1.187389851925495350e+02,9.484992027282714844e+00,-6.119350194931030273e-01,4.971971809864044189e-01,2.530000000000000000e+02
-4.764106815192762951e+02,-4.839652885149862414e+02,-9.011213583812605066e+01,-7.388553949083916450e+01,-2.952262126621180869e+02,-3.038573214697717049e+02,-1.320759155285372799e+02,-1.198879113750740544e+02,9.484992027282714844e+00,-6.119350194931030273e-01,4.971971809864044189e-01,2.540000000000000000e+02
-4.866678783888573889e+02,-4.884816592552024304e+02,-9.398100603608645542e+01,-7.508617350853683092e+01,-3.001467822811819133e+02,-3.070288953393583142e+02,-1.373620701574122904e+02,-1.226212597459552853e+02,9.484992027282714844e+00,-6.119350194931030273e-01,4.971971809864044189e-01,2.550000000000000000e+02
-4.955008673442066538e+02,-4.938026702022675636e+02,-9.835436678093037699e+01,-7.745776740313795017e+01,-3.040722495798968339e+02,-3.097543013159001930e+02,-1.447267100375911468e+02,-1.257112383737894561e+02,9.484992027282714844e+00,-6.119350194931030273e-01,4.971971809864044189e-01,2.560000000000000000e+02
-5.026203878552164497e+02,-4.986351264807599364e+02,-1.022192995584973687e+02,-7.964194684400945334e+01,-3.062986392795000938e+02,-3.121571622192177529e+02,-1.502754872808245636e+02,-1.273549469223817141e+02,9.484992027282714844e+00,-6.119350194931030273e-01,4.971971809864044189e-01,2.570000000000000000e+02
-5.092386309856315165e+02,-5.018262518697724772e+02,-1.046783917952088814e+02,-8.032174660613327433e+01,-3.070562708139018469e+02,-3.143596095691527808e+02,-1.517188707930663440e+02,-1.268328250147128529e+02,9.484992027282714844e+00,-6.119350194931030273e-01,4.971971809864044189e-01,2.580000000000000000e+02
-5.166263541355951929e+02,-5.032563848013396637e+02,-1.054940433415140433e+02,-7.933659973138401256e+01,-3.073073853869918821e+02,-3.164293535465212699e+02,-1.496960430680428544e+02,-1.250783755193028810e+02,9.484992027282714844e+00,-6.119350194931030273e-01,4.971971809864044189e-01,2.590000000000000000e+02
-5.246401600039671393e+02,-5.038339516860128242e+02,-1.051238972574310537e+02,-7.780451707726615496e+01,-3.079717949448022409e+02,-3.184339516716527214e+02,-1.467975896425123210e+02,-1.238684015700969212e+02,9.408499717712402344e+00,-6.119350194931030273e-01,4.589512646198272705e-01,2.600000000000000000e+02
-5.315934403754849882e+02,-5.048099218463898978e+02,-1.043326541713204278e+02,-7.724967606695054201e+01,-3.094367937443248593e+02,-3.206149538245126678e+02,-1.455470356572159289e+02,-1.246226759710066290e+02,9.408499717712402344e+00,-6.119350194931030273e-01,4.589512646198272705e-01,2.610000000000000000e+02
-5.356812893538740354e+02,-5.071360069337042660e+02,-1.038367063579471505e+02,-7.858120932003657799e+01,-3.118414684645126727e+02,-3.234670510855166867e+02,-1.471404698753840421e+02,-1.278981359848035027e+02,9.408499717712402344e+00,-6.119350194931030273e-01,4.589512646198272705e-01,2.620000000000000000e+02
-5.366734109096109933e+02,-5.113159368365236332e+02,-1.042327096536373574e+02,-8.178956453567889184e+01,-3.156440226918057306e+02,-3.275358982574152833e+02,-1.515559274604897837e+02,-1.336385702923239478e+02,9.408499717712402344e+00,-6.119350194931030273e-01,4.589512646198272705e-01,2.630000000000000000e+02
-5.362649301020535404e+02,-5.175234513883013960e+02,-1.059919708791669564e+02,-8.642277559346371163e+01,-3.215558672809359564e+02,-3.330146240528222279e+02,-1.582015026808578000e+02,-1.414071335636182312e+02,9.408499717712402344e+00,-6.119350194931030273e-01,4.589512646198272705e-01,2.640000000000000000e+02
-5.366952901299019913e+02,-5.255398669272990446e+02,-1.092199038457705456e+02,-9.214766242874236468e+01,-3.296325730257862006e+02,-3.394552450809288757e+02,-1.660989642855672059e+02,-1.501202269289893820e+02,9.408499717712402344e+00,-6.119350194931030273e-01,4.589512646198272705e-01,2.650000000000000000e+02
-5.388988643752061307e+02,-5.344723566141526589e+02,-1.132899217951671744e+02,-9.872301365881162383e+01,-3.384080470688321043e+02,-3.458358124850699369e+02,-1.736025454425492285e+02,-1.577487690594148262e+02,9.408499717712402344e+00,-6.119350194931030273e-01,4.589512646198272705e-01,2.660000000000000000e+02
-5.419066842166807874e+02,-5.427436556152072171e+02,-1.168533384147596053e+02,-1.054816681541482239e+02,-3.452094625049682008e+02,-3.509570132907356310e+02,-1.785135110169855466e+02,-1.618400286792918905e+02,9.408499717712402344e+00,-6.119350194931030273e-01,4.589512646198272705e-01,2.670000000000000000e+02
-5.439927694183868425e+02,-5.487588656297326679e+02,-1.185324177005613819e+02,-1.110971676538829342e+02,-3.477773643487076924e+02,-3.539648567671090404e+02,-1.790888963952980930e+02,-1.609457487015313291e+02,9.408499717712402344e+00,-6.119350194931030273e-01,4.589512646198272705e-01,2.680000000000000000e+02
-5.443671955893437371e+02,-5.519056595819050699e+02,-1.178888933353114226e+02,-1.141775700506891553e+02,-3.459399382729559989e+02,-3.547474118556724534e+02,-1.752761759253222635e+02,-1.558709742223363719e+02,9.408499717712402344e+00,-6.119350194931030273e-01,4.589512646198272705e-01,2.690000000000000000e+02
-5.438053743716100144e+02,-5.530062464370863609e+02,-1.158196596415860995e+02,-1.143099803459668919e+02,-3.418430910328582968e+02,-3.540172283293323972e+02,-1.689817989700546264e+02,-1.494809018858047693e+02,9.408499717712402344e+00,-6.119350194931030273e-01,4.589512646198272705e-01,2.700000000000000000e+02
-5.438341321152682895e+02,-5.536987864718679475e+02,-1.139737332804068046e+02,-1.125562178544896597e+02,-3.384761556724182014e+02,-3.529859040587374466e+02,-1.629845182406775166e+02,-1.449811390410710601e+02,9.408499717712402344e+00,-6.119350194931030273e-01,4.589512646198272705e-01,2.710000000000000000e+02
-5.454848161491378278e+02,-5.552040561153668250e+02,-1.136795196146103422e+02,-1.107950032262401692e+02,-3.377333115139922484e+02,-3.527187137630627376e+02,-1.593622509021395786e+02,-1.439923632251634444e+02,9.408499717712402344e+00,-6.119350194931030273e-01,4.589512646198272705e-01,2.720000000000000000e+02
-5.487937084092328632e+02,-5.575344636569808472e+02,-1.152850147160171446e+02,-1.104011818853600744e+02,-3.395744803330956074e+02,-3.535443812696524901e+02,-1.587060114868312439e+02,-1.459398477357068487e+02,9.408499717712402344e+00,-6.119350194931030273e-01,4.589512646198272705e-01,2.730000000000000000e+02
-5.531908224483936465e+02,-5.598001097032663438e+02,-1.183773275884414033e+02,-1.114142883358658764e+02,-3.427758772390824902e+02,-3.549739086605985676e+02,-1.605526113814786981e+02,-1.491078370735708631e+02,9.408499717712402344e+00,-6.119350194931030273e-01,4.589512646198272705e-01,2.740000000000000000e+02
-5.579329111716842817e+02,-5.612063770232933848e+02,-1.224488070965953739e+02,-1.128776410356297220e+02,-3.463228784418419650e+02,-3.562506476417385102e+02,-1.642741162086112183e+02,-1.522727224131770072e+02,9.408499717712402344e+00,-6.119350194931030273e-01,4.589512646198272705e-01,2.750000000000000000e+02
-5.620047206684589582e+02,-5.617353346450777281e+02,-1.271879867475272476e+02,-1.138930877101556689e+02,-3.501027260906951710e+02,-3.570924375421870991e+02,-1.693923507840256661e+02,-1.554614406655762195e+02,9.408499717712402344e+00,-6.119350194931030273e-01,4.589512646198272705e-01,2.760000000000000000e+02
-5.639670363437339802e+02,-5.619593929475072400e+02,-1.321433584586050074e+02,-1.143311524521709543e+02,-3.544542017164950494e+02,-3.579490669301998196e+02,-1.751590279935652745e+02,-1.593713314814709747e+02,9.408499717712402344e+00,-6.119350194931030273e-01,4.589512646198272705e-01,2.770000000000000000e+02
-5.625109416395700919e+02,-5.623814904026235126e+02,-1.363285668408861397e+02,-1.146548583210197876e+02,-3.592716774422890467e+02,-3.595322372321829789e+02,-1.801770546483370481e+02,-1.642353655171293667e+02,9.408499717712402344e+00,-6.119350194931030273e-01,4.589512646198272705e-01,2.780000000000000000e+02
-5.575534984477674243e+02,-5.630729330233958763e+02,-1.384451889139079412e+02,-1.152516954311827249e+02,-3.636481679352345964e+02,-3.620482160755083214e+02,-1.827933063027744538e+02,-1.692583162310088483e+02,9.408499717712402344e+00,-6.119350194931030273e-01,4.589512646198272705e-01,2.790000000000000000e+02
-5.506859459027216417e+02,-5.638965533567928787e+02,-1.377080767829011165e+02,-1.160528090549132685e+02,-3.663497921666802313e+02,-3.648506139119492673e+02,-1.820990401143415340e+02,-1.730529257945784138e+02,9.408499717712402344e+00,-6.119350194931030273e-01,4.589512646198272705e-01,2.800000000000000000e+02
-5.440986379538812798e+02,-5.648443831865541824e+02,-1.345049788318259516e+02,-1.167231235747714209e+02,-3.665803618817197957e+02,-3.668182066093959293e+02,-1.786020666477705845e+02,-1.745508056385190230e+02,9.408499717712402344e+00,-6.119350194931030273e-01,4.589512646198272705e-01,2.810000000000000000e+02
-5.387291901597475317e+02,-5.659397609010087535e+02,-1.302025722464189244e+02,-1.170271570105029468e+02,-3.643657561468543236e+02,-3.670944766290296002e+02,-1.738856095311698198e+02,-1.735858559620195365e+02,9.408499717712402344e+00,-6.119350194931030273e-01,4.589512646198272705e-01,2.820000000000000000e+02
-5.335199922971337401e+02,-5.668144286171245767e+02,-1.262632653931046889e+02,-1.169211610427979622e+02,-3.604158594174038512e+02,-3.655863571849511118e+02,-1.695514170402231002e+02,-1.708228503695577274e+02,9.408499717712402344e+00,-6.119350194931030273e-01,4.589512646198272705e-01,2.830000000000000000e+02
-5.267685432460825723e+02,-5.666213222807689363e+02,-1.234872692609660021e+02,-1.163946409815789593e+02,-3.557935482855634746e+02,-3.629176324999425560e+02,-1.663789325165204218e+02,-1.672988761846853549e+02,9.408499717712402344e+00,-6.119350194931030273e-01,4.589512646198272705e-01,2.840000000000000000e+02
-5.183774908729002391e+02,-5.646597911529090652e+02,-1.220040269024538020e+02,-1.154490665652463122e+02,-3.516951840243667675e+02,-3.600236713284807593e+02,-1.643272927449177701e+02,-1.640425643221125256e+02,9.446745872497558594e+00,-6.119350194931030273e-01,5.354431271553039551e-01,2.850000000000000000e+02
-5.106496187771358564e+02,-5.612221121341690377e+02,-1.217867647590921365e+02,-1.143384455926391183e+02,-3.492688110880436625e+02,-3.577317648068180915e+02,-1.631194584850670140e+02,-1.619233498817304735e+02,9.446745872497558594e+00,-6.119350194931030273e-01,5.354431271553039551e-01,2.860000000000000000e+02
-5.065761212093857466e+02,-5.577349369316482353e+02,-1.229250540069605790e+02,-1.136993652582027607e+02,-3.492431368923861896e+02,-3.564928800264318625e+02,-1.626433103855899844e+02,-1.615287651952263559e+02,9.446745872497558594e+00,-6.119350194931030273e-01,5.354431271553039551e-01,2.870000000000000000e+02
-5.071362909835007713e+02,-5.558315477811634082e+02,-1.252759174050968909e+02,-1.142093702122422769e+02,-3.514296641411783071e+02,-3.562699182488722727e+02,-1.627664986056519183e+02,-1.628866033543430376e+02,9.446745872497558594e+00,-6.119350194931030273e-01,5.354431271553039551e-01,2.880000000000000000e+02
-5.103057738887414416e+02,-5.560614380666577290e+02,-1.279457700079187816e+02,-1.159314242491113873e+02,-3.545224179782746319e+02,-3.565692523939929970e+02,-1.629086094763861183e+02,-1.651749202082521606e+02,9.446745872497558594e+00,-6.119350194931030273e-01,5.354431271553039551e-01,2.890000000000000000e+02
-5.128324483491172714e+02,-5.574390987414246865e+02,-1.294032982263643135e+02,-1.179812285474239957e+02,-3.565941070390601908e+02,-3.566546294164421624e+02,-1.620504515555668661e+02,-1.668205513584796336e+02,9.446745872497558594e+00,-6.119350194931030273e-01,5.354431271553039551e-01,2.900000000000000000e+02
-5.130345919505530219e+02,-5.583306795116286594e+02,-1.284261352864378978e+02,-1.189775348148381227e+02,-3.561738192123578415e+02,-3.559050326470354548e+02,-1.594166501462610768e+02,-1.662403680660509053e+02,9.446745872497558594e+00,-6.119350194931030273e-01,5.354431271553039551e-01,2.910000000000000000e+02
-5.118145480624306174e+02,-5.579134365946675871e+02,-1.251673847404115918e+02,-1.180126891477148092e+02,-3.532190919038070547e+02,-3.541330794534678148e+02,-1.553003553748552861e+02,-1.629254119257847151e+02,9.446745872497558594e+00,-6.119350194931030273e-01,5.354431271553039551e-01,2.920000000000000000e+02
-5.109039693976136505e+02,-5.568506878804814733e+02,-1.212992116061508909e+02,-1.153488929918403869e+02,-3.492099829537545475e+02,-3.516643390626825294e+02,-1.511917351135130900e+02,-1.580530991628279480e+02,9.446745872497558594e+00,-6.119350194931030273e-01,5.354431271553039551e-01,2.930000000000000000e+02
-5.102610149516410161e+02,-5.565425048797239924e+02,-1.189259532647410538e+02,-1.122351941403918545e+02,-3.462023948220848979e+02,-3.491257707765240639e+02,-1.489085399747991119e+02,-1.539752291330427170e+02,9.446745872497558594e+00,-6.119350194931030273e-01,5.354431271553039551e-01,2.940000000000000000e+02
-5.074337046291778961e+02,-5.576422310784797673e+02,-1.190724570058890777e+02,-1.099876795891983647e+02,-3.454633158837747260e+02,-3.470844791046179125e+02,-1.492925393976345276e+02,-1.527262712092149286e+02,9.446745872497558594e+00,-6.119350194931030273e-01,5.354431271553039551e-01,2.950000000000000000e+02
-4.996780911674032950e+02,-5.592448953901521236e+02,-1.210042108412150128e+02,-1.090853418415063061e+02,-3.466882286335315371e+02,-3.457516934841803504e+02,-1.515026000090103082e+02,-1.545902694334540115e+02,9.446745872497558594e+00,-6.119350194931030273e-01,5.354431271553039551e-01,2.960000000000000000e+02
-4.868217195095530769e+02,-5.595552219841631540e+02,-1.229683459926387741e+02,-1.089825803788700682e+02,-3.484020785556454030e+02,-3.449076163434258433e+02,-1.535537978947394322e+02,-1.579215375836669182e+02,9.446745872497558594e+00,-6.119350194931030273e-01,5.354431271553039551e-01,2.970000000000000000e+02
-4.720852860973918155e+02,-5.574943905809579974e+02,-1.237260629429039227e+02,-1.087283655075999036e+02,-3.492406392135413853e+02,-3.441003003651875360e+02,-1.537611125450924021e+02,-1.604897223003056865e+02,9.446745872497558594e+00,-6.119350194931030273e-01,5.354431271553039551e-01,2.980000000000000000e+02
-4.600716434220390738e+02,-5.537979432294257549e+02,-1.235424819538891370e+02,-1.078209661577087104e+02,-3.490648157214616845e+02,-3.430029157801380961e+02,-1.519590402893495309e+02,-1.612686629046974076e+02,9.446745872497558594e+00,-6.119350194931030273e-01,5.354431271553039551e-01,2.990000000000000000e+02
-4.537885626752022290e+02,-5.505590541332163639e+02,-1.237715526300087276e+02,-1.065807043134042260e+02,-3.489735943532907640e+02,-3.416810501626554242e+02,-1.495210673799306278e+02,-1.611269095066153909e+02,9.446745872497558594e+00,-6.119350194931030273e-01,5.354431271553039551e-01,3.000000000000000000e+02
-4.532474625606257064e+02,-5.495554561073352033e+02,-1.254362329503700835e+02,-1.057687424423424432e+02,-3.502155659347110941e+02,-3.405349347991516424e+02,-1.481889026085391379e+02,-1.618191056317770631e+02,9.446745872497558594e+00,-6.119350194931030273e-01,5.354431271553039551e-01,3.010000000000000000e+02
-4.564040198213075428e+02,-5.508131435427425231e+02,-1.281208471379327989e+02,-1.058297237353029914e+02,-3.529572966696626963e+02,-3.399248959950551807e+02,-1.487041116952017319e+02,-1.642427017218795413e+02,9.446745872497558594e+00,-6.119350194931030273e-01,5.354431271553039551e-01,3.020000000000000000e+02
-4.610110462908299382e+02,-5.526747074399553412e+02,-1.302304198365984576e+02,-1.064744346120703540e+02,-3.560133514039813463e+02,-3.398277805199730892e+02,-1.503636354552959915e+02,-1.676104369817604152e+02,9.446745872497558594e+00,-6.119350194931030273e-01,5.354431271553039551e-01,3.030000000000000000e+02
-4.655409078251732922e+02,-5.532803737892161280e+02,-1.303992037438828788e+02,-1.069577948083660317e+02,-3.577560657037296323e+02,-3.398697494589818007e+02,-1.517523161634328517e+02,-1.702449350176552230e+02,9.446745872497558594e+00,-6.119350194931030273e-01,5.354431271553039551e-01,3.040000000000000000e+02
-4.688140097101588140e+02,-5.520989014359533940e+02,-1.287401998610412193e+02,-1.067428834507916804e+02,-3.573424949111240494e+02,-3.397149179673344861e+02,-1.518730672123809882e+02,-1.711007657160292297e+02,9.446745872497558594e+00,-6.119350194931030273e-01,5.354431271553039551e-01,3.050000000000000000e+02
-4.694655627689738253e+02,-5.501361651476809129e+02,-1.267636868713971126e+02,-1.058853663743739162e+02,-3.551713871953659805e+02,-3.393835537684469728e+02,-1.506610774157220476e+02,-1.704823674963400890e+02,9.446745872497558594e+00,-6.119350194931030273e-01,5.354431271553039551e-01,3.060000000000000000e+02
-4.663209944830932159e+02,-5.487211398041191615e+02,-1.260302088220885253e+02,-1.047804285788395759e+02,-3.522848590220291385e+02,-3.391003472550156630e+02,-1.485985357406951834e+02,-1.693714618737270143e+02,9.446745872497558594e+00,-6.119350194931030273e-01,5.354431271553039551e-01,3.070000000000000000e+02
-4.594230180684252787e+02,-5.481200201353610737e+02,-1.268315495405335582e+02,-1.036207411486859655e+02,-3.494793002056182445e+02,-3.388378727003539552e+02,-1.460774121263414145e+02,-1.682923648518107029e+02,9.446745872497558594e+00,-6.119350194931030273e-01,5.354431271553039551e-01,3.080000000000000000e+02
-4.504376577381151492e+02,-5.473213072016487786e+02,-1.281263529626176023e+02,-1.022036313281937510e+02,-3.470323905189604261e+02,-3.381146298768246652e+02,-1.432636375719537227e+02,-1.670328825973105040e+02,9.446745872497558594e+00,-6.119350194931030273e-01,5.354431271553039551e-01,3.090000000000000000e+02
-4.416911721279043945e+02,-5.451206465241756405e+02,-1.286882511703038858e+02,-1.002958683666815887e+02,-3.451210371277921922e+02,-3.363709095969358032e+02,-1.404776926855799388e+02,-1.654211424603172418e+02,9.446745872497558594e+00,-6.119350194931030273e-01,5.354431271553039551e-01,3.100000000000000000e+02
-4.345164773807477445e+02,-5.413468958834058640e+02,-1.282674688913522800e+02,-9.807896211115109963e+01,-3.441709222414289115e+02,-3.335765164843346611e+02,-1.384165398700343985e+02,-1.640639967308417226e+02,9.446745872497558594e+00,-6.119350194931030273e-01,5.354431271553039551e-01,3.110000000000000000e+02
-4.283516132655671527e+02,-5.369940356986770666e+02,-1.276126993000592051e+02,-9.606377252758943541e+01,-3.444922539653010745e+02,-3.303738244824286312e+02,-1.376948770464658764e+02,-1.639551515400123662e+02,9.484992027282714844e+00,-5.736890435218811035e-01,4.971971809864044189e-01,3.120000000000000000e+02
-4.213703859794560458e+02,-5.332259194184991884e+02,-1.274441010521804856e+02,-9.449956699186509468e+01,-3.455444708036138763e+02,-3.275365594259831141e+02,-1.380703206732083572e+02,-1.652339782229162211e+02,9.484992027282714844e+00,-5.736890435218811035e-01,4.971971809864044189e-01,3.130000000000000000e+02
-4.120479428702117275e+02,-5.303829994762543265e+02,-1.275738637118196266e+02,-9.294753920719085727e+01,-3.458506822460851708e+02,-3.252767524600567413e+02,-1.382869776823279153e+02,-1.665590101980093323e+02,9.484992027282714844e+00,-5.736890435218811035e-01,4.971971809864044189e-01,3.140000000000000000e+02
-4.002883764113261122e+02,-5.280178984372988680e+02,-1.271602619003697328e+02,-9.059553167386661698e+01,-3.440351042734017710e+02,-3.231361074643969005e+02,-1.369649941957773081e+02,-1.660759217461576327e+02,9.484992027282714844e+00,-5.736890435218811035e-01,4.971971809864044189e-01,3.150000000000000000e+02
-3.872899076041319404e+02,-5.257903176509015566e+02,-1.258069528737569271e+02,-8.708380600901227808e+01,-3.401871300128868825e+02,-3.205742668189406004e+02,-1.338393224321969228e+02,-1.632205468422066588e+02,9.484992027282714844e+00,-5.736890435218811035e-01,4.971971809864044189e-01,3.160000000000000000e+02
-3.745293298324386342e+02,-5.240684441757276772e+02,-1.242434198103621270e+02,-8.298185736259279111e+01,-3.361460568473064541e+02,-3.176014942862109365e+02,-1.301333286031906482e+02,-1.595205936404563545e+02,9.484992027282714844e+00,-5.736890435218811035e-01,4.971971809864044189e-01,3.170000000000000000e+02
-3.628702029933697304e+02,-5.234559297606371047e+02,-1.237370665074249700e+02,-7.937004117342382870e+01,-3.341764716807542754e+02,-3.147876300467023611e+02,-1.275917880520073595e+02,-1.574113548562780807e+02,9.484992027282714844e+00,-5.736890435218811035e-01,4.971971809864044189e-01,3.180000000000000000e+02
-3.524777322187634354e+02,-5.237691084366641689e+02,-1.247617024267040051e+02,-7.690506625796842854e+01,-3.351000798074489921e+02,-3.126576429113785025e+02,-1.270037517484549880e+02,-1.580785399794615387e+02,9.484992027282714844e+00,-5.736890435218811035e-01,4.971971809864044189e-01,3.190000000000000000e+02
-3.433659903819798274e+02,-5.237457174469087704e+02,-1.263172069052043298e+02,-7.528614060514109951e+01,-3.375917260490714398e+02,-3.111261637605323358e+02,-1.275869261665329759e+02,-1.604126014576356738e+02,9.484992027282714844e+00,-5.736890435218811035e-01,4.971971809864044189e-01,3.200000000000000000e+02
-3.358600896961481794e+02,-5.220635255496880518e+02,-1.266944133017807417e+02,-7.362512964408165317e+01,-3.393126072947993634e+02,-3.095471950001744972e+02,-1.277984707880647761e+02,-1.620945353663354354e+02,9.484992027282714844e+00,-5.736890435218811035e-01,4.971971809864044189e-01,3.210000000000000000e+02
-3.304650151986836590e+02,-5.187486907425793561e+02,-1.250189496382333800e+02,-7.129814585139342853e+01,-3.388160482594144014e+02,-3.072892309596336418e+02,-1.267421009389625510e+02,-1.617154996876899986e+02,9.484992027282714844e+00,-5.736890435218811035e-01,4.971971809864044189e-01,3.220000000000000000e+02
-3.272542447643584183e+02,-5.154416452896955434e+02,-1.221000674489172297e+02,-6.843238521087516801e+01,-3.364655015129914091e+02,-3.042570655278061622e+02,-1.248047520416391762e+02,-1.598584050913534611e+02,9.484992027282714844e+00,-5.736890435218811035e-01,4.971971809864044189e-01,3.230000000000000000e+02
-3.253890848250263161e+02,-5.140102523364514582e+02,-1.197451675130068907e+02,-6.562030347307802458e+01,-3.336521286066654284e+02,-3.008968794584725401e+02,-1.229808582846089848e+02,-1.582000398003688133e+02,9.484992027282714844e+00,-5.736890435218811035e-01,4.971971809864044189e-01,3.240000000000000000e+02
-3.233442256797998198e+02,-5.147237515128240375e+02,-1.192047659346258115e+02,-6.326305359943535223e+01,-3.313264425904271775e+02,-2.977577040065477831e+02,-1.217130245174409424e+02,-1.577596529556417408e+02,9.484992027282714844e+00,-5.736890435218811035e-01,4.971971809864044189e-01,3.250000000000000000e+02
-3.198525815242053341e+02,-5.158047325245260026e+02,-1.202198130570388912e+02,-6.124737622938926052e+01,-3.293955066228434134e+02,-2.950671623038783764e+02,-1.205304599047159400e+02,-1.581750798456317852e+02,9.484992027282714844e+00,-5.736890435218811035e-01,4.971971809864044189e-01,3.260000000000000000e+02
-3.149232358924880373e+02,-5.149757548210413916e+02,-1.215221608049201905e+02,-5.923806076541950461e+01,-3.274799165135495969e+02,-2.926823913918410653e+02,-1.188746850965762860e+02,-1.586480140223959552e+02,9.484992027282714844e+00,-5.736890435218811035e-01,4.971971809864044189e-01,3.270000000000000000e+02
-3.100726790699013691e+02,-5.116584890864284034e+02,-1.221930161951549962e+02,-5.722940811130297334e+01,-3.259484672292519463e+02,-2.904081076911938908e+02,-1.171784003017688747e+02,-1.593141513923693537e+02,9.484992027282714844e+00,-5.736890435218811035e-01,4.971971809864044189e-01,3.280000000000000000e+02
-3.074043034346152581e+02,-5.077029434430729680e+02,-1.224797980716335815e+02,-5.572369399074693774e+01,-3.258238915574380599e+02,-2.883229104759702750e+02,-1.168676690568807999e+02,-1.613050986520313472e+02,9.484992027282714844e+00,-5.736890435218811035e-01,4.971971809864044189e-01,3.290000000000000000e+02
-3.080424964714424050e+02,-5.058432310625489663e+02,-1.232843704902812760e+02,-5.529039400949363880e+01,-3.274725186086834583e+02,-2.867593010152208990e+02,-1.190131429879899088e+02,-1.652476712769770302e+02,9.484992027282714844e+00,-5.736890435218811035e-01,4.971971809864044189e-01,3.300000000000000000e+02
-3.110560631531507170e+02,-5.072165759370192291e+02,-1.249052628972929142e+02,-5.587969876134411606e+01,-3.294731275747504924e+02,-2.858947653150023598e+02,-1.228128513064760909e+02,-1.697645898272130580e+02,9.484992027282714844e+00,-5.736890435218811035e-01,4.971971809864044189e-01,3.310000000000000000e+02
-3.137861778845043546e+02,-5.102039967260020603e+02,-1.263791183887451552e+02,-5.654437807000158500e+01,-3.291519265080280547e+02,-2.853024118618200191e+02,-1.255052393791471559e+02,-1.717939582738305262e+02,9.484992027282714844e+00,-5.736890435218811035e-01,4.971971809864044189e-01,3.320000000000000000e+02
-3.134778539000383262e+02,-5.116869925393792755e+02,-1.262174782260251504e+02,-5.597906973545013898e+01,-3.247190209734530981e+02,-2.839965203244219083e+02,-1.241867879498086040e+02,-1.688862529176393537e+02,9.484992027282714844e+00,-5.736890435218811035e-01,4.971971809864044189e-01,3.330000000000000000e+02
-3.091002775745358804e+02,-5.096039061439211082e+02,-1.239388332770822672e+02,-5.359737355414472404e+01,-3.171993369622847467e+02,-2.811390368228212537e+02,-1.182241994767354072e+02,-1.615973643222854434e+02,9.484992027282714844e+00,-5.736890435218811035e-01,4.971971809864044189e-01,3.340000000000000000e+02
-3.020066252726318226e+02,-5.045381031931264033e+02,-1.209430886777915930e+02,-5.030913205930335153e+01,-3.102516412317015693e+02,-2.769194290248860852e+02,-1.102133910404720609e+02,-1.537514303804487099e+02,9.484992027282714844e+00,-5.736890435218811035e-01,4.971971809864044189e-01,3.350000000000000000e+02
-2.949117988845162017e+02,-4.990398260828461616e+02,-1.197869583027406861e+02,-4.824815854554003636e+01,-3.077360713198070243e+02,-2.727716080087948285e+02,-1.045252169726423972e+02,-1.501123348606164427e+02,9.484992027282714844e+00,-5.736890435218811035e-01,4.971971809864044189e-01,3.360000000000000000e+02
-2.899456095381776777e+02,-4.954855354423416429e+02,-1.223189573556566074e+02,-4.947961166173740821e+01,-3.109089175073065690e+02,-2.705250072333242315e+02,-1.044438112087372019e+02,-1.532140153778642571e+02,9.484992027282714844e+00,-5.736890435218811035e-01,4.971971809864044189e-01,3.370000000000000000e+02
-2.872703783199235659e+02,-4.944796848869590349e+02,-1.281829194507845386e+02,-5.461338582433995725e+01,-3.175339238066894723e+02,-2.710717906708955525e+02,-1.100533476943155620e+02,-1.617906000892356815e+02,9.484992027282714844e+00,-5.736890435218811035e-01,4.971971809864044189e-01,3.380000000000000000e+02
-2.853384584434343196e+02,-4.950381896385762275e+02,-1.349332437454631872e+02,-6.241662844554048206e+01,-3.235889344516037909e+02,-2.736694177194799522e+02,-1.183804998369714667e+02,-1.718713177303174007e+02,9.484992027282714844e+00,-5.736890435218811035e-01,4.971971809864044189e-01,3.390000000000000000e+02
-2.825495219038288042e+02,-4.959887244392666616e+02,-1.396926298783655511e+02,-7.074553272012849447e+01,-3.261095936271417486e+02,-2.765049831996825560e+02,-1.254653599768779486e+02,-1.794818401684995024e+02,9.484992027282714844e+00,-5.736890435218811035e-01,4.971971809864044189e-01,3.400000000000000000e+02
-2.789104399244610022e+02,-4.969929719727880411e+02,-1.410662303053611595e+02,-7.801940129032982441e+01,-3.249379008478279047e+02,-2.780302986740798588e+02,-1.286603906401376207e+02,-1.828610952442481903e+02,9.484992027282714844e+00,-5.736890435218811035e-01,4.971971809864044189e-01,3.410000000000000000e+02
-2.762376703206766706e+02,-4.982517100108800605e+02,-1.398857534877635089e+02,-8.403731014959521417e+01,-3.222573804327265634e+02,-2.779016330346698851e+02,-1.276138711651713038e+02,-1.828295409330628445e+02,9.484992027282714844e+00,-5.736890435218811035e-01,4.971971809864044189e-01,3.420000000000000000e+02
-2.766126225690813953e+02,-4.994963937307118158e+02,-1.383520146498076429e+02,-8.961766973755675281e+01,-3.206379491927417575e+02,-2.768351137022234525e+02,-1.237067868437620746e+02,-1.815303075370534316e+02,9.370253562927246094e+00,-6.119350194931030273e-01,4.589512646198272705e-01,3.430000000000000000e+02
-2.803592244771380138e+02,-4.996092194785422862e+02,-1.383584893925790311e+02,-9.558859350861075654e+01,-3.212650623290633121e+02,-2.757305331848447167e+02,-1.188479487191359567e+02,-1.807957359753218043e+02,9.370253562927246094e+00,-6.119350194931030273e-01,4.589512646198272705e-01,3.440000000000000000e+02
-2.854102927072806324e+02,-4.974260361780901576e+02,-1.402980564498041076e+02,-1.021107958574866643e+02,-3.234982854725112702e+02,-2.749749687481325964e+02,-1.146098000062108895e+02,-1.812402284424483696e+02,9.370253562927246094e+00,-6.119350194931030273e-01,4.589512646198272705e-01,3.450000000000000000e+02
-2.888549594789126331e+02,-4.929299470964937200e+02,-1.431090689513227971e+02,-1.088151401285867905e+02,-3.256559295395675235e+02,-2.744197666903435220e+02,-1.119613542953351271e+02,-1.823346394587315444e+02,9.370253562927246094e+00,-6.119350194931030273e-01,4.589512646198272705e-01,3.460000000000000000e+02
-2.894578572072284715e+02,-4.875942064713617583e+02,-1.452978611517332865e+02,-1.153996108435103451e+02,-3.261446981226067692e+02,-2.737647799934029536e+02,-1.112487798406784805e+02,-1.830566812431825383e+02,9.370253562927246094e+00,-6.119350194931030273e-01,4.589512646198272705e-01,3.470000000000000000e+02
-2.888465045097434540e+02,-4.834680202593009426e+02,-1.460182687760096769e+02,-1.220244720520431656e+02,-3.242095737895817820e+02,-2.728414323036388396e+02,-1.121221866600740213e+02,-1.826047986819496600e+02,9.370253562927246094e+00,-6.119350194931030273e-01,4.589512646198272705e-01,3.480000000000000000e+02
-2.900716911913466447e+02,-4.817967577873218943e+02,-1.454159906828167550e+02,-1.291905895992781552e+02,-3.201256498690274839e+02,-2.716327169401129140e+02,-1.135178989732469290e+02,-1.808618741141683586e+02,9.370253562927246094e+00,-6.119350194931030273e-01,4.589512646198272705e-01,3.490000000000000000e+02
-2.946432807568996850e+02,-4.822871320929830290e+02,-1.441646361116368098e+02,-1.373007517558264681e+02,-3.149816170586486805e+02,-2.702315980551097709e+02,-1.139771433858441014e+02,-1.784611497169248651e+02,9.370253562927246094e+00,-6.119350194931030273e-01,4.589512646198272705e-01,3.500000000000000000e+02
-3.008180246043316401e+02,-4.834187308280770594e+02,-1.427993822521857510e+02,-1.462861605650064121e+02,-3.102096637079737320e+02,-2.688627296683976056e+02,-1.123160805303459711e+02,-1.764242943468461817e+02,9.370253562927246094e+00,-6.119350194931030273e-01,4.589512646198272705e-01,3.510000000000000000e+02
-3.050017512311096652e+02,-4.833225928175838817e+02,-1.414877386077482697e+02,-1.555039221631234341e+02,-3.069619040560112353e+02,-2.677994028669390900e+02,-1.082704330698570629e+02,-1.755331571774659096e+02,9.370253562927246094e+00,-6.119350194931030273e-01,4.589512646198272705e-01,3.520000000000000000e+02
-3.051388508187405932e+02,-4.805607183947161047e+02,-1.403270401739796398e+02,-1.639239301682996484e+02,-3.055449701242841911e+02,-2.670683343281639281e+02,-1.026703027398358472e+02,-1.758151194018139449e+02,9.370253562927246094e+00,-6.119350194931030273e-01,4.589512646198272705e-01,3.530000000000000000e+02
-3.028403845429370449e+02,-4.745957589179315619e+02,-1.396763564815089467e+02,-1.705552304209563772e+02,-3.052877886859910177e+02,-2.662148326704350438e+02,-9.702312041026959832e+01,-1.765460768394236766e+02,9.370253562927246094e+00,-6.119350194931030273e-01,4.589512646198272705e-01,3.540000000000000000e+02
-3.019806927060985799e+02,-4.660782947091392998e+02,-1.400302833758864836e+02,-1.749935586281885662e+02,-3.050416198320390322e+02,-2.645293951363237284e+02,-9.276335532858752231e+01,-1.768068906733897165e+02,9.370253562927246094e+00,-6.119350194931030273e-01,4.589512646198272705e-01,3.550000000000000000e+02
-3.049134244459826277e+02,-4.568937782291345684e+02,-1.414917576893151363e+02,-1.777913466797217552e+02,-3.040332734422727299e+02,-2.617001166782224573e+02,-9.059429680824041498e+01,-1.761707344292158268e+02,9.370253562927246094e+00,-6.119350194931030273e-01,4.589512646198272705e-01,3.560000000000000000e+02
-3.100600981544214392e+02,-4.496472326571047233e+02,-1.434517339965188967e+02,-1.803058204096337249e+02,-3.024691868255190457e+02,-2.582866980101948684e+02,-9.027480268272438479e+01,-1.750038036620890125e+02,9.370253562927246094e+00,-6.119350194931030273e-01,4.589512646198272705e-01,3.570000000000000000e+02
-3.135570341443858524e+02,-4.465335703357334296e+02,-1.450135129695884189e+02,-1.840182388791540689e+02,-3.014581275652853947e+02,-2.554685095348013419e+02,-9.098399189806627874e+01,-1.742330199324874229e+02,9.370253562927246094e+00,-6.119350194931030273e-01,4.589512646198272705e-01,3.580000000000000000e+02
-3.136231731729817511e+02,-4.481635997301634688e+02,-1.459063299080926299e+02,-1.897482235883207977e+02,-3.023105513320238060e+02,-2.542005052832109868e+02,-9.202754215183654196e+01,-1.748510334056484226e+02,9.370253562927246094e+00,-6.119350194931030273e-01,4.589512646198272705e-01,3.590000000000000000e+02
-3.133012519584065103e+02,-4.532629828366439142e+02,-1.469875731298257051e+02,-1.973444856298535797e+02,-3.057431467572266683e+02,-2.545513612068225484e+02,-9.339900655281132913e+01,-1.775371540850474048e+02,9.370253562927246094e+00,-6.119350194931030273e-01,4.589512646198272705e-01,3.600000000000000000e+02
-3.184620169993959280e+02,-4.596016298701033520e+02,-1.496894310873633458e+02,-2.060677646243721028e+02,-3.115444923122977343e+02,-2.558568553699765289e+02,-9.576510194134220910e+01,-1.825435496466443510e+02,9.370253562927246094e+00,-6.119350194931030273e-01,4.589512646198272705e-01,3.610000000000000000e+02
-3.324864631198088318e+02,-4.654603625535955871e+02,-1.548050907822444060e+02,-2.152948119233064972e+02,-3.188974263288250768e+02,-2.575114021794774999e+02,-9.987225314000238541e+01,-1.897419826882548932e+02,9.370253562927246094e+00,-6.119350194931030273e-01,4.589512646198272705e-01,3.620000000000000000e+02
-3.525277688838173162e+02,-4.704670745121761684e+02,-1.617856606428535997e+02,-2.249578186119076690e+02,-3.270935351285379511e+02,-2.596218170957381517e+02,-1.059079593498781833e+02,-1.987301615697874695e+02,9.370253562927246094e+00,-6.119350194931030273e-01,4.589512646198272705e-01,3.630000000000000000e+02
-3.711058154978948096e+02,-4.752457197719784290e+02,-1.693297331677244983e+02,-2.354293211445351517e+02,-3.360959937056054514e+02,-2.629205326976261858e+02,-1.134497790409857316e+02,-2.090185485647739370e+02,9.484992027282714844e+00,-6.501809358596801758e-01,4.971971809864044189e-01,3.640000000000000000e+02
-3.818845191488208002e+02,-4.804084627326510599e+02,-1.767581830472788624e+02,-2.470569494162198225e+02,-3.465079091492966654e+02,-2.680850522072314561e+02,-1.220779194091585396e+02,-2.202950578086843052e+02,9.484992027282714844e+00,-6.501809358596801758e-01,4.971971809864044189e-01,3.650000000000000000e+02
-3.845449775927127121e+02,-4.859292851736577177e+02,-1.847997174344066025e+02,-2.597694910736490783e+02,-3.589358001095313284e+02,-2.751263535046618927e+02,-1.320081970842993542e+02,-2.325794483121380836e+02,9.484992027282714844e+00,-6.501809358596801758e-01,4.971971809864044189e-01,3.660000000000000000e+02
-3.844722229435128611e+02,-4.913776153659696320e+02,-1.948878453663692198e+02,-2.730061629052765966e+02,-3.731986847598593613e+02,-2.833394417567337769e+02,-1.439465237934662127e+02,-2.460024744739721427e+02,9.484992027282714844e+00,-6.501809358596801758e-01,4.971971809864044189e-01,3.670000000000000000e+02
-3.877782860948409507e+02,-4.965399300166827743e+02,-2.075205227266851580e+02,-2.859640615189016444e+02,-3.880071929445550722e+02,-2.917614352475725354e+02,-1.580878416428897708e+02,-2.602430733582086759e+02,9.484992027282714844e+00,-6.501809358596801758e-01,4.971971809864044189e-01,3.680000000000000000e+02
-3.963557978929795809e+02,-5.016117164858142132e+02,-2.212205217095965963e+02,-2.979696752522254428e+02,-4.014098355364696999e+02,-2.996719249702114212e+02,-1.731102533529767697e+02,-2.740835858281052424e+02,9.484992027282714844e+00,-6.501809358596801758e-01,4.971971809864044189e-01,3.690000000000000000e+02
-4.072664727960041091e+02,-5.067200117245670299e+02,-2.331276916619278836e+02,-3.087407788053499189e+02,-4.117209591995601841e+02,-3.067474171390063020e+02,-1.862128820849779913e+02,-2.856067589852557376e+02,9.484992027282714844e+00,-6.501809358596801758e-01,4.971971809864044189e-01,3.700000000000000000e+02
-4.164525073938241349e+02,-5.113555955761109999e+02,-2.407685237593354941e+02,-3.183702398732484653e+02,-4.182590204789632935e+02,-3.128713265014903300e+02,-1.944256428587646042e+02,-2.930832613923566896e+02,9.484992027282714844e+00,-6.501809358596801758e-01,4.971971809864044189e-01,3.710000000000000000e+02
-4.228259644278080032e+02,-5.144056892860705830e+02,-2.435045456878599452e+02,-3.270156193270727272e+02,-4.213820659673215232e+02,-3.178916457077766609e+02,-1.962854426952619633e+02,-2.959463110528060952e+02,9.484992027282714844e+00,-6.501809358596801758e-01,4.971971809864044189e-01,3.720000000000000000e+02
-4.288896627706949403e+02,-5.148531139192086812e+02,-2.425625837936577227e+02,-3.345348731430497082e+02,-4.219250556747065275e+02,-3.216272768248222746e+02,-1.926266491871917879e+02,-2.951020063535763711e+02,9.484992027282714844e+00,-6.501809358596801758e-01,4.971971809864044189e-01,3.730000000000000000e+02
-4.377486273864387840e+02,-5.125089783560670185e+02,-2.398653551375859934e+02,-3.404116632516590926e+02,-4.206139553412238001e+02,-3.241249622090795128e+02,-1.859691356959256154e+02,-2.923462408928539844e+02,9.484992027282714844e+00,-6.501809358596801758e-01,4.971971809864044189e-01,3.740000000000000000e+02
-4.498142214143949786e+02,-5.081251319873781540e+02,-2.368050693502505055e+02,-3.441258199934879940e+02,-4.179121605598393216e+02,-3.258627701778832488e+02,-1.790795735851572772e+02,-2.893592446989071050e+02,9.484992027282714844e+00,-6.501809358596801758e-01,4.971971809864044189e-01,3.750000000000000000e+02
-4.624232399622994762e+02,-5.028572461330495571e+02,-2.338646292602227277e+02,-3.457032897055082685e+02,-4.142308833185102230e+02,-3.275838273993917937e+02,-1.737644101177049833e+02,-2.869872346224628927e+02,9.484992027282714844e+00,-6.501809358596801758e-01,4.971971809864044189e-01,3.760000000000000000e+02
-4.724720252600222921e+02,-4.976125659049944261e+02,-2.310136348627142979e+02,-3.459144807464899714e+02,-4.100776400076338177e+02,-3.297485021167258310e+02,-1.705179774158291366e+02,-2.851712891919671620e+02,9.484992027282714844e+00,-6.501809358596801758e-01,4.971971809864044189e-01,3.770000000000000000e+02
-4.792559115032620412e+02,-4.927976024695622073e+02,-2.282091330344310336e+02,-3.458790355547598665e+02,-4.059101484501165942e+02,-3.320554214103708546e+02,-1.688956908793375078e+02,-2.833760009302077378e+02,9.484992027282714844e+00,-6.501809358596801758e-01,4.971971809864044189e-01,3.780000000000000000e+02
-4.847523369210430246e+02,-4.884571779317766413e+02,-2.255211745294282082e+02,-3.463715389485482774e+02,-4.019002368634578488e+02,-3.335433473063726524e+02,-1.680684855147621874e+02,-2.811036755922320935e+02,9.484992027282714844e+00,-6.501809358596801758e-01,4.971971809864044189e-01,3.790000000000000000e+02
-4.912858723108347476e+02,-4.844318156903625550e+02,-2.229676570502579125e+02,-3.474163278102996628e+02,-3.979473849726957724e+02,-3.333226166890417517e+02,-1.671920121742423362e+02,-2.781799588649287216e+02,9.484992027282714844e+00,-6.501809358596801758e-01,4.971971809864044189e-01,3.800000000000000000e+02
-4.990699626482751228e+02,-4.803415630109907397e+02,-2.204049783407601808e+02,-3.484781776290037669e+02,-3.939511240543465647e+02,-3.313545688815397625e+02,-1.655749088140830736e+02,-2.747482964348666883e+02,9.484992027282714844e+00,-6.501809358596801758e-01,4.971971809864044189e-01,3.810000000000000000e+02
-5.060726525035379382e+02,-4.755986595904569185e+02,-2.176165652295208019e+02,-3.489814866854662796e+02,-3.899841749781930957e+02,-3.285416240333988753e+02,-1.627790505067853246e+02,-2.710563988745268489e+02,9.484992027282714844e+00,-6.501809358596801758e-01,4.971971809864044189e-01,3.820000000000000000e+02
-5.102279059008621971e+02,-4.696888879388557143e+02,-2.144190632331610686e+02,-3.486310502161686600e+02,-3.860477524444256687e+02,-3.259743217671757520e+02,-1.586605635987205005e+02,-2.671222036475323875e+02,9.484992027282714844e+00,-6.501809358596801758e-01,4.971971809864044189e-01,3.830000000000000000e+02
-5.116953021608519521e+02,-4.625741664782076441e+02,-2.106090067722718686e+02,-3.472838546415405290e+02,-3.816127726018194153e+02,-3.239611749572254666e+02,-1.532954707485957897e+02,-2.624642155563933557e+02,9.484992027282714844e+00,-6.501809358596801758e-01,4.971971809864044189e-01,3.840000000000000000e+02
-5.128615101542877710e+02,-4.547651663217325222e+02,-2.058344337586383972e+02,-3.446317343412006267e+02,-3.755293343684265892e+02,-3.217061382201718516e+02,-1.468268221670896310e+02,-2.561498503445925508e+02,9.484992027282714844e+00,-6.501809358596801758e-01,4.971971809864044189e-01,3.850000000000000000e+02
-5.160324154077623007e+02,-4.468564780315618918e+02,-1.996252771247757209e+02,-3.401522581364270081e+02,-3.666417847899174376e+02,-3.179282844341187229e+02,-1.393785653689174069e+02,-2.472942884403369135e+02,9.484992027282714844e+00,-6.501809358596801758e-01,4.971971809864044189e-01,3.860000000000000000e+02
-5.210921854792322847e+02,-4.389343954361852411e+02,-1.916896638869391154e+02,-3.334773250081411788e+02,-3.547665090052842061e+02,-3.118726645034894318e+02,-1.311260250571992856e+02,-2.357949251381323847e+02,9.484992027282714844e+00,-6.501809358596801758e-01,4.971971809864044189e-01,3.870000000000000000e+02
-5.255090421506306484e+02,-4.305326920169793539e+02,-1.822919088761927924e+02,-3.248600790085120025e+02,-3.412100204589571604e+02,-3.038764502221670227e+02,-1.224172997473569922e+02,-2.227446485530367681e+02,9.484992027282714844e+00,-6.501809358596801758e-01,4.971971809864044189e-01,3.880000000000000000e+02
-5.268398250505306351e+02,-4.212811365889315312e+02,-1.723885490291261249e+02,-3.152674133279406306e+02,-3.282826557546507047e+02,-2.951003654793157693e+02,-1.137495442256156366e+02,-2.100841300282054362e+02,9.484992027282714844e+00,-5.736890435218811035e-01,4.589512646198272705e-01,3.890000000000000000e+02
-5.253477764170042974e+02,-4.116033583745643227e+02,-1.633382047497304939e+02,-3.059261438758962868e+02,-3.180708635285254786e+02,-2.867404909751194282e+02,-1.055669565040043381e+02,-1.996230778556478072e+02,9.484992027282714844e+00,-5.736890435218811035e-01,4.589512646198272705e-01,3.900000000000000000e+02
-5.240762533181500658e+02,-4.026522640230887191e+02,-1.563086376106098214e+02,-2.976481109623637167e+02,-3.113397247396419516e+02,-2.793770404066549418e+02,-9.809398069966709954e+01,-1.921058650834156651e+02,9.484992027282714844e+00,-5.736890435218811035e-01,4.589512646198272705e-01,3.910000000000000000e+02
-5.260823680422163307e+02,-3.954107653542923799e+02,-1.517248364155518630e+02,-2.904628876860083437e+02,-3.073154427378574383e+02,-2.728757272703892340e+02,-9.143182313832267027e+01,-1.870065067327695942e+02,9.484992027282714844e+00,-5.736890435218811035e-01,4.589512646198272705e-01,3.920000000000000000e+02
-5.313696425607895435e+02,-3.898190184318552838e+02,-1.490928644180542051e+02,-2.838513403551414740e+02,-3.043885716740610405e+02,-2.667843922873789779e+02,-8.584393873684302889e+01,-1.831556056288372929e+02,9.484992027282714844e+00,-5.736890435218811035e-01,4.589512646198272705e-01,3.930000000000000000e+02
-5.366003225858376027e+02,-3.848373708386402541e+02,-1.473158593150867546e+02,-2.773540287214104865e+02,-3.011147226353732549e+02,-2.608352509459514295e+02,-8.185972887662092035e+01,-1.796276488452303965e+02,9.484992027282714844e+00,-5.736890435218811035e-01,4.589512646198272705e-01,3.940000000000000000e+02
-5.381367306174543046e+02,-3.794245336889548526e+02,-1.453181954110161769e+02,-2.710042726742185550e+02,-2.967996594889109474e+02,-2.551746717829564659e+02,-7.993161759353847629e+01,-1.761621800980765329e+02,9.484992027282714844e+00,-5.736890435218811035e-01,4.589512646198272705e-01,3.950000000000000000e+02
-5.357157658084420291e+02,-3.734485450610648059e+02,-1.425622777474891336e+02,-2.652056258572670231e+02,-2.914162403181376249e+02,-2.501848611336481554e+02,-7.981229841427716565e+01,-1.728542097678955543e+02,9.484992027282714844e+00,-5.736890435218811035e-01,4.589512646198272705e-01,3.960000000000000000e+02
-5.332188493859430309e+02,-3.676063663377387911e+02,-1.390842944239998360e+02,-2.601789638756577006e+02,-2.851365385037147462e+02,-2.460501660495078795e+02,-8.018849336022776697e+01,-1.694975367923780141e+02,9.484992027282714844e+00,-5.736890435218811035e-01,4.589512646198272705e-01,3.970000000000000000e+02
-5.355442961136091071e+02,-3.624893433113140873e+02,-1.350830932178830608e+02,-2.555404068639850266e+02,-2.779956643349632941e+02,-2.424364305029307616e+02,-7.907611855835261849e+01,-1.652871525530840700e+02,9.484992027282714844e+00,-5.736890435218811035e-01,4.589512646198272705e-01,3.980000000000000000e+02
-5.442371809907085662e+02,-3.578224528993007425e+02,-1.304945525865471154e+02,-2.504590918167841664e+02,-2.699669775364445741e+02,-2.385748657348690358e+02,-7.489427621810546043e+01,-1.592466283158896658e+02,9.484992027282714844e+00,-5.736890435218811035e-01,4.589512646198272705e-01,3.990000000000000000e+02
-5.558083289620080905e+02,-3.526965487088550617e+02,-1.250520766650981841e+02,-2.442929348762299924e+02,-2.613363965725279741e+02,-2.337306036322211185e+02,-6.754208666657314097e+01,-1.511114676464189870e+02,9.484992027282714844e+00,-5.736890435218811035e-01,4.589512646198272705e-01,4.000000000000000000e+02
-5.642661649877809396e+02,-3.465324524837551508e+02,-1.188847275463249389e+02,-2.371462293874774332e+02,-2.530047432661349376e+02,-2.277205000073286101e+02,-5.872282364324905757e+01,-1.419684432340845888e+02,9.484992027282714844e+00,-5.736890435218811035e-01,4.589512646198272705e-01,4.010000000000000000e+02
-5.656063732775987773e+02,-3.397319993849093862e+02,-1.130731575980037178e+02,-2.298532468297798914e+02,-2.463611353933747523e+02,-2.210771094133169754e+02,-5.121344323465768866e+01,-1.340335166442519039e+02,9.484992027282714844e+00,-5.736890435218811035e-01,4.589512646198272705e-01,4.020000000000000000e+02
-5.604335463550378336e+02,-3.333283580192278350e+02,-1.094194916113892759e+02,-2.234276343594642640e+02,-2.426549476462428174e+02,-2.147434906243165642e+02,-4.746127356427518862e+01,-1.295208989277339242e+02,9.484992027282714844e+00,-5.736890435218811035e-01,4.589512646198272705e-01,4.030000000000000000e+02
-5.527903300422822213e+02,-3.280275312038149877e+02,-1.092628334075325256e+02,-2.184587477248792311e+02,-2.421569176968041575e+02,-2.095399712860548789e+02,-4.830018569642379589e+01,-1.292373323340011666e+02,9.484992027282714844e+00,-5.736890435218811035e-01,4.589512646198272705e-01,4.040000000000000000e+02
-5.466687687874045878e+02,-3.236618546992262964e+02,-1.121319122109398450e+02,-2.149006404759747966e+02,-2.436674801314102297e+02,-2.057647534397051459e+02,-5.248583500110726163e+01,-1.318526394987097774e+02,9.484992027282714844e+00,-5.736890435218811035e-01,4.589512646198272705e-01,4.050000000000000000e+02
-5.433734789563477534e+02,-3.195778566553408382e+02,-1.154580704639267879e+02,-2.122638167290206184e+02,-2.448327486369989856e+02,-2.031133926788074859e+02,-5.727590307518357804e+01,-1.344539162550977380e+02,9.484992027282714844e+00,-5.736890435218811035e-01,4.589512646198272705e-01,4.060000000000000000e+02
-5.415943688977931743e+02,-3.154643328971924348e+02,-1.159141632054631827e+02,-2.099082366913057740e+02,-2.432672004262963128e+02,-2.008764064302918086e+02,-5.973696758293453968e+01,-1.341531760057882821e+02,9.484992027282714844e+00,-5.736890435218811035e-01,4.589512646198272705e-01,4.070000000000000000e+02
-5.394072962280570209e+02,-3.116846280099516662e+02,-1.115937041677250363e+02,-2.072223453759911536e+02,-2.378899001470726944e+02,-1.982950107520568963e+02,-5.810469544698617028e+01,-1.297404132313004084e+02,9.484992027282714844e+00,-5.736890435218811035e-01,4.589512646198272705e-01,4.080000000000000000e+02
-5.360581263997291899e+02,-3.087623778641573153e+02,-1.033778875560949473e+02,-2.037296047949921558e+02,-2.296120764803517886e+02,-1.949412741009355159e+02,-5.252017069164662644e+01,-1.223015734154132588e+02,9.484992027282714844e+00,-5.736890435218811035e-01,4.589512646198272705e-01,4.090000000000000000e+02
-5.321682766285002799e+02,-3.066119892825558964e+02,-9.431283426102504563e+01,-1.992401836985227419e+02,-2.208255712932377719e+02,-1.909632145956193199e+02,-4.478150155003436339e+01,-1.144084116061353598e+02,9.484992027282714844e+00,-5.736890435218811035e-01,4.589512646198272705e-01,4.100000000000000000e+02
-5.287242011952598659e+02,-3.043872200743721805e+02,-8.741107603201658094e+01,-1.939947654556917769e+02,-2.139586822371898052e+02,-1.869953733882402958e+02,-3.728817608210943035e+01,-1.084961894213474807e+02,9.484992027282714844e+00,-5.736890435218811035e-01,4.589512646198272705e-01,4.110000000000000000e+02
-5.261101104119888987e+02,-3.011384806029750507e+02,-8.362437067443806882e+01,-1.885923542870154961e+02,-2.100490096681655814e+02,-1.836807003491312571e+02,-3.179842060127725745e+01,-1.055329811800402240e+02,9.484992027282714844e+00,-5.736890435218811035e-01,4.589512646198272705e-01,4.120000000000000000e+02
-5.239809106976131261e+02,-2.966184132129524187e+02,-8.161544389178834535e+01,-1.836526381443804894e+02,-2.083359458882105173e+02,-1.811128350713770487e+02,-2.873177711515631927e+01,-1.047697065926540745e+02,9.484992027282714844e+00,-5.736890435218811035e-01,4.589512646198272705e-01,4.130000000000000000e+02
-5.218178507048660322e+02,-2.914501367643451886e+02,-7.939096833535313635e+01,-1.794412921702687527e+02,-2.071120976687611801e+02,-1.786703455199635755e+02,-2.735445962828566735e+01,-1.045290602147297250e+02,9.484992027282714844e+00,-5.736890435218811035e-01,4.589512646198272705e-01,4.140000000000000000e+02
-5.195516793565143416e+02,-2.865357682921371634e+02,-7.621587355860810931e+01,-1.757519064462817369e+02,-2.050786856158424598e+02,-1.754400910274716807e+02,-2.655290324936459001e+01,-1.033124392365307358e+02,9.484992027282714844e+00,-5.736890435218811035e-01,4.589512646198272705e-01,4.150000000000000000e+02
-5.177810818526604635e+02,-2.823291042137811928e+02,-7.308499814824699570e+01,-1.721256074097555029e+02,-2.021413268662122391e+02,-1.709131610987242311e+02,-2.559614521199478077e+01,-1.005320650494377333e+02,9.408499717712402344e+00,-6.501809358596801758e-01,4.971971809864044189e-01,4.160000000000000000e+02
-5.174404787235362164e+02,-2.786953764591244180e+02,-7.144169712449456711e+01,-1.682152234559071076e+02,-1.991257109000821401e+02,-1.653654311474879250e+02,-2.443148844812162679e+01,-9.663450860513103180e+01,9.408499717712402344e+00,-6.501809358596801758e-01,4.971971809864044189e-01,4.170000000000000000e+02
-5.190576799277660029e+02,-2.754020578108193149e+02,-7.148575014761991042e+01,-1.640395155389328465e+02,-1.968115886975683679e+02,-1.596434629558434608e+02,-2.347108848511379620e+01,-9.275388400562542301e+01,9.408499717712402344e+00,-6.501809358596801758e-01,4.971971809864044189e-01,4.180000000000000000e+02
-5.220516176657579308e+02,-2.725896852643459169e+02,-7.175526355792544564e+01,-1.599873713460046929e+02,-1.952006053532149963e+02,-1.546105741708306596e+02,-2.314897480906120109e+01,-9.014212399919915697e+01,9.408499717712402344e+00,-6.501809358596801758e-01,4.971971809864044189e-01,4.190000000000000000e+02
-5.246947149322572841e+02,-2.706501924846361362e+02,-7.039081554828817389e+01,-1.565977832709659197e+02,-1.936112543399176502e+02,-1.507334462926687593e+02,-2.356564152376108723e+01,-8.955935637021593720e+01,9.408499717712402344e+00,-6.501809358596801758e-01,4.971971809864044189e-01,4.200000000000000000e+02
-5.250596040924801855e+02,-2.696218399995827895e+02,-6.687344324581408728e+01,-1.542380423022636933e+02,-1.913938319949033939e+02,-1.480378409597869904e+02,-2.437510439480797686e+01,-9.082786851052105703e+01,9.408499717712402344e+00,-6.501809358596801758e-01,4.971971809864044189e-01,4.210000000000000000e+02
-5.224550893400073619e+02,-2.688047509581651866e+02,-6.259968567303576492e+01,-1.528465925702598724e+02,-1.885427839170906736e+02,-1.462804922901118516e+02,-2.493946512744446409e+01,-9.283375154623445269e+01,9.408499717712402344e+00,-6.501809358596801758e-01,4.971971809864044189e-01,4.220000000000000000e+02
-5.181339418667794234e+02,-2.671328010104502937e+02,-5.977154911857223851e+01,-1.519286034325041328e+02,-1.856489438370658718e+02,-1.451048907731260442e+02,-2.469403809632467528e+01,-9.409738278036365955e+01,9.408499717712402344e+00,-6.501809358596801758e-01,4.971971809864044189e-01,4.230000000000000000e+02
-5.144350951238920970e+02,-2.640465447841334026e+02,-5.960235535095489467e+01,-1.508446399373210625e+02,-1.832947419512370288e+02,-1.441171051035330493e+02,-2.353696912411919584e+01,-9.361714410772219708e+01,9.408499717712402344e+00,-6.501809358596801758e-01,4.971971809864044189e-01,4.240000000000000000e+02
-5.129157320151271051e+02,-2.600349988503890017e+02,-6.138483797263597808e+01,-1.491908601349382479e+02,-1.814852727674528978e+02,-1.429699333400972137e+02,-2.197111007777698433e+01,-9.138062394280950684e+01,9.408499717712402344e+00,-6.501809358596801758e-01,4.971971809864044189e-01,4.250000000000000000e+02
-5.131590784969562264e+02,-2.562689791234661243e+02,-6.311432501306353515e+01,-1.469400149942944154e+02,-1.796181508867130106e+02,-1.414739551880802537e+02,-2.081528903925800478e+01,-8.813982867860840997e+01,9.408499717712402344e+00,-6.501809358596801758e-01,4.971971809864044189e-01,4.260000000000000000e+02
-5.134512688007012002e+02,-2.536218733843797963e+02,-6.300087078807518992e+01,-1.442076277195692455e+02,-1.769774072411396446e+02,-1.396233558819467362e+02,-2.060243760320418005e+01,-8.467067540609423304e+01,9.408499717712402344e+00,-6.501809358596801758e-01,4.971971809864044189e-01,4.270000000000000000e+02
-5.126920413717198244e+02,-2.519783204240666237e+02,-6.058700908003811492e+01,-1.409260720326924456e+02,-1.733016904435917240e+02,-1.375094610465080223e+02,-2.111526064895542731e+01,-8.120493556903329591e+01,9.408499717712402344e+00,-6.501809358596801758e-01,4.971971809864044189e-01,4.280000000000000000e+02
-5.115619941353443210e+02,-2.504261895368381374e+02,-5.670780437786925177e+01,-1.368261440020519331e+02,-1.689284073642238582e+02,-1.352129912925938697e+02,-2.144286155219720058e+01,-7.749003796979332037e+01,9.408499717712402344e+00,-6.501809358596801758e-01,4.971971809864044189e-01,4.290000000000000000e+02
-5.116384575048941770e+02,-2.480811299652937123e+02,-5.255301505635088688e+01,-1.317936460187324883e+02,-1.644201432168356405e+02,-1.327893468463548743e+02,-2.053437496413630470e+01,-7.328589288346893227e+01,9.408499717712402344e+00,-6.501809358596801758e-01,4.971971809864044189e-01,4.300000000000000000e+02
-5.133237572449011168e+02,-2.447376266847954867e+02,-4.875202577505706358e+01,-1.262147343635556354e+02,-1.600576376051653824e+02,-1.303222479025844223e+02,-1.783030394737306779e+01,-6.870872346426585864e+01,9.408499717712402344e+00,-6.501809358596801758e-01,4.971971809864044189e-01,4.310000000000000000e+02
-5.148956987042261062e+02,-2.408080964011992364e+02,-4.521183499256312643e+01,-1.208728303442649121e+02,-1.556985636436115783e+02,-1.279048822539020875e+02,-1.353705497387682044e+01,-6.410537831441752132e+01,9.408499717712402344e+00,-6.501809358596801758e-01,4.971971809864044189e-01,4.320000000000000000e+02
-5.139732712619770609e+02,-2.367895501939242422e+02,-4.169148017921634164e+01,-1.164402512974502315e+02,-1.511511883075963851e+02,-1.255453910850364991e+02,-8.481403885632062156e+00,-5.973969261244837980e+01,9.408499717712402344e+00,-6.501809358596801758e-01,4.971971809864044189e-01,4.330000000000000000e+02
-5.101197054485060107e+02,-2.329096969524275664e+02,-3.845584264644730865e+01,-1.130538691269698575e+02,-1.466998422146034500e+02,-1.231334413667536865e+02,-3.786024637883656396e+00,-5.575598834253059977e+01,9.408499717712402344e+00,-6.501809358596801758e-01,4.971971809864044189e-01,4.340000000000000000e+02
-5.058827192970647957e+02,-2.292665234455362224e+02,-3.633110301107353735e+01,-1.103789756477453921e+02,-1.432111775375810794e+02,-1.205716645943798540e+02,-5.530449194789071043e-01,-5.246710051201216629e+01,9.408499717712402344e+00,-6.501809358596801758e-01,4.971971809864044189e-01,4.350000000000000000e+02
-5.048950840920242626e+02,-2.261247887233075744e+02,-3.603245967699467656e+01,-1.080085813137866353e+02,-1.415644667083452077e+02,-1.179334564415471505e+02,4.971437012140995648e-01,-5.048215975392031396e+01,9.408499717712402344e+00,-6.501809358596801758e-01,4.971971809864044189e-01,4.360000000000000000e+02
-5.085926432880851280e+02,-2.238623575821043232e+02,-3.734166396652426556e+01,-1.057155310660996292e+02,-1.418140690580444243e+02,-1.154242901952598004e+02,-5.421052376259467565e-01,-5.028996539922627562e+01,9.408499717712402344e+00,-6.501809358596801758e-01,4.971971809864044189e-01,4.370000000000000000e+02
-5.147098599195001043e+02,-2.225202031681087647e+02,-3.894432870231958077e+01,-1.033563133916891275e+02,-1.428663529956311322e+02,-1.131690427367402663e+02,-2.533675765585712725e+00,-5.159235577138861117e+01,9.408499717712402344e+00,-6.501809358596801758e-01,4.971971809864044189e-01,4.380000000000000000e+02
-5.192093292789681982e+02,-2.214703077734029648e+02,-3.921448306847014464e+01,-1.006994821439084262e+02,-1.430826479750353428e+02,-1.110808608597581042e+02,-3.675349460150300729e+00,-5.313643466143093974e+01,9.408499717712402344e+00,-6.501809358596801758e-01,4.971971809864044189e-01,4.390000000000000000e+02
-5.200096088112904908e+02,-2.197037144607338632e+02,-3.736716657428314647e+01,-9.753421781108681898e+01,-1.414027235519065471e+02,-1.090036442547848310e+02,-2.523632651615571376e+00,-5.344122040088905123e+01,9.408499717712402344e+00,-6.501809358596801758e-01,4.971971809864044189e-01,4.400000000000000000e+02
-5.190365299431468884e+02,-2.166046546407856113e+02,-3.397428667247754674e+01,-9.397593212687888808e+01,-1.380558042765796927e+02,-1.069680676900479739e+02,9.882788309657826176e-01,-5.189505468709148772e+01,9.408499717712402344e+00,-6.501809358596801758e-01,4.971971809864044189e-01,4.410000000000000000e+02
-5.206152086700271866e+02,-2.125027087049097645e+02,-3.035847165046061491e+01,-9.050518736290223387e+01,-1.342362037124007657e+02,-1.051972072735552501e+02,5.432249651841175364e+00,-4.920220828097581034e+01,9.408499717712402344e+00,-6.501809358596801758e-01,4.971971809864044189e-01,4.420000000000000000e+02
-5.276603033595929446e+02,-2.084369353302395211e+02,-2.741635109822277627e+01,-8.753032869951857720e+01,-1.310507420277535857e+02,-1.037955325960770097e+02,8.908564919431000817e+00,-4.671354312824632871e+01,9.408499717712402344e+00,-6.501809358596801758e-01,4.971971809864044189e-01,4.430000000000000000e+02
-5.391549039227447793e+02,-2.053103990422355309e+02,-2.499280650484934085e+01,-8.486864110718761367e+01,-1.287179940930518569e+02,-1.024666125015578473e+02,1.041412664771564778e+01,-4.526901045123941003e+01,9.408499717712402344e+00,-6.501809358596801758e-01,4.971971809864044189e-01,4.440000000000000000e+02
-5.511343708936669827e+02,-2.031990670734537616e+02,-2.241873195250514073e+01,-8.177676300285020261e+01,-1.267192289522376996e+02,-1.006528808396078603e+02,1.037756798242958212e+01,-4.465534986842931175e+01,9.408499717712402344e+00,-6.501809358596801758e-01,4.971971809864044189e-01,4.450000000000000000e+02
-5.600736316406464539e+02,-2.014453850250492906e+02,-1.965494395498171798e+01,-7.763866567580498668e+01,-1.246391419567844423e+02,-9.802805776929744752e+01,9.932938616827868827e+00,-4.410858151755519430e+01,9.408499717712402344e+00,-6.501809358596801758e-01,4.971971809864044189e-01,4.460000000000000000e+02
-5.654334697674203198e+02,-1.994122737189782129e+02,-1.781041521865472532e+01,-7.267323860966280336e+01,-1.227507279179731086e+02,-9.482519979522157882e+01,9.714998675066908618e+00,-4.320228534677062271e+01,9.484992027282714844e+00,-5.354431271553039551e-01,4.971971809864044189e-01,4.470000000000000000e+02
-5.691950553959986792e+02,-1.971496705756026131e+02,-1.836657585446891972e+01,-6.791921378115102925e+01,-1.216999418649843392e+02,-9.163285017786984099e+01,9.382334406534027949e+00,-4.211244144608826900e+01,9.484992027282714844e+00,-5.354431271553039551e-01,4.971971809864044189e-01,4.480000000000000000e+02
-5.732460172275832520e+02,-1.953192534166792029e+02,-2.171539850086514889e+01,-6.442047568609268637e+01,-1.216122903440823393e+02,-8.886244964579509542e+01,8.297965612884809161e+00,-4.103073731308177230e+01,9.484992027282714844e+00,-5.354431271553039551e-01,4.971971809864044189e-01,4.490000000000000000e+02
-5.774103727050005546e+02,-1.944731261069987340e+02,-2.639820732093176048e+01,-6.233687831171664584e+01,-1.216131952677269510e+02,-8.645481891104736860e+01,6.563405637952200777e+00,-3.954544881454785354e+01,9.484992027282714844e+00,-5.354431271553039551e-01,4.971971809864044189e-01,4.500000000000000000e+02
-5.799627401931065833e+02,-1.944111495492275026e+02,-2.987219027772243862e+01,-6.080996981366752152e+01,-1.203987841154896614e+02,-8.413460382124139869e+01,5.214659924849456729e+00,-3.691444072559352207e+01,9.484992027282714844e+00,-5.354431271553039551e-01,4.971971809864044189e-01,4.510000000000000000e+02
-5.798413763105918406e+02,-1.942920803957799762e+02,-3.027137068392062247e+01,-5.872255989622499328e+01,-1.174584386580052069e+02,-8.192865631181257413e+01,5.248268730868858256e+00,-3.315888285037590322e+01,9.484992027282714844e+00,-5.354431271553039551e-01,4.971971809864044189e-01,4.520000000000000000e+02
-5.781436890526670140e+02,-1.934612308107791705e+02,-2.775172455468918997e+01,-5.572525704212512210e+01,-1.138519368593827039e+02,-8.040050071343875970e+01,6.398954011178147994e+00,-2.985454397467901799e+01,9.484992027282714844e+00,-5.354431271553039551e-01,4.971971809864044189e-01,4.530000000000000000e+02
-5.774141612152341168e+02,-1.922097929054771157e+02,-2.433570145810813301e+01,-5.265039808540814192e+01,-1.117275351543828492e+02,-8.032466485990698857e+01,6.964049799481699665e+00,-2.953099819604585718e+01,9.484992027282714844e+00,-5.354431271553039551e-01,4.971971809864044189e-01,4.540000000000000000e+02
-5.795656833925743285e+02,-1.916640543144535513e+02,-2.244311338445822912e+01,-5.092828294575610926e+01,-1.128156604195639829e+02,-8.204724389060811518e+01,5.035251151180091256e+00,-3.383625475474445921e+01,9.484992027282714844e+00,-5.354431271553039551e-01,4.971971809864044189e-01,4.550000000000000000e+02
-5.845238232452411467e+02,-1.927735625299751518e+02,-2.327684163461526623e+01,-5.141351314238909254e+01,-1.170383086905574146e+02,-8.503568996617195808e+01,1.411494964947905828e-01,-4.190527866535603607e+01,9.484992027282714844e+00,-5.354431271553039551e-01,4.971971809864044189e-01,4.560000000000000000e+02
-5.907322818932634618e+02,-1.952514143578086987e+02,-2.619039676888201029e+01,-5.349935636889813395e+01,-1.223279747914637028e+02,-8.794903622975925828e+01,-6.146634142623042862e+00,-5.041037299512436221e+01,9.484992027282714844e+00,-5.354431271553039551e-01,4.971971809864044189e-01,4.570000000000000000e+02
-5.967162541337941093e+02,-1.974779586381066565e+02,-2.931161995885304350e+01,-5.526264118683957349e+01,-1.258368248563779161e+02,-8.922701105986152470e+01,-1.121688946943118026e+01,-5.546569149877791460e+01,9.484992027282714844e+00,-5.354431271553039551e-01,4.971971809864044189e-01,4.580000000000000000e+02
-6.020171277212311907e+02,-1.975905789363337135e+02,-3.079475141258626536e+01,-5.465109365178705048e+01,-1.256836950938668451e+02,-8.788614306766476147e+01,-1.321306184930540439e+01,-5.502714597853423584e+01,9.484992027282714844e+00,-5.354431271553039551e-01,4.971971809864044189e-01,4.590000000000000000e+02
-6.067485711334593361e+02,-1.949206855432846623e+02,-2.980947838159363528e+01,-5.091294462708947322e+01,-1.220289689378935236e+02,-8.408761638466421573e+01,-1.217632255507305672e+01,-5.002696736897860319e+01,9.484992027282714844e+00,-5.354431271553039551e-01,4.971971809864044189e-01,4.600000000000000000e+02
-6.106021945275060716e+02,-1.905629498535447510e+02,-2.675700094851777067e+01,-4.518194701852939943e+01,-1.167982925155222347e+02,-7.911444587284267982e+01,-9.727217853041338458e+00,-4.351997152414128323e+01,9.484992027282714844e+00,-5.354431271553039551e-01,4.971971809864044189e-01,4.610000000000000000e+02
-6.126105128662934476e+02,-1.865761324523189160e+02,-2.280515094798147402e+01,-3.969682952133780418e+01,-1.123558117792742905e+02,-7.469812394988775850e+01,-7.721938546342698828e+00,-3.864107250561528417e+01,9.484992027282714844e+00,-5.354431271553039551e-01,4.971971809864044189e-01,4.620000000000000000e+02
-6.119638934158037955e+02,-1.844584785000547527e+02,-1.918261787233586801e+01,-3.620162980148825227e+01,-1.101021734434232258e+02,-7.206720082331139565e+01,-7.033256503198799692e+00,-3.689563192813329806e+01,9.484992027282714844e+00,-5.354431271553039551e-01,4.971971809864044189e-01,4.630000000000000000e+02
-6.089338084988414721e+02,-1.841191354415650494e+02,-1.665268828267608114e+01,-3.474452175113310659e+01,-1.098969272699202975e+02,-7.131974281620523470e+01,-7.289260327518832128e+00,-3.779394728324632524e+01,9.484992027282714844e+00,-5.354431271553039551e-01,4.971971809864044189e-01,4.640000000000000000e+02
-6.048102891654777977e+02,-1.840996128310218864e+02,-1.535589806595726259e+01,-3.378798230161055471e+01,-1.105241036490531314e+02,-7.152158965618036746e+01,-7.510130286031198921e+00,-3.970111785536232674e+01,9.484992027282714844e+00,-5.354431271553039551e-01,4.971971809864044189e-01,4.650000000000000000e+02
-6.008131869445405755e+02,-1.827611484861245117e+02,-1.496556658658391825e+01,-3.148738056893716930e+01,-1.106818850696190566e+02,-7.140974031102723529e+01,-6.976691962051290830e+00,-4.102437325971459359e+01,9.484992027282714844e+00,-5.354431271553039551e-01,4.971971809864044189e-01,4.660000000000000000e+02
-5.970260241900757592e+02,-1.794659121682150271e+02,-1.496483207139908700e+01,-2.707408130456724393e+01,-1.097351123485791504e+02,-7.015794607191264731e+01,-5.695735392937876895e+00,-4.094492609578492193e+01,9.484992027282714844e+00,-5.354431271553039551e-01,4.971971809864044189e-01,4.670000000000000000e+02
-5.924310611550288286e+02,-1.749475926173531661e+02,-1.488971706069287393e+01,-2.132024322883398781e+01,-1.078517700773563774e+02,-6.774219096910678672e+01,-4.309235583015038173e+00,-3.952989921230209802e+01,9.446745872497558594e+00,-6.501809358596801758e-01,4.589512646198272705e-01,4.680000000000000000e+02
-5.860826420736593718e+02,-1.707498508168473563e+02,-1.446968403045843843e+01,-1.589147596703764975e+01,-1.056740220103367847e+02,-6.481250678599553794e+01,-3.661201759965138081e+00,-3.750324064377991817e+01,9.446745872497558594e+00,-6.501809358596801758e-01,4.589512646198272705e-01,4.690000000000000000e+02
-5.783737738657746377e+02,-1.682168996451196108e+02,-1.369493142849773903e+01,-1.223513205735343945e+01,-1.039224631250085622e+02,-6.229586429440064421e+01,-4.320954783304387092e+00,-3.594423852070258363e+01,9.446745872497558594e+00,-6.501809358596801758e-01,4.589512646198272705e-01,4.700000000000000000e+02
-5.712006817002470598e+02,-1.676881267535187590e+02,-1.285458709237946096e+01,-1.082349937016260810e+01,-1.031775610250306272e+02,-6.097988926604807602e+01,-6.275203598205393973e+00,-3.593966203327818221e+01,9.446745872497558594e+00,-6.501809358596801758e-01,4.589512646198272705e-01,4.710000000000000000e+02
-5.667407097282089126e+02,-1.683193380234829419e+02,-1.249289706607498829e+01,-1.110100646639079969e+01,-1.037511108173448520e+02,-6.119713821818254473e+01,-8.908515206539391329e+00,-3.809876382468951306e+01,9.446745872497558594e+00,-6.501809358596801758e-01,4.589512646198272705e-01,4.720000000000000000e+02
-5.657257500638907004e+02,-1.686104575586709871e+02,-1.320339213262809608e+01,-1.197289020978996632e+01,-1.055097403156823930e+02,-6.269420775643675370e+01,-1.132076666492594086e+01,-4.207641314907641572e+01,9.446745872497558594e+00,-6.501809358596801758e-01,4.589512646198272705e-01,4.730000000000000000e+02
-5.665812857936022056e+02,-1.673730422257108330e+02,-1.528314630636373295e+01,-1.244081203410837588e+01,-1.077417035546087618e+02,-6.476930218055008481e+01,-1.285785715725319278e+01,-4.650601630762230343e+01,9.446745872497558594e+00,-6.501809358596801758e-01,4.589512646198272705e-01,4.740000000000000000e+02
-5.662403545788486099e+02,-1.645787519861074770e+02,-1.845462407062223065e+01,-1.207509988546621571e+01,-1.093387121911604254e+02,-6.666183788358671336e+01,-1.353526082862038038e+01,-4.960992993660886441e+01,9.446745872497558594e+00,-6.501809358596801758e-01,4.589512646198272705e-01,4.750000000000000000e+02
-5.621830586468929596e+02,-1.614907635576693110e+02,-2.191630162066041976e+01,-1.113347200144676208e+01,-1.093735118308911751e+02,-6.796287287012000888e+01,-1.401224022308292660e+01,-5.023939047213764297e+01,9.446745872497558594e+00,-6.501809358596801758e-01,4.589512646198272705e-01,4.760000000000000000e+02
-5.542379567874320401e+02,-1.598730550488078279e+02,-2.477009006568596305e+01,-1.027694623997945200e+01,-1.077337564055621897e+02,-6.874632019553905593e+01,-1.507736901176861011e+01,-4.863820165930769690e+01,9.446745872497558594e+00,-6.501809358596801758e-01,4.589512646198272705e-01,4.770000000000000000e+02
-5.447064531817622992e+02,-1.607507224868711546e+02,-2.652525512151783005e+01,-1.005382997118476851e+01,-1.052338012811019325e+02,-6.936407144500435606e+01,-1.700989380561145481e+01,-4.627947423746672939e+01,9.446745872497558594e+00,-6.501809358596801758e-01,4.589512646198272705e-01,4.780000000000000000e+02
-5.366181896123134720e+02,-1.636265185919124292e+02,-2.726377318163298469e+01,-1.048335521692229122e+01,-1.029772233267401589e+02,-7.012706363570202939e+01,-1.931460931053334207e+01,-4.479565795469227396e+01,9.446745872497558594e+00,-6.501809358596801758e-01,4.589512646198272705e-01,4.790000000000000000e+02
-5.314165397314909569e+02,-1.667896459095634327e+02,-2.732260418513186551e+01,-1.103981555341488274e+01,-1.014247454155799915e+02,-7.113859769287887502e+01,-2.104265969687202187e+01,-4.478116629712525310e+01,9.446745872497558594e+00,-6.501809358596801758e-01,4.589512646198272705e-01,4.800000000000000000e+02
-5.279199615425707179e+02,-1.685152898142226263e+02,-2.682318891441684627e+01,-1.103020603220971907e+01,-9.998467447865738222e+01,-7.231421996689311982e+01,-2.145232529439130076e+01,-4.540615705968860993e+01,9.446745872497558594e+00,-6.501809358596801758e-01,4.589512646198272705e-01,4.810000000000000000e+02
-5.234625590989076045e+02,-1.682381854813440043e+02,-2.559505083348074095e+01,-1.003769469012468107e+01,-9.761543006796694044e+01,-7.344100450340283714e+01,-2.054655854342340149e+01,-4.519721600935838524e+01,9.446745872497558594e+00,-6.501809358596801758e-01,4.589512646198272705e-01,4.820000000000000000e+02
-5.162949605599601455e+02,-1.668112326479383967e+02,-2.365095766543799982e+01,-8.093593295034423818e+00,-9.400783414732757137e+01,-7.421611994308966587e+01,-1.912066583193080760e+01,-4.336526836234492066e+01,9.446745872497558594e+00,-6.501809358596801758e-01,4.589512646198272705e-01,4.830000000000000000e+02
-5.071762461871958294e+02,-1.657118506120333450e+02,-2.170504235018532313e+01,-5.502943578838028316e+00,-9.026334388029025035e+01,-7.434668737554821405e+01,-1.827452236772923300e+01,-4.055205478825791943e+01,9.446745872497558594e+00,-6.501809358596801758e-01,4.589512646198272705e-01,4.840000000000000000e+02
-4.987406031644604809e+02,-1.658931460450985753e+02,-2.103156564327701972e+01,-2.561037798728023063e+00,-8.831118396456369624e+01,-7.374998402587871738e+01,-1.869115633129329268e+01,-3.832967467205060075e+01,9.446745872497558594e+00,-6.501809358596801758e-01,4.589512646198272705e-01,4.850000000000000000e+02
-4.931646580490191241e+02,-1.671741085602239991e+02,-2.255681218866183713e+01,5.751924366097398433e-01,-8.941404017484990163e+01,-7.268149900363914639e+01,-2.015632472347816417e+01,-3.787676043217123834e+01,9.446745872497558594e+00,-6.501809358596801758e-01,4.589512646198272705e-01,4.860000000000000000e+02
-4.901945732874028181e+02,-1.685455470470978128e+02,-2.594264170074370668e+01,3.809311306505350103e+00,-9.302947781182692211e+01,-7.157600347306026833e+01,-2.171196106286731720e+01,-3.901725681318671946e+01,9.446745872497558594e+00,-6.501809358596801758e-01,4.589512646198272705e-01,4.870000000000000000e+02
-4.872861797442002398e+02,-1.690301553906419940e+02,-2.962353047102595838e+01,6.959762443683985111e+00,-9.709252655152431544e+01,-7.069769852895700524e+01,-2.242296202994353393e+01,-4.049445854174228998e+01,9.446745872497558594e+00,-6.501809358596801758e-01,4.589512646198272705e-01,4.880000000000000000e+02
-4.817385534271900269e+02,-1.683669656933989245e+02,-3.194410354483051151e+01,9.738678122442593121e+00,-9.956880384968417275e+01,-6.996009283860598771e+01,-2.222199596997108983e+01,-4.123134159129193677e+01,9.446745872497558594e+00,-6.501809358596801758e-01,4.589512646198272705e-01,4.890000000000000000e+02
-4.728976816375786711e+02,-1.670323982309299140e+02,-3.244525296031378048e+01,1.189550542244069220e+01,-9.995865258954461297e+01,-6.915146094337160321e+01,-2.208969828034787497e+01,-4.139187486411503869e+01,9.446745872497558594e+00,-6.501809358596801758e-01,4.589512646198272705e-01,4.900000000000000000e+02
-4.624490303247316660e+02,-1.656712363403165682e+02,-3.207052496081223580e+01,1.340930287556500389e+01,-9.941274217079171649e+01,-6.832411023253587246e+01,-2.323951223707786085e+01,-4.219238580334433664e+01,9.446745872497558594e+00,-6.501809358596801758e-01,4.589512646198272705e-01,4.910000000000000000e+02
-4.525873859354019260e+02,-1.644560139269788124e+02,-3.204643606052638916e+01,1.457027869994180946e+01,-9.936433408047923876e+01,-6.784070163846263313e+01,-2.584908800846028498e+01,-4.456088454434188861e+01,9.446745872497558594e+00,-6.501809358596801758e-01,4.589512646198272705e-01,4.920000000000000000e+02
-4.438259803313937937e+02,-1.629337908107573867e+02,-3.253336214804653537e+01,1.582894249956484600e+01,-9.998846423198256161e+01,-6.796579329255314406e+01,-2.850412511020158490e+01,-4.791478550239912693e+01,9.446745872497558594e+00,-5.736890435218811035e-01,5.354431271553039551e-01,4.930000000000000000e+02
-4.345472016415775443e+02,-1.605048615251072306e+02,-3.242199752422777692e+01,1.748444692652105914e+01,-9.996430143770476207e+01,-6.845101646659099970e+01,-2.908254550459321308e+01,-5.031669783387349071e+01,9.446745872497558594e+00,-5.736890435218811035e-01,5.354431271553039551e-01,4.940000000000000000e+02
-4.227640981204247055e+02,-1.571453203359533290e+02,-3.052222814376807491e+01,1.945380552693177378e+01,-9.779169528232046105e+01,-6.864768935688493912e+01,-2.653046034052294999e+01,-5.001810745796478841e+01,9.446745872497558594e+00,-5.736890435218811035e-01,5.354431271553039551e-01,4.950000000000000000e+02
-4.084634789461322271e+02,-1.537100969483117296e+02,-2.696670455499224772e+01,2.136396360094181546e+01,-9.342437302531288879e+01,-6.811250978516522991e+01,-2.201587911108094886e+01,-4.705417238379573064e+01,9.446745872497558594e+00,-5.736890435218811035e-01,5.354431271553039551e-01,4.960000000000000000e+02
-3.942755642963952596e+02,-1.514521073374889966e+02,-2.338753531332417879e+01,2.295561875941575636e+01,-8.865250292008454380e+01,-6.706838940205852850e+01,-1.830839179944098305e+01,-4.340230602970677865e+01,9.446745872497558594e+00,-5.736890435218811035e-01,5.354431271553039551e-01,4.970000000000000000e+02
-3.836829318797670112e+02,-1.510669334108188195e+02,-2.163523412072572683e+01,2.445721360255902255e+01,-8.581786108830010562e+01,-6.619093869742391689e+01,-1.774004677965695009e+01,-4.143650588301125026e+01,9.446745872497558594e+00,-5.736890435218811035e-01,5.354431271553039551e-01,4.980000000000000000e+02
-3.782612645338438142e+02,-1.520265563073526209e+02,-2.226175672573754127e+01,2.655687079600329525e+01,-8.597964353803922677e+01,-6.590834065353737969e+01,-2.041529734801974882e+01,-4.195215084986034526e+01,9.446745872497558594e+00,-5.736890435218811035e-01,5.354431271553039551e-01,4.990000000000000000e+02
-3.763871175572664924e+02,-1.528221635300471917e+02,-2.422110608773141394e+01,2.993139783810238441e+01,-8.815724153930887041e+01,-6.595244742288741691e+01,-2.420026518499980739e+01,-4.350402611923891527e+01,9.446745872497558594e+00,-5.736890435218811035e-01,5.354431271553039551e-01,5.000000000000000000e+02
-3.745865433155995561e+02,-1.520391601089031610e+02,-2.599299905862494597e+01,3.470503086974349571e+01,-9.026573107224749037e+01,-6.564207883549579492e+01,-2.647494873250661840e+01,-4.367875338153521625e+01,9.446745872497558594e+00,-5.736890435218811035e-01,5.354431271553039551e-01,5.010000000000000000e+02
-3.703757066156381370e+02,-1.494520476530824453e+02,-2.694675928122433106e+01,4.028880685239255399e+01,-9.084261597889485529e+01,-6.460342898634098674e+01,-2.611707479458596026e+01,-4.122803317637180953e+01,9.446745872497558594e+00,-5.736890435218811035e-01,5.354431271553039551e-01,5.020000000000000000e+02
-3.641608938763083643e+02,-1.462604749545312188e+02,-2.764369867469827113e+01,4.569323510567255653e+01,-9.005735920985807752e+01,-6.319056578001436719e+01,-2.410944122809451073e+01,-3.723140084169244801e+01,9.446745872497558594e+00,-5.736890435218811035e-01,5.354431271553039551e-01,5.030000000000000000e+02
-3.586051157698052521e+02,-1.442349140150336098e+02,-2.894329883869727382e+01,5.002491003141904002e+01,-8.925756688624824164e+01,-6.218133196231337934e+01,-2.247737580364378118e+01,-3.429544594554954529e+01,9.446745872497558594e+00,-5.736890435218811035e-01,5.354431271553039551e-01,5.040000000000000000e+02
-3.560724450114967112e+02,-1.443842619872330033e+02,-3.097569141132453296e+01,5.281557087265628070e+01,-8.963215946529271605e+01,-6.205975995509015775e+01,-2.266945073759370644e+01,-3.449015110977643417e+01,9.446745872497558594e+00,-5.736890435218811035e-01,5.354431271553039551e-01,5.050000000000000000e+02
-3.563667278109383005e+02,-1.461269800331574515e+02,-3.302449707886398755e+01,5.410126588888533661e+01,-9.121848694535037794e+01,-6.256893337789097131e+01,-2.472481287272557893e+01,-3.774515494907518587e+01,9.446745872497558594e+00,-5.736890435218811035e-01,5.354431271553039551e-01,5.060000000000000000e+02
-3.565964533547012252e+02,-1.475503573910309569e+02,-3.426339578007809905e+01,5.439932348835372977e+01,-9.296353181922358999e+01,-6.289907716846664698e+01,-2.759961670580355531e+01,-4.192850585706310085e+01,9.446745872497558594e+00,-5.736890435218811035e-01,5.354431271553039551e-01,5.070000000000000000e+02
-3.531730172034331190e+02,-1.465871194363248833e+02,-3.441886265609991824e+01,5.462570771452328700e+01,-9.356607439063645870e+01,-6.230130555914274737e+01,-3.002206425778240373e+01,-4.440003656604994831e+01,9.446745872497558594e+00,-5.736890435218811035e-01,5.354431271553039551e-01,5.080000000000000000e+02
-3.443031197430518660e+02,-1.423337782994644840e+02,-3.367975399079659837e+01,5.583194619982896256e+01,-9.227350679443134140e+01,-6.058628424254766287e+01,-3.109285359023670026e+01,-4.370343590426364244e+01,9.446745872497558594e+00,-5.736890435218811035e-01,5.354431271553039551e-01,5.090000000000000000e+02
-3.311558230469358932e+02,-1.356894504690544636e+02,-3.215243528100609183e+01,5.870958837174339351e+01,-8.910326766717162172e+01,-5.815230481229536963e+01,-3.044897683831868562e+01,-4.018227785666886120e+01,9.446745872497558594e+00,-5.736890435218811035e-01,5.354431271553039551e-01,5.100000000000000000e+02
-3.170543506323842848e+02,-1.289419614700877901e+02,-2.969216526083937424e+01,6.310721111881457546e+01,-8.462196635348072959e+01,-5.563171809746108920e+01,-2.829647737959112419e+01,-3.536149311872759426e+01,9.446745872497558594e+00,-5.736890435218811035e-01,5.354431271553039551e-01,5.110000000000000000e+02
-3.054691653758791290e+02,-1.245324329278755613e+02,-2.640312588614779088e+01,6.798647055456876842e+01,-7.969884123993870162e+01,-5.350681081275615725e+01,-2.547518318111588087e+01,-3.087236942766958236e+01,9.446745872497558594e+00,-5.736890435218811035e-01,5.354431271553039551e-01,5.120000000000000000e+02
-2.981922391143962159e+02,-1.237281153011081187e+02,-2.317231117346409519e+01,7.196423272874199029e+01,-7.538272931319033887e+01,-5.198633606275598140e+01,-2.330396638522461217e+01,-2.777801441894689560e+01,9.446745872497558594e+00,-5.736890435218811035e-01,5.354431271553039551e-01,5.130000000000000000e+02
-2.946944250633350748e+02,-1.260018022547906185e+02,-2.137411592664420823e+01,7.411140538249583187e+01,-7.268003001647002748e+01,-5.112293336048242054e+01,-2.293765272195696525e+01,-2.649219311886690775e+01,9.446745872497558594e+00,-5.736890435218811035e-01,5.354431271553039551e-01,5.140000000000000000e+02
-2.927818434724013059e+02,-1.294817273901498993e+02,-2.174267044608950528e+01,7.446894062588762608e+01,-7.204959243135135694e+01,-5.090425957480056240e+01,-2.450278560787955939e+01,-2.688865836095556006e+01,9.446745872497558594e+00,-5.736890435218811035e-01,5.354431271553039551e-01,5.150000000000000000e+02
-2.899802644725114078e+02,-1.321467118118339386e+02,-2.346838986697957807e+01,7.397475968276012281e+01,-7.291270230434929545e+01,-5.113315405109824496e+01,-2.677926587505908174e+01,-2.830080515844838374e+01,9.446745872497558594e+00,-5.736890435218811035e-01,5.354431271553039551e-01,5.160000000000000000e+02
-2.848368914965512886e+02,-1.329561085696836926e+02,-2.459354259390784136e+01,7.392744936707822490e+01,-7.376190118574777443e+01,-5.123659896294338978e+01,-2.794808552160429826e+01,-2.957523274757659237e+01,9.446745872497558594e+00,-5.736890435218811035e-01,5.354431271553039551e-01,5.170000000000000000e+02
-2.775082108503520431e+02,-1.321829821769179034e+02,-2.360597678402518795e+01,7.531656560410647216e+01,-7.308971421888509212e+01,-5.037478336097410647e+01,-2.699827172509003503e+01,-2.952088179394286271e+01,9.446745872497558594e+00,-5.736890435218811035e-01,5.354431271553039551e-01,5.180000000000000000e+02
-2.694464182602823712e+02,-1.308287280395179550e+02,-2.085967307783721481e+01,7.834557712794048712e+01,-7.055285979721247713e+01,-4.798572763280481013e+01,-2.463498090305984078e+01,-2.769266595645240159e+01,9.446745872497558594e+00,-5.736890435218811035e-01,5.354431271553039551e-01,5.190000000000000000e+02
-2.624410756263760049e+02,-1.296974083397772119e+02,-1.839985156509101216e+01,8.234584714020638785e+01,-6.734781851004754571e+01,-4.437248915082091116e+01,-2.279506600402828553e+01,-2.486612864023572911e+01,9.561484336853027344e+00,-6.119350194931030273e-01,5.736890435218811035e-01,5.200000000000000000e+02
-2.575753614456880314e+02,-1.288852189818935585e+02,-1.816338872059623100e+01,8.615378134987349767e+01,-6.527681979159024195e+01,-4.069548512881556235e+01,-2.303006434051303586e+01,-2.258310605418137129e+01,9.561484336853027344e+00,-6.119350194931030273e-01,5.736890435218811035e-01,5.210000000000000000e+02
-2.546780424225416937e+02,-1.279617653960222015e+02,-2.009244701947864087e+01,8.882637043974318658e+01,-6.514891180694849027e+01,-3.815893183278240031e+01,-2.504897193436408998e+01,-2.192595924796478357e+01,9.561484336853027344e+00,-6.119350194931030273e-01,5.736890435218811035e-01,5.220000000000000000e+02
-2.525377289314037625e+02,-1.265093150976290417e+02,-2.192544420833473851e+01,9.026631814926804509e+01,-6.592840486852219328e+01,-3.702361913378263125e+01,-2.670161116205599683e+01,-2.252630292493267916e+01,9.561484336853027344e+00,-6.119350194931030273e-01,5.736890435218811035e-01,5.230000000000000000e+02
-2.496994908783717619e+02,-1.244562806575495415e+02,-2.099442958432791784e+01,9.128148769422659825e+01,-6.554119816317142977e+01,-3.639439079388466780e+01,-2.553922825853896938e+01,-2.278786193496580381e+01,9.561484336853027344e+00,-6.119350194931030273e-01,5.736890435218811035e-01,5.240000000000000000e+02
-2.453289478184015024e+02,-1.219728474910243676e+02,-1.655344853339647671e+01,9.296850294249543367e+01,-6.278860317297221627e+01,-3.507623214157501934e+01,-2.076043073172695586e+01,-2.127573092969396384e+01,9.561484336853027344e+00,-6.119350194931030273e-01,5.736890435218811035e-01,5.250000000000000000e+02
-2.396191967456315979e+02,-1.192007913645993540e+02,-1.060715192270799889e+01,9.588435275061601715e+01,-5.867405408369722863e+01,-3.271727804850524990e+01,-1.397470509553295415e+01,-1.808274143076232576e+01,9.561484336853027344e+00,-6.119350194931030273e-01,5.736890435218811035e-01,5.260000000000000000e+02
-2.335266111654264023e+02,-1.162069413291128512e+02,-6.450878187155467458e+00,9.970711489418772544e+01,-5.581885603299087961e+01,-3.009321405431728635e+01,-8.136928979893127689e+00,-1.488629539172598015e+01,9.561484336853027344e+00,-6.119350194931030273e-01,5.736890435218811035e-01,5.270000000000000000e+02
-2.280194643697404899e+02,-1.131846372577592774e+02,-6.125340747472364455e+00,1.036404154221854697e+02,-5.631623205104824592e+01,-2.822785132545686793e+01,-5.472038311451797199e+00,-1.355112865249884635e+01,9.561484336853027344e+00,-6.119350194931030273e-01,5.736890435218811035e-01,5.280000000000000000e+02
-2.233734316025611406e+02,-1.105475689278300706e+02,-8.893280412728927331e+00,1.071325024934903922e+02,-5.984348958260943618e+01,-2.724435158784399391e+01,-5.990093243615774554e+00,-1.448780886865461071e+01,9.561484336853027344e+00,-6.119350194931030273e-01,5.736890435218811035e-01,5.290000000000000000e+02
-2.190400413484221644e+02,-1.086591430469497936e+02,-1.196226355320322909e+01,1.102281718938693302e+02,-6.374755321926113538e+01,-2.614946827536368801e+01,-7.703931339271548495e+00,-1.625831973800632113e+01,9.561484336853027344e+00,-6.119350194931030273e-01,5.736890435218811035e-01,5.300000000000000000e+02
-2.141957451995085648e+02,-1.074047780837545361e+02,-1.278482417233135493e+01,1.132965039878145035e+02,-6.512243937146104145e+01,-2.380487233636085875e+01,-8.310411902701162035e+00,-1.682947207966935821e+01,9.561484336853027344e+00,-6.119350194931030273e-01,5.736890435218811035e-01,5.310000000000000000e+02
-2.085426934366414571e+02,-1.061161256756304283e+02,-1.100394590256019001e+01,1.165123344196072139e+02,-6.312260209116902843e+01,-2.010744459643501614e+01,-6.988369109705672599e+00,-1.537242828161015495e+01,9.561484336853027344e+00,-6.119350194931030273e-01,5.736890435218811035e-01,5.320000000000000000e+02
-2.026828188958916144e+02,-1.040849989013149752e+02,-8.519362169585292577e+00,1.196172641474840930e+02,-5.953758697675766598e+01,-1.620211343620030675e+01,-4.946411619582249841e+00,-1.301880005231305404e+01,9.561484336853027344e+00,-6.119350194931030273e-01,5.736890435218811035e-01,5.330000000000000000e+02
-1.977490915372509335e+02,-1.012873394404959981e+02,-7.771739063759923738e+00,1.221054211960763496e+02,-5.721009111776402278e+01,-1.353217404941278801e+01,-4.385158627121199970e+00,-1.194312337514929823e+01,9.561484336853027344e+00,-6.119350194931030273e-01,5.736890435218811035e-01,5.340000000000000000e+02
-1.946251465758650738e+02,-9.860623459874022956e+01,-9.776694666666116973e+00,1.235545090764662746e+02,-5.774407404452540504e+01,-1.267148637729951588e+01,-6.772675079662803910e+00,-1.360721253817609977e+01,9.561484336853027344e+00,-6.119350194931030273e-01,5.736890435218811035e-01,5.350000000000000000e+02
-1.934100242973891000e+02,-9.723023287076921406e+01,-1.350334929969994846e+01,1.237974729278812447e+02,-6.045896447343693580e+01,-1.301606538122723578e+01,-1.177895319167691923e+01,-1.765792115126714634e+01,9.561484336853027344e+00,-6.119350194931030273e-01,5.736890435218811035e-01,5.360000000000000000e+02
-1.935074413686743355e+02,-9.769198365132888284e+01,-1.693483461192590767e+01,1.229139181735481543e+02,-6.330362650321330875e+01,-1.349118495931361394e+01,-1.758503161963744787e+01,-2.229008519493072527e+01,9.561484336853027344e+00,-6.119350194931030273e-01,5.736890435218811035e-01,5.370000000000000000e+02
-1.941286820274799538e+02,-9.940367141244496452e+01,-1.873925646462976147e+01,1.211993240207702911e+02,-6.467029364175323281e+01,-1.348365165608993266e+01,-2.215743659918189223e+01,-2.558963115915503295e+01,9.561484336853027344e+00,-6.119350194931030273e-01,5.736890435218811035e-01,5.380000000000000000e+02
-1.946873454683700402e+02,-1.011186421014081134e+02,-1.911030361617486051e+01,1.191484455566824181e+02,-6.442871303651918424e+01,-1.312457282482864684e+01,-2.440473352206026902e+01,-2.667003522976483509e+01,9.561484336853027344e+00,-6.119350194931030273e-01,5.736890435218811035e-01,5.390000000000000000e+02
-1.947899821843875543e+02,-1.018949767362701095e+02,-1.918458761373767629e+01,1.173244914674669417e+02,-6.345274113072809996e+01,-1.280343840246314358e+01,-2.442360467861999496e+01,-2.582251815609924961e+01,9.561484336853027344e+00,-6.119350194931030273e-01,5.736890435218811035e-01,5.400000000000000000e+02
-1.940069298518264986e+02,-1.017067031790829787e+02,-1.973778021211910527e+01,1.160594351376676059e+02,-6.239884493290992395e+01,-1.254728549919309444e+01,-2.292813483866666502e+01,-2.387554561917386309e+01,9.561484336853027344e+00,-6.119350194931030273e-01,5.736890435218811035e-01,5.410000000000000000e+02
-1.917879932379364618e+02,-1.012279959542665893e+02,-2.041951410178626247e+01,1.151668016079984227e+02,-6.107451180005955393e+01,-1.193682764721961576e+01,-2.059541045919286262e+01,-2.154420085596393619e+01,9.561484336853027344e+00,-6.119350194931030273e-01,5.736890435218811035e-01,5.420000000000000000e+02
-1.876189914095284621e+02,-1.011139251412860176e+02,-2.018151648477032722e+01,1.139460964182999305e+02,-5.894445538842774113e+01,-1.061194517568219453e+01,-1.790593869805252325e+01,-1.929195833618905453e+01,9.561484336853027344e+00,-6.119350194931030273e-01,5.736890435218811035e-01,5.430000000000000000e+02
-1.812447949302440975e+02,-1.014820256876919302e+02,-1.841217819003759359e+01,1.115463763577135978e+02,-5.610948214283962443e+01,-8.799427585685407394e+00,-1.539956474640257511e+01,-1.758497959919804998e+01,9.561484336853027344e+00,-6.119350194931030273e-01,5.736890435218811035e-01,5.440000000000000000e+02
-1.728153740910292981e+02,-1.019753709230826644e+02,-1.568839897909856518e+01,1.074318037394168641e+02,-5.364832425709209929e+01,-7.285057565102761146e+00,-1.381702712480000628e+01,-1.705013679627518286e+01,9.561484336853027344e+00,-6.119350194931030273e-01,5.736890435218811035e-01,5.450000000000000000e+02
-1.629879202226766211e+02,-1.021657463420342538e+02,-1.346925050218305842e+01,1.016180465585784987e+02,-5.291724819008959457e+01,-6.777814199293061392e+00,-1.380166683700008434e+01,-1.824060189875854121e+01,9.561484336853027344e+00,-6.119350194931030273e-01,5.736890435218811035e-01,5.460000000000000000e+02
-1.529998981818662287e+02,-1.017939261391657055e+02,-1.305392763466079487e+01,9.456656608840603440e+01,-5.446434095626136696e+01,-7.212150294009916252e+00,-1.541203451168985339e+01,-2.117875942558021052e+01,9.561484336853027344e+00,-6.119350194931030273e-01,5.736890435218811035e-01,5.470000000000000000e+02
-1.444864104581520223e+02,-1.006712760067821364e+02,-1.472930580380307219e+01,8.689126127618328610e+01,-5.756272076159439166e+01,-7.647003350881277584e+00,-1.795901222596694424e+01,-2.508288115870163892e+01,9.561484336853027344e+00,-6.119350194931030273e-01,5.736890435218811035e-01,5.480000000000000000e+02
-1.388006391432209057e+02,-9.853465280731870735e+01,-1.774459209378255764e+01,7.910577479975472670e+01,-6.075249344623443903e+01,-6.917430538283952046e+00,-2.036967168299815967e+01,-2.856353441504325019e+01,9.561484336853027344e+00,-6.119350194931030273e-01,5.736890435218811035e-01,5.490000000000000000e+02
-1.360592937318488111e+02,-9.522249353040388087e+01,-2.096310713532147929e+01,7.149872079641500022e+01,-6.286401164250128204e+01,-4.535145128855219809e+00,-2.176903794884856325e+01,-3.023742144630887196e+01,9.561484336853027344e+00,-6.119350194931030273e-01,5.736890435218811035e-01,5.500000000000000000e+02
-1.346971184940975945e+02,-9.111397215786200832e+01,-2.352829116593238723e+01,6.410983925491746049e+01,-6.364603509089101863e+01,-1.077713390361168422e+00,-2.179911180365706969e+01,-2.943320194935768086e+01,9.408499717712402344e+00,-6.119350194931030273e-01,4.207052886486053467e-01,5.510000000000000000e+02
-1.322160377042182517e+02,-8.736123996172318584e+01,-2.508942570911312941e+01,5.676004118991659197e+01,-6.361036181449890137e+01,2.246574752025480848e+00,-2.057292472423796426e+01,-2.661516788030712632e+01,9.408499717712402344e+00,-6.119350194931030273e-01,4.207052886486053467e-01,5.520000000000000000e+02
-1.268130600318108918e+02,-8.549725916357238020e+01,-2.566270863840691163e+01,4.913531445985609025e+01,-6.339359992249592324e+01,4.439869206191360718e+00,-1.854081317745840352e+01,-2.325007788965740474e+01,9.408499717712402344e+00,-6.119350194931030273e-01,4.207052886486053467e-01,5.530000000000000000e+02
-1.186478090291002445e+02,-8.655371362521509582e+01,-2.545869324543673429e+01,4.094829896023293259e+01,-6.324770518153673038e+01,5.238814878499397309e+00,-1.649155885173604474e+01,-2.111786515066160064e+01,9.408499717712402344e+00,-6.119350194931030273e-01,4.207052886486053467e-01,5.540000000000000000e+02
-1.096442233039451821e+02,-9.032094774512370350e+01,-2.484136264601693256e+01,3.213106434145629464e+01,-6.301940391848074796e+01,4.968597810162464157e+00,-1.551562784274756268e+01,-2.140144570433039917e+01,9.408499717712402344e+00,-6.119350194931030273e-01,4.207052886486053467e-01,5.550000000000000000e+02
-1.019933248535453458e+02,-9.533846187298331643e+01,-2.427641228625907388e+01,2.294746555096935481e+01,-6.248279010472651862e+01,4.045589929926791228e+00,-1.658960980533629481e+01,-2.406605501606463804e+01,9.408499717712402344e+00,-6.119350194931030273e-01,4.207052886486053467e-01,5.560000000000000000e+02
-9.672174515169717779e+01,-9.967096447413678106e+01,-2.415081415261556685e+01,1.390799016484015738e+01,-6.167512385310692480e+01,2.694630309499189025e+00,-1.984309927898175374e+01,-2.793709983086773718e+01,9.408499717712402344e+00,-6.119350194931030273e-01,4.207052886486053467e-01,5.570000000000000000e+02
-9.351011768893840781e+01,-1.019193316867676913e+02,-2.456681744280103885e+01,5.494929669584962539e+00,-6.096149847765809682e+01,1.082969741855777102e+00,-2.410271420630670036e+01,-3.142051364239705435e+01,9.408499717712402344e+00,-6.119350194931030273e-01,4.207052886486053467e-01,5.580000000000000000e+02
-9.166069325126591139e+01,-1.017680392947895598e+02,-2.530783685806636640e+01,-2.116551365765189985e+00,-6.080210124755467405e+01,-4.284770315352943726e-01,-2.730239601450193732e+01,-3.334035287880396936e+01,9.408499717712402344e+00,-6.119350194931030273e-01,4.207052886486053467e-01,5.590000000000000000e+02
-9.098748662135039922e+01,-9.979690717711673642e+01,-2.599665250631915114e+01,-9.093484356089902576e+00,-6.139036914606003847e+01,-1.310684586023853626e+00,-2.766252908694696089e+01,-3.332784858284685470e+01,9.408499717712402344e+00,-6.119350194931030273e-01,4.207052886486053467e-01,5.600000000000000000e+02
-9.164023748253748636e+01,-9.688654829359438736e+01,-2.625673842818650883e+01,-1.566964481517061358e+01,-6.240067404322326183e+01,-1.173528743795031914e+00,-2.479733516439591767e+01,-3.162295122989598894e+01,9.408499717712402344e+00,-6.119350194931030273e-01,4.207052886486053467e-01,5.610000000000000000e+02
-9.320466685005521867e+01,-9.380032266393391183e+01,-2.574837790658784797e+01,-2.181659015832701698e+01,-6.303845210499821405e+01,-3.453551413986133412e-02,-1.988742108001315501e+01,-2.865044922423840035e+01,9.408499717712402344e+00,-6.119350194931030273e-01,4.207052886486053467e-01,5.620000000000000000e+02
-9.432306130891083740e+01,-9.121279307869554032e+01,-2.419571673442987958e+01,-2.724892490746788098e+01,-6.244092094257393910e+01,1.681911208685050951e+00,-1.482622364162671147e+01,-2.483118948158517014e+01,9.408499717712402344e+00,-6.119350194931030273e-01,4.207052886486053467e-01,5.630000000000000000e+02
-9.353061064667417668e+01,-8.989220439630298642e+01,-2.156501788207242498e+01,-3.184446913921055966e+01,-6.021832588936740649e+01,3.348211566517420579e+00,-1.107018306026111532e+01,-2.070293939306066022e+01,9.408499717712402344e+00,-6.119350194931030273e-01,4.207052886486053467e-01,5.640000000000000000e+02
-9.061952687667508144e+01,-9.054390356924159278e+01,-1.832213764014704793e+01,-3.607826439177733846e+01,-5.679061084454588126e+01,4.337973340600001393e+00,-9.052743515023394139e+00,-1.703302588559745345e+01,9.408499717712402344e+00,-6.119350194931030273e-01,4.207052886486053467e-01,5.650000000000000000e+02
-8.713947383344930131e+01,-9.323743938715233526e+01,-1.545468952222654480e+01,-4.092615831769580836e+01,-5.329694861732059508e+01,4.181142718807677738e+00,-8.429501818722201278e+00,-1.465465209666945157e+01,9.408499717712402344e+00,-6.119350194931030273e-01,4.207052886486053467e-01,5.660000000000000000e+02
-8.539088440489285858e+01,-9.695992507640221447e+01,-1.404296710478956811e+01,-4.716540935002194601e+01,-5.110826091013950645e+01,2.741236770238174358e+00,-8.716373396859125933e+00,-1.410820255246289889e+01,9.408499717712402344e+00,-6.119350194931030273e-01,4.207052886486053467e-01,5.670000000000000000e+02
-8.667395363072500913e+01,-9.994534883678352344e+01,-1.457900038435036549e+01,-5.466049913885944989e+01,-5.119982334163432824e+01,3.607428847353730816e-01,-9.683751794747877284e+00,-1.538893911832201411e+01,9.408499717712402344e+00,-6.119350194931030273e-01,4.207052886486053467e-01,5.680000000000000000e+02
-9.024740208518414875e+01,-1.007722314830280084e+02,-1.656668914092733758e+01,-6.234213353555242065e+01,-5.367912858705312829e+01,-2.221996961390686920e+00,-1.124605743413303571e+01,-1.796200239979225444e+01,9.408499717712402344e+00,-6.119350194931030273e-01,4.207052886486053467e-01,5.690000000000000000e+02
-9.378221045617829077e+01,-9.937929269829692203e+01,-1.876886484106580610e+01,-6.896551111620647134e+01,-5.765152857336579473e+01,-4.266472468032588949e+00,-1.309935023775869922e+01,-2.092622968165960629e+01,9.408499717712402344e+00,-6.119350194931030273e-01,4.207052886486053467e-01,5.700000000000000000e+02
-9.485351075233484153e+01,-9.702922567303903634e+01,-1.993654531022184528e+01,-7.394625070006077294e+01,-6.148801674444621312e+01,-5.450593513927742606e+00,-1.454463565144578752e+01,-2.315782666720042471e+01,9.408499717712402344e+00,-6.119350194931030273e-01,4.207052886486053467e-01,5.710000000000000000e+02
-9.232517207712589880e+01,-9.514908540149917826e+01,-1.950000377483956981e+01,-7.750409273265540833e+01,-6.348584282560841530e+01,-5.919114704331150278e+00,-1.472201233059058723e+01,-2.351265555422651232e+01,9.446745872497558594e+00,-6.501809358596801758e-01,4.589512646198272705e-01,5.720000000000000000e+02
-8.677639263481978560e+01,-9.409173855769768124e+01,-1.779232146728827502e+01,-8.010464000788851990e+01,-6.273609753903292585e+01,-5.928069291767315008e+00,-1.314320689552369004e+01,-2.127541151123296004e+01,9.446745872497558594e+00,-6.501809358596801758e-01,4.589512646198272705e-01,5.730000000000000000e+02
-7.990313226750731701e+01,-9.303204605276550865e+01,-1.573352404720208142e+01,-8.191563845444761682e+01,-5.972119702091731597e+01,-5.501579834286530968e+00,-1.013293996651736961e+01,-1.673349836875058827e+01,9.446745872497558594e+00,-6.501809358596801758e-01,4.589512646198272705e-01,5.740000000000000000e+02
-7.341357284081095713e+01,-9.111149721506444621e+01,-1.421171369589137612e+01,-8.288850800380896544e+01,-5.610346239526552381e+01,-4.515717534373834496e+00,-6.783043108580386615e+00,-1.132881442286452511e+01,9.446745872497558594e+00,-6.501809358596801758e-01,4.589512646198272705e-01,5.750000000000000000e+02
-6.809509739690838614e+01,-8.866000517197971931e+01,-1.351432368915993720e+01,-8.327105562337965239e+01,-5.363079166355964844e+01,-3.100505838156095706e+00,-4.327078515225366573e+00,-6.961354318103985861e+00,9.446745872497558594e+00,-6.501809358596801758e-01,4.589512646198272705e-01,5.760000000000000000e+02
-6.354195300904393662e+01,-8.715688823238451732e+01,-1.312108289929165039e+01,-8.380618941819557222e+01,-5.284261737687847926e+01,-1.830303553841076791e+00,-3.307297088436826016e+00,-4.756968899462663103e+00,9.446745872497558594e+00,-6.501809358596801758e-01,4.589512646198272705e-01,5.770000000000000000e+02
-5.866947546070150565e+01,-8.783009392891835887e+01,-1.204116528095983085e+01,-8.525083352623187238e+01,-5.264787238881035591e+01,-1.381807176621805411e+00,-3.180673542226941208e+00,-4.294240640869247727e+00,9.446745872497558594e+00,-6.501809358596801758e-01,4.589512646198272705e-01,5.780000000000000000e+02
-5.267199457872629864e+01,-9.021561182990262751e+01,-9.565172233236808097e+00,-8.768241971589304740e+01,-5.126921584839874413e+01,-1.952964455791516230e+00,-2.766095073953692918e+00,-4.068594364831369603e+00,9.446745872497558594e+00,-6.501809358596801758e-01,4.589512646198272705e-01,5.790000000000000000e+02
-4.573782771746846265e+01,-9.216724707954563200e+01,-5.966319624170864699e+00,-9.039218221838018508e+01,-4.787749128237919649e+01,-3.064811187148734462e+00,-1.290404802006378304e+00,-2.913774119566369336e+00,9.446745872497558594e+00,-6.501809358596801758e-01,4.589512646198272705e-01,5.800000000000000000e+02
-3.895469694071653066e+01,-9.150030551017334801e+01,-2.562167233270884026e+00,-9.256065705011860700e+01,-4.352994114971079398e+01,-3.984488182635686826e+00,7.872580795192334335e-01,-1.155954774290876230e+00,9.446745872497558594e+00,-6.501809358596801758e-01,4.589512646198272705e-01,5.810000000000000000e+02
-3.348390680169541156e+01,-8.786816025039661326e+01,-9.466029580071335658e-01,-9.405493053975442308e+01,-4.053979497791806352e+01,-4.367182777976267971e+00,1.916184076100762468e+00,-4.271476994435943197e-01,9.446745872497558594e+00,-6.501809358596801758e-01,4.589512646198272705e-01,5.820000000000000000e+02
-2.979189349137959653e+01,-8.319551397437680862e+01,-1.936246084271260770e+00,-9.554158416852442315e+01,-4.077966173937238636e+01,-4.516453892749268562e+00,5.334058858061325736e-01,-2.264615432733990019e+00,9.446745872497558594e+00,-6.501809358596801758e-01,4.589512646198272705e-01,5.830000000000000000e+02
-2.765577661267889198e+01,-8.027518851192508009e+01,-5.078692993363802088e+00,-9.780002583242458059e+01,-4.434773994511488127e+01,-5.056175154735683464e+00,-3.734639249429164920e+00,-6.720705026727955556e+00,9.446745872497558594e+00,-6.501809358596801758e-01,4.589512646198272705e-01,5.840000000000000000e+02
-2.678575377890592790e+01,-8.074476274553671828e+01,-9.109699909044138622e+00,-1.009225254114535346e+02,-4.964330900640925393e+01,-6.360037195016047917e+00,-9.685763194433093304e+00,-1.215830167235253612e+01,9.446745872497558594e+00,-6.501809358596801758e-01,4.589512646198272705e-01,5.850000000000000000e+02
-2.720443718462774996e+01,-8.409941464611620177e+01,-1.288836961986817187e+01,-1.041520746649875946e+02,-5.460356136910922942e+01,-8.229599222504475620e+00,-1.523656587574441801e+01,-1.632818929031418520e+01,9.446745872497558594e+00,-6.501809358596801758e-01,4.589512646198272705e-01,5.860000000000000000e+02
-2.882942843515411369e+01,-8.837191000299935695e+01,-1.593924245500238612e+01,-1.064496094656933565e+02,-5.793855214427094324e+01,-1.002127875931910239e+01,-1.863174561579216970e+01,-1.777159906866654637e+01,9.446745872497558594e+00,-6.501809358596801758e-01,4.589512646198272705e-01,5.870000000000000000e+02
-3.075271367691675550e+01,-9.168531005557451863e+01,-1.822651674448934500e+01,-1.072453486933591194e+02,-5.944290351618110435e+01,-1.106746914689574623e+01,-1.931760850640421268e+01,-1.650490793261997169e+01,9.446745872497558594e+00,-6.501809358596801758e-01,4.589512646198272705e-01,5.880000000000000000e+02
