F3,F4,C3,C4,P3,P4,Cz,Pz,Accel_x,Accel_y,Accel_z,Sample
-4.456524038687348366e-11,-5.275069270282983780e-11,-5.729816621169447899e-11,-4.911271389573812485e-11,-4.729372449219226837e-11,-6.912159733474254608e-11,-4.547473508864641190e-11,-2.273736754432320595e-11,9.370253562927246094e+00,-3.059675097465515137e-01,1.147378161549568176e-01,2.020000000000000000e+02
-1.719858302679949702e+01,-2.465646506573557417e+01,-1.366315419993225078e+01,-1.041496193744023913e+00,-3.447394400963275984e+00,1.284678056807933899e+01,-1.108204391223989660e+01,-1.843782462539365952e+01,9.370253562927246094e+00,-3.059675097465515137e-01,1.147378161549568176e-01,2.030000000000000000e+02
-3.262576656146484311e+01,-4.394235994974951609e+01,-2.301035482217594108e+01,-3.881901829883645405e+00,-1.345441096586637286e+01,1.642375852465193020e+01,-1.943504660297094233e+01,-3.234311246308789123e+01,9.370253562927246094e+00,-3.059675097465515137e-01,1.147378161549568176e-01,2.040000000000000000e+02
-4.588616777339302644e+01,-5.714247178405275918e+01,-2.727171031110719923e+01,-8.543561955806580954e+00,-3.078049157896657562e+01,9.320231609093752922e+00,-2.477232482786348555e+01,-4.115429283069170197e+01,9.370253562927246094e+00,-3.059675097465515137e-01,1.147378161549568176e-01,2.050000000000000000e+02
-5.805982969579054043e+01,-6.819881694970263197e+01,-2.949141470829999889e+01,-1.325084218919619161e+01,-5.024268635970565811e+01,-1.546999573303764919e+00,-2.936948037649472099e+01,-4.833905063828478887e+01,9.370253562927246094e+00,-3.059675097465515137e-01,1.147378161549568176e-01,2.060000000000000000e+02
-7.052745485528612335e+01,-8.134339925480162492e+01,-3.348366406117111183e+01,-1.615004586073337123e+01,-6.603352279690716387e+01,-7.872820565122310654e+00,-3.586670585093543195e+01,-5.773018814399620169e+01,9.370253562927246094e+00,-3.059675097465515137e-01,1.147378161549568176e-01,2.070000000000000000e+02
-8.374365187804687594e+01,-9.709786632138275309e+01,-4.057345965299828094e+01,-1.704257443656933901e+01,-7.689882084275996021e+01,-7.263863327263607061e+00,-4.496739720227651560e+01,-7.003427348181503476e+01,9.370253562927246094e+00,-3.059675097465515137e-01,1.147378161549568176e-01,2.080000000000000000e+02
-9.714375919247231650e+01,-1.126047888637167489e+02,-4.909901351668031566e+01,-1.746411512366830721e+01,-8.622565369390304113e+01,-4.133148342069034697e+00,-5.511948051388390013e+01,-8.282063833943720965e+01,9.484992027282714844e+00,-3.824593424797058105e-01,7.649187743663787842e-02,2.090000000000000000e+02
-1.101391458946445709e+02,-1.253951469649227874e+02,-5.666635095391484356e+01,-1.913024307095565746e+01,-9.771033922565220564e+01,-4.272348418264300562e+00,-6.412675611222857697e+01,-9.336652005601445126e+01,9.484992027282714844e+00,-3.824593424797058105e-01,7.649187743663787842e-02,2.100000000000000000e+02
-1.230375321307064951e+02,-1.361881846136930108e+02,-6.255822412009365507e+01,-2.232347939956162008e+01,-1.115937370870351515e+02,-9.152181106699572410e+00,-7.088264978527877247e+01,-1.010012247257045601e+02,9.484992027282714844e+00,-3.824593424797058105e-01,7.649187743663787842e-02,2.110000000000000000e+02
-1.368643483615360310e+02,-1.478279222344572190e+02,-6.802340857745912217e+01,-2.570855261259930558e+01,-1.251532015171515013e+02,-1.529953646538524481e+01,-7.571662376779113401e+01,-1.068007211284339064e+02,9.484992027282714844e+00,-3.824593424797058105e-01,7.649187743663787842e-02,2.120000000000000000e+02
-1.522356676881208841e+02,-1.619119287967350829e+02,-7.464059965127944452e+01,-2.759054326644127286e+01,-1.362321819534881797e+02,-1.838181932208681246e+01,-7.951018919394755358e+01,-1.117756724064392984e+02,9.484992027282714844e+00,-3.824593424797058105e-01,7.649187743663787842e-02,2.130000000000000000e+02
-1.684328447103334838e+02,-1.770055446107271564e+02,-8.276866178296313592e+01,-2.734067894115469244e+01,-1.456560478995343146e+02,-1.726974312674974499e+01,-8.284327922729517013e+01,-1.161217073285788501e+02,9.484992027282714844e+00,-3.824593424797058105e-01,7.649187743663787842e-02,2.140000000000000000e+02
-1.836581394531704063e+02,-1.902417557282378766e+02,-9.153649733492056839e+01,-2.575929549664760998e+01,-1.561860761745529089e+02,-1.436461893287196290e+01,-8.595523588466221554e+01,-1.202515039793579490e+02,9.484992027282714844e+00,-3.824593424797058105e-01,7.649187743663787842e-02,2.150000000000000000e+02
-1.963189091018002728e+02,-2.003060362438354787e+02,-9.993615270984173549e+01,-2.429012361656987196e+01,-1.696006378782249158e+02,-1.280478440827209852e+01,-8.915950905922090897e+01,-1.258074042084244866e+02,9.484992027282714844e+00,-3.824593424797058105e-01,7.649187743663787842e-02,2.160000000000000000e+02
-2.062094482300008167e+02,-2.085824384449015270e+02,-1.076072843861466026e+02,-2.398976593212319131e+01,-1.851021337092024623e+02,-1.385765550262476609e+01,-9.298481485750016873e+01,-1.348252883882496462e+02,9.484992027282714844e+00,-3.824593424797058105e-01,7.649187743663787842e-02,2.170000000000000000e+02
-2.145550670639750024e+02,-2.175599846353834437e+02,-1.146249284081386577e+02,-2.514179817605599965e+01,-2.003181107478221747e+02,-1.668545247301699419e+01,-9.790927564437879482e+01,-1.476481755997601795e+02,9.484992027282714844e+00,-3.824593424797058105e-01,7.649187743663787842e-02,2.180000000000000000e+02
-2.229402939441042690e+02,-2.285344439022874212e+02,-1.209099616517196409e+02,-2.758710200527548295e+01,-2.133798813560351846e+02,-1.983592976669933705e+01,-1.041380863478889296e+02,-1.619687569953066486e+02,9.484992027282714844e+00,-3.824593424797058105e-01,7.649187743663787842e-02,2.190000000000000000e+02
-2.321188155487097902e+02,-2.409815788934083685e+02,-1.261745480192712421e+02,-3.115160200218815589e+01,-2.239668461445389767e+02,-2.253764693057382829e+01,-1.116717256013907900e+02,-1.743268674399269003e+02,9.484992027282714844e+00,-3.824593424797058105e-01,7.649187743663787842e-02,2.200000000000000000e+02
-2.417332503874085887e+02,-2.537634916229953888e+02,-1.304599354823403701e+02,-3.564247550744494220e+01,-2.328416993965565780e+02,-2.488134509771771263e+01,-1.203679091783997137e+02,-1.827275418276003620e+02,9.484992027282714844e+00,-3.824593424797058105e-01,7.649187743663787842e-02,2.210000000000000000e+02
-2.510718568140864591e+02,-2.663899518860453099e+02,-1.344986667783041412e+02,-4.051161434814275708e+01,-2.409550873618409241e+02,-2.737214764474265394e+01,-1.296798436043554830e+02,-1.878508058754869126e+02,9.484992027282714844e+00,-3.824593424797058105e-01,7.649187743663787842e-02,2.220000000000000000e+02
-2.600334791298855635e+02,-2.789488700594929469e+02,-1.393215641184460765e+02,-4.475749820525743417e+01,-2.490764168045843689e+02,-3.057662483278545551e+01,-1.383769096865771644e+02,-1.919023374266353130e+02,9.484992027282714844e+00,-3.824593424797058105e-01,7.649187743663787842e-02,2.230000000000000000e+02
-2.693279914485174231e+02,-2.911956435425399832e+02,-1.454270866352890152e+02,-4.743213721160736895e+01,-2.578227356549805336e+02,-3.491818703323588124e+01,-1.449069871674582828e+02,-1.965917085692244655e+02,9.484992027282714844e+00,-3.824593424797058105e-01,7.649187743663787842e-02,2.240000000000000000e+02
-2.797306702630794462e+02,-3.022688792829594604e+02,-1.523411880674193526e+02,-4.843867379829134734e+01,-2.675325190416324403e+02,-4.037532211033794738e+01,-1.484709465896958136e+02,-2.022827715323483062e+02,9.484992027282714844e+00,-3.824593424797058105e-01,7.649187743663787842e-02,2.250000000000000000e+02
-2.911575217549061563e+02,-3.115662885025512878e+02,-1.589944268535109586e+02,-4.884446783873318054e+01,-2.779835637423284425e+02,-4.624227508358308114e+01,-1.499193656379402455e+02,-2.086845997841710414e+02,9.484992027282714844e+00,-3.824593424797058105e-01,7.649187743663787842e-02,2.260000000000000000e+02
-3.025439212395995128e+02,-3.197471284473422202e+02,-1.645334876279421223e+02,-5.020616727259312029e+01,-2.884235986508892893e+02,-5.136351010021462571e+01,-1.514242720399579412e+02,-2.156842094905341582e+02,9.484992027282714844e+00,-3.824593424797058105e-01,7.649187743663787842e-02,2.270000000000000000e+02
-3.127549092162680608e+02,-3.285211295392318789e+02,-1.688553907317218545e+02,-5.328295762722609652e+01,-2.980646011866892877e+02,-5.481293558114430198e+01,-1.549269926489705540e+02,-2.231071031292831321e+02,9.484992027282714844e+00,-3.824593424797058105e-01,7.649187743663787842e-02,2.280000000000000000e+02
-3.217252265793767947e+02,-3.391860761325997373e+02,-1.725245031185431799e+02,-5.719490263818443054e+01,-3.065659354272820565e+02,-5.639341389538185467e+01,-1.606145084189020054e+02,-2.298910483176741764e+02,9.484992027282714844e+00,-3.824593424797058105e-01,7.649187743663787842e-02,2.290000000000000000e+02
-3.306937691366438230e+02,-3.512660165011166100e+02,-1.763017422161201466e+02,-5.985655987035170256e+01,-3.140469609988767843e+02,-5.647731404262140131e+01,-1.667863798444886925e+02,-2.341688390182816875e+02,9.484992027282714844e+00,-3.824593424797058105e-01,7.649187743663787842e-02,2.300000000000000000e+02
-3.411705242313264534e+02,-3.625927815935592662e+02,-1.807257294698629266e+02,-5.946908066911601054e+01,-3.208123375346895045e+02,-5.548397008076881320e+01,-1.712458576416902361e+02,-2.347930519890433061e+02,9.484992027282714844e+00,-3.824593424797058105e-01,7.649187743663787842e-02,2.310000000000000000e+02
-3.534462066031646827e+02,-3.708401540901013504e+02,-1.859509913394113028e+02,-5.592063612745278078e+01,-3.273127648025892995e+02,-5.370979080363940739e+01,-1.729915682667733563e+02,-2.330076322797804096e+02,9.484992027282714844e+00,-3.824593424797058105e-01,7.649187743663787842e-02,2.320000000000000000e+02
-3.659479068216742235e+02,-3.752439837756119232e+02,-1.917473734306240658e+02,-5.098478428295220510e+01,-3.343882993947408977e+02,-5.173074166822516418e+01,-1.728201758371451433e+02,-2.324019784328856986e+02,9.484992027282714844e+00,-3.824593424797058105e-01,7.649187743663787842e-02,2.330000000000000000e+02
-3.760921437196602710e+02,-3.771727198841322206e+02,-1.975320770088737845e+02,-4.722891081432589999e+01,-3.431914260242929231e+02,-5.076768920495487691e+01,-1.725416692594490087e+02,-2.367364844635012560e+02,9.561484336853027344e+00,-3.824593424797058105e-01,1.529837548732757568e-01,2.340000000000000000e+02
-3.820186851949401898e+02,-3.792286729490233483e+02,-2.024819589698272466e+02,-4.656690238943065197e+01,-3.544087655497633023e+02,-5.232448409436528891e+01,-1.736974135282616771e+02,-2.472787717271494330e+02,9.561484336853027344e+00,-3.824593424797058105e-01,1.529837548732757568e-01,2.350000000000000000e+02
-3.838781085396913113e+02,-3.836647674112186905e+02,-2.058588893095275125e+02,-4.946796121381976263e+01,-3.673369221486273091e+02,-5.720381379789887433e+01,-1.768496442743444277e+02,-2.618484942667200812e+02,9.561484336853027344e+00,-3.824593424797058105e-01,1.529837548732757568e-01,2.360000000000000000e+02
-3.837606344422210896e+02,-3.912390579734965286e+02,-2.075021724131261180e+02,-5.506384651034841227e+01,-3.798767051350714610e+02,-6.477098395149914722e+01,-1.817155250209098085e+02,-2.762887651038595322e+02,9.561484336853027344e+00,-3.824593424797058105e-01,1.529837548732757568e-01,2.370000000000000000e+02
-3.844391812147441669e+02,-4.011125959105283982e+02,-2.081403659403517850e+02,-6.168900439003573410e+01,-3.897982859128969721e+02,-7.321561156059578934e+01,-1.876325554451495918e+02,-2.870729777644774003e+02,9.561484336853027344e+00,-3.824593424797058105e-01,1.529837548732757568e-01,2.380000000000000000e+02
-3.879073346915333786e+02,-4.116117851524927573e+02,-2.091569483139569456e+02,-6.739689019697379990e+01,-3.963087034611889976e+02,-8.063920549736667454e+01,-1.938309224348922726e+02,-2.930518670220335480e+02,9.561484336853027344e+00,-3.824593424797058105e-01,1.529837548732757568e-01,2.390000000000000000e+02
-3.946183380018906064e+02,-4.212315615213715319e+02,-2.118099592512435265e+02,-7.046133449815806671e+01,-4.004962113522396976e+02,-8.608315618975848338e+01,-1.995061442372184501e+02,-2.953319547503033391e+02,9.561484336853027344e+00,-3.824593424797058105e-01,1.529837548732757568e-01,2.400000000000000000e+02
-4.036555691933704111e+02,-4.293088147592538917e+02,-2.163904021089474554e+02,-7.004036246634495910e+01,-4.042296516108062860e+02,-8.974140130033720197e+01,-2.039974796037408851e+02,-2.958538446348111393e+02,9.561484336853027344e+00,-3.824593424797058105e-01,1.529837548732757568e-01,2.410000000000000000e+02
-4.134621677465574976e+02,-4.361261185344856131e+02,-2.219737307236237029e+02,-6.678972670918392396e+01,-4.085630431647450678e+02,-9.235892187967965583e+01,-2.071442819214994415e+02,-2.960224753772690747e+02,9.561484336853027344e+00,-3.824593424797058105e-01,1.529837548732757568e-01,2.420000000000000000e+02
-4.226026962684445607e+02,-4.425305470739699558e+02,-2.270335491366217866e+02,-6.279753675955544168e+01,-4.131350757622149104e+02,-9.444685150861369038e+01,-2.094852233933343086e+02,-2.962753317468564092e+02,9.561484336853027344e+00,-3.824593424797058105e-01,1.529837548732757568e-01,2.430000000000000000e+02
-4.302559618398940984e+02,-4.493357137952903031e+02,-2.304981868025411131e+02,-6.053306076583066897e+01,-4.169932608249218902e+02,-9.591253122507077933e+01,-2.119585754348945557e+02,-2.965069194460124891e+02,9.561484336853027344e+00,-3.824593424797058105e-01,1.529837548732757568e-01,2.440000000000000000e+02
-4.363585004441956698e+02,-4.568280807497640126e+02,-2.324386385337957108e+02,-6.139302310803304863e+01,-4.198652700377501787e+02,-9.627211463043840922e+01,-2.152382553734487374e+02,-2.966953429923473777e+02,9.561484336853027344e+00,-3.824593424797058105e-01,1.529837548732757568e-01,2.450000000000000000e+02
-4.414371902213501926e+02,-4.646201528024294021e+02,-2.338741373362586273e+02,-6.495447528995646280e+01,-4.225770171267968180e+02,-9.520389602327304601e+01,-2.192557369366891180e+02,-2.971669710144883538e+02,9.561484336853027344e+00,-3.824593424797058105e-01,1.529837548732757568e-01,2.460000000000000000e+02
-4.462379365397182482e+02,-4.719151154882647461e+02,-2.358963846879905759e+02,-6.952922602027683752e+01,-4.263018136836381018e+02,-9.303769744059991353e+01,-2.233088374883595861e+02,-2.983849114141366954e+02,9.561484336853027344e+00,-3.824593424797058105e-01,1.529837548732757568e-01,2.470000000000000000e+02
-4.513590849688257549e+02,-4.780445464055751472e+02,-2.388620104395890849e+02,-7.345387003413270577e+01,-4.314603313613556566e+02,-9.079037001104734372e+01,-2.266067477782830792e+02,-3.005088647296411182e+02,9.561484336853027344e+00,-3.824593424797058105e-01,1.529837548732757568e-01,2.480000000000000000e+02
-4.570900428998088501e+02,-4.829583799129954969e+02,-2.422855747249536762e+02,-7.595700568522715912e+01,-4.373161691118393719e+02,-8.959660674092356203e+01,-2.287434853901286260e+02,-3.031075989902574293e+02,9.561484336853027344e+00,-3.824593424797058105e-01,1.529837548732757568e-01,2.490000000000000000e+02
-4.634596861688351055e+02,-4.872887475240204367e+02,-2.453929414728527263e+02,-7.702625152381278895e+01,-4.425876406699917425e+02,-8.988300200917274196e+01,-2.297516714578123356e+02,-3.052690002609638213e+02,9.561484336853027344e+00,-3.824593424797058105e-01,1.529837548732757568e-01,2.500000000000000000e+02
-4.703142518376221233e+02,-4.918670736916396891e+02,-2.477673855044554330e+02,-7.677780826289836114e+01,-4.464854888368799948e+02,-9.096404548789632827e+01,-2.298760116819271389e+02,-3.061139920334840099e+02,9.561484336853027344e+00,-3.824593424797058105e-01,1.529837548732757568e-01,2.510000000000000000e+02
-4.772814792700128237e+02,-4.970413839174111672e+02,-2.495822326051843447e+02,-7.523743063005258591e+01,-4.492960282082490266e+02,-9.151526079430004756e+01,-2.294622141196250595e+02,-3.054586175258409639e+02,9.561484336853027344e+00,-3.824593424797058105e-01,1.529837548732757568e-01,2.520000000000000000e+02
-4.837313359977033542e+02,-5.023745856269201795e+02,-2.513567445996113747e+02,-7.274815359527747205e+01,-4.521007565802719910e+02,-9.062596217948157573e+01,-2.290625937979853006e+02,-3.041513839404119608e+02,9.561484336853027344e+00,-3.824593424797058105e-01,1.529837548732757568e-01,2.530000000000000000e+02
-4.889693818203509181e+02,-5.070229327534893855e+02,-2.535694774138755747e+02,-7.031846693417173810e+01,-4.559493380072940454e+02,-8.856321541228317074e+01,-2.294436912232545183e+02,-3.036966903296811324e+02,9.561484336853027344e+00,-3.824593424797058105e-01,1.529837548732757568e-01,2.540000000000000000e+02
-4.926780180164751073e+02,-5.104837939158560403e+02,-2.564297415107039342e+02,-6.922123103152671320e+01,-4.611433766626200850e+02,-8.657442365377846727e+01,-2.311877497834075257e+02,-3.052599690164388448e+02,9.561484336853027344e+00,-3.824593424797058105e-01,1.529837548732757568e-01,2.550000000000000000e+02
-4.952598387979610379e+02,-5.130375581011549002e+02,-2.598275415718021577e+02,-7.001783643917360678e+01,-4.671016752858899963e+02,-8.588839911845298047e+01,-2.340677780398232244e+02,-3.086997421254468463e+02,9.561484336853027344e+00,-3.824593424797058105e-01,1.529837548732757568e-01,2.560000000000000000e+02
-4.976896062530781819e+02,-5.155055977470537982e+02,-2.633721771715845534e+02,-7.195405082902470895e+01,-4.728143195729176114e+02,-8.676896047405080026e+01,-2.368484636818629951e+02,-3.124101302154044788e+02,9.561484336853027344e+00,-3.824593424797058105e-01,1.529837548732757568e-01,2.570000000000000000e+02
-5.008917526792688477e+02,-5.186017258029678487e+02,-2.665117175904092619e+02,-7.344964238865713924e+01,-4.774986418369703642e+02,-8.837661535945881042e+01,-2.379618368645483315e+02,-3.142432704003931576e+02,9.561484336853027344e+00,-3.824593424797058105e-01,1.529837548732757568e-01,2.580000000000000000e+02
-5.051415871731073821e+02,-5.225065184123423023e+02,-2.687889479708856015e+02,-7.335132042906798233e+01,-4.810015934377638587e+02,-8.942762714400942059e+01,-2.366863358499908827e+02,-3.129224528467843811e+02,9.561484336853027344e+00,-3.824593424797058105e-01,1.529837548732757568e-01,2.590000000000000000e+02
-5.100026368803469268e+02,-5.269838127717944189e+02,-2.701612831750858277e+02,-7.183424956080625634e+01,-4.837352637863855307e+02,-8.900784065968764480e+01,-2.338441506358858533e+02,-3.088981535797579454e+02,9.561484336853027344e+00,-3.824593424797058105e-01,1.529837548732757568e-01,2.600000000000000000e+02
-5.148013765804930699e+02,-5.317403272779797589e+02,-2.711254296710076233e+02,-7.015188089408684391e+01,-4.862901064725297147e+02,-8.696075837955504539e+01,-2.313267076237816582e+02,-3.040426874832605790e+02,9.446745872497558594e+00,-2.677215635776519775e-01,7.649187743663787842e-02,2.610000000000000000e+02
-5.191150731424472724e+02,-5.365222024985009739e+02,-2.724323159917007615e+02,-6.953821183905711223e+01,-4.890742579142179238e+02,-8.379504916263158520e+01,-2.307951521327731825e+02,-3.005308958573546079e+02,9.446745872497558594e+00,-2.677215635776519775e-01,7.649187743663787842e-02,2.620000000000000000e+02
-5.228143713661033871e+02,-5.408671613214924037e+02,-2.745359595628497118e+02,-7.030915053454327790e+01,-4.922268815007237208e+02,-8.041870555546483956e+01,-2.326746191528154668e+02,-2.998199362420809848e+02,9.446745872497558594e+00,-2.677215635776519775e-01,7.649187743663787842e-02,2.630000000000000000e+02
-5.257679463133968056e+02,-5.439863149306402192e+02,-2.772350319926849807e+02,-7.188387394365281580e+01,-4.957716745898828776e+02,-7.788270381387701491e+01,-2.362515333746937358e+02,-3.023381025403346030e+02,9.446745872497558594e+00,-2.677215635776519775e-01,7.649187743663787842e-02,2.640000000000000000e+02
-5.277138588537344503e+02,-5.451990557164739357e+02,-2.798526740974232325e+02,-7.350746310865361011e+01,-4.997679631406761018e+02,-7.706037353527767664e+01,-2.405741387157022473e+02,-3.077176616373781144e+02,9.446745872497558594e+00,-2.677215635776519775e-01,7.649187743663787842e-02,2.650000000000000000e+02
-5.285777420517885048e+02,-5.446889117227723318e+02,-2.818312302035457151e+02,-7.486768722150372923e+01,-5.042571971268342850e+02,-7.823293803777164612e+01,-2.451150127374759222e+02,-3.150050397093881429e+02,9.446745872497558594e+00,-2.677215635776519775e-01,7.649187743663787842e-02,2.660000000000000000e+02
-5.288987158463480682e+02,-5.438098944071832648e+02,-2.832132647390351394e+02,-7.609161277596581385e+01,-5.090338915366071433e+02,-8.083831612624226182e+01,-2.495653409710877213e+02,-3.226432057906963564e+02,9.446745872497558594e+00,-2.677215635776519775e-01,7.649187743663787842e-02,2.670000000000000000e+02
-5.297523172492877848e+02,-5.444144856106643147e+02,-2.845667477088766191e+02,-7.733522328875096719e+01,-5.135032934883215603e+02,-8.373767257820645682e+01,-2.532210187955946594e+02,-3.286214892538423555e+02,9.446745872497558594e+00,-2.677215635776519775e-01,7.649187743663787842e-02,2.680000000000000000e+02
-5.320282140812990974e+02,-5.475692597638396819e+02,-2.864399068035525033e+02,-7.852214588426886621e+01,-5.168678984380353540e+02,-8.596049464442285171e+01,-2.549654961467902012e+02,-3.312082361448281063e+02,9.446745872497558594e+00,-2.677215635776519775e-01,7.649187743663787842e-02,2.690000000000000000e+02
-5.356404916478038558e+02,-5.526910713814152132e+02,-2.888619660492539651e+02,-7.947522432273694903e+01,-5.186136523111814540e+02,-8.739672288605743233e+01,-2.541800196142348796e+02,-3.300102602263758627e+02,9.446745872497558594e+00,-2.677215635776519775e-01,7.649187743663787842e-02,2.700000000000000000e+02
-5.394531123562567245e+02,-5.578845178366625532e+02,-2.913449736361061468e+02,-8.017301914343761382e+01,-5.189485933946602927e+02,-8.883698404263691373e+01,-2.517357025877138312e+02,-3.264693986482261607e+02,9.446745872497558594e+00,-2.677215635776519775e-01,7.649187743663787842e-02,2.710000000000000000e+02
-5.421096025497088249e+02,-5.612607156211796564e+02,-2.933591109137071271e+02,-8.076057350996438799e+01,-5.187958683134752391e+02,-9.125969670517997656e+01,-2.498646699860703393e+02,-3.231379726734280666e+02,9.446745872497558594e+00,-2.677215635776519775e-01,7.649187743663787842e-02,2.720000000000000000e+02
-5.430997226364530661e+02,-5.621876649959142469e+02,-2.948208089328303458e+02,-8.130379697500575276e+01,-5.192659712739855422e+02,-9.493372033339710470e+01,-2.506720425881534311e+02,-3.221016290055297304e+02,9.446745872497558594e+00,-2.677215635776519775e-01,7.649187743663787842e-02,2.730000000000000000e+02
-5.431465935605999675e+02,-5.615135270540065449e+02,-2.961388350983875171e+02,-8.161666581079521166e+01,-5.209652997900235505e+02,-9.908639791866517044e+01,-2.544440299266475449e+02,-3.237498837150725421e+02,9.446745872497558594e+00,-2.677215635776519775e-01,7.649187743663787842e-02,2.740000000000000000e+02
-5.435897604093050859e+02,-5.606947451698956684e+02,-2.978016281237681824e+02,-8.142577994360453886e+01,-5.236842076128498320e+02,-1.024222969343097702e+02,-2.592651661428903935e+02,-3.268498103893915072e+02,9.446745872497558594e+00,-2.677215635776519775e-01,7.649187743663787842e-02,2.750000000000000000e+02
-5.453311840143906011e+02,-5.606546255013412292e+02,-2.999094997436729955e+02,-8.071977568514284940e+01,-5.267200304132595647e+02,-1.040778639291297623e+02,-2.623673406269579118e+02,-3.297548174164650163e+02,9.446745872497558594e+00,-2.677215635776519775e-01,7.649187743663787842e-02,2.760000000000000000e+02
-5.482447469132234801e+02,-5.613286629784869319e+02,-3.020790133202685865e+02,-7.987032921108198025e+01,-5.295129717869958768e+02,-1.042289852499861809e+02,-2.621280413519187960e+02,-3.316149626281097653e+02,9.446745872497558594e+00,-2.677215635776519775e-01,7.649187743663787842e-02,2.770000000000000000e+02
-5.514590087042735149e+02,-5.621568286892950255e+02,-3.037832989521552918e+02,-7.935432159663491802e+01,-5.319806687672087264e+02,-1.038692384140310878e+02,-2.591371714196510538e+02,-3.325914864225394467e+02,9.446745872497558594e+00,-2.677215635776519775e-01,7.649187743663787842e-02,2.780000000000000000e+02
-5.541250609568478467e+02,-5.629356460463992562e+02,-3.047669358621612901e+02,-7.937711137263568162e+01,-5.342442288509304262e+02,-1.039711326246265344e+02,-2.556307914376889130e+02,-3.331477396752620166e+02,9.446745872497558594e+00,-2.677215635776519775e-01,7.649187743663787842e-02,2.790000000000000000e+02
-5.559340760543741453e+02,-5.641817606076298262e+02,-3.051399281475210046e+02,-7.982870314309479909e+01,-5.360786406627717042e+02,-1.047551359294830036e+02,-2.539412046711695439e+02,-3.333337717388255896e+02,9.446745872497558594e+00,-2.677215635776519775e-01,7.649187743663787842e-02,2.800000000000000000e+02
-5.570162605784424841e+02,-5.666507718143458305e+02,-3.051260862274783676e+02,-8.061831587614756245e+01,-5.367728211906476190e+02,-1.056648858784803906e+02,-2.551808152586719416e+02,-3.328261891748255721e+02,9.446745872497558594e+00,-2.677215635776519775e-01,7.649187743663787842e-02,2.810000000000000000e+02
-5.575176990009115343e+02,-5.704569556210543624e+02,-3.048020744058655964e+02,-8.196489347109150003e+01,-5.357011631223656423e+02,-1.060079865112938933e+02,-2.588921240727313489e+02,-3.315868638558892485e+02,9.446745872497558594e+00,-2.677215635776519775e-01,7.649187743663787842e-02,2.820000000000000000e+02
-5.574192437493261423e+02,-5.746265176208863750e+02,-3.041427380393205340e+02,-8.422164041466180606e+01,-5.331376711128031047e+02,-1.056409005523314590e+02,-2.635567263511762803e+02,-3.303188082941085781e+02,9.446745872497558594e+00,-2.677215635776519775e-01,7.649187743663787842e-02,2.830000000000000000e+02
-5.568048934196260689e+02,-5.775666359465112691e+02,-3.033117334574116057e+02,-8.731769803430620414e+01,-5.304553666038485744e+02,-1.050554702777094462e+02,-2.674169109381889484e+02,-3.301005906106619250e+02,9.446745872497558594e+00,-2.677215635776519775e-01,7.649187743663787842e-02,2.840000000000000000e+02
-5.562223608076051278e+02,-5.781240671454859239e+02,-3.028080760358312773e+02,-9.039037538023603702e+01,-5.293360767057321254e+02,-1.048022992268001872e+02,-2.691808542183414374e+02,-3.314407149485168134e+02,9.446745872497558594e+00,-2.677215635776519775e-01,7.649187743663787842e-02,2.850000000000000000e+02
-5.565940852342677090e+02,-5.763763402184526967e+02,-3.031931341866318235e+02,-9.209064640079077435e+01,-5.305501351080999939e+02,-1.048264817031863458e+02,-2.684398363206230442e+02,-3.336543673348048742e+02,9.446745872497558594e+00,-2.677215635776519775e-01,7.649187743663787842e-02,2.860000000000000000e+02
-5.585679308160321170e+02,-5.735219206899530491e+02,-3.045893052851380958e+02,-9.141362686400862003e+01,-5.333456347007631848e+02,-1.043719707618133725e+02,-2.657140013659800388e+02,-3.352354117192971898e+02,9.446745872497558594e+00,-2.677215635776519775e-01,7.649187743663787842e-02,2.870000000000000000e+02
-5.618125608386510521e+02,-5.709871947219187405e+02,-3.064457012665287152e+02,-8.838487898652135755e+01,-5.360161027941931025e+02,-1.025726227071320409e+02,-2.621032335873143779e+02,-3.350085251019776820e+02,9.446745872497558594e+00,-2.677215635776519775e-01,7.649187743663787842e-02,2.880000000000000000e+02
-5.649408160899572522e+02,-5.695195046452857923e+02,-3.078561763949021497e+02,-8.403949505424748168e+01,-5.371808751800331265e+02,-9.921584317414180987e+01,-2.587014569901554637e+02,-3.331160734060974278e+02,9.446745872497558594e+00,-2.677215635776519775e-01,7.649187743663787842e-02,2.890000000000000000e+02
-5.662796614153362498e+02,-5.689769180962919108e+02,-3.081699173470034907e+02,-7.975006408071021724e+01,-5.366917334547192695e+02,-9.501682582092053053e+01,-2.561492758404735923e+02,-3.309721136200960245e+02,9.446745872497558594e+00,-2.677215635776519775e-01,7.649187743663787842e-02,2.900000000000000000e+02
-5.649693623060949221e+02,-5.688591555153722084e+02,-3.073560000293247754e+02,-7.649094940388386021e+01,-5.354540981115904970e+02,-9.118975919877721026e+01,-2.546364358014541835e+02,-3.301759429319886294e+02,9.446745872497558594e+00,-2.677215635776519775e-01,7.649187743663787842e-02,2.910000000000000000e+02
-5.615482720988057963e+02,-5.689796326801990745e+02,-3.058392429127068226e+02,-7.457464695108023989e+01,-5.344229321383215847e+02,-8.867774789866848550e+01,-2.542355012640042560e+02,-3.312416037495223691e+02,9.408499717712402344e+00,-3.824593424797058105e-01,7.649187743663787842e-02,2.920000000000000000e+02
-5.575740124314352215e+02,-5.696151553564621963e+02,-3.040607901366965393e+02,-7.389655038299213174e+01,-5.337376112182737415e+02,-8.761794532612475450e+01,-2.551002135950487855e+02,-3.331854862392576706e+02,9.408499717712402344e+00,-3.824593424797058105e-01,7.649187743663787842e-02,2.930000000000000000e+02
-5.545950214721639213e+02,-5.710207632873216426e+02,-3.022555950329865482e+02,-7.429219163723405472e+01,-5.327696085488114477e+02,-8.738066861605898339e+01,-2.572182307530790126e+02,-3.343232662906144128e+02,9.408499717712402344e+00,-3.824593424797058105e-01,7.649187743663787842e-02,2.940000000000000000e+02
-5.532730802995822614e+02,-5.728390160398496391e+02,-3.006086912609733872e+02,-7.563312407033095042e+01,-5.309821234512941146e+02,-8.708583165008894866e+01,-2.599618072829848074e+02,-3.336325604834391356e+02,9.408499717712402344e+00,-3.824593424797058105e-01,7.649187743663787842e-02,2.950000000000000000e+02
-5.532431327233989578e+02,-5.740688010374819896e+02,-2.994792921011758153e+02,-7.766675932222256051e+01,-5.287472580595469935e+02,-8.621714012907841607e+01,-2.620448216254038698e+02,-3.315723649374781417e+02,9.408499717712402344e+00,-3.824593424797058105e-01,7.649187743663787842e-02,2.960000000000000000e+02
-5.536486296413883110e+02,-5.737517428895862395e+02,-2.993047529931122881e+02,-7.988532743422103977e+01,-5.273001622506077410e+02,-8.494619129714283190e+01,-2.621906101018038271e+02,-3.297068015473656146e+02,9.408499717712402344e+00,-3.824593424797058105e-01,7.649187743663787842e-02,2.970000000000000000e+02
-5.538047357736118101e+02,-5.718259673077363914e+02,-3.002184703256552893e+02,-8.165938554444198871e+01,-5.278030634141971404e+02,-8.399160593832675659e+01,-2.600813012955426302e+02,-3.294579868463254115e+02,9.408499717712402344e+00,-3.824593424797058105e-01,7.649187743663787842e-02,2.980000000000000000e+02
-5.534927843623580657e+02,-5.693603612405397598e+02,-3.017988674621511223e+02,-8.257660381866310217e+01,-5.303009044478077385e+02,-8.411541033753269403e+01,-2.567432897190524272e+02,-3.310011082861414025e+02,9.408499717712402344e+00,-3.824593424797058105e-01,7.649187743663787842e-02,2.990000000000000000e+02
-5.528256375728850571e+02,-5.678405596511327076e+02,-3.032692611259175237e+02,-8.271135396562328879e+01,-5.335044649245598976e+02,-8.559141912951531594e+01,-2.539131211067023628e+02,-3.331661208251060202e+02,9.408499717712402344e+00,-3.824593424797058105e-01,7.649187743663787842e-02,3.000000000000000000e+02
-5.519799353254759353e+02,-5.679941217854733395e+02,-3.040080283209075560e+02,-8.257611803494455671e+01,-5.356571654352417227e+02,-8.801342535579374271e+01,-2.528358866045267064e+02,-3.343940462626474073e+02,9.408499717712402344e+00,-3.824593424797058105e-01,7.649187743663787842e-02,3.010000000000000000e+02
-5.510685421846267218e+02,-5.691178930380399379e+02,-3.038866310278021956e+02,-8.275866640276262842e+01,-5.357933583693234141e+02,-9.058800911606795125e+01,-2.534745784868622991e+02,-3.339712689449459049e+02,9.408499717712402344e+00,-3.824593424797058105e-01,7.649187743663787842e-02,3.020000000000000000e+02
-5.501750329214646626e+02,-5.695433321348480149e+02,-3.031518877209761627e+02,-8.350589395576264451e+01,-5.343534967326606875e+02,-9.268968425135722100e+01,-2.547484278026003039e+02,-3.325784114364091124e+02,9.408499717712402344e+00,-3.824593424797058105e-01,7.649187743663787842e-02,3.030000000000000000e+02
-5.493697564299070564e+02,-5.679576155995529234e+02,-3.020414155521809221e+02,-8.458627745304318069e+01,-5.326562003979587416e+02,-9.425026161374262301e+01,-2.555124158986204748e+02,-3.317585527463854760e+02,9.408499717712402344e+00,-3.824593424797058105e-01,7.649187743663787842e-02,3.040000000000000000e+02
-5.486116967998959808e+02,-5.645416265588168017e+02,-3.005634536590052903e+02,-8.557438354448379414e+01,-5.317139154668183210e+02,-9.570491040682077255e+01,-2.553837274543687386e+02,-3.327295631286090156e+02,9.408499717712402344e+00,-3.824593424797058105e-01,7.649187743663787842e-02,3.050000000000000000e+02
-5.476528710786474221e+02,-5.609802517513169278e+02,-2.986395500229389768e+02,-8.632240529997727663e+01,-5.314325943481426293e+02,-9.757601921343302820e+01,-2.547578325471441758e+02,-3.354442588537029337e+02,9.408499717712402344e+00,-3.824593424797058105e-01,7.649187743663787842e-02,3.060000000000000000e+02
-5.461379292992929777e+02,-5.592982777497620646e+02,-2.963967936938448702e+02,-8.717709667536860252e+01,-5.308542603313468362e+02,-1.000408612823500789e+02,-2.541816906268726370e+02,-3.386013142729258334e+02,9.408499717712402344e+00,-3.824593424797058105e-01,7.649187743663787842e-02,3.070000000000000000e+02
-5.438879361777371741e+02,-5.604343148767862886e+02,-2.942459600410633698e+02,-8.868187643508031215e+01,-5.291454382517507611e+02,-1.027910352770845748e+02,-2.538007971844704116e+02,-3.406009059224535349e+02,9.408499717712402344e+00,-3.824593424797058105e-01,7.649187743663787842e-02,3.080000000000000000e+02
-5.411160307986588123e+02,-5.636414839094727540e+02,-2.926368684756694734e+02,-9.097871104621071936e+01,-5.263899919596287873e+02,-1.052405207053338927e+02,-2.533852133641126443e+02,-3.407227409980132506e+02,9.408499717712402344e+00,-3.824593424797058105e-01,7.649187743663787842e-02,3.090000000000000000e+02
-5.383293950950555882e+02,-5.670866744895137117e+02,-2.917323767298482267e+02,-9.346958181690479250e+01,-5.234994676652904673e+02,-1.069081395875853104e+02,-2.527593857904111587e+02,-3.396205729274622627e+02,9.408499717712402344e+00,-3.824593424797058105e-01,7.649187743663787842e-02,3.100000000000000000e+02
-5.359668617166289550e+02,-5.690636839712050232e+02,-2.913136212840694839e+02,-9.513257611490757881e+01,-5.213924024158546899e+02,-1.077223312355727103e+02,-2.520625666467905717e+02,-3.387390161903837793e+02,9.408499717712402344e+00,-3.824593424797058105e-01,7.649187743663787842e-02,3.110000000000000000e+02
-5.341002861790802854e+02,-5.688750130492376229e+02,-2.910032039688268810e+02,-9.529464179037836402e+01,-5.202476789931588428e+02,-1.080594234380650960e+02,-2.515268803513914122e+02,-3.391199139325987630e+02,9.408499717712402344e+00,-3.824593424797058105e-01,7.649187743663787842e-02,3.120000000000000000e+02
-5.324889316475846499e+02,-5.668990537984922184e+02,-2.905766908955091026e+02,-9.418457176030801747e+01,-5.194862832167829083e+02,-1.084704715377420143e+02,-2.510506351185358653e+02,-3.405454392294240620e+02,9.484992027282714844e+00,-3.442134261131286621e-01,7.649187743663787842e-02,3.130000000000000000e+02
-5.309234437574230014e+02,-5.640741386789909484e+02,-2.900669302812761430e+02,-9.275898333522695793e+01,-5.183898740174555542e+02,-1.092504781053999068e+02,-2.501205394875105412e+02,-3.416776308711496881e+02,9.484992027282714844e+00,-3.442134261131286621e-01,7.649187743663787842e-02,3.140000000000000000e+02
-5.294883550566394206e+02,-5.613456174490611374e+02,-2.895843347354960997e+02,-9.196909141563469348e+01,-5.167030118374650556e+02,-1.101831379764091707e+02,-2.482575469658782481e+02,-3.410357738027738037e+02,9.484992027282714844e+00,-3.442134261131286621e-01,7.649187743663787842e-02,3.150000000000000000e+02
-5.284446137227442932e+02,-5.593815647943824843e+02,-2.890612826326531604e+02,-9.213461013389837717e+01,-5.146761563418031074e+02,-1.107312794374134910e+02,-2.455749878546436094e+02,-3.379958947236248719e+02,9.484992027282714844e+00,-3.442134261131286621e-01,7.649187743663787842e-02,3.160000000000000000e+02
-5.278486213325891185e+02,-5.584863909289118737e+02,-2.882072086785002512e+02,-9.292952546150718263e+01,-5.126123072367306577e+02,-1.105654322738754445e+02,-2.428735643456438993e+02,-3.330791171639070285e+02,9.484992027282714844e+00,-3.442134261131286621e-01,7.649187743663787842e-02,3.170000000000000000e+02
-5.273499448724435297e+02,-5.585379176546668987e+02,-2.867691619092069004e+02,-9.384232761866473993e+01,-5.104586462159845723e+02,-1.099488876466151623e+02,-2.411194838735827943e+02,-3.274557013373047880e+02,9.484992027282714844e+00,-3.442134261131286621e-01,7.649187743663787842e-02,3.180000000000000000e+02
-5.264313906706119042e+02,-5.589601914503041371e+02,-2.848767199240239734e+02,-9.455180906939483521e+01,-5.078798218813716403e+02,-1.095427156536030679e+02,-2.407465257503954490e+02,-3.222106811660803487e+02,9.484992027282714844e+00,-3.442134261131286621e-01,7.649187743663787842e-02,3.190000000000000000e+02
-5.248749302863162711e+02,-5.589076048851857195e+02,-2.830984524009634242e+02,-9.490793589521013018e+01,-5.047021870980159974e+02,-1.097411625516749609e+02,-2.413945260407214164e+02,-3.179467285165530939e+02,9.484992027282714844e+00,-3.442134261131286621e-01,7.649187743663787842e-02,3.200000000000000000e+02
-5.229375709604350959e+02,-5.576942350143839349e+02,-2.820408649788598723e+02,-9.474951018611818654e+01,-5.012140929439389083e+02,-1.101785176203611627e+02,-2.422661404776583822e+02,-3.148422221346577317e+02,9.484992027282714844e+00,-3.442134261131286621e-01,7.649187743663787842e-02,3.210000000000000000e+02
-5.210057631359970856e+02,-5.552286405615188869e+02,-2.817647960243480156e+02,-9.395347800285196627e+01,-4.979576690772291840e+02,-1.099733319871722870e+02,-2.427331083642068279e+02,-3.128824321563996591e+02,9.484992027282714844e+00,-3.442134261131286621e-01,7.649187743663787842e-02,3.220000000000000000e+02
-5.190812945544091690e+02,-5.520763141986946039e+02,-2.815843873862343116e+02,-9.272449514545974125e+01,-4.952194083896608845e+02,-1.085788462439591058e+02,-2.426488288272297495e+02,-3.119855063368511310e+02,9.484992027282714844e+00,-3.442134261131286621e-01,7.649187743663787842e-02,3.230000000000000000e+02
-5.167020965593030724e+02,-5.490205390110367034e+02,-2.805721942157829289e+02,-9.167837233160719279e+01,-4.927804805929608847e+02,-1.064417354414060810e+02,-2.421715596858796289e+02,-3.119930051531507615e+02,9.484992027282714844e+00,-3.442134261131286621e-01,7.649187743663787842e-02,3.240000000000000000e+02
-5.134913239107622758e+02,-5.464192107703129295e+02,-2.784472854530187078e+02,-9.139899410225564225e+01,-4.902413142950072142e+02,-1.047760140992079414e+02,-2.413658477979192867e+02,-3.126393390299296016e+02,9.484992027282714844e+00,-3.442134261131286621e-01,7.649187743663787842e-02,3.250000000000000000e+02
-5.098202772521515271e+02,-5.438801207982847927e+02,-2.760456878155616778e+02,-9.176487845544181710e+01,-4.876046515770996166e+02,-1.045803583385472848e+02,-2.400065301880748621e+02,-3.135437697745603600e+02,9.484992027282714844e+00,-3.442134261131286621e-01,7.649187743663787842e-02,3.260000000000000000e+02
-5.068344632578541678e+02,-5.405703550667337822e+02,-2.748224942609276695e+02,-9.178227186565459306e+01,-4.854609205411920811e+02,-1.057836131984331587e+02,-2.377835628226923745e+02,-3.142096541138844259e+02,9.484992027282714844e+00,-3.442134261131286621e-01,7.649187743663787842e-02,3.270000000000000000e+02
-5.056503075570204828e+02,-5.359637093291955807e+02,-2.756781078756291663e+02,-9.030943941409248055e+01,-4.844852813665950180e+02,-1.073003876567327097e+02,-2.347253342732224155e+02,-3.140860069141872373e+02,9.484992027282714844e+00,-3.442134261131286621e-01,7.649187743663787842e-02,3.280000000000000000e+02
-5.063573981304225526e+02,-5.304241804098963939e+02,-2.781082379366165469e+02,-8.714545372858412975e+01,-4.846992639569845096e+02,-1.079348982570577391e+02,-2.314597521089067413e+02,-3.128135300171127255e+02,9.484992027282714844e+00,-3.442134261131286621e-01,7.649187743663787842e-02,3.290000000000000000e+02
-5.077459167041560022e+02,-5.250824286648664838e+02,-2.805028836566877999e+02,-8.345430064640277124e+01,-4.852913393403331384e+02,-1.073076358174666893e+02,-2.290359427594917179e+02,-3.106104677507817087e+02,9.484992027282714844e+00,-3.442134261131286621e-01,7.649187743663787842e-02,3.300000000000000000e+02
-5.080873494284822982e+02,-5.210396699577190702e+02,-2.813953875629871391e+02,-8.099731064902573507e+01,-4.852628122105375041e+02,-1.060154196266198596e+02,-2.283448802881850952e+02,-3.084563160011409764e+02,9.484992027282714844e+00,-3.442134261131286621e-01,7.649187743663787842e-02,3.310000000000000000e+02
-5.063632709310268183e+02,-5.185531045339480443e+02,-2.805638369686029137e+02,-8.074635988790737429e+01,-4.842846627411647660e+02,-1.049753102318263700e+02,-2.294780812740722240e+02,-3.076863110228305231e+02,9.484992027282714844e+00,-3.442134261131286621e-01,7.649187743663787842e-02,3.320000000000000000e+02
-5.029197627475007266e+02,-5.169297021814354594e+02,-2.789785171087057734e+02,-8.209824467715918672e+01,-4.828561033559889211e+02,-1.046147664190784781e+02,-2.314867706908589753e+02,-3.090620069292549488e+02,9.484992027282714844e+00,-3.442134261131286621e-01,7.649187743663787842e-02,3.330000000000000000e+02
-4.990454019393501994e+02,-5.152261727017353223e+02,-2.776743628900967451e+02,-8.340007199068645605e+01,-4.815384502114915222e+02,-1.046216365746572592e+02,-2.328020553825051593e+02,-3.119690665363643802e+02,9.484992027282714844e+00,-3.442134261131286621e-01,7.649187743663787842e-02,3.340000000000000000e+02
-4.958921330926780229e+02,-5.130716075133653931e+02,-2.766648677710918491e+02,-8.330834037280635584e+01,-4.800675296158153742e+02,-1.044027686125596119e+02,-2.321383603471949755e+02,-3.145105962559196087e+02,9.484992027282714844e+00,-3.442134261131286621e-01,7.649187743663787842e-02,3.350000000000000000e+02
-4.936630699068625745e+02,-5.107912566849756786e+02,-2.749827783901821476e+02,-8.175644667486506023e+01,-4.773746861252411691e+02,-1.037475958813727175e+02,-2.293095945523123191e+02,-3.146321886793141402e+02,9.484992027282714844e+00,-3.442134261131286621e-01,7.649187743663787842e-02,3.360000000000000000e+02
-4.916844528326097361e+02,-5.087276794723417197e+02,-2.718125557321130827e+02,-7.970736171928160729e+01,-4.726392174647073716e+02,-1.030282814263161981e+02,-2.253555095699717867e+02,-3.115109889107052368e+02,9.484992027282714844e+00,-3.442134261131286621e-01,7.649187743663787842e-02,3.370000000000000000e+02
-4.891942601934572394e+02,-5.065353813511868566e+02,-2.675847123430314696e+02,-7.804618331237588791e+01,-4.663635902739697485e+02,-1.027444817801731460e+02,-2.218452566619980644e+02,-3.061240937450390902e+02,9.484992027282714844e+00,-3.442134261131286621e-01,1.147378161549568176e-01,3.380000000000000000e+02
-4.861104641879267092e+02,-5.033194511428528131e+02,-2.638970877564989905e+02,-7.674363322110525587e+01,-4.603051148981755887e+02,-1.028313225435083496e+02,-2.198398324602997036e+02,-3.005378140132461340e+02,9.484992027282714844e+00,-3.442134261131286621e-01,1.147378161549568176e-01,3.390000000000000000e+02
-4.831342257204078123e+02,-4.985964860405565560e+02,-2.622593531629233894e+02,-7.508447887904367235e+01,-4.561893996890430572e+02,-1.024161130691734343e+02,-2.192735644050793553e+02,-2.964989380582975400e+02,9.484992027282714844e+00,-3.442134261131286621e-01,1.147378161549568176e-01,3.400000000000000000e+02
-4.811369125578826242e+02,-4.930841630470764585e+02,-2.628066361587921165e+02,-7.265720679892751832e+01,-4.543634344819656690e+02,-1.003482521837611330e+02,-2.191859475537302160e+02,-2.944525307550131856e+02,9.484992027282714844e+00,-3.442134261131286621e-01,1.147378161549568176e-01,3.410000000000000000e+02
-4.803573062853296278e+02,-4.883674413121219686e+02,-2.641718390285650457e+02,-7.003887916204712383e+01,-4.536363432068897055e+02,-9.612244391682884270e+01,-2.185536633598151184e+02,-2.936837044678220536e+02,9.484992027282714844e+00,-3.442134261131286621e-01,1.147378161549568176e-01,3.420000000000000000e+02
-4.800760618115858733e+02,-4.856069874797240118e+02,-2.646136740954242441e+02,-6.843313551235746672e+01,-4.524037085761881372e+02,-9.040151149042435463e+01,-2.170239303208950332e+02,-2.932727228089923983e+02,9.484992027282714844e+00,-3.442134261131286621e-01,1.147378161549568176e-01,3.430000000000000000e+02
-4.790492418386859299e+02,-4.845228217175440477e+02,-2.633432762754440546e+02,-6.858555683294844130e+01,-4.499453556694381859e+02,-8.463245589865937291e+01,-2.150036073912058328e+02,-2.929061364530329001e+02,9.484992027282714844e+00,-3.442134261131286621e-01,1.147378161549568176e-01,3.440000000000000000e+02
-4.763931982330716437e+02,-4.837076004688225339e+02,-2.608819074717951025e+02,-7.005367651550318442e+01,-4.467271117678603787e+02,-8.004695578402788669e+01,-2.131504507493664278e+02,-2.928403558654279095e+02,9.484992027282714844e+00,-3.442134261131286621e-01,1.147378161549568176e-01,3.450000000000000000e+02
-4.722508705528694009e+02,-4.819980556692516984e+02,-2.582804433373804613e+02,-7.156717509340410288e+01,-4.436069757898062562e+02,-7.689222910970033809e+01,-2.117924500759254443e+02,-2.931840429628380207e+02,9.484992027282714844e+00,-3.442134261131286621e-01,1.147378161549568176e-01,3.460000000000000000e+02
-4.677250604424716585e+02,-4.795304800314861495e+02,-2.561000873171748253e+02,-7.213884155073742477e+01,-4.408824257248734284e+02,-7.452032443055054500e+01,-2.107695710374232476e+02,-2.933177829004163186e+02,9.484992027282714844e+00,-3.442134261131286621e-01,1.147378161549568176e-01,3.470000000000000000e+02
-4.641124408376106203e+02,-4.774107314459877216e+02,-2.541386273173858399e+02,-7.184974929009558764e+01,-4.381153162726288883e+02,-7.217157910973764956e+01,-2.097329113776445411e+02,-2.920950759599166986e+02,9.484992027282714844e+00,-3.442134261131286621e-01,1.147378161549568176e-01,3.480000000000000000e+02
-4.620136760350344503e+02,-4.763600120906230586e+02,-2.520190455580094522e+02,-7.155766289546068037e+01,-4.347648996096322662e+02,-6.967557557202849239e+01,-2.085280918713260689e+02,-2.886952945786126747e+02,9.484992027282714844e+00,-3.442134261131286621e-01,1.147378161549568176e-01,3.490000000000000000e+02
-4.609885455656865361e+02,-4.757686684762963978e+02,-2.498530223320553887e+02,-7.184924343886063980e+01,-4.308588414896441918e+02,-6.747171816308286907e+01,-2.072749932389392598e+02,-2.833493962515353815e+02,9.484992027282714844e+00,-3.442134261131286621e-01,1.147378161549568176e-01,3.500000000000000000e+02
-4.599834805525190404e+02,-4.741574662096011252e+02,-2.482166626631819781e+02,-7.228831708181451177e+01,-4.270262683370285686e+02,-6.607228170150165170e+01,-2.061101079364721045e+02,-2.772784345750119428e+02,9.484992027282714844e+00,-3.442134261131286621e-01,1.147378161549568176e-01,3.510000000000000000e+02
-4.581331740236837504e+02,-4.705749686366998503e+02,-2.474882680005694056e+02,-7.169710108507570112e+01,-4.239472054597115402e+02,-6.557864202346104321e+01,-2.048919483265976851e+02,-2.719170053327964069e+02,9.484992027282714844e+00,-3.442134261131286621e-01,1.147378161549568176e-01,3.520000000000000000e+02
-4.552853569339536079e+02,-4.654963436618418200e+02,-2.473025695613605421e+02,-6.920247449669204798e+01,-4.218122712022109226e+02,-6.568016156095586666e+01,-2.031898335779840181e+02,-2.681047188344170991e+02,9.484992027282714844e+00,-3.442134261131286621e-01,1.147378161549568176e-01,3.530000000000000000e+02
-4.518869676097885986e+02,-4.603308818551086006e+02,-2.467347826378693298e+02,-6.506272899755185790e+01,-4.202549366030407327e+02,-6.599653935690685103e+01,-2.005943274654212019e+02,-2.658742959544301812e+02,9.484992027282714844e+00,-3.442134261131286621e-01,1.147378161549568176e-01,3.540000000000000000e+02
-4.484496738095911041e+02,-4.560842506642841272e+02,-2.450465690477358294e+02,-6.055070881423807805e+01,-4.186894730433759833e+02,-6.632602408080197165e+01,-1.970929688484102371e+02,-2.648292267891822576e+02,9.484992027282714844e+00,-3.442134261131286621e-01,1.147378161549568176e-01,3.550000000000000000e+02
-4.451142652554351571e+02,-4.525492061605050367e+02,-2.422550790794759905e+02,-5.708548911999741904e+01,-4.166749072357208661e+02,-6.660657557941249252e+01,-1.931966214843700982e+02,-2.646106316565787893e+02,9.484992027282714844e+00,-3.442134261131286621e-01,1.147378161549568176e-01,3.560000000000000000e+02
-4.416481869519257089e+02,-4.487755262648881853e+02,-2.390101760193133487e+02,-5.539568020342198906e+01,-4.140475987303482270e+02,-6.677022098565248598e+01,-1.896921660569687447e+02,-2.650074496186534816e+02,9.484992027282714844e+00,-3.442134261131286621e-01,1.147378161549568176e-01,3.570000000000000000e+02
-4.377741715490863044e+02,-4.442003814345446244e+02,-2.359873092629768507e+02,-5.532421133872003338e+01,-4.108799403403977522e+02,-6.673313660676717518e+01,-1.871879051846233324e+02,-2.657564245001647123e+02,9.484992027282714844e+00,-3.442134261131286621e-01,1.147378161549568176e-01,3.580000000000000000e+02
-4.334724222164077219e+02,-4.391925045376515300e+02,-2.334444783911594641e+02,-5.622326065884362833e+01,-4.074375278297900422e+02,-6.650326365155706299e+01,-1.857735194134436369e+02,-2.664343110368301950e+02,9.484992027282714844e+00,-3.442134261131286621e-01,1.147378161549568176e-01,3.590000000000000000e+02
-4.290113743764916308e+02,-4.344766543985165299e+02,-2.313049814771086403e+02,-5.742048133440493984e+01,-4.041527567309358346e+02,-6.619005566503187765e+01,-1.850199391996820850e+02,-2.666443167225172601e+02,9.484992027282714844e+00,-3.442134261131286621e-01,1.147378161549568176e-01,3.600000000000000000e+02
-4.247533423287202368e+02,-4.301504449992728496e+02,-2.295302126030289855e+02,-5.838242043947798265e+01,-4.014930952529175556e+02,-6.583222005827610701e+01,-1.843031920471823923e+02,-2.662755325272187292e+02,9.484992027282714844e+00,-3.442134261131286621e-01,1.147378161549568176e-01,3.610000000000000000e+02
-4.209582575296026334e+02,-4.254469902998587258e+02,-2.282713844062527642e+02,-5.866745981542135269e+01,-3.996809207788362528e+02,-6.523292553964984108e+01,-1.832152117791720229e+02,-2.654799679703517086e+02,9.484992027282714844e+00,-3.442134261131286621e-01,1.147378161549568176e-01,3.620000000000000000e+02
-4.177346246734371107e+02,-4.195732884912358713e+02,-2.276088521703213701e+02,-5.796019221481265049e+01,-3.984329784914561969e+02,-6.403040111901646014e+01,-1.817649715547349842e+02,-2.643310375451958407e+02,9.484992027282714844e+00,-3.442134261131286621e-01,1.147378161549568176e-01,3.630000000000000000e+02
-4.150941327606990399e+02,-4.127593273948471051e+02,-2.272137511066380284e+02,-5.625209008649471798e+01,-3.969843446836212024e+02,-6.196988986340284100e+01,-1.802328454790490468e+02,-2.625391619143638309e+02,9.484992027282714844e+00,-3.442134261131286621e-01,1.147378161549568176e-01,3.640000000000000000e+02
-4.129790189493364778e+02,-4.063701918842950818e+02,-2.263868065744622982e+02,-5.394388664961297764e+01,-3.944957955142090213e+02,-5.910233507297107280e+01,-1.788015519595685419e+02,-2.596084856085217325e+02,9.523238182067871094e+00,-4.207052886486053467e-01,1.147378161549568176e-01,3.650000000000000000e+02
-4.112255378780448609e+02,-4.018602076149988989e+02,-2.245358990066242768e+02,-5.166302291098145361e+01,-3.906201330479573244e+02,-5.572089464990494889e+01,-1.772742266060677139e+02,-2.553874354316358222e+02,9.523238182067871094e+00,-4.207052886486053467e-01,1.147378161549568176e-01,3.660000000000000000e+02
-4.095369307273499544e+02,-3.995252604715135476e+02,-2.216888148725813608e+02,-4.989787171543366640e+01,-3.858084645831527268e+02,-5.215151387603145849e+01,-1.751507115329591215e+02,-2.505257825495828001e+02,9.523238182067871094e+00,-4.207052886486053467e-01,1.147378161549568176e-01,3.670000000000000000e+02
-4.075416093597334566e+02,-3.982290857703117126e+02,-2.185517081099519601e+02,-4.877480490053085305e+01,-3.810768506198412524e+02,-4.866822201693730676e+01,-1.720347273987270000e+02,-2.463460535441822685e+02,9.523238182067871094e+00,-4.207052886486053467e-01,1.147378161549568176e-01,3.680000000000000000e+02
-4.049409752367168949e+02,-3.963389537277776071e+02,-2.160178050903225540e+02,-4.816501598191598532e+01,-3.773536653042528997e+02,-4.561793083051861686e+01,-1.680498235973029750e+02,-2.441084898374087970e+02,9.523238182067871094e+00,-4.207052886486053467e-01,1.147378161549568176e-01,3.690000000000000000e+02
-4.016771848496714483e+02,-3.929916811764023805e+02,-2.145337669049206397e+02,-4.793650681918757073e+01,-3.748745621026534991e+02,-4.352559074041937492e+01,-1.639020220634088219e+02,-2.441437223846462530e+02,9.523238182067871094e+00,-4.207052886486053467e-01,1.147378161549568176e-01,3.700000000000000000e+02
-3.980277019235916214e+02,-3.885876864766446488e+02,-2.138520765869761817e+02,-4.801496996862897504e+01,-3.730691176442990127e+02,-4.288349896239878944e+01,-1.604796872340366463e+02,-2.454564673711934120e+02,9.523238182067871094e+00,-4.207052886486053467e-01,1.147378161549568176e-01,3.710000000000000000e+02
-3.945560635076599283e+02,-3.842259396030960943e+02,-2.133483306236580574e+02,-4.817608336220337151e+01,-3.710015612536035405e+02,-4.365816167222237709e+01,-1.582784884930038061e+02,-2.461215151119863549e+02,9.523238182067871094e+00,-4.207052886486053467e-01,1.147378161549568176e-01,3.720000000000000000e+02
-3.918863219733073038e+02,-3.807395280011849081e+02,-2.125860972393425072e+02,-4.785135775703838590e+01,-3.680053339416394920e+02,-4.494817092724588292e+01,-1.570894384433900086e+02,-2.442921830144532578e+02,9.523238182067871094e+00,-4.207052886486053467e-01,1.147378161549568176e-01,3.730000000000000000e+02
-3.903558237491172349e+02,-3.781751822517680921e+02,-2.116207670054259324e+02,-4.630222990832999130e+01,-3.640463700861369034e+02,-4.525033261888484049e+01,-1.561932896636030819e+02,-2.392817541272370363e+02,9.523238182067871094e+00,-4.207052886486053467e-01,1.147378161549568176e-01,3.740000000000000000e+02
-3.897201240620584031e+02,-3.759803192127010334e+02,-2.108027709694395071e+02,-4.316263935168467469e+01,-3.596337429310074185e+02,-4.333451752569180826e+01,-1.548942424792451220e+02,-2.320928686102256506e+02,9.523238182067871094e+00,-4.207052886486053467e-01,1.147378161549568176e-01,3.750000000000000000e+02
-3.891543412527582859e+02,-3.735396274908041505e+02,-2.103040080672740260e+02,-3.889577198245615364e+01,-3.554537695539074775e+02,-3.912453705192092457e+01,-1.529638992614920880e+02,-2.249978937417204179e+02,9.523238182067871094e+00,-4.207052886486053467e-01,1.147378161549568176e-01,3.760000000000000000e+02
-3.876686740163115701e+02,-3.705736924008972437e+02,-2.098639741073704954e+02,-3.468248284988158048e+01,-3.520340661957586690e+02,-3.382240099245200327e+01,-1.506919670732174836e+02,-2.203171658437256610e+02,9.523238182067871094e+00,-4.207052886486053467e-01,1.147378161549568176e-01,3.770000000000000000e+02
-3.847462268945723736e+02,-3.672283109260240508e+02,-2.090111205200116729e+02,-3.171914308534769589e+01,-3.495849898300641598e+02,-2.906385327739371860e+01,-1.485589113509183790e+02,-2.190708755794282752e+02,9.523238182067871094e+00,-4.207052886486053467e-01,1.147378161549568176e-01,3.780000000000000000e+02
-3.807524657630651745e+02,-3.639663579033899623e+02,-2.075428000099091150e+02,-3.046796322883255925e+01,-3.479669697366762193e+02,-2.573756591236769964e+01,-1.468427793326168285e+02,-2.203787656242745925e+02,9.523238182067871094e+00,-4.207052886486053467e-01,1.147378161549568176e-01,3.790000000000000000e+02
-3.767210691339032564e+02,-3.613569879632245829e+02,-2.057670594102391988e+02,-3.050697621755080036e+01,-3.467190478902487030e+02,-2.348572304943763811e+01,-1.454908125962838312e+02,-2.220885095260239268e+02,9.523238182067871094e+00,-4.207052886486053467e-01,1.147378161549568176e-01,3.800000000000000000e+02
-3.735866652532718035e+02,-3.597762570304769270e+02,-2.042323988946509417e+02,-3.109755070601477200e+01,-3.451969929492413485e+02,-2.136311652341646550e+01,-1.443157228152495009e+02,-2.222710031393730787e+02,9.523238182067871094e+00,-4.207052886486053467e-01,1.147378161549568176e-01,3.810000000000000000e+02
-3.714392084358937609e+02,-3.591254044979145874e+02,-2.032063404484999865e+02,-3.192388293246222020e+01,-3.428725748135675531e+02,-1.905102898971563263e+01,-1.432890612208623224e+02,-2.205414884780070679e+02,9.523238182067871094e+00,-4.207052886486053467e-01,1.147378161549568176e-01,3.820000000000000000e+02
-3.694344096067084138e+02,-3.588306195989734988e+02,-2.024068477539240121e+02,-3.329110105576592105e+01,-3.396569246888004727e+02,-1.742433078850081074e+01,-1.426238845103871427e+02,-2.182181665920511477e+02,9.523238182067871094e+00,-4.207052886486053467e-01,1.147378161549568176e-01,3.830000000000000000e+02
-3.664896037992307356e+02,-3.582548259770808272e+02,-2.012520287501861276e+02,-3.559211076491328640e+01,-3.359862008016061736e+02,-1.782856708013787284e+01,-1.425422733912473632e+02,-2.171842148431835540e+02,9.523238182067871094e+00,-4.207052886486053467e-01,1.147378161549568176e-01,3.840000000000000000e+02
-3.622120458194358434e+02,-3.572200084826938564e+02,-1.993753022410846825e+02,-3.857489223763286645e+01,-3.325420573712412988e+02,-2.068714077022195852e+01,-1.429359737191662134e+02,-2.183430416924782094e+02,9.523238182067871094e+00,-4.207052886486053467e-01,1.147378161549568176e-01,3.850000000000000000e+02
-3.572744119873284490e+02,-3.561129633610946712e+02,-1.969300438745842712e+02,-4.118305125731876615e+01,-3.298130432454809124e+02,-2.479779325925392186e+01,-1.432690417951864674e+02,-2.208945855434776604e+02,9.523238182067871094e+00,-4.207052886486053467e-01,1.147378161549568176e-01,3.860000000000000000e+02
-3.529248170843598018e+02,-3.553916561587141132e+02,-1.944553259417996287e+02,-4.223188703399546284e+01,-3.278637608751278094e+02,-2.808841810534067918e+01,-1.429006663836294138e+02,-2.229857978607312816e+02,9.523238182067871094e+00,-4.207052886486053467e-01,1.147378161549568176e-01,3.870000000000000000e+02
-3.500551719086417961e+02,-3.549615754390138136e+02,-1.924978699723087630e+02,-4.137574731278982654e+01,-3.264805471729496276e+02,-2.921265938194210321e+01,-1.416224979135149624e+02,-2.231433645252707265e+02,9.523238182067871094e+00,-4.207052886486053467e-01,1.147378161549568176e-01,3.880000000000000000e+02
-3.486101532233531088e+02,-3.541280584600449401e+02,-1.913491592336786198e+02,-3.948487611191103497e+01,-3.254769403487011914e+02,-2.852658448008514824e+01,-1.399290913119359629e+02,-2.212640030536051654e+02,9.523238182067871094e+00,-4.207052886486053467e-01,1.147378161549568176e-01,3.890000000000000000e+02
-3.477829592737784878e+02,-3.522827220178141943e+02,-1.910071858923438413e+02,-3.802763313245213794e+01,-3.247962784243700298e+02,-2.757946966717327086e+01,-1.386935666499011859e+02,-2.183739465023688808e+02,9.523238182067871094e+00,-4.207052886486053467e-01,1.147378161549568176e-01,3.900000000000000000e+02
-3.467310241291406783e+02,-3.496748226691750006e+02,-1.912085115595750722e+02,-3.793184347465785322e+01,-3.242997675224237355e+02,-2.765969208530395917e+01,-1.384550348832876807e+02,-2.154945243198296794e+02,9.523238182067871094e+00,-4.207052886486053467e-01,1.147378161549568176e-01,3.910000000000000000e+02
-3.451414716437457173e+02,-3.474134452955095185e+02,-1.914365448651569750e+02,-3.887554641668748445e+01,-3.235201184130551155e+02,-2.876111715697879845e+01,-1.389421122626040415e+02,-2.127458647871035282e+02,9.523238182067871094e+00,-4.207052886486053467e-01,1.147378161549568176e-01,3.920000000000000000e+02
-3.432219102268566076e+02,-3.465540367894566316e+02,-1.910274451565455820e+02,-3.959248438210624954e+01,-3.217537816229846612e+02,-2.980860450957243302e+01,-1.393160423292113137e+02,-2.095288710551556051e+02,9.523238182067871094e+00,-4.207052886486053467e-01,1.147378161549568176e-01,3.930000000000000000e+02
-3.412683521219582872e+02,-3.470859633998725258e+02,-1.894968768135649952e+02,-3.890525302824153187e+01,-3.185279505600842640e+02,-2.973758320047954840e+01,-1.389714616266696794e+02,-2.055271154584195301e+02,9.523238182067871094e+00,-4.207052886486053467e-01,1.147378161549568176e-01,3.940000000000000000e+02
-3.393081568498851084e+02,-3.478176658857244092e+02,-1.869124568503254977e+02,-3.660550413494820532e+01,-3.140383196728307666e+02,-2.835333778938502292e+01,-1.381484754873208658e+02,-2.014277752455730024e+02,9.523238182067871094e+00,-4.207052886486053467e-01,1.147378161549568176e-01,3.950000000000000000e+02
-3.371331046682234955e+02,-3.473441974778361327e+02,-1.839252213184197444e+02,-3.349091962492093444e+01,-3.091103336919777576e+02,-2.632159335411233769e+01,-1.377067344979029713e+02,-1.985422265575512029e+02,9.446745872497558594e+00,-3.442134261131286621e-01,1.147378161549568176e-01,3.960000000000000000e+02
-3.345986130772971592e+02,-3.452482095998495879e+02,-1.812954409272272187e+02,-3.064341111357134650e+01,-3.046387651684417506e+02,-2.454456310456043866e+01,-1.382282481068384641e+02,-1.976371918189377084e+02,9.446745872497558594e+00,-3.442134261131286621e-01,1.147378161549568176e-01,3.970000000000000000e+02
-3.318262568918403304e+02,-3.424451052831559537e+02,-1.792872257155584066e+02,-2.866372133366712660e+01,-3.009712451564050752e+02,-2.361077575661010997e+01,-1.393250231660833833e+02,-1.981349226776853811e+02,9.446745872497558594e+00,-3.442134261131286621e-01,1.147378161549568176e-01,3.980000000000000000e+02
-3.291086943191703540e+02,-3.403674905229138403e+02,-1.775246630155468210e+02,-2.750104415866553609e+01,-2.977940369847269722e+02,-2.366863763068158732e+01,-1.398797799511589801e+02,-1.985259148290870144e+02,9.446745872497558594e+00,-3.442134261131286621e-01,1.147378161549568176e-01,3.990000000000000000e+02
-3.266496399062252749e+02,-3.397177666893444439e+02,-1.754898925502018301e+02,-2.686823496145552781e+01,-2.946276100154677806e+02,-2.454857188889673125e+01,-1.390468618356781008e+02,-1.976523876023125013e+02,9.446745872497558594e+00,-3.442134261131286621e-01,1.147378161549568176e-01,4.000000000000000000e+02
-3.244203981747523358e+02,-3.398750817521022327e+02,-1.731573834359337525e+02,-2.669164157532850368e+01,-2.914495779499566197e+02,-2.585050253172857992e+01,-1.370534129700122321e+02,-1.956645229112009474e+02,9.446745872497558594e+00,-3.442134261131286621e-01,1.147378161549568176e-01,4.010000000000000000e+02
-3.222475456183142342e+02,-3.394310443967096944e+02,-1.710668420590966434e+02,-2.711471631927679482e+01,-2.888018751636782326e+02,-2.699092988798838633e+01,-1.349964852722530395e+02,-1.937598892740616066e+02,9.446745872497558594e+00,-3.442134261131286621e-01,1.147378161549568176e-01,4.020000000000000000e+02
-3.199921625041001789e+02,-3.373450198411539986e+02,-1.697201169217164534e+02,-2.812882465095390216e+01,-2.872256279884636569e+02,-2.737269256417175711e+01,-1.338177337459992486e+02,-1.929824679308580926e+02,9.446745872497558594e+00,-3.442134261131286621e-01,1.147378161549568176e-01,4.030000000000000000e+02
-3.176314161519312620e+02,-3.337388543593663144e+02,-1.689352945481368806e+02,-2.933138693840874112e+01,-2.865514646875608378e+02,-2.667646400335979706e+01,-1.334673494771232072e+02,-1.932244111094889831e+02,9.446745872497558594e+00,-3.442134261131286621e-01,1.147378161549568176e-01,4.040000000000000000e+02
-3.152048534992727582e+02,-3.297076156040407113e+02,-1.678893745784480416e+02,-3.014000603776048592e+01,-2.857857022733032863e+02,-2.503705417859509907e+01,-1.330694230798840181e+02,-1.933045067962818848e+02,9.446745872497558594e+00,-3.442134261131286621e-01,1.147378161549568176e-01,4.050000000000000000e+02
-3.127471117360946664e+02,-3.263824970524910896e+02,-1.658832434914834266e+02,-3.023295917597488369e+01,-2.838037164988936638e+02,-2.290115074308187104e+01,-1.318905261352956586e+02,-1.919527487607358580e+02,9.446745872497558594e+00,-3.442134261131286621e-01,1.147378161549568176e-01,4.060000000000000000e+02
-3.103107632290993934e+02,-3.240571068001363528e+02,-1.631029357007714680e+02,-2.971627005823620493e+01,-2.802992578498069633e+02,-2.066935171658315085e+01,-1.301456913077654463e+02,-1.887907558635390615e+02,9.446745872497558594e+00,-3.442134261131286621e-01,1.147378161549568176e-01,4.070000000000000000e+02
-3.080407980348973069e+02,-3.220803155786688876e+02,-1.606045007052284745e+02,-2.882504420915392984e+01,-2.761435991545499746e+02,-1.844898070596627804e+01,-1.288678103165852917e+02,-1.845451263966640454e+02,9.446745872497558594e+00,-3.442134261131286621e-01,1.147378161549568176e-01,4.080000000000000000e+02
-3.061402418387538091e+02,-3.195433516162966043e+02,-1.594896437523775603e+02,-2.753148687853172305e+01,-2.727939414717079671e+02,-1.611579878802967869e+01,-1.290110600098896612e+02,-1.805005485508966103e+02,9.446745872497558594e+00,-3.442134261131286621e-01,1.147378161549568176e-01,4.090000000000000000e+02
-3.046713861662369709e+02,-3.161349858251401201e+02,-1.599971976044134863e+02,-2.557789970643716515e+01,-2.712289247805333616e+02,-1.357334422843587163e+01,-1.306681238418364046e+02,-1.777435092284713392e+02,9.446745872497558594e+00,-3.442134261131286621e-01,1.147378161549568176e-01,4.100000000000000000e+02
-3.033671896352398107e+02,-3.124382274415024767e+02,-1.612863670361780351e+02,-2.296733968166972772e+01,-2.712867562908159016e+02,-1.094719579866432468e+01,-1.330699164730349366e+02,-1.767010469592237314e+02,9.446745872497558594e+00,-3.442134261131286621e-01,1.147378161549568176e-01,4.110000000000000000e+02
-3.016901658818187570e+02,-3.094483916243229942e+02,-1.620252133353897079e+02,-2.034281412317432114e+01,-2.718752861095590561e+02,-8.548772031485441403e+00,-1.352256447538507018e+02,-1.770917995620666261e+02,9.446745872497558594e+00,-3.442134261131286621e-01,1.147378161549568176e-01,4.120000000000000000e+02
-2.991808528394935820e+02,-3.077363433556693053e+02,-1.612397383633142454e+02,-1.871065486128736666e+01,-2.717758420138120528e+02,-6.684352413118176628e+00,-1.365150787229122216e+02,-1.781535587772063991e+02,9.446745872497558594e+00,-3.442134261131286621e-01,1.147378161549568176e-01,4.130000000000000000e+02
-2.958324543301368976e+02,-3.069514109821980128e+02,-1.587842311733070346e+02,-1.864059544483552600e+01,-2.703507300158553335e+02,-5.484925762854800269e+00,-1.367672891745296511e+02,-1.790072423610927217e+02,9.446745872497558594e+00,-3.442134261131286621e-01,1.147378161549568176e-01,4.140000000000000000e+02
-2.921395745985932990e+02,-3.060530889436390680e+02,-1.552349582786132487e+02,-1.969900742027630258e+01,-2.677045192776158729e+02,-4.871620635076396866e+00,-1.359970569575411901e+02,-1.790502192641947659e+02,9.446745872497558594e+00,-3.442134261131286621e-01,1.147378161549568176e-01,4.150000000000000000e+02
-2.887376431933703316e+02,-3.040755984525239910e+02,-1.514796971054506685e+02,-2.072587152417554535e+01,-2.643929603644210147e+02,-4.628726099323557719e+00,-1.342826663871837809e+02,-1.782115935974698004e+02,9.446745872497558594e+00,-3.442134261131286621e-01,1.147378161549568176e-01,4.160000000000000000e+02
-2.859327785764135115e+02,-3.008412640858387022e+02,-1.483464544572066188e+02,-2.073781797108267710e+01,-2.610452006594068735e+02,-4.482359770190214476e+00,-1.319691551979481119e+02,-1.768963595658237864e+02,9.484992027282714844e+00,-4.207052886486053467e-01,7.649187743663787842e-02,4.170000000000000000e+02
-2.835464968219434923e+02,-2.971030002725174199e+02,-1.463914906760696795e+02,-1.960332012563958415e+01,-2.581411890245835821e+02,-4.134327166322236735e+00,-1.298551648206407663e+02,-1.756337239065596805e+02,9.484992027282714844e+00,-4.207052886486053467e-01,7.649187743663787842e-02,4.180000000000000000e+02
-2.812110435332469933e+02,-2.940323953754959803e+02,-1.457783785989840908e+02,-1.788842002830688216e+01,-2.559329883609530043e+02,-3.277044180566008436e+00,-1.289254558410648315e+02,-1.747072660014382564e+02,9.484992027282714844e+00,-4.207052886486053467e-01,7.649187743663787842e-02,4.190000000000000000e+02
-2.788103851101109285e+02,-2.924104157654505798e+02,-1.462187635061936817e+02,-1.613877079159601635e+01,-2.544156011621271318e+02,-1.662046908817501389e+00,-1.296630820720538395e+02,-1.740626089342126761e+02,9.484992027282714844e+00,-4.207052886486053467e-01,7.649187743663787842e-02,4.200000000000000000e+02
-2.766123546270550833e+02,-2.920627444462365929e+02,-1.470507304268548978e+02,-1.440855454990423823e+01,-2.533385348928768508e+02,7.400443993105909612e-01,-1.315175492365688115e+02,-1.735181387502971120e+02,9.484992027282714844e+00,-4.207052886486053467e-01,7.649187743663787842e-02,4.210000000000000000e+02
-2.749585296942618697e+02,-2.919217936697000368e+02,-1.475168093648339891e+02,-1.249193596852410337e+01,-2.523081742098979703e+02,3.569722749600259704e+00,-1.331173657778681445e+02,-1.729982848965405537e+02,9.484992027282714844e+00,-4.207052886486053467e-01,7.649187743663787842e-02,4.220000000000000000e+02
-2.738402042255497690e+02,-2.906951024833524571e+02,-1.471368895656637505e+02,-1.049287175577001108e+01,-2.509619031569932304e+02,6.079913668738754495e+00,-1.331956285324354212e+02,-1.725328903286281275e+02,9.484992027282714844e+00,-4.207052886486053467e-01,7.649187743663787842e-02,4.230000000000000000e+02
-2.728125998229343168e+02,-2.877120016735934769e+02,-1.459320994465515469e+02,-8.997504705022038252e+00,-2.491100960352046059e+02,7.418664850928507803e+00,-1.315207113154560830e+02,-1.720710736587593601e+02,9.484992027282714844e+00,-4.207052886486053467e-01,7.649187743663787842e-02,4.240000000000000000e+02
-2.713420357201948718e+02,-2.833720435536724835e+02,-1.443235213839143398e+02,-8.596711138925456908e+00,-2.467645991854105887e+02,7.084177122875189525e+00,-1.290572696381104834e+02,-1.713809107794727424e+02,9.484992027282714844e+00,-4.207052886486053467e-01,7.649187743663787842e-02,4.250000000000000000e+02
-2.692312436294105282e+02,-2.788769949148500018e+02,-1.427813118596995992e+02,-9.280360713038589893e+00,-2.440805291320825745e+02,5.254554031685529480e+00,-1.272346921192870468e+02,-1.702097269193277498e+02,9.484992027282714844e+00,-4.207052886486053467e-01,7.649187743663787842e-02,4.260000000000000000e+02
-2.667093054973797734e+02,-2.754553774480741595e+02,-1.414820975154730149e+02,-1.040477200078385067e+01,-2.412754963715738086e+02,2.731466582656139508e+00,-1.269444256993492672e+02,-1.685461343518413742e+02,9.484992027282714844e+00,-4.207052886486053467e-01,7.649187743663787842e-02,4.270000000000000000e+02
-2.641273229506755342e+02,-2.736568693443277880e+02,-1.402173774867492284e+02,-1.131649361782456253e+01,-2.385488380969632090e+02,5.088960311672963144e-01,-1.280790510876977351e+02,-1.666949837443080469e+02,9.484992027282714844e+00,-4.207052886486053467e-01,7.649187743663787842e-02,4.280000000000000000e+02
-2.616169946282311685e+02,-2.731879269499104339e+02,-1.385975706379576877e+02,-1.199350406617350018e+01,-2.359946564200731700e+02,-7.395319985721471312e-01,-1.298814111651972780e+02,-1.650695010735180404e+02,9.484992027282714844e+00,-4.207052886486053467e-01,7.649187743663787842e-02,4.290000000000000000e+02
-2.590707338217957840e+02,-2.732718308656867521e+02,-1.363728201937633457e+02,-1.300700231205019008e+01,-2.335474230415752572e+02,-9.104308809637586819e-01,-1.316111880164853574e+02,-1.638745181782187501e+02,9.484992027282714844e+00,-4.207052886486053467e-01,7.649187743663787842e-02,4.300000000000000000e+02
-2.564241222407008536e+02,-2.731252474665143382e+02,-1.336423528535588048e+02,-1.480792543421603114e+01,-2.310355192619617810e+02,-3.431019735071458854e-01,-1.328582013244049449e+02,-1.629551171985390283e+02,9.484992027282714844e+00,-4.207052886486053467e-01,7.649187743663787842e-02,4.310000000000000000e+02
-2.538746472885841285e+02,-2.721997164816161785e+02,-1.308303153107490289e+02,-1.705658930025310838e+01,-2.283432969819546088e+02,5.280892705372934870e-01,-1.333471567699716616e+02,-1.619198223287912697e+02,9.484992027282714844e+00,-4.207052886486053467e-01,7.649187743663787842e-02,4.320000000000000000e+02
-2.517427630158799730e+02,-2.702059071243347717e+02,-1.284595388686766455e+02,-1.870653393864222380e+01,-2.255557136770398756e+02,1.467280862653751683e+00,-1.326948605351581136e+02,-1.604247032797611610e+02,9.484992027282714844e+00,-4.207052886486053467e-01,7.649187743663787842e-02,4.330000000000000000e+02
-2.500954450892418208e+02,-2.671571595532732317e+02,-1.268664356521362606e+02,-1.882267076318021282e+01,-2.229362652527220234e+02,2.493204959233025875e+00,-1.306116896918047132e+02,-1.584161694918730063e+02,9.484992027282714844e+00,-4.207052886486053467e-01,7.649187743663787842e-02,4.340000000000000000e+02
-2.485536000887914270e+02,-2.634802758107016416e+02,-1.260338646040445383e+02,-1.739659146461553973e+01,-2.207606891055288543e+02,3.724890027805486170e+00,-1.274395118763541177e+02,-1.562036976259960284e+02,9.484992027282714844e+00,-4.207052886486053467e-01,7.649187743663787842e-02,4.350000000000000000e+02
-2.465422248683248654e+02,-2.599544818690892498e+02,-1.256291360687564520e+02,-1.539843078432022594e+01,-2.191594960004117638e+02,5.197363563871476799e+00,-1.243514794395118770e+02,-1.543248151676962152e+02,9.484992027282714844e+00,-4.207052886486053467e-01,7.649187743663787842e-02,4.360000000000000000e+02
-2.437998251376984626e+02,-2.572728074579968052e+02,-1.252138043059267147e+02,-1.398771094296125739e+01,-2.180678326307147472e+02,6.825288108002041554e+00,-1.227261633925108981e+02,-1.532396010441316321e+02,9.484992027282714844e+00,-4.207052886486053467e-01,7.649187743663787842e-02,4.370000000000000000e+02
-2.406668933143319009e+02,-2.554408254140721510e+02,-1.244928576779107061e+02,-1.355380341958107238e+01,-2.172606751523749153e+02,8.528142885861598188e+00,-1.230491975135660141e+02,-1.529967614281677015e+02,9.484992027282714844e+00,-4.207052886486053467e-01,7.649187743663787842e-02,4.380000000000000000e+02
-2.378553596690308041e+02,-2.535775159671616166e+02,-1.234442705018273045e+02,-1.340706918850037255e+01,-2.164029516259224692e+02,1.034350588910047009e+01,-1.243380909063594117e+02,-1.530966035119779463e+02,9.484992027282714844e+00,-4.207052886486053467e-01,7.649187743663787842e-02,4.390000000000000000e+02
-2.358693156439671839e+02,-2.504743314957595430e+02,-1.222528744371684297e+02,-1.237549889186448127e+01,-2.151330089100529221e+02,1.234816736058837705e+01,-1.247556359604818681e+02,-1.527031444335557353e+02,9.484992027282714844e+00,-4.207052886486053467e-01,7.649187743663787842e-02,4.400000000000000000e+02
-2.345823324090906681e+02,-2.455884803251583435e+02,-1.211222170236860620e+02,-9.784373804369352001e+00,-2.132390775025010043e+02,1.442910197491437430e+01,-1.229934519485527744e+02,-1.510987406176693639e+02,9.484992027282714844e+00,-4.207052886486053467e-01,7.649187743663787842e-02,4.410000000000000000e+02
-2.333586966277321153e+02,-2.396612691440677736e+02,-1.201341313445072956e+02,-6.009537004103094660e+00,-2.108690529561595213e+02,1.616922938059633452e+01,-1.192493289051808460e+02,-1.480718128171822627e+02,9.446745872497558594e+00,-3.824593424797058105e-01,1.147378161549568176e-01,4.420000000000000000e+02
-2.316137899827485853e+02,-2.343839656466757333e+02,-1.192537322837083593e+02,-2.197302023348129296e+00,-2.085404577182539470e+02,1.707795825265111489e+01,-1.149516496872256539e+02,-1.439696455589607922e+02,9.446745872497558594e+00,-3.824593424797058105e-01,1.147378161549568176e-01,4.430000000000000000e+02
-2.293065455889823170e+02,-2.313188971045537983e+02,-1.184212610580370892e+02,5.416353093401085061e-01,-2.067865109351623687e+02,1.704587122545081002e+01,-1.115430127936133431e+02,-1.394319620555522761e+02,9.446745872497558594e+00,-3.824593424797058105e-01,1.147378161549568176e-01,4.440000000000000000e+02
-2.269126702116886918e+02,-2.309098399893300666e+02,-1.175914655878095800e+02,1.761019284929716378e+00,-2.056455864047320574e+02,1.656059095118052937e+01,-1.094597529232596571e+02,-1.350770633947929582e+02,9.446745872497558594e+00,-3.824593424797058105e-01,1.147378161549568176e-01,4.450000000000000000e+02
-2.249087066891420363e+02,-2.323042662783411743e+02,-1.166782278144162319e+02,1.690610260102857865e+00,-2.044776775018895023e+02,1.636513515987508072e+01,-1.081564229230116325e+02,-1.313672590082189799e+02,9.446745872497558594e+00,-3.824593424797058105e-01,1.147378161549568176e-01,4.460000000000000000e+02
-2.232543996546569360e+02,-2.340207947663393497e+02,-1.155230076433035720e+02,8.030976602913142415e-01,-2.024028336774872514e+02,1.680783685350615997e+01,-1.069615845497669397e+02,-1.286112761355489056e+02,9.446745872497558594e+00,-3.824593424797058105e-01,1.147378161549568176e-01,4.470000000000000000e+02
-2.213843686658747174e+02,-2.348650787656329157e+02,-1.140055459252582750e+02,-5.458946675917104585e-01,-1.990716938401192238e+02,1.753956636780048939e+01,-1.057919114433157119e+02,-1.269105807569403623e+02,9.446745872497558594e+00,-3.824593424797058105e-01,1.147378161549568176e-01,4.480000000000000000e+02
-2.187484327123074763e+02,-2.344344374669749413e+02,-1.122277055441895754e+02,-2.108954964457552705e+00,-1.950771947007715426e+02,1.793360560101245937e+01,-1.050442611040498377e+02,-1.260283216190316580e+02,9.446745872497558594e+00,-3.824593424797058105e-01,1.147378161549568176e-01,4.490000000000000000e+02
-2.153988086809240485e+02,-2.330078486227037047e+02,-1.105516607762119747e+02,-3.564391963834623311e+00,-1.915811240463513059e+02,1.783483299707859260e+01,-1.049374579353791432e+02,-1.254097253391380491e+02,9.446745872497558594e+00,-3.824593424797058105e-01,1.147378161549568176e-01,4.500000000000000000e+02
-2.120482739730246067e+02,-2.311183736188402236e+02,-1.093655290592403162e+02,-4.529007161953359173e+00,-1.894254520137801592e+02,1.783464518216396755e+01,-1.051253207224374364e+02,-1.245242844841907299e+02,9.446745872497558594e+00,-3.824593424797058105e-01,1.147378161549568176e-01,4.510000000000000000e+02
-2.095235520931141764e+02,-2.292149883252739073e+02,-1.087429836741810050e+02,-4.827434530421214731e+00,-1.884824596918601856e+02,1.872923570459033726e+01,-1.049980356037488036e+02,-1.232991046327113054e+02,9.446745872497558594e+00,-3.824593424797058105e-01,1.147378161549568176e-01,4.520000000000000000e+02
-2.081229323501947874e+02,-2.275797927983987847e+02,-1.083329265983684309e+02,-4.662516138266710186e+00,-1.877855878279174249e+02,2.071016670913695634e+01,-1.042774277733722101e+02,-1.221473220290597510e+02,9.446745872497558594e+00,-3.824593424797058105e-01,1.147378161549568176e-01,4.530000000000000000e+02
-2.074622606437519607e+02,-2.263738305086471883e+02,-1.076339191596632645e+02,-4.372814994407235645e+00,-1.862866636597100296e+02,2.316935766297956434e+01,-1.031942788227647725e+02,-1.214015791582999100e+02,9.446745872497558594e+00,-3.824593424797058105e-01,1.147378161549568176e-01,4.540000000000000000e+02
-2.068863255258531808e+02,-2.256095363339520645e+02,-1.064208317672932935e+02,-3.974054810265442939e+00,-1.835939952168414493e+02,2.532554976730762064e+01,-1.020646959594594136e+02,-1.206773297802949401e+02,9.446745872497558594e+00,-3.824593424797058105e-01,1.147378161549568176e-01,4.550000000000000000e+02
-2.059716989531459603e+02,-2.250333689205558585e+02,-1.049131419140376238e+02,-3.027641684113405063e+00,-1.801536806306826293e+02,2.696294191760307513e+01,-1.008159564307331948e+02,-1.189770515450268249e+02,9.446745872497558594e+00,-3.824593424797058105e-01,1.147378161549568176e-01,4.560000000000000000e+02
-2.046300642892476844e+02,-2.240964232982330486e+02,-1.035204398660921470e+02,-1.098714296838352311e+00,-1.768465529475834046e+02,2.845950461403981535e+01,-9.907621891507187684e+01,-1.157084754803224769e+02,9.446745872497558594e+00,-3.824593424797058105e-01,1.147378161549568176e-01,4.570000000000000000e+02
-2.028411895719939366e+02,-2.221641177449075713e+02,-1.024403057331155651e+02,1.617336008644087997e+00,-1.744000202690394872e+02,3.010707966274094360e+01,-9.677097465582914992e+01,-1.117242007950678726e+02,9.446745872497558594e+00,-3.824593424797058105e-01,1.147378161549568176e-01,4.580000000000000000e+02
-2.004902581823694163e+02,-2.189064596878915836e+02,-1.015341672434437896e+02,4.227189624351012753e+00,-1.730266810646016893e+02,3.156725721330985834e+01,-9.451661222833649845e+01,-1.091391803689277822e+02,9.446745872497558594e+00,-3.824593424797058105e-01,1.147378161549568176e-01,4.590000000000000000e+02
-1.976190613011988262e+02,-2.146157915936553309e+02,-1.005951021693606435e+02,5.843465444906996709e+00,-1.724358083013451051e+02,3.215631155546952868e+01,-9.325804792229109808e+01,-1.096938817334842042e+02,9.446745872497558594e+00,-3.824593424797058105e-01,1.147378161549568176e-01,4.600000000000000000e+02
-1.947961535315773745e+02,-2.101760777716131088e+02,-9.967447286948799956e+01,6.434968236845179490e+00,-1.720760320043318643e+02,3.168294307128462606e+01,-9.340493604001721906e+01,-1.129636658097801956e+02,9.446745872497558594e+00,-3.824593424797058105e-01,1.147378161549568176e-01,4.610000000000000000e+02
-1.930149714118838347e+02,-2.066473509487523188e+02,-9.906742989853205472e+01,6.934802686053444631e+00,-1.714078603176458273e+02,3.088091510358435698e+01,-9.432935882637957548e+01,-1.161936839149741445e+02,9.446745872497558594e+00,-3.824593424797058105e-01,1.147378161549568176e-01,4.620000000000000000e+02
-1.929516450299520329e+02,-2.046905085469663845e+02,-9.894966309060646381e+01,8.398215685731884150e+00,-1.701100378323872064e+02,3.087912456787853444e+01,-9.480010807499388648e+01,-1.162607063118998667e+02,9.446745872497558594e+00,-3.824593424797058105e-01,1.147378161549568176e-01,4.630000000000000000e+02
-1.941661044846296136e+02,-2.041827067325848475e+02,-9.902406227541473527e+01,1.097608702294996874e+01,-1.681715075752656503e+02,3.221631018772404786e+01,-9.397873863309246190e+01,-1.122310007271273662e+02,9.446745872497558594e+00,-3.824593424797058105e-01,1.147378161549568176e-01,4.640000000000000000e+02
-1.950783929283581983e+02,-2.042604881488869069e+02,-9.855933899119531816e+01,1.367757006148531218e+01,-1.658583081316539847e+02,3.439649438511423796e+01,-9.205017554925575496e+01,-1.062410268359135443e+02,9.446745872497558594e+00,-3.824593424797058105e-01,1.147378161549568176e-01,4.650000000000000000e+02
-1.939281971271266229e+02,-2.037870798494368501e+02,-9.683479017649324305e+01,1.513188879592098601e+01,-1.635649126709729444e+02,3.639714201374135882e+01,-8.994521863165664399e+01,-1.018409947065265442e+02,9.446745872497558594e+00,-3.824593424797058105e-01,1.147378161549568176e-01,4.660000000000000000e+02
-1.900090703813855271e+02,-2.019910555632909563e+02,-9.363506407138333998e+01,1.461277640145385703e+01,-1.615887915104731292e+02,3.754167188636711217e+01,-8.851284201037151433e+01,-1.012275405133555068e+02,9.446745872497558594e+00,-3.824593424797058105e-01,1.147378161549568176e-01,4.670000000000000000e+02
-1.841752510396136131e+02,-1.988970109376823530e+02,-8.943993758017518303e+01,1.243658240551735616e+01,-1.599453038232716153e+02,3.785388920347213570e+01,-8.797609837956997580e+01,-1.037667999150676224e+02,9.446745872497558594e+00,-3.824593424797058105e-01,1.147378161549568176e-01,4.680000000000000000e+02
-1.782447603628550041e+02,-1.952692516442641590e+02,-8.523946566529843949e+01,9.576032818083376696e+00,-1.583550885910881334e+02,3.769047368417705002e+01,-8.809848889163390595e+01,-1.069189832464344363e+02,9.446745872497558594e+00,-3.059675097465515137e-01,1.529837548732757568e-01,4.690000000000000000e+02
-1.738621955524708937e+02,-1.920724847274436797e+02,-8.214256193075721058e+01,7.079098860863723530e+00,-1.564370662989197172e+02,3.725407696825004678e+01,-8.867216979154704859e+01,-1.084192206510538199e+02,9.446745872497558594e+00,-3.059675097465515137e-01,1.529837548732757568e-01,4.700000000000000000e+02
-1.717305220731552708e+02,-1.897976702068110626e+02,-8.095712096089300758e+01,5.854845856435304086e+00,-1.539782857589707419e+02,3.662440111380783492e+01,-8.965886489009903926e+01,-1.076248584068835044e+02,9.446745872497558594e+00,-3.059675097465515137e-01,1.529837548732757568e-01,4.710000000000000000e+02
-1.716177895998821441e+02,-1.881581298858263835e+02,-8.183380635945991344e+01,6.724394396138677621e+00,-1.510642068450688384e+02,3.621818598118989030e+01,-9.083590586810441891e+01,-1.051032351567894239e+02,9.446745872497558594e+00,-3.059675097465515137e-01,1.529837548732757568e-01,4.720000000000000000e+02
-1.728002695755678815e+02,-1.864022153997556188e+02,-8.406492022303586964e+01,1.021069060869353962e+01,-1.479570337033790111e+02,3.696502030613146417e+01,-9.146951626071870578e+01,-1.014277662777419664e+02,9.446745872497558594e+00,-3.059675097465515137e-01,1.529837548732757568e-01,4.730000000000000000e+02
-1.743847543365701540e+02,-1.839943644398283595e+02,-8.620132444222554113e+01,1.593148672102688579e+01,-1.448493235553710292e+02,3.971551406550634056e+01,-9.058407609858875276e+01,-9.675653913674671003e+01,9.446745872497558594e+00,-3.059675097465515137e-01,1.529837548732757568e-01,4.740000000000000000e+02
-1.753521095031771893e+02,-1.810641873000442956e+02,-8.661251701586252238e+01,2.221915002398282013e+01,-1.417610269686949778e+02,4.427611681548137312e+01,-8.773816425451389023e+01,-9.155701188110992916e+01,9.446745872497558594e+00,-3.059675097465515137e-01,1.529837548732757568e-01,4.750000000000000000e+02
-1.746434596660329817e+02,-1.781987891426115311e+02,-8.435183546669031784e+01,2.671122037570239627e+01,-1.387235647959752214e+02,4.904010904031406426e+01,-8.358433239219471034e+01,-8.734952894445586935e+01,9.446745872497558594e+00,-3.059675097465515137e-01,1.529837548732757568e-01,4.760000000000000000e+02
-1.715921515397606072e+02,-1.757781280508485224e+02,-7.983621956356728333e+01,2.779778555870757373e+01,-1.360523017468151465e+02,5.178945904505508224e+01,-7.960782853200714726e+01,-8.622027848840457409e+01,9.446745872497558594e+00,-3.059675097465515137e-01,1.529837548732757568e-01,4.770000000000000000e+02
-1.664989904476958600e+02,-1.735226199151951505e+02,-7.479512139816154104e+01,2.580998326622193417e+01,-1.343351515139138428e+02,5.118710208480797519e+01,-7.720774383174511968e+01,-8.923935763233953367e+01,9.446745872497558594e+00,-3.059675097465515137e-01,1.529837548732757568e-01,4.780000000000000000e+02
-1.607688788997061238e+02,-1.707638022922031951e+02,-7.136261299762566068e+01,2.281175372155644254e+01,-1.340091581567093044e+02,4.776598696457585902e+01,-7.687351111917666913e+01,-9.525156386963863042e+01,9.446745872497558594e+00,-3.059675097465515137e-01,1.529837548732757568e-01,4.790000000000000000e+02
-1.562439566636071504e+02,-1.672408134664540285e+02,-7.079523234807800236e+01,2.099661705760513541e+01,-1.348537961821620002e+02,4.354864576757256600e+01,-7.806374957107664159e+01,-1.013099965769983442e+02,9.446745872497558594e+00,-3.059675097465515137e-01,1.529837548732757568e-01,4.800000000000000000e+02
-1.540701110535325142e+02,-1.636520953737725677e+02,-7.265542699462895371e+01,2.099463972575335902e+01,-1.359126173519841814e+02,4.056595287184654808e+01,-7.973364223759034530e+01,-1.045205169857993042e+02,9.446745872497558594e+00,-3.059675097465515137e-01,1.529837548732757568e-01,4.810000000000000000e+02
-1.539222357118403579e+02,-1.613508766284378453e+02,-7.505499666220259769e+01,2.156388256892864774e+01,-1.360295268732335217e+02,3.949036416021692730e+01,-8.095786564573069199e+01,-1.037870055138230327e+02,9.446745872497558594e+00,-3.059675097465515137e-01,1.529837548732757568e-01,4.820000000000000000e+02
-1.542361908285598702e+02,-1.613439411184112089e+02,-7.584331321463048425e+01,2.089713624553985483e+01,-1.346042120427049440e+02,3.948413535502703553e+01,-8.122672675997557690e+01,-1.001411779277415235e+02,9.446745872497558594e+00,-3.059675097465515137e-01,1.529837548732757568e-01,4.830000000000000000e+02
-1.533287113448740797e+02,-1.634000632486889799e+02,-7.396125893592176226e+01,1.831258604855975136e+01,-1.319439015317127826e+02,3.926910287783749709e+01,-8.044678711849320507e+01,-9.567514603199506951e+01,9.446745872497558594e+00,-3.059675097465515137e-01,1.529837548732757568e-01,4.840000000000000000e+02
-1.505737689139867257e+02,-1.660381041179023214e+02,-7.003389719401431535e+01,1.480611802810312838e+01,-1.289413394023898718e+02,3.835237393114988436e+01,-7.890261974017494140e+01,-9.215259073672899603e+01,9.446745872497558594e+00,-3.059675097465515137e-01,1.529837548732757568e-01,4.850000000000000000e+02
-1.467492663023436990e+02,-1.674476370427346978e+02,-6.581711643943874890e+01,1.207189821970391108e+01,-1.263904003505426203e+02,3.729354310675461193e+01,-7.724655648417208909e+01,-9.030304782714313205e+01,9.446745872497558594e+00,-3.059675097465515137e-01,1.529837548732757568e-01,4.860000000000000000e+02
-1.433401829594018295e+02,-1.666507477000944277e+02,-6.293607360871470746e+01,1.103287189691354797e+01,-1.245152543233619440e+02,3.689767132653174997e+01,-7.632746609892595302e+01,-8.994151912689784467e+01,9.446745872497558594e+00,-3.059675097465515137e-01,1.529837548732757568e-01,4.870000000000000000e+02
-1.414166967191633830e+02,-1.640576695646900021e+02,-6.185268639952829517e+01,1.126446672504630442e+01,-1.230162747967736721e+02,3.725641340210569297e+01,-7.675012326990102451e+01,-9.039883607704013002e+01,9.446745872497558594e+00,-3.059675097465515137e-01,1.529837548732757568e-01,4.880000000000000000e+02
-1.409828132034864439e+02,-1.610455865917475649e+02,-6.178769441286442543e+01,1.173848003774116933e+01,-1.214559895514818777e+02,3.766539343687543351e+01,-7.839510640564787991e+01,-9.081933846099593666e+01,9.446745872497558594e+00,-3.059675097465515137e-01,1.529837548732757568e-01,4.890000000000000000e+02
-1.412346442413588079e+02,-1.589113450819143623e+02,-6.156489974871567483e+01,1.201675352809502328e+01,-1.196137712204410377e+02,3.747808368399398660e+01,-8.034009919012743239e+01,-9.034440067772573002e+01,9.446745872497558594e+00,-3.059675097465515137e-01,1.529837548732757568e-01,4.900000000000000000e+02
-1.413914202994066045e+02,-1.579778755061794300e+02,-6.064571214609009076e+01,1.266531600439009253e+01,-1.176085394495469245e+02,3.695461526200176650e+01,-8.135494278581450089e+01,-8.838552788154947848e+01,9.446745872497558594e+00,-3.059675097465515137e-01,1.529837548732757568e-01,4.910000000000000000e+02
-1.413309300995049398e+02,-1.574975475586129505e+02,-5.950819957422936568e+01,1.452971214246292675e+01,-1.158106138764528623e+02,3.715985984236590411e+01,-8.062151189863516265e+01,-8.495827436844149361e+01,9.446745872497558594e+00,-3.059675097465515137e-01,1.529837548732757568e-01,4.920000000000000000e+02
-1.414960948429290966e+02,-1.564053322352403939e+02,-5.910247102906873806e+01,1.764184514482519717e+01,-1.146314762542413064e+02,3.895309933809903669e+01,-7.811968964443701680e+01,-8.079137564221832690e+01,9.446745872497558594e+00,-3.059675097465515137e-01,1.529837548732757568e-01,4.930000000000000000e+02
-1.422326029852723650e+02,-1.543319973209937643e+02,-5.988030681070540595e+01,2.084885116503471636e+01,-1.142462698432680099e+02,4.206121878288740845e+01,-7.443463920285489621e+01,-7.699811162293553934e+01,9.446745872497558594e+00,-3.059675097465515137e-01,1.529837548732757568e-01,4.940000000000000000e+02
-1.432182820455411729e+02,-1.520413013109714484e+02,-6.122600949611216947e+01,2.255382411514142404e+01,-1.143562741297571392e+02,4.516640847945609494e+01,-7.024625687650291184e+01,-7.445645496335328062e+01,9.446745872497558594e+00,-3.059675097465515137e-01,1.529837548732757568e-01,4.950000000000000000e+02
-1.435361904344122195e+02,-1.508671177509559129e+02,-6.177296930912757489e+01,2.193481466949697278e+01,-1.141855492829167815e+02,4.694657270146990413e+01,-6.599511100511165296e+01,-7.332081734040082210e+01,9.446745872497558594e+00,-3.059675097465515137e-01,1.529837548732757568e-01,4.960000000000000000e+02
-1.423455701651218988e+02,-1.515403687138127680e+02,-6.036972459465096108e+01,1.962603415892453995e+01,-1.128519639387193365e+02,4.710413229060850426e+01,-6.196157156406707145e+01,-7.300531014207354019e+01,9.446745872497558594e+00,-3.059675097465515137e-01,1.529837548732757568e-01,4.970000000000000000e+02
-1.395538474488650991e+02,-1.533885794738894219e+02,-5.693235763606617184e+01,1.734383531782782484e+01,-1.099561588565204602e+02,4.647060013782811438e+01,-5.852157466718040268e+01,-7.262357467436163461e+01,9.446745872497558594e+00,-3.059675097465515137e-01,1.529837548732757568e-01,4.980000000000000000e+02
-1.359087143274998652e+02,-1.546759842829826539e+02,-5.252178503984305280e+01,1.678755987177305542e+01,-1.059432256684751792e+02,4.616087887454386873e+01,-5.616801919139788879e+01,-7.154772025331612895e+01,9.446745872497558594e+00,-3.059675097465515137e-01,1.529837548732757568e-01,4.990000000000000000e+02
-1.324517941947788131e+02,-1.539073527951186406e+02,-4.860130271535240354e+01,1.862821256377606005e+01,-1.018812592860936093e+02,4.658851849593156658e+01,-5.516679637612924125e+01,-6.969765793373699125e+01,9.484992027282714844e+00,-3.059675097465515137e-01,7.649187743663787842e-02,5.000000000000000000e+02
-1.298188110351034084e+02,-1.510349574956617289e+02,-4.606284405232349854e+01,2.223572706898767137e+01,-9.876687800563217934e+01,4.718612622719319916e+01,-5.516419249229556954e+01,-6.741068535490717295e+01,9.484992027282714844e+00,-3.059675097465515137e-01,7.649187743663787842e-02,5.010000000000000000e+02
-1.279624336449851398e+02,-1.475087566948191125e+02,-4.475996650526690246e+01,2.621357057341083419e+01,-9.689201326933471137e+01,4.700292454229247596e+01,-5.520795017202476629e+01,-6.504742703889405675e+01,9.484992027282714844e+00,-3.059675097465515137e-01,7.649187743663787842e-02,5.020000000000000000e+02
-1.264608237552943137e+02,-1.450813284021617164e+02,-4.385368729381752928e+01,2.928394036455847527e+01,-9.577550324429785178e+01,4.562282700329069485e+01,-5.429704244680169722e+01,-6.265408413276418287e+01,9.484992027282714844e+00,-3.059675097465515137e-01,7.649187743663787842e-02,5.030000000000000000e+02
-1.250372105422052300e+02,-1.443677617317396198e+02,-4.263319775659078914e+01,3.093116062795206744e+01,-9.468101525634074278e+01,4.363318383239038667e+01,-5.206448906541436372e+01,-5.993843588721597371e+01,9.484992027282714844e+00,-3.059675097465515137e-01,7.649187743663787842e-02,5.040000000000000000e+02
-1.237684572630168987e+02,-1.443796892323966858e+02,-4.111589579584165222e+01,3.144562838736464983e+01,-9.325663171406768015e+01,4.225811979734498891e+01,-4.901183153380452495e+01,-5.657552765409855056e+01,9.484992027282714844e+00,-3.059675097465515137e-01,7.649187743663787842e-02,5.050000000000000000e+02
-1.228371232824874824e+02,-1.434217246802531918e+02,-3.996495037076965673e+01,3.144938884755038089e+01,-9.176117268486314060e+01,4.242099658242295845e+01,-4.607872302839405165e+01,-5.259284310988823563e+01,9.484992027282714844e+00,-3.059675097465515137e-01,7.649187743663787842e-02,5.060000000000000000e+02
-1.221582056606421247e+02,-1.405623260640845729e+02,-3.984502330367831746e+01,3.133639104086660154e+01,-9.073816479517245170e+01,4.396674112006894575e+01,-4.391293299877634126e+01,-4.852013141869610990e+01,9.484992027282714844e+00,-3.059675097465515137e-01,7.649187743663787842e-02,5.070000000000000000e+02
-1.213157159733268600e+02,-1.364165503849358174e+02,-4.078745823912004198e+01,3.106486307611430675e+01,-9.049288229599460465e+01,4.568365698427351163e+01,-4.248018982102030350e+01,-4.518821275817299465e+01,9.484992027282714844e+00,-3.059675097465515137e-01,7.649187743663787842e-02,5.080000000000000000e+02
-1.198978303792991937e+02,-1.326125217102285205e+02,-4.210601490475573883e+01,3.040293687732219041e+01,-9.084332516310223582e+01,4.617489556332475331e+01,-4.131025988246256020e+01,-4.332563067344517549e+01,9.484992027282714844e+00,-3.059675097465515137e-01,7.649187743663787842e-02,5.090000000000000000e+02
-1.178847634130106599e+02,-1.304341878214654571e+02,-4.291772248609640883e+01,2.934385503563771636e+01,-9.134259038771278938e+01,4.492970181104556104e+01,-4.007027539542286831e+01,-4.321588460662815123e+01,9.484992027282714844e+00,-3.059675097465515137e-01,7.649187743663787842e-02,5.100000000000000000e+02
-1.156925687931006905e+02,-1.298139960264629735e+02,-4.282323139980326232e+01,2.828961721882251368e+01,-9.172452324948972091e+01,4.271798617003423715e+01,-3.888674719211940101e+01,-4.459188117060466539e+01,9.484992027282714844e+00,-3.059675097465515137e-01,7.649187743663787842e-02,5.110000000000000000e+02
-1.138380183242888961e+02,-1.295138209023307354e+02,-4.217896317978920706e+01,2.782992070337286350e+01,-9.211150902369308824e+01,4.096032653602105711e+01,-3.815465681629939354e+01,-4.677149845561643815e+01,9.484992027282714844e+00,-3.059675097465515137e-01,7.649187743663787842e-02,5.120000000000000000e+02
-1.125795538991956164e+02,-1.282991049576939986e+02,-4.173633867643548001e+01,2.831652194983325899e+01,-9.276463918087756610e+01,4.061003071222967264e+01,-3.810069967157505744e+01,-4.890194377550506033e+01,9.484992027282714844e+00,-3.059675097465515137e-01,7.649187743663787842e-02,5.130000000000000000e+02
-1.118748964671312933e+02,-1.260629081705615135e+02,-4.194744071693503429e+01,2.962583503873975133e+01,-9.360850269151296743e+01,4.152847381164792750e+01,-3.856900401557413716e+01,-5.018507152240727009e+01,9.484992027282714844e+00,-3.059675097465515137e-01,7.649187743663787842e-02,5.140000000000000000e+02
-1.116207344787248985e+02,-1.239031746000682688e+02,-4.252244631431540256e+01,3.130453480983123882e+01,-9.403272340550029185e+01,4.286740792651926313e+01,-3.920425484745737776e+01,-5.004296565429467591e+01,9.484992027282714844e+00,-3.059675097465515137e-01,7.649187743663787842e-02,5.150000000000000000e+02
-1.118240828555667576e+02,-1.230796475412762447e+02,-4.261682762336431551e+01,3.295303021733252535e+01,-9.324068384703696211e+01,4.402688030317040102e+01,-3.974659409401556331e+01,-4.823842506775872607e+01,9.484992027282714844e+00,-3.059675097465515137e-01,7.649187743663787842e-02,5.160000000000000000e+02
-1.124721964580758140e+02,-1.237865432399776182e+02,-4.150264996568512288e+01,3.450592511609193025e+01,-9.087901062470064062e+01,4.522995849474409624e+01,-4.007785334169784619e+01,-4.495790952697643661e+01,9.484992027282714844e+00,-3.059675097465515137e-01,7.649187743663787842e-02,5.170000000000000000e+02
-1.132597322536930733e+02,-1.248662354935995609e+02,-3.915758777923610978e+01,3.617355634567138623e+01,-8.736469515633325500e+01,4.716810631659882347e+01,-4.002551145929555787e+01,-4.081843154976377264e+01,9.484992027282714844e+00,-3.059675097465515137e-01,7.649187743663787842e-02,5.180000000000000000e+02
-1.135476290365195382e+02,-1.247584361136123334e+02,-3.627161346836510347e+01,3.811158688946852635e+01,-8.358337847456823511e+01,5.010139092523422732e+01,-3.927667956916775438e+01,-3.674310237210011110e+01,9.484992027282714844e+00,-3.059675097465515137e-01,7.649187743663787842e-02,5.190000000000000000e+02
-1.127036793356792259e+02,-1.228427768802139326e+02,-3.367565492045832798e+01,4.012084231976859883e+01,-8.023468212940406374e+01,5.332739967249744950e+01,-3.764562594971266662e+01,-3.367011015184834832e+01,9.484992027282714844e+00,-3.059675097465515137e-01,7.649187743663787842e-02,5.200000000000000000e+02
-1.105514149441205518e+02,-1.199462164612759807e+02,-3.174397027487975720e+01,4.166844583016609249e+01,-7.745648148348209361e+01,5.556555830330489698e+01,-3.548160298159746162e+01,-3.217828319394720893e+01,9.484992027282714844e+00,-3.059675097465515137e-01,1.529837548732757568e-01,5.210000000000000000e+02
-1.075115738255053657e+02,-1.175418364997958633e+02,-3.033056662111084734e+01,4.227791286919728009e+01,-7.507645806345954043e+01,5.592893666125019081e+01,-3.371471657617621531e+01,-3.222376232130864082e+01,9.484992027282714844e+00,-3.059675097465515137e-01,1.529837548732757568e-01,5.220000000000000000e+02
-1.043177657237192761e+02,-1.163838221178020831e+02,-2.924676419197203359e+01,4.200939128810659895e+01,-7.315707713321808114e+01,5.463779805627473252e+01,-3.330602239693234878e+01,-3.316838251491572009e+01,9.484992027282714844e+00,-3.059675097465515137e-01,1.529837548732757568e-01,5.230000000000000000e+02
-1.015835943685515304e+02,-1.158744865652324734e+02,-2.871434718086766225e+01,4.160337140734736749e+01,-7.217037992586301698e+01,5.288852206810406642e+01,-3.447732382691174280e+01,-3.413210135985082161e+01,9.484992027282714844e+00,-3.059675097465515137e-01,1.529837548732757568e-01,5.240000000000000000e+02
-9.959031481128477026e+01,-1.147511375585418136e+02,-2.923117720655318408e+01,4.206583591917024023e+01,-7.254804090737525257e+01,5.201035543651596527e+01,-3.641852291923987650e+01,-3.447078522382707888e+01,9.484992027282714844e+00,-3.059675097465515137e-01,1.529837548732757568e-01,5.250000000000000000e+02
-9.836892279121184401e+01,-1.124101896859192493e+02,-3.092616044801889075e+01,4.393234436471175286e+01,-7.405986880344971723e+01,5.258160517093347153e+01,-3.781381396952929208e+01,-3.407898065843437507e+01,9.484992027282714844e+00,-3.059675097465515137e-01,1.529837548732757568e-01,5.260000000000000000e+02
-9.783965887916019710e+01,-1.095950899295894487e+02,-3.309390303876716644e+01,4.678860961588179634e+01,-7.571837248025349254e+01,5.414808801173239772e+01,-3.780584047848151386e+01,-3.333470674833006342e+01,9.484992027282714844e+00,-3.059675097465515137e-01,1.529837548732757568e-01,5.270000000000000000e+02
-9.781498563167497196e+01,-1.078004444417165359e+02,-3.451901388799524284e+01,4.949975784555681457e+01,-7.640707165665116918e+01,5.568113873767470068e+01,-3.660557149059513904e+01,-3.274550026433826133e+01,9.484992027282714844e+00,-3.059675097465515137e-01,1.529837548732757568e-01,5.280000000000000000e+02
-9.795158334695861413e+01,-1.079712883909796801e+02,-3.440918249070364254e+01,5.104428525658022409e+01,-7.567501890131097753e+01,5.637416823922649201e+01,-3.522793493769313500e+01,-3.254138540782605560e+01,9.484992027282714844e+00,-3.059675097465515137e-01,1.529837548732757568e-01,5.290000000000000000e+02
-9.785751414520836988e+01,-1.096970263674274975e+02,-3.307430499955989944e+01,5.128244935272232397e+01,-7.396559354545206588e+01,5.616862923832923116e+01,-3.460062907415067457e+01,-3.247805990556389588e+01,9.484992027282714844e+00,-3.059675097465515137e-01,1.529837548732757568e-01,5.300000000000000000e+02
-9.736293361246589484e+01,-1.115760597885091556e+02,-3.166208759740766254e+01,5.098657641756835801e+01,-7.211291108907880698e+01,5.565769602706677688e+01,-3.482278886158019304e+01,-3.198072124977898056e+01,9.484992027282714844e+00,-3.059675097465515137e-01,1.529837548732757568e-01,5.310000000000000000e+02
-9.667215543424208590e+01,-1.123209955818274466e+02,-3.116617235977719247e+01,5.109511785915492510e+01,-7.065259663305550930e+01,5.551891672819328960e+01,-3.519465329495960759e+01,-3.057101351157871250e+01,9.484992027282714844e+00,-3.059675097465515137e-01,1.529837548732757568e-01,5.320000000000000000e+02
-9.615507548207824584e+01,-1.115830855541998972e+02,-3.164385161857353523e+01,5.186305071568676794e+01,-6.961811816736917535e+01,5.597955435800759005e+01,-3.496010309102712199e+01,-2.834235878212803073e+01,9.484992027282714844e+00,-3.059675097465515137e-01,1.529837548732757568e-01,5.330000000000000000e+02
-9.591021855104827409e+01,-1.098796166711281330e+02,-3.234394811007950921e+01,5.269502823262519087e+01,-6.890426112780187395e+01,5.676313525166551699e+01,-3.406664533387993288e+01,-2.612338299704151723e+01,9.484992027282714844e+00,-3.059675097465515137e-01,1.529837548732757568e-01,5.340000000000000000e+02
-9.554419938431965420e+01,-1.079130218247810262e+02,-3.251579606228278863e+01,5.278439695302040491e+01,-6.867317174479831010e+01,5.749224699740989308e+01,-3.324450359438287705e+01,-2.509077680049085757e+01,9.484992027282714844e+00,-3.059675097465515137e-01,1.529837548732757568e-01,5.350000000000000000e+02
-9.447994079734235129e+01,-1.060678855144897170e+02,-3.203708397892114590e+01,5.191076290314776998e+01,-6.926055327530229988e+01,5.811195757013592811e+01,-3.332768377589400188e+01,-2.595631335903726722e+01,9.484992027282714844e+00,-3.059675097465515137e-01,1.529837548732757568e-01,5.360000000000000000e+02
-9.257008843734365655e+01,-1.045123269427804189e+02,-3.129011167749376909e+01,5.063313390294206329e+01,-7.064428956409392413e+01,5.892789224879925314e+01,-3.442909850935757277e+01,-2.828314898376174824e+01,9.484992027282714844e+00,-3.059675097465515137e-01,1.529837548732757568e-01,5.370000000000000000e+02
-9.041275414581650693e+01,-1.035872550648064134e+02,-3.056394311096210004e+01,4.973051806292096444e+01,-7.208932714786351426e+01,6.027063946366979508e+01,-3.571226790769651416e+01,-3.056564164835526753e+01,9.484992027282714844e+00,-3.059675097465515137e-01,1.529837548732757568e-01,5.380000000000000000e+02
-8.897441068945045117e+01,-1.038574496946548607e+02,-2.971087173077557964e+01,4.949651388866550406e+01,-7.247392041144303221e+01,6.215380707130316296e+01,-3.597559822083348990e+01,-3.119944697670416645e+01,9.484992027282714844e+00,-3.059675097465515137e-01,1.529837548732757568e-01,5.390000000000000000e+02
-8.877722748723499535e+01,-1.056134033090820594e+02,-2.839722729546338087e+01,4.959795792327895469e+01,-7.112629580395696394e+01,6.424319528107298538e+01,-3.454651100894807314e+01,-2.968579044300895475e+01,9.484992027282714844e+00,-3.059675097465515137e-01,1.529837548732757568e-01,5.400000000000000000e+02
-8.936176159229762561e+01,-1.083049005119664798e+02,-2.658011288819579931e+01,4.959143767572641082e+01,-6.843611428116309980e+01,6.609399486836991855e+01,-3.173412728787297965e+01,-2.708322386356849165e+01,9.484992027282714844e+00,-3.059675097465515137e-01,1.529837548732757568e-01,5.410000000000000000e+02
-8.954458252688164066e+01,-1.105809537131517573e+02,-2.463194994481091271e+01,4.949567207903601229e+01,-6.564582613154743740e+01,6.736381443269419833e+01,-2.852428530647193838e+01,-2.524837412941997172e+01,9.484992027282714844e+00,-3.059675097465515137e-01,1.529837548732757568e-01,5.420000000000000000e+02
-8.830982778520956344e+01,-1.110788476864872791e+02,-2.299524384487449424e+01,4.978168965403165203e+01,-6.394570619469413941e+01,6.784849530960673292e+01,-2.586559571534235147e+01,-2.542929749816903495e+01,9.484992027282714844e+00,-3.059675097465515137e-01,1.529837548732757568e-01,5.430000000000000000e+02
-8.561110782155446941e+01,-1.093438593257214961e+02,-2.180043447536627355e+01,5.078912841892270080e+01,-6.362646421702447697e+01,6.747256789972743718e+01,-2.416672401997857378e+01,-2.735035441769650788e+01,9.484992027282714844e+00,-3.059675097465515137e-01,1.529837548732757568e-01,5.440000000000000000e+02
-8.243383998597528262e+01,-1.060594273045680893e+02,-2.087353278541013424e+01,5.220583913056543679e+01,-6.398286149046180071e+01,6.640752551635705458e+01,-2.329332517286093207e+01,-2.948373464636460994e+01,9.484992027282714844e+00,-3.059675097465515137e-01,1.529837548732757568e-01,5.450000000000000000e+02
-8.010089215886546299e+01,-1.023956802958455228e+02,-2.008518694406666327e+01,5.320806364853524428e+01,-6.399611063744850981e+01,6.521990427492710296e+01,-2.286717115314786497e+01,-3.019724927409697557e+01,9.523238182067871094e+00,-3.059675097465515137e-01,1.912296712398529053e-01,5.460000000000000000e+02
-7.939938123517094937e+01,-9.909716360216771136e+01,-1.960276407879428007e+01,5.319416000237833941e+01,-6.315869167599157663e+01,6.475868092008386157e+01,-2.249046127140536555e+01,-2.879378286914652563e+01,9.523238182067871094e+00,-3.059675097465515137e-01,1.912296712398529053e-01,5.470000000000000000e+02
-8.018585024663479999e+01,-9.615281750278154504e+01,-1.974834414216093137e+01,5.242125331138777256e+01,-6.174886428051468101e+01,6.569690143158004503e+01,-2.177879031264274090e+01,-2.570703614690501126e+01,9.523238182067871094e+00,-3.059675097465515137e-01,1.912296712398529053e-01,5.480000000000000000e+02
-8.166580567267919832e+01,-9.325188799312309129e+01,-2.063149210328992922e+01,5.192132814601245627e+01,-6.042998743963107700e+01,6.804284328239737079e+01,-2.041170956463793118e+01,-2.195385210715357971e+01,9.523238182067871094e+00,-3.059675097465515137e-01,1.912296712398529053e-01,5.490000000000000000e+02
-8.300207875644446176e+01,-9.040714131650747731e+01,-2.193862232367973775e+01,5.273684742973091488e+01,-5.965000636119657429e+01,7.106429072363971500e+01,-1.834139377724204678e+01,-1.847910558644434786e+01,9.523238182067871094e+00,-3.059675097465515137e-01,1.912296712398529053e-01,5.500000000000000000e+02
-8.374882920344134618e+01,-8.801494776742038084e+01,-2.305534843383429688e+01,5.513193259854233474e+01,-5.938039820475205488e+01,7.375312679520720849e+01,-1.597309736052920925e+01,-1.587518767663095787e+01,9.523238182067871094e+00,-3.059675097465515137e-01,1.912296712398529053e-01,5.510000000000000000e+02
-8.387269995128008304e+01,-8.633560547094930371e+01,-2.336974236842979735e+01,5.841476677369792014e+01,-5.930400119365003775e+01,7.547495398678074707e+01,-1.401395912559382850e+01,-1.442822243404589244e+01,9.523238182067871094e+00,-3.059675097465515137e-01,1.912296712398529053e-01,5.520000000000000000e+02
-8.350616218986579042e+01,-8.510527542778254428e+01,-2.250993573660707625e+01,6.143561403755666106e+01,-5.910102306378576031e+01,7.628437688179110410e+01,-1.297869340019315132e+01,-1.414629452828739886e+01,9.523238182067871094e+00,-3.059675097465515137e-01,1.912296712398529053e-01,5.530000000000000000e+02
-8.273157972093395074e+01,-8.384656005848955829e+01,-2.044019267992916866e+01,6.327694693788362201e+01,-5.850930018944563926e+01,7.671224281859031180e+01,-1.275082867300625367e+01,-1.464910798692289973e+01,9.523238182067871094e+00,-3.059675097465515137e-01,1.912296712398529053e-01,5.540000000000000000e+02
-8.154445992520959408e+01,-8.258210860272629361e+01,-1.747877165786667319e+01,6.361381105301916250e+01,-5.723710817189021327e+01,7.728065856484317919e+01,-1.263989481260432512e+01,-1.516228183196835744e+01,9.523238182067871094e+00,-3.059675097465515137e-01,1.912296712398529053e-01,5.550000000000000000e+02
-7.992988192362099653e+01,-8.205747574020460888e+01,-1.424444520452743745e+01,6.261895403601920407e+01,-5.503098043418503948e+01,7.815450131145189516e+01,-1.194638889935777115e+01,-1.487188017933112860e+01,9.523238182067871094e+00,-3.059675097465515137e-01,1.912296712398529053e-01,5.560000000000000000e+02
-7.793468975638461416e+01,-8.301293542366693146e+01,-1.145891638777720800e+01,6.066645302165488829e+01,-5.199228898293949896e+01,7.911455964366905391e+01,-1.054434904825393460e+01,-1.350643164581742894e+01,9.523238182067871094e+00,-3.059675097465515137e-01,1.912296712398529053e-01,5.570000000000000000e+02
-7.569766166124645679e+01,-8.515182517564426234e+01,-9.610571991910546785e+00,5.812989669032322126e+01,-4.881987558356013324e+01,7.974618669720075559e+01,-8.968127960848505609e+00,-1.166006795769862947e+01,9.523238182067871094e+00,-3.059675097465515137e-01,1.912296712398529053e-01,5.580000000000000000e+02
-7.345707945056165045e+01,-8.698048566949546512e+01,-8.697553588266600855e+00,5.535235388078581309e+01,-4.657065098508246592e+01,7.966794488409141195e+01,-7.959022597275179578e+00,-1.047639134265591565e+01,9.523238182067871094e+00,-3.059675097465515137e-01,1.912296712398529053e-01,5.590000000000000000e+02
-7.151707472923772002e+01,-8.691685928666629479e+01,-8.289208225965921883e+00,5.268381879472872242e+01,-4.596764331534723169e+01,7.873015707098238636e+01,-7.905676202963149990e+00,-1.084415515496220905e+01,9.523238182067871094e+00,-3.059675097465515137e-01,1.912296712398529053e-01,5.600000000000000000e+02
-7.012850252921452920e+01,-8.472676134728135366e+01,-7.892463551472246763e+00,5.049964292524964549e+01,-4.679748173388361465e+01,7.717706262002320727e+01,-8.641772642806245130e+00,-1.271899580004173913e+01,9.523238182067871094e+00,-3.059675097465515137e-01,1.912296712398529053e-01,5.610000000000000000e+02
-6.930456536028214032e+01,-8.185908396106970031e+01,-7.311621473591003451e+00,4.920219201155487099e+01,-4.797124845656799152e+01,7.568611311403947184e+01,-9.674949394990107976e+00,-1.514337596453879087e+01,9.523238182067871094e+00,-3.059675097465515137e-01,1.912296712398529053e-01,5.620000000000000000e+02
-6.872453434043382003e+01,-8.023699841763118457e+01,-6.680423745332518592e+00,4.917335499796172371e+01,-4.827318645982813905e+01,7.512691380599426338e+01,-1.054735246511700097e+01,-1.697309472773304151e+01,9.523238182067871094e+00,-3.059675097465515137e-01,1.912296712398529053e-01,5.630000000000000000e+02
-6.789179233915274381e+01,-8.058853232857472904e+01,-6.166388559473489295e+00,5.057787565659236861e+01,-4.719965755460361834e+01,7.601529224242040073e+01,-1.103401372484404419e+01,-1.773642352306160319e+01,9.523238182067871094e+00,-3.059675097465515137e-01,1.912296712398529053e-01,5.640000000000000000e+02
-6.648015571101495880e+01,-8.188557282329566078e+01,-5.673647393850842491e+00,5.306007842489998438e+01,-4.520783366212708643e+01,7.797964304012566572e+01,-1.113095961585349869e+01,-1.790840101595313172e+01,9.523238182067871094e+00,-3.059675097465515137e-01,1.912296712398529053e-01,5.650000000000000000e+02
-6.458183185536472593e+01,-8.239431364155097981e+01,-4.855529728585679550e+00,5.561944381788998726e+01,-4.322235419261414791e+01,7.973995162958090077e+01,-1.097244838414917467e+01,-1.838175336023959971e+01,9.523238182067871094e+00,-3.059675097465515137e-01,1.912296712398529053e-01,5.660000000000000000e+02
-6.262917135571115068e+01,-8.129026095321387402e+01,-3.432097116065051523e+00,5.698476849259532173e+01,-4.187397703582246322e+01,7.982371638725453522e+01,-1.077310796876918175e+01,-1.961558656656598032e+01,9.523238182067871094e+00,-3.059675097465515137e-01,1.912296712398529053e-01,5.670000000000000000e+02
-6.104168529369417229e+01,-7.930302627167111496e+01,-1.495826833266619360e+00,5.642440965314744972e+01,-4.110809865968985832e+01,7.762641915660424274e+01,-1.074394589386429288e+01,-2.119765039141748275e+01,9.523238182067871094e+00,-3.059675097465515137e-01,1.912296712398529053e-01,5.680000000000000000e+02
-5.992374360585381510e+01,-7.788300657693253015e+01,4.851605727453716099e-01,5.440087744570337236e+01,-4.039282855514102266e+01,7.399663445204350865e+01,-1.092779441001766827e+01,-2.215803835093356611e+01,9.523238182067871094e+00,-3.059675097465515137e-01,1.912296712398529053e-01,5.690000000000000000e+02
-5.908102726262222859e+01,-7.780721437031024834e+01,1.968125600778876105e+00,5.239513490077661118e+01,-3.924297884875704767e+01,7.075543201328400755e+01,-1.105910983224021038e+01,-2.171685949235688895e+01,9.523238182067871094e+00,-3.059675097465515137e-01,1.912296712398529053e-01,5.700000000000000000e+02
-5.829416294059774373e+01,-7.857660024350116146e+01,2.677035468208487146e+00,5.185485000471817330e+01,-3.756926951701461803e+01,6.940663145493454067e+01,-1.064665937710742583e+01,-1.981581938589442871e+01,9.523238182067871094e+00,-3.059675097465515137e-01,1.912296712398529053e-01,5.710000000000000000e+02
-5.754125188656689716e+01,-7.905950108244360308e+01,2.726446052467508707e+00,5.307723767683273763e+01,-3.561433201565887430e+01,7.005643316800706089e+01,-9.307736641974770464e+00,-1.705740536617304315e+01,9.523238182067871094e+00,-3.059675097465515137e-01,1.912296712398529053e-01,5.720000000000000000e+02
-5.695753769620569074e+01,-7.861115331990004051e+01,2.490337739509413950e+00,5.503147791575975134e+01,-3.365456208503383095e+01,7.147598672461390379e+01,-7.121564042801765027e+00,-1.424787605415622238e+01,9.408499717712402344e+00,-3.442134261131286621e-01,1.529837548732757568e-01,5.730000000000000000e+02
-5.662674199973480427e+01,-7.756795065649203025e+01,2.375183075018867385e+00,5.631700794369680807e+01,-3.180159649414417800e+01,7.226308846459869528e+01,-4.684736463143053697e+00,-1.199939458964581718e+01,9.408499717712402344e+00,-3.442134261131286621e-01,1.529837548732757568e-01,5.740000000000000000e+02
-5.646664672060796875e+01,-7.675520221146507538e+01,2.660311594750965014e+00,5.638858810907549923e+01,-3.007386062736259191e+01,7.206734151218915940e+01,-2.758404757281823549e+00,-1.061846975605294574e+01,9.408499717712402344e+00,-3.442134261131286621e-01,1.529837548732757568e-01,5.750000000000000000e+02
-5.632889337992673973e+01,-7.663179142687295098e+01,3.431934172920591664e+00,5.592174147410332807e+01,-2.858919195897760801e+01,7.180016174008414964e+01,-1.764896468877850566e+00,-1.013919221155447303e+01,9.408499717712402344e+00,-3.442134261131286621e-01,1.529837548732757568e-01,5.760000000000000000e+02
-5.617128305496589746e+01,-7.692976185971565428e+01,4.558030548614624422e+00,5.603817290526785655e+01,-2.759631287740558037e+01,7.271268302373209735e+01,-1.533961676967010135e+00,-1.029055638622958213e+01,9.408499717712402344e+00,-3.442134261131286621e-01,1.529837548732757568e-01,5.770000000000000000e+02
-5.609689993885695003e+01,-7.704569895698296023e+01,5.696309279057459207e+00,5.722053365668398328e+01,-2.725154614261191455e+01,7.526757348446699325e+01,-1.491142994131223531e+00,-1.045795927108702017e+01,9.408499717712402344e+00,-3.442134261131286621e-01,1.529837548732757568e-01,5.780000000000000000e+02
-5.622938087819784414e+01,-7.669251773369978764e+01,6.414253726830793312e+00,5.898843025405585649e+01,-2.735285440029110759e+01,7.883810527031164384e+01,-1.089122752779076109e+00,-9.882202316326583968e+00,9.408499717712402344e+00,-3.442134261131286621e-01,1.529837548732757568e-01,5.790000000000000000e+02
-5.657223497410814161e+01,-7.614968283280177275e+01,6.446812480706284987e+00,6.055123042902778252e+01,-2.734744805335867568e+01,8.236523021486937068e+01,-1.138462388043990359e-01,-8.132052599004964577e+00,9.408499717712402344e+00,-3.442134261131286621e-01,1.529837548732757568e-01,5.800000000000000000e+02
-5.697964276791026350e+01,-7.592561045963157085e+01,5.936255768981936853e+00,6.164647332974345773e+01,-2.669627013587887632e+01,8.519695215071988059e+01,1.331176936695555924e+00,-5.502040580100583611e+00,9.408499717712402344e+00,-3.442134261131286621e-01,1.529837548732757568e-01,5.810000000000000000e+02
-5.721541359716138686e+01,-7.622736828932829667e+01,5.418878960201254813e+00,6.265054673751001246e+01,-2.530074908172900905e+01,8.730896833167935256e+01,3.035562326582294190e+00,-2.907510425029613543e+00,9.408499717712402344e+00,-3.442134261131286621e-01,1.529837548732757568e-01,5.820000000000000000e+02
-5.701533995443969616e+01,-7.676181334281136515e+01,5.469380751081189374e+00,6.391319985095105949e+01,-2.359347649737173924e+01,8.891042791637300979e+01,4.824077974517422263e+00,-1.251977371572138509e+00,9.408499717712402344e+00,-3.442134261131286621e-01,1.529837548732757568e-01,5.830000000000000000e+02
-5.615057148970299750e+01,-7.703004270395467756e+01,6.228722990959795425e+00,6.514664181499028928e+01,-2.218856646959102363e+01,9.007930753422260750e+01,6.538467325161036570e+00,-7.706392825057264417e-01,9.408499717712402344e+00,-3.442134261131286621e-01,1.529837548732757568e-01,5.840000000000000000e+02
-5.455496974376001162e+01,-7.682422935383146978e+01,7.226126023648248520e+00,6.560876872835069662e+01,-2.141171998706340673e+01,9.085532648744265316e+01,7.991442660761094885e+00,-9.250191407554666512e-01,9.408499717712402344e+00,-3.442134261131286621e-01,1.529837548732757568e-01,5.850000000000000000e+02
-5.247425101599219488e+01,-7.648091693624883192e+01,7.713114223934098845e+00,6.490845868606265867e+01,-2.111660223716535256e+01,9.154982336735702120e+01,9.047299850182753289e+00,-9.104491138023149688e-01,9.408499717712402344e+00,-3.442134261131286621e-01,1.529837548732757568e-01,5.860000000000000000e+02
-5.047466378169337986e+01,-7.669940185072482564e+01,7.279084872643579729e+00,6.354071284941164777e+01,-2.089349925112401252e+01,9.271527439450437669e+01,9.780090587148151826e+00,-2.769343428190040868e-01,9.408499717712402344e+00,-3.442134261131286621e-01,1.529837548732757568e-01,5.870000000000000000e+02
-4.918983940729231108e+01,-7.807711393546196632e+01,6.224380538831610465e+00,6.253745737553617801e+01,-2.040829113885047263e+01,9.464236089247424388e+01,1.048794263960007811e+01,8.938503585522994399e-01,9.408499717712402344e+00,-3.442134261131286621e-01,1.529837548732757568e-01,5.880000000000000000e+02
-4.892919888101096149e+01,-8.069150899258238496e+01,5.339462533647747478e+00,6.255814160035151872e+01,-1.956116799161463859e+01,9.689827008787688101e+01,1.145604670857574092e+01,2.314785866841702955e+00,9.408499717712402344e+00,-3.442134261131286621e-01,1.529837548732757568e-01,5.890000000000000000e+02
-4.948195764619595138e+01,-8.399415676705757505e+01,5.255677505487255985e+00,6.335547135613524006e+01,-1.842150498132832581e+01,9.848763371815584833e+01,1.266387442218911019e+01,3.900644860059401253e+00,9.408499717712402344e+00,-3.442134261131286621e-01,1.529837548732757568e-01,5.900000000000000000e+02
