F3,F4,C3,C4,P3,P4,Cz,Pz,Accel_x,Accel_y,Accel_z,Sample
-5.184119800105690956e-11,-7.275957614183425903e-11,-4.638422979041934013e-11,-3.819877747446298599e-11,-3.910827217623591423e-11,-7.639755494892597198e-11,-4.365574568510055542e-11,-5.547917680814862251e-11,9.484992027282714844e+00,-3.824593424797058105e-01,3.824593871831893921e-02,2.260000000000000000e+02
-1.122599321690722718e+01,-1.526493586762353516e+01,-6.054307892556607840e+00,3.201514996582773165e+00,-1.016656909837820422e+01,-5.427760068498173496e+00,-2.368811253882086021e+00,-2.627918017784395488e+00,9.484992027282714844e+00,-3.824593424797058105e-01,3.824593871831893921e-02,2.270000000000000000e+02
-2.347811371153511573e+01,-3.001573536696832889e+01,-1.127994669129293470e+01,5.952712043401334086e+00,-2.049132272986207681e+01,-8.895402271467901301e+00,-5.043826289186654321e+00,-5.439539011347733322e+00,9.484992027282714844e+00,-3.824593424797058105e-01,3.824593871831893921e-02,2.280000000000000000e+02
-3.679244612291859085e+01,-4.364539330910702120e+01,-1.583033942386737181e+01,8.276873812879784964e+00,-3.112328865684412449e+01,-1.013780794171907473e+01,-8.123706183105241507e+00,-8.694337418825853092e+00,9.484992027282714844e+00,-3.824593424797058105e-01,7.649187743663787842e-02,2.290000000000000000e+02
-5.020937589879486040e+01,-5.565597798001726915e+01,-2.073240679647824436e+01,1.058642146371676063e+01,-4.210363496932859562e+01,-1.060480816580093233e+01,-1.159447644815463718e+01,-1.273935601556240726e+01,9.484992027282714844e+00,-3.824593424797058105e-01,7.649187743663787842e-02,2.300000000000000000e+02
-6.270591459709157789e+01,-6.606759031543151650e+01,-2.677404919065793365e+01,1.308092462005697598e+01,-5.323444491923601163e+01,-1.192731702809032868e+01,-1.562016477642100654e+01,-1.789206992599611112e+01,9.484992027282714844e+00,-3.824593424797058105e-01,7.649187743663787842e-02,2.310000000000000000e+02
-7.406298516946662858e+01,-7.562120708142265357e+01,-3.355959385476489842e+01,1.522877092931958032e+01,-6.408068863736571075e+01,-1.451705463891448744e+01,-2.063507153582577303e+01,-2.420672532092794427e+01,9.484992027282714844e+00,-3.824593424797058105e-01,7.649187743663787842e-02,2.320000000000000000e+02
-8.482099929440119013e+01,-8.546837002258052962e+01,-3.976496288864836970e+01,1.590650239149908884e+01,-7.417659004273446044e+01,-1.762323438451312541e+01,-2.703655809163592494e+01,-3.128903709062888083e+01,9.484992027282714844e+00,-3.824593424797058105e-01,7.649187743663787842e-02,2.330000000000000000e+02
-9.550949264748760470e+01,-9.649951100649377622e+01,-4.440149185811151256e+01,1.417162195496348431e+01,-8.331679478830574226e+01,-2.046705397974983498e+01,-3.473691460678855947e+01,-3.837920112502251868e+01,9.484992027282714844e+00,-3.824593424797058105e-01,7.649187743663787842e-02,2.340000000000000000e+02
-1.060844309762114790e+02,-1.088178128808140173e+02,-4.784273705165196588e+01,1.005989481537380925e+01,-9.171501238131259015e+01,-2.301945328699548554e+01,-4.302042943442211254e+01,-4.473086943991347653e+01,9.484992027282714844e+00,-3.824593424797058105e-01,7.649187743663787842e-02,2.350000000000000000e+02
-1.161697254932241776e+02,-1.217525458457575951e+02,-5.159437816229637974e+01,4.758466745674013509e+00,-9.993051436745736282e+01,-2.568166246907276218e+01,-5.085867128358768241e+01,-5.004388125931927789e+01,9.484992027282714844e+00,-3.824593424797058105e-01,7.649187743663787842e-02,2.360000000000000000e+02
-1.257349243771386682e+02,-1.343526211493981464e+02,-5.700958258502305398e+01,4.008519236776919570e-03,-1.086289301907472691e+02,-2.851997126549213135e+01,-5.740889880429040204e+01,-5.460716355704335001e+01,9.484992027282714844e+00,-3.824593424797058105e-01,7.649187743663787842e-02,2.370000000000000000e+02
-1.353412732684901130e+02,-1.459552142503116556e+02,-6.414305511142447358e+01,-2.877385600825618894e+00,-1.182932414978604356e+02,-3.112129673148956499e+01,-6.232592815815496579e+01,-5.905158120506894193e+01,9.484992027282714844e+00,-3.824593424797058105e-01,7.649187743663787842e-02,2.380000000000000000e+02
-1.456145429272892216e+02,-1.564411671589077741e+02,-7.175396671506950952e+01,-3.661381406380314729e+00,-1.289775575988942364e+02,-3.319081546392590099e+01,-6.579060107550958492e+01,-6.394768001278225711e+01,9.484992027282714844e+00,-3.824593424797058105e-01,7.649187743663787842e-02,2.390000000000000000e+02
-1.565080951842210197e+02,-1.661141938248638326e+02,-7.835145773334716068e+01,-3.234235028176044580e+00,-1.401926678435547728e+02,-3.501640537569255685e+01,-6.838946877441412653e+01,-6.953612246822467569e+01,9.484992027282714844e+00,-3.824593424797058105e-01,7.649187743663787842e-02,2.400000000000000000e+02
-1.672003528185214236e+02,-1.754178103721096704e+02,-8.327924087500650785e+01,-2.956713253783163964e+00,-1.510237987641630752e+02,-3.713599232962951646e+01,-7.095538061903062044e+01,-7.567918316037139448e+01,9.484992027282714844e+00,-3.824593424797058105e-01,7.649187743663787842e-02,2.410000000000000000e+02
-1.768205603666792740e+02,-1.847166558381695722e+02,-8.694638586634027888e+01,-3.801265170061924437e+00,-1.605213826987965149e+02,-3.960209495521485223e+01,-7.431021574071746727e+01,-8.194285754116754106e+01,9.484992027282714844e+00,-3.824593424797058105e-01,7.649187743663787842e-02,2.420000000000000000e+02
-1.852998274719011533e+02,-1.942162931745724563e+02,-9.020964071938669804e+01,-5.812755476179518155e+00,-1.682211936400817649e+02,-4.178752310700838279e+01,-7.889216917827343423e+01,-8.776525822812618571e+01,9.484992027282714844e+00,-3.824593424797058105e-01,7.649187743663787842e-02,2.430000000000000000e+02
-1.934588944681918292e+02,-2.039525120813577814e+02,-9.363023943034659169e+01,-8.247291038030198251e+00,-1.744712617652548943e+02,-4.303468408449407434e+01,-8.449968992454068939e+01,-9.276958401284082356e+01,9.484992027282714844e+00,-3.824593424797058105e-01,7.649187743663787842e-02,2.440000000000000000e+02
-2.021917381892599224e+02,-2.137756580645027498e+02,-9.725587236890532949e+01,-1.027796356875933270e+01,-1.803130197690406931e+02,-4.344864849314217281e+01,-9.044034445570741809e+01,-9.716889609522240789e+01,9.484992027282714844e+00,-3.824593424797058105e-01,7.649187743663787842e-02,2.450000000000000000e+02
-2.114986394712732363e+02,-2.233540927337671746e+02,-1.009404562861363956e+02,-1.173094113037222996e+01,-1.869633466260193018e+02,-4.396706272058509057e+01,-9.607017607309444429e+01,-1.019382342295421040e+02,9.484992027282714844e+00,-3.824593424797058105e-01,7.649187743663787842e-02,2.460000000000000000e+02
-2.203182298926567455e+02,-2.322920091328323906e+02,-1.047101476408406597e+02,-1.327266432104897831e+01,-1.952190061808305472e+02,-4.564332532336084114e+01,-1.012996825352383894e+02,-1.083871401041606077e+02,9.484992027282714844e+00,-3.824593424797058105e-01,7.649187743663787842e-02,2.470000000000000000e+02
-2.274085789951222978e+02,-2.403747630890939035e+02,-1.087776672849340684e+02,-1.588509064977370144e+01,-2.051263117380512995e+02,-4.887825992756552296e+01,-1.065976648819996626e+02,-1.172018564546278867e+02,9.484992027282714844e+00,-3.824593424797058105e-01,7.649187743663787842e-02,2.480000000000000000e+02
-2.325511140847793286e+02,-2.477720795434170213e+02,-1.132661065716110897e+02,-2.004266562420161790e+01,-2.160395951305426934e+02,-5.327204493752651615e+01,-1.124825414154374812e+02,-1.276433331161160822e+02,9.484992027282714844e+00,-3.824593424797058105e-01,7.649187743663787842e-02,2.490000000000000000e+02
-2.370176406848340775e+02,-2.549774870287083104e+02,-1.180078818178735673e+02,-2.523198751004292717e+01,-2.269494322822865797e+02,-5.803427805194951361e+01,-1.189753028827453818e+02,-1.376710364433783980e+02,9.484992027282714844e+00,-3.824593424797058105e-01,7.649187743663787842e-02,2.500000000000000000e+02
-2.428321138556038932e+02,-2.624357565592890751e+02,-1.226602145878086958e+02,-3.014907683084948076e+01,-2.368783303996315226e+02,-6.240091330975883466e+01,-1.254932798367435680e+02,-1.450874173774827796e+02,9.484992027282714844e+00,-3.824593424797058105e-01,7.649187743663787842e-02,2.510000000000000000e+02
-2.513721995336400141e+02,-2.701310259096808295e+02,-1.270100109141358189e+02,-3.337917408484099724e+01,-2.452076061529060098e+02,-6.573380916416044784e+01,-1.312169664976745480e+02,-1.489094535681560956e+02,9.484992027282714844e+00,-3.824593424797058105e-01,7.649187743663787842e-02,2.520000000000000000e+02
-2.624014952069956053e+02,-2.775333366095001111e+02,-1.311331762086556409e+02,-3.407440281993513054e+01,-2.518676722785503443e+02,-6.749739457755367766e+01,-1.355263813223591569e+02,-1.499061217178723382e+02,9.484992027282714844e+00,-3.824593424797058105e-01,7.649187743663787842e-02,2.530000000000000000e+02
-2.742625785436193837e+02,-2.840217767681115220e+02,-1.352346164971431790e+02,-3.228242279793903435e+01,-2.573293740161716414e+02,-6.743764382446534000e+01,-1.381463466347313442e+02,-1.499108644092912073e+02,9.484992027282714844e+00,-3.824593424797058105e-01,7.649187743663787842e-02,2.540000000000000000e+02
-2.850231561428299756e+02,-2.894274898112016672e+02,-1.393351840893801636e+02,-2.889566492178346380e+01,-2.623669095261757320e+02,-6.590284355368567049e+01,-1.390432123421178403e+02,-1.505216107692394871e+02,9.484992027282714844e+00,-3.824593424797058105e-01,7.649187743663787842e-02,2.550000000000000000e+02
-2.936451313820261930e+02,-2.941607096334701055e+02,-1.431422344696902655e+02,-2.533874701552394981e+01,-2.676917608965650288e+02,-6.390780650185843115e+01,-1.384004597821503921e+02,-1.522497631252508654e+02,9.484992027282714844e+00,-3.824593424797058105e-01,7.649187743663787842e-02,2.560000000000000000e+02
-3.003414070673834431e+02,-2.987612469941841482e+02,-1.462856900755587048e+02,-2.306067866107696318e+01,-2.736633509955681802e+02,-6.269523113746527088e+01,-1.368444138456043220e+02,-1.546831991876870234e+02,9.484992027282714844e+00,-3.824593424797058105e-01,7.649187743663787842e-02,2.570000000000000000e+02
-3.060285235154406109e+02,-3.033192751526185020e+02,-1.487366929987429103e+02,-2.292431201346698799e+01,-2.802328902300414484e+02,-6.303472583667189610e+01,-1.356405147977111483e+02,-1.572914831345096900e+02,9.484992027282714844e+00,-3.824593424797058105e-01,7.649187743663787842e-02,2.580000000000000000e+02
-3.115093089358160796e+02,-3.074038477472295199e+02,-1.509980864059352825e+02,-2.475908371466539393e+01,-2.870965884133775035e+02,-6.480028667189344560e+01,-1.364112360535755215e+02,-1.600287387455996395e+02,9.484992027282714844e+00,-3.824593424797058105e-01,7.649187743663787842e-02,2.590000000000000000e+02
-3.170845058342820266e+02,-3.106324899736987390e+02,-1.538340491733670206e+02,-2.743982729690105771e+01,-2.939004651064715290e+02,-6.716494495154256583e+01,-1.402891085293886135e+02,-1.632411618531818931e+02,9.484992027282714844e+00,-3.824593424797058105e-01,7.649187743663787842e-02,2.600000000000000000e+02
-3.227480714709081440e+02,-3.133071032218963410e+02,-1.577193844549788082e+02,-2.959545336810879235e+01,-3.003679115014720082e+02,-6.923851605140953325e+01,-1.470314998956773707e+02,-1.671243897217632366e+02,9.484992027282714844e+00,-3.824593424797058105e-01,7.649187743663787842e-02,2.610000000000000000e+02
-3.285560260718502832e+02,-3.164076274682720396e+02,-1.624564997645579751e+02,-3.052535039294434682e+01,-3.063469385697962935e+02,-7.063767245568396902e+01,-1.548626059349326169e+02,-1.713776884145690929e+02,9.484992027282714844e+00,-3.824593424797058105e-01,7.649187743663787842e-02,2.620000000000000000e+02
-3.347084336171010364e+02,-3.208656507466484982e+02,-1.672937583188004282e+02,-3.061533834387046227e+01,-3.118339261496166728e+02,-7.158254324860354245e+01,-1.613501371903221298e+02,-1.754267174485607939e+02,9.484992027282714844e+00,-3.824593424797058105e-01,7.649187743663787842e-02,2.630000000000000000e+02
-3.412931453904921000e+02,-3.268080744967460305e+02,-1.714344627606465110e+02,-3.088746509131942730e+01,-3.169731337043886015e+02,-7.252936608085019543e+01,-1.648100484590918313e+02,-1.789574980121792578e+02,9.484992027282714844e+00,-3.824593424797058105e-01,7.649187743663787842e-02,2.640000000000000000e+02
-3.480244578422298218e+02,-3.335191981091670641e+02,-1.744935369247814378e+02,-3.207278134036369011e+01,-3.219791462079556368e+02,-7.370254940298491420e+01,-1.652647350728211677e+02,-1.821824987694153606e+02,9.484992027282714844e+00,-3.824593424797058105e-01,7.649187743663787842e-02,2.650000000000000000e+02
-3.542994355212445043e+02,-3.401331199154810747e+02,-1.765640806749102012e+02,-3.403491469035361661e+01,-3.269862333191040307e+02,-7.490814283527470252e+01,-1.642935747682240617e+02,-1.855583309031394492e+02,9.484992027282714844e+00,-3.824593424797058105e-01,7.649187743663787842e-02,2.660000000000000000e+02
-3.595544244857755984e+02,-3.463185736830100723e+02,-1.779589569411218690e+02,-3.602591262080022716e+01,-3.319408456419414506e+02,-7.572983593191111140e+01,-1.639552436008148106e+02,-1.892586519347487410e+02,9.484992027282714844e+00,-3.824593424797058105e-01,7.649187743663787842e-02,2.670000000000000000e+02
-3.636204041329942811e+02,-3.522720229966503211e+02,-1.789779339005590373e+02,-3.746585757533830474e+01,-3.366581720660124120e+02,-7.589518306290210603e+01,-1.656173769305564747e+02,-1.929764176918270095e+02,9.484992027282714844e+00,-3.824593424797058105e-01,7.649187743663787842e-02,2.680000000000000000e+02
-3.668034997144609406e+02,-3.581285150687349415e+02,-1.799141144689492648e+02,-3.845294175990784424e+01,-3.410245524127426506e+02,-7.549806426129634929e+01,-1.694681245700198815e+02,-1.962790539584857470e+02,9.484992027282714844e+00,-3.824593424797058105e-01,7.649187743663787842e-02,2.690000000000000000e+02
-3.696800924290364492e+02,-3.635564969985030075e+02,-1.811667605856973751e+02,-3.954296810030064080e+01,-3.451666003556279065e+02,-7.494598100088478532e+01,-1.748238949418223456e+02,-1.991415231334713098e+02,9.484992027282714844e+00,-3.824593424797058105e-01,7.649187743663787842e-02,2.700000000000000000e+02
-3.728045089501401890e+02,-3.680888406218555247e+02,-1.831692480653273378e+02,-4.110479157411919005e+01,-3.494010369943785008e+02,-7.471569039149835589e+01,-1.807262555642973894e+02,-2.020664807887815186e+02,9.484992027282714844e+00,-3.824593424797058105e-01,7.649187743663787842e-02,2.710000000000000000e+02
-3.765147943558208681e+02,-3.718694385445801345e+02,-1.860999006108499998e+02,-4.295589329994618311e+01,-3.539809198550569818e+02,-7.511413486258152261e+01,-1.863028733195533277e+02,-2.056163958351562542e+02,9.484992027282714844e+00,-3.824593424797058105e-01,7.649187743663787842e-02,2.720000000000000000e+02
-3.808733955688817332e+02,-3.759249983151294146e+02,-1.896710660771227595e+02,-4.462268768580815959e+01,-3.588670523970704380e+02,-7.615435434196569986e+01,-1.908150610416787458e+02,-2.098100373127663261e+02,9.484992027282714844e+00,-3.824593424797058105e-01,7.649187743663787842e-02,2.730000000000000000e+02
-3.856998651120202339e+02,-3.814854672618171207e+02,-1.932872045696126406e+02,-4.589723521892665303e+01,-3.637627856127678569e+02,-7.754771639929822413e+01,-1.937158490054439426e+02,-2.140371301900213439e+02,9.484992027282714844e+00,-3.824593424797058105e-01,7.649187743663787842e-02,2.740000000000000000e+02
-3.906679268545658488e+02,-3.888714456808543218e+02,-1.964973962788126300e+02,-4.708012293541742110e+01,-3.684157073207898065e+02,-7.882379127968670218e+01,-1.949388490922592609e+02,-2.176376452660224459e+02,9.484992027282714844e+00,-3.824593424797058105e-01,7.649187743663787842e-02,2.750000000000000000e+02
-3.954363747998468170e+02,-3.970066586502334758e+02,-1.993039011510791170e+02,-4.864515154329455981e+01,-3.729105883087236180e+02,-7.957499737057150924e+01,-1.951812489072331118e+02,-2.205782314556522579e+02,9.484992027282714844e+00,-3.824593424797058105e-01,7.649187743663787842e-02,2.760000000000000000e+02
-3.997715425488740948e+02,-4.041164515230111647e+02,-2.020130036817686232e+02,-5.068676567686361523e+01,-3.776356458963173282e+02,-7.973263405349007371e+01,-1.957443145577103678e+02,-2.235178127240660615e+02,9.484992027282714844e+00,-3.824593424797058105e-01,7.649187743663787842e-02,2.770000000000000000e+02
-4.036188210945588253e+02,-4.090760731248196862e+02,-2.047881909344855558e+02,-5.271054551575525693e+01,-3.828849600213416124e+02,-7.966628730601587449e+01,-1.978059846615005881e+02,-2.271378264243658123e+02,9.484992027282714844e+00,-3.824593424797058105e-01,7.649187743663787842e-02,2.780000000000000000e+02
-4.071116583367352177e+02,-4.122505937427690696e+02,-2.073817950421966998e+02,-5.397345290146859043e+01,-3.884266660872917782e+02,-7.994635615971037623e+01,-2.015843946085401512e+02,-2.313662008123592386e+02,9.484992027282714844e+00,-3.824593424797058105e-01,7.649187743663787842e-02,2.790000000000000000e+02
-4.105239220599905821e+02,-4.151129785794914824e+02,-2.093247703693878066e+02,-5.405664436145889340e+01,-3.934736842768452334e+02,-8.091331370087755204e+01,-2.060715579816478566e+02,-2.352690936017556851e+02,9.484992027282714844e+00,-3.824593424797058105e-01,7.649187743663787842e-02,2.800000000000000000e+02
-4.141778665322012785e+02,-4.189980000216974076e+02,-2.103684378475045378e+02,-5.317103219306136452e+01,-3.971790480127910996e+02,-8.243060192879966053e+01,-2.096105264153188728e+02,-2.377515947181364027e+02,9.523238182067871094e+00,-4.589512646198272705e-01,3.824593871831893921e-02,2.810000000000000000e+02
-4.183141067354881670e+02,-4.240656005343416837e+02,-2.107306647245104614e+02,-5.198313598515096601e+01,-3.992818822432086563e+02,-8.405668437638632895e+01,-2.109228811863622468e+02,-2.384533542467856932e+02,9.523238182067871094e+00,-4.589512646198272705e-01,3.824593871831893921e-02,2.820000000000000000e+02
-4.229561979883328604e+02,-4.292799413848647418e+02,-2.109396354735354180e+02,-5.116420835289818569e+01,-4.003524046483012171e+02,-8.545944422791490069e+01,-2.098770313652094046e+02,-2.380639338522705657e+02,9.523238182067871094e+00,-4.589512646198272705e-01,3.824593871831893921e-02,2.830000000000000000e+02
-4.278521837011330717e+02,-4.332900912772001902e+02,-2.114914358075643577e+02,-5.103074031463211213e+01,-4.014083374020819974e+02,-8.663352336835760070e+01,-2.075453338747615817e+02,-2.378531209992843287e+02,9.523238182067871094e+00,-4.589512646198272705e-01,3.824593871831893921e-02,2.840000000000000000e+02
-4.325765057259000059e+02,-4.354117411404836275e+02,-2.126632636117387847e+02,-5.148057941981960539e+01,-4.032243267303083485e+02,-8.772468591384040337e+01,-2.056193749575131733e+02,-2.388875056243318795e+02,9.523238182067871094e+00,-4.589512646198272705e-01,3.824593871831893921e-02,2.850000000000000000e+02
-4.367665307655506695e+02,-4.359941731579037878e+02,-2.145585549499051012e+02,-5.217039911866186230e+01,-4.059150558044952959e+02,-8.873808221114268235e+01,-2.055849101277772206e+02,-2.415445238049201180e+02,9.523238182067871094e+00,-4.589512646198272705e-01,3.824593871831893921e-02,2.860000000000000000e+02
-4.403236336287759514e+02,-4.360915781621401948e+02,-2.171661347971885334e+02,-5.276572602184114658e+01,-4.090694328897561718e+02,-8.953040775600948109e+01,-2.080406829550770453e+02,-2.455210469200574153e+02,9.523238182067871094e+00,-4.589512646198272705e-01,3.824593871831893921e-02,2.870000000000000000e+02
-4.434014635690950854e+02,-4.368618360242676317e+02,-2.202710992294946664e+02,-5.311803038131210997e+01,-4.122052306603513898e+02,-9.010691518725798232e+01,-2.124024405311542978e+02,-2.500976797186390286e+02,9.523238182067871094e+00,-4.589512646198272705e-01,3.824593871831893921e-02,2.880000000000000000e+02
-4.461794897700027036e+02,-4.391095512963894407e+02,-2.233592852029163396e+02,-5.330323260560294329e+01,-4.150941192583858310e+02,-9.080273529750547823e+01,-2.171173568283575150e+02,-2.543872747118159623e+02,9.523238182067871094e+00,-4.589512646198272705e-01,3.824593871831893921e-02,2.890000000000000000e+02
-4.486373934561314627e+02,-4.430763529399069967e+02,-2.257842475359157106e+02,-5.352292508245955105e+01,-4.177535009174314382e+02,-9.201616852182701223e+01,-2.203816824140624249e+02,-2.575597317079026425e+02,9.523238182067871094e+00,-4.589512646198272705e-01,3.824593871831893921e-02,2.900000000000000000e+02
-4.505720169350802280e+02,-4.483939153283208157e+02,-2.272069916218205208e+02,-5.392241723579581958e+01,-4.202741287411458870e+02,-9.372516519667692592e+01,-2.210873959803886919e+02,-2.591653164620719281e+02,9.523238182067871094e+00,-4.589512646198272705e-01,3.824593871831893921e-02,2.910000000000000000e+02
-4.518795705386054919e+02,-4.541959006200687554e+02,-2.279535476123390936e+02,-5.444063074203222641e+01,-4.227391294544860330e+02,-9.535307711505311090e+01,-2.194720329181077432e+02,-2.594679435925563666e+02,9.523238182067871094e+00,-4.589512646198272705e-01,3.824593871831893921e-02,2.920000000000000000e+02
-4.528479450009928655e+02,-4.594799883930375586e+02,-2.288828051707002942e+02,-5.483093698471157040e+01,-4.252549577647649812e+02,-9.622838605560605174e+01,-2.169942491196262608e+02,-2.594396389228933231e+02,9.523238182067871094e+00,-4.589512646198272705e-01,3.824593871831893921e-02,2.930000000000000000e+02
-4.541420023361034737e+02,-4.636388689024762471e+02,-2.307666746207743245e+02,-5.486405375936465134e+01,-4.279060230292868710e+02,-9.620269159210215548e+01,-2.154303012082810937e+02,-2.601835721275156175e+02,9.523238182067871094e+00,-4.589512646198272705e-01,3.824593871831893921e-02,2.940000000000000000e+02
-4.564125340803988138e+02,-4.667981308648159029e+02,-2.336840734006773346e+02,-5.455746466501227587e+01,-4.305842421657151817e+02,-9.577866002946780100e+01,-2.157965552680670953e+02,-2.621003286908140808e+02,9.523238182067871094e+00,-4.589512646198272705e-01,3.824593871831893921e-02,2.950000000000000000e+02
-4.597985433304868366e+02,-4.696302697008268296e+02,-2.369711499490409778e+02,-5.422104222986558852e+01,-4.329103383315173232e+02,-9.562449394071677489e+01,-2.178728831568835176e+02,-2.645069254523349400e+02,9.523238182067871094e+00,-4.589512646198272705e-01,3.824593871831893921e-02,2.960000000000000000e+02
-4.637399924623834977e+02,-4.727476169475876304e+02,-2.397900894151380271e+02,-5.424839544156930060e+01,-4.344623262954722804e+02,-9.601574343508264064e+01,-2.206264064445194890e+02,-2.661602602559047455e+02,9.523238182067871094e+00,-4.589512646198272705e-01,3.824593871831893921e-02,2.970000000000000000e+02
-4.672861664785720563e+02,-4.761998257100578940e+02,-2.418061632661368776e+02,-5.483446619209985329e+01,-4.351846665583508411e+02,-9.679949732459090228e+01,-2.231003162655135839e+02,-2.663396271996980431e+02,9.523238182067871094e+00,-4.589512646198272705e-01,3.824593871831893921e-02,2.980000000000000000e+02
-4.696803288905142040e+02,-4.795477596775367601e+02,-2.433561499221289068e+02,-5.588658927290339307e+01,-4.355482152368367679e+02,-9.783777395278525546e+01,-2.249981636870611510e+02,-2.655449960228881991e+02,9.523238182067871094e+00,-4.589512646198272705e-01,3.824593871831893921e-02,2.990000000000000000e+02
-4.707916187489108211e+02,-4.824295680587969173e+02,-2.449736195818122724e+02,-5.721137695516131316e+01,-4.362042563186732309e+02,-9.932725126654577252e+01,-2.265518284039335413e+02,-2.651083521481129992e+02,9.523238182067871094e+00,-4.589512646198272705e-01,3.824593871831893921e-02,3.000000000000000000e+02
-4.711018385975439173e+02,-4.850367894114465344e+02,-2.467534561897732601e+02,-5.877188440227882893e+01,-4.373961109134726257e+02,-1.015357156419370313e+02,-2.279553900280603784e+02,-2.659791735694698218e+02,9.523238182067871094e+00,-4.589512646198272705e-01,3.824593871831893921e-02,3.010000000000000000e+02
-4.713322780495556685e+02,-4.880002729165884148e+02,-2.481986419746128831e+02,-6.071337777805001679e+01,-4.386956847632114318e+02,-1.042036583933606835e+02,-2.290109620599569098e+02,-2.677623240291437696e+02,9.523238182067871094e+00,-4.589512646198272705e-01,3.824593871831893921e-02,3.020000000000000000e+02
-4.720537063384895760e+02,-4.917690184707500975e+02,-2.487189031533536081e+02,-6.307886993620400062e+01,-4.393682093056023632e+02,-1.063281902489177355e+02,-2.293250149883476752e+02,-2.689248883413403064e+02,9.523238182067871094e+00,-4.589512646198272705e-01,3.824593871831893921e-02,3.030000000000000000e+02
-4.735412465138315952e+02,-4.960782937339644150e+02,-2.483170486068964919e+02,-6.549385287593258909e+01,-4.390591822660492198e+02,-1.067173396067619251e+02,-2.288152409706910930e+02,-2.680595844564547861e+02,9.523238182067871094e+00,-4.589512646198272705e-01,3.824593871831893921e-02,3.040000000000000000e+02
-4.758198219225611751e+02,-5.000095014912299121e+02,-2.477776784262371166e+02,-6.720215712313301992e+01,-4.381778923737977038e+02,-1.049339939081619377e+02,-2.279772385504563772e+02,-2.651263841625993223e+02,9.523238182067871094e+00,-4.589512646198272705e-01,3.824593871831893921e-02,3.050000000000000000e+02
-4.786693156870068719e+02,-5.025794992803051287e+02,-2.481162633708089515e+02,-6.752839300546406776e+01,-4.376484826235749779e+02,-1.018323916358078804e+02,-2.275969575548612056e+02,-2.616053631949986311e+02,9.523238182067871094e+00,-4.589512646198272705e-01,3.824593871831893921e-02,3.060000000000000000e+02
-4.815219219444192618e+02,-5.033679270480175205e+02,-2.497429252335261936e+02,-6.641236925598332164e+01,-4.382635374744946262e+02,-9.919972654512480403e+01,-2.281340320429777648e+02,-2.594565221937222077e+02,9.523238182067871094e+00,-4.589512646198272705e-01,3.824593871831893921e-02,3.070000000000000000e+02
-4.834844535564072885e+02,-5.027423436256845548e+02,-2.520761561062140572e+02,-6.453459455004258416e+01,-4.401806936315263101e+02,-9.874182341335699675e+01,-2.293085809788947245e+02,-2.597708647011393737e+02,9.523238182067871094e+00,-4.589512646198272705e-01,3.824593871831893921e-02,3.080000000000000000e+02
-4.837302667590981855e+02,-5.016154164857327942e+02,-2.539636924484130986e+02,-6.287851387079217602e+01,-4.428973863394743375e+02,-1.011139065947656945e+02,-2.302533878293130556e+02,-2.621713978781050400e+02,9.523238182067871094e+00,-4.589512646198272705e-01,3.824593871831893921e-02,3.090000000000000000e+02
-4.821461333644928118e+02,-5.009646341532515521e+02,-2.545526947249497880e+02,-6.206769893000955562e+01,-4.456071846008928219e+02,-1.055883505930958108e+02,-2.301286774086989908e+02,-2.652763738783452254e+02,9.523238182067871094e+00,-4.589512646198272705e-01,3.824593871831893921e-02,3.100000000000000000e+02
-4.796959023873814658e+02,-5.013876433186684949e+02,-2.538826044335345387e+02,-6.201217265711852633e+01,-4.476127038304548478e+02,-1.104958422539057210e+02,-2.287373167454759368e+02,-2.676715030721746871e+02,9.523238182067871094e+00,-4.589512646198272705e-01,3.824593871831893921e-02,3.110000000000000000e+02
-4.780179272103073345e+02,-5.028661540138190276e+02,-2.527618707519195596e+02,-6.211119954407877231e+01,-4.485611370033350909e+02,-1.141140640728399376e+02,-2.266953475801593640e+02,-2.686100984674209826e+02,9.484992027282714844e+00,-4.207052886486053467e-01,3.824593871831893921e-02,3.120000000000000000e+02
-4.783706771590036055e+02,-5.048215654610503407e+02,-2.521046299987253860e+02,-6.179416523529232563e+01,-4.484835170022133752e+02,-1.155078979355309912e+02,-2.250412904167980628e+02,-2.681052986523938557e+02,9.484992027282714844e+00,-4.207052886486053467e-01,3.824593871831893921e-02,3.130000000000000000e+02
-4.806969990203119210e+02,-5.064693098091889851e+02,-2.522994755217296188e+02,-6.094967646160478125e+01,-4.477086548805571056e+02,-1.149007760548447550e+02,-2.245499355026596504e+02,-2.666444379555929345e+02,9.484992027282714844e+00,-4.207052886486053467e-01,3.824593871831893921e-02,3.140000000000000000e+02
-4.836133068554345869e+02,-5.073082994470616427e+02,-2.530498567854593830e+02,-5.996107642401204885e+01,-4.467105498028085435e+02,-1.134068545426871424e+02,-2.252288722714134792e+02,-2.648844901026127445e+02,9.484992027282714844e+00,-4.207052886486053467e-01,3.824593871831893921e-02,3.150000000000000000e+02
-4.853960212460036701e+02,-5.074174566641349884e+02,-2.536809035576437736e+02,-5.940368510697601323e+01,-4.459199360559472325e+02,-1.122907875130956654e+02,-2.263702608057703287e+02,-2.634554252918715065e+02,9.484992027282714844e+00,-4.207052886486053467e-01,3.824593871831893921e-02,3.160000000000000000e+02
-4.851809939808094896e+02,-5.073108468043730568e+02,-2.536154576894882666e+02,-5.967089454924166603e+01,-4.455771356856228067e+02,-1.121913238709726102e+02,-2.271573291776833230e+02,-2.628085618285891769e+02,9.484992027282714844e+00,-4.207052886486053467e-01,3.824593871831893921e-02,3.170000000000000000e+02
-4.834227961650684620e+02,-5.074621710615388110e+02,-2.527320200471257863e+02,-6.076724425786437678e+01,-4.457150253748357613e+02,-1.128091064104348789e+02,-2.273866971401159844e+02,-2.630920692284963707e+02,9.484992027282714844e+00,-4.207052886486053467e-01,3.824593871831893921e-02,3.180000000000000000e+02
-4.813314340736106374e+02,-5.079363637487080609e+02,-2.514556409491068507e+02,-6.234827465035732530e+01,-4.462574788067680629e+02,-1.132598785006891831e+02,-2.276977381772630906e+02,-2.641510870533872435e+02,9.484992027282714844e+00,-4.207052886486053467e-01,3.824593871831893921e-02,3.190000000000000000e+02
-4.798783162180760655e+02,-5.084714917891041068e+02,-2.505513845015451579e+02,-6.396032316616970093e+01,-4.471264105923918919e+02,-1.128295890562310433e+02,-2.290381277591636149e+02,-2.656919888163477026e+02,9.484992027282714844e+00,-4.207052886486053467e-01,3.824593871831893921e-02,3.200000000000000000e+02
-4.792481892286008929e+02,-5.088806182743522868e+02,-2.506815864957065401e+02,-6.534597347537749101e+01,-4.482529874656223114e+02,-1.115621667071677621e+02,-2.317408398247563355e+02,-2.674496803129300702e+02,9.484992027282714844e+00,-4.207052886486053467e-01,3.824593871831893921e-02,3.210000000000000000e+02
-4.790881902263038228e+02,-5.093080709412269584e+02,-2.519362183947001768e+02,-6.660140827845157219e+01,-4.494821838996732026e+02,-1.102146639444094944e+02,-2.350085159284117253e+02,-2.691599262418776561e+02,9.484992027282714844e+00,-4.207052886486053467e-01,3.824593871831893921e-02,3.220000000000000000e+02
-4.791240827016966364e+02,-5.100382271571679098e+02,-2.536830738310309812e+02,-6.803041661323504741e+01,-4.505043385888318426e+02,-1.096193881198162217e+02,-2.373583103648001043e+02,-2.703928460077639215e+02,9.484992027282714844e+00,-4.207052886486053467e-01,3.824593871831893921e-02,3.230000000000000000e+02
-4.794519279529897062e+02,-5.110636503507945463e+02,-2.549593032758089066e+02,-6.975625203957463327e+01,-4.509488269259014146e+02,-1.099928914574102237e+02,-2.377645199005004315e+02,-2.705585856316013178e+02,9.484992027282714844e+00,-4.207052886486053467e-01,3.824593871831893921e-02,3.240000000000000000e+02
-4.802567284429943015e+02,-5.118949341259711900e+02,-2.551856626408855391e+02,-7.141126724687774185e+01,-4.506174451613788392e+02,-1.107975710005709971e+02,-2.365216203340788752e+02,-2.692688532595406059e+02,9.484992027282714844e+00,-4.207052886486053467e-01,3.824593871831893921e-02,3.250000000000000000e+02
-4.813446757198224759e+02,-5.118427674341768352e+02,-2.546173606303698875e+02,-7.224768914449862223e+01,-4.496771309439488391e+02,-1.112749023684457370e+02,-2.349913758121289220e+02,-2.668277652968408802e+02,9.484992027282714844e+00,-4.207052886486053467e-01,3.824593871831893921e-02,3.260000000000000000e+02
-4.820498365753338703e+02,-5.105192770834571547e+02,-2.541048476515319976e+02,-7.169393226649663120e+01,-4.486349304138676075e+02,-1.111445804779725677e+02,-2.344221653035272084e+02,-2.643677055202496717e+02,9.484992027282714844e+00,-4.207052886486053467e-01,3.824593871831893921e-02,3.270000000000000000e+02
-4.816688611988645334e+02,-5.080933282464231979e+02,-2.543265339740460718e+02,-6.994258902490116725e+01,-4.480695935180345373e+02,-1.107867561728332930e+02,-2.349073299763738873e+02,-2.633305304120364667e+02,9.484992027282714844e+00,-4.207052886486053467e-01,3.824593871831893921e-02,3.280000000000000000e+02
-4.800450873207745985e+02,-5.051018975088019829e+02,-2.551894233468432844e+02,-6.801615997967132898e+01,-4.482931246330460340e+02,-1.107234839862690023e+02,-2.354370261429208995e+02,-2.645570632237006521e+02,9.484992027282714844e+00,-4.207052886486053467e-01,3.824593871831893921e-02,3.290000000000000000e+02
-4.777714573198376229e+02,-5.020539791799101295e+02,-2.559694063679127112e+02,-6.713896141657369299e+01,-4.491765184363949857e+02,-1.109350905165179029e+02,-2.349656115013290218e+02,-2.676380546552119881e+02,9.484992027282714844e+00,-4.207052886486053467e-01,3.824593871831893921e-02,3.300000000000000000e+02
-4.758189754718408722e+02,-4.992171642245218663e+02,-2.560357820117842493e+02,-6.786584710125555375e+01,-4.502435291602330381e+02,-1.107600803463551529e+02,-2.334358115638871709e+02,-2.710374104637896835e+02,9.484992027282714844e+00,-4.207052886486053467e-01,3.824593871831893921e-02,3.310000000000000000e+02
-4.748846776265892800e+02,-4.966913527963190518e+02,-2.554345103189626798e+02,-6.968098689439682403e+01,-4.509327935807240806e+02,-1.095380150533039796e+02,-2.317774319797856037e+02,-2.729488704795393801e+02,9.484992027282714844e+00,-4.207052886486053467e-01,3.824593871831893921e-02,3.320000000000000000e+02
-4.749593304004118863e+02,-4.945584685453632119e+02,-2.547546626777912593e+02,-7.140895100485590774e+01,-4.508347299810507707e+02,-1.073554679089031652e+02,-2.309553479642969478e+02,-2.723190995309966524e+02,9.523238182067871094e+00,-3.824593424797058105e-01,3.824593871831893921e-02,3.330000000000000000e+02
-4.754089970402401946e+02,-4.929065469900116909e+02,-2.544561655851123305e+02,-7.209681533421394306e+01,-4.497807563373569337e+02,-1.050723172898133271e+02,-2.310668865386681432e+02,-2.693641484114303353e+02,9.523238182067871094e+00,-3.824593424797058105e-01,3.824593871831893921e-02,3.340000000000000000e+02
-4.754686366659213377e+02,-4.917393505227744299e+02,-2.543823757499957310e+02,-7.164826527258912847e+01,-4.478115697455438067e+02,-1.035145468163937039e+02,-2.313569493664613219e+02,-2.652822338509584483e+02,9.523238182067871094e+00,-3.824593424797058105e-01,3.824593871831893921e-02,3.350000000000000000e+02
-4.747579573814832088e+02,-4.909340181941950050e+02,-2.539572020737381877e+02,-7.074031735990138259e+01,-4.451314290473117126e+02,-1.026183975675751299e+02,-2.310341640664372562e+02,-2.614213145433134855e+02,9.523238182067871094e+00,-3.824593424797058105e-01,3.824593871831893921e-02,3.360000000000000000e+02
-4.734538234520849755e+02,-4.903055657915372194e+02,-2.528272585008924125e+02,-7.017575717498982613e+01,-4.420848902046138846e+02,-1.014339545983259541e+02,-2.299847086577874506e+02,-2.585219506840304575e+02,9.523238182067871094e+00,-3.824593424797058105e-01,3.824593871831893921e-02,3.370000000000000000e+02
-4.720225566307565259e+02,-4.896530913750327159e+02,-2.512559953684871061e+02,-7.026559757002701190e+01,-4.391108138813667665e+02,-9.908215456729953985e+01,-2.287105774109061258e+02,-2.565688733267198813e+02,9.523238182067871094e+00,-3.824593424797058105e-01,3.824593871831893921e-02,3.380000000000000000e+02
-4.707516777608275333e+02,-4.886864885165445003e+02,-2.498647082272041189e+02,-7.072948742402138578e+01,-4.366346873594002318e+02,-9.576615990454206440e+01,-2.277118183097052793e+02,-2.552839483971866912e+02,9.523238182067871094e+00,-3.824593424797058105e-01,3.824593871831893921e-02,3.390000000000000000e+02
-4.694784513081133355e+02,-4.869583603111165075e+02,-2.490198498496839647e+02,-7.110734765853817407e+01,-4.349396206845354982e+02,-9.283666346795359914e+01,-2.270822825058869512e+02,-2.547386855409479836e+02,9.523238182067871094e+00,-3.824593424797058105e-01,3.824593871831893921e-02,3.400000000000000000e+02
-4.677568723091908396e+02,-4.840377518395860079e+02,-2.485213717738818104e+02,-7.125273889431855423e+01,-4.340894387762801898e+02,-9.179962805521563496e+01,-2.267076167425136646e+02,-2.554260652344356117e+02,9.523238182067871094e+00,-3.824593424797058105e-01,3.824593871831893921e-02,3.410000000000000000e+02
-4.653476384189154942e+02,-4.799314975995165469e+02,-2.478869902634456821e+02,-7.145069519373953426e+01,-4.339114446467167454e+02,-9.312815843526277604e+01,-2.266686574002461612e+02,-2.576227608261476689e+02,9.523238182067871094e+00,-3.824593424797058105e-01,3.824593871831893921e-02,3.420000000000000000e+02
-4.626125340228943514e+02,-4.753826132306503496e+02,-2.468791746791353034e+02,-7.207752776893130431e+01,-4.340031812454298006e+02,-9.590137563931921250e+01,-2.272247414236089753e+02,-2.606330657178893944e+02,9.523238182067871094e+00,-3.824593424797058105e-01,3.824593871831893921e-02,3.430000000000000000e+02
-4.603979499587383089e+02,-4.716239858595353098e+02,-2.457048676072088256e+02,-7.315961823236887085e+01,-4.337803801236891559e+02,-9.852238073548187458e+01,-2.283310875319078832e+02,-2.627952727801882702e+02,9.523238182067871094e+00,-3.824593424797058105e-01,3.824593871831893921e-02,3.440000000000000000e+02
-4.593915511109182717e+02,-4.695972018506599852e+02,-2.447164446180477171e+02,-7.428983442896719680e+01,-4.326746827845113330e+02,-9.985805140470051811e+01,-2.293240987350117166e+02,-2.625410696131502846e+02,9.523238182067871094e+00,-3.824593424797058105e-01,3.824593871831893921e-02,3.450000000000000000e+02
-4.594383749557345027e+02,-4.692012076856786962e+02,-2.439960335360118506e+02,-7.500141885783318685e+01,-4.304944520664012089e+02,-9.989633440761554084e+01,-2.293076360061461401e+02,-2.597595034676469368e+02,9.523238182067871094e+00,-3.824593424797058105e-01,3.824593871831893921e-02,3.460000000000000000e+02
-4.594431597360651267e+02,-4.692535518828364047e+02,-2.433003613032255998e+02,-7.524937804861872337e+01,-4.277072986170833246e+02,-9.952700609611542859e+01,-2.279866329248118291e+02,-2.562238355463198332e+02,9.523238182067871094e+00,-3.824593424797058105e-01,3.824593871831893921e-02,3.470000000000000000e+02
-4.580632454914637037e+02,-4.683049372018357417e+02,-2.423903226499619450e+02,-7.550673408765283057e+01,-4.253006415048114377e+02,-9.977548816424268807e+01,-2.260862409142193883e+02,-2.544763625377331664e+02,9.523238182067871094e+00,-3.824593424797058105e-01,3.824593871831893921e-02,3.480000000000000000e+02
-4.547300856280305652e+02,-4.656840687900731837e+02,-2.413296583748094690e+02,-7.630741984529447564e+01,-4.241397550347365950e+02,-1.011115038304759537e+02,-2.248120589745108191e+02,-2.559044637546824106e+02,9.523238182067871094e+00,-3.824593424797058105e-01,3.824593871831893921e-02,3.490000000000000000e+02
-4.501861190749496018e+02,-4.619115655223337171e+02,-2.403988425309714785e+02,-7.761264850058057618e+01,-4.242677486977149783e+02,-1.032630989714850784e+02,-2.247831847712034232e+02,-2.595643765343627365e+02,9.523238182067871094e+00,-3.824593424797058105e-01,3.824593871831893921e-02,3.500000000000000000e+02
-4.460524976109556974e+02,-4.581517007796103371e+02,-2.397320538657407951e+02,-7.862360192380128865e+01,-4.247973103080994406e+02,-1.055260079932850203e+02,-2.254668871077062704e+02,-2.627902341594741529e+02,9.523238182067871094e+00,-3.824593424797058105e-01,3.824593871831893921e-02,3.510000000000000000e+02
-4.437287171992794583e+02,-4.552156580362077420e+02,-2.391268764847077364e+02,-7.830577490598489021e+01,-4.245919647760086946e+02,-1.072254771128768880e+02,-2.256848667853214465e+02,-2.631520851248096733e+02,9.523238182067871094e+00,-3.824593424797058105e-01,3.824593871831893921e-02,3.520000000000000000e+02
-4.434662297164801430e+02,-4.529842829200931646e+02,-2.382728321985348430e+02,-7.623438782507207634e+01,-4.231860924199523879e+02,-1.079731627048784048e+02,-2.247020089047034617e+02,-2.601904772224831959e+02,9.523238182067871094e+00,-3.824593424797058105e-01,3.824593871831893921e-02,3.530000000000000000e+02
-4.442992304467489930e+02,-4.506751734044868272e+02,-2.371405048288174839e+02,-7.302164362434859868e+01,-4.210919538654554799e+02,-1.076150547787510732e+02,-2.228331352798943499e+02,-2.555643145146962070e+02,9.523238182067871094e+00,-3.824593424797058105e-01,3.824593871831893921e-02,3.540000000000000000e+02
-4.448012528603314877e+02,-4.475843966562827063e+02,-2.360527895008324322e+02,-6.992020472727881497e+01,-4.191850429838088985e+02,-1.060854557519326136e+02,-2.210075332717310630e+02,-2.515981839748604898e+02,9.523238182067871094e+00,-3.824593424797058105e-01,3.824593871831893921e-02,3.550000000000000000e+02
-4.439951181412858432e+02,-4.435928408790638287e+02,-2.352986000013495413e+02,-6.792586328021207009e+01,-4.177676355008320570e+02,-1.034614771551832746e+02,-2.197814515842904939e+02,-2.495118489542269344e+02,9.523238182067871094e+00,-3.824593424797058105e-01,3.824593871831893921e-02,3.560000000000000000e+02
-4.417328669221867585e+02,-4.390976324074852073e+02,-2.346840103317317698e+02,-6.715488815062485628e+01,-4.162359283674404651e+02,-1.002189739115037810e+02,-2.188099443672002735e+02,-2.487641350326532574e+02,9.523238182067871094e+00,-3.824593424797058105e-01,3.824593871831893921e-02,3.570000000000000000e+02
-4.384369600933084712e+02,-4.346330157652266735e+02,-2.335521786017357044e+02,-6.701821257126448472e+01,-4.136889102146587902e+02,-9.736417677506938162e+01,-2.172851746329484968e+02,-2.478932119983201119e+02,9.523238182067871094e+00,-3.824593424797058105e-01,7.649187743663787842e-02,3.580000000000000000e+02
-4.346381886954186484e+02,-4.306415433038177980e+02,-2.313319185770993727e+02,-6.696167483979934332e+01,-4.098697415529513819e+02,-9.606753362939844010e+01,-2.148514406100308634e+02,-2.459554143692057551e+02,9.523238182067871094e+00,-3.824593424797058105e-01,7.649187743663787842e-02,3.590000000000000000e+02
-4.307680857170971649e+02,-4.274957952103816297e+02,-2.281108966180872812e+02,-6.702892028276994552e+01,-4.055067404764965886e+02,-9.687178300158961974e+01,-2.120527339775942437e+02,-2.432811353662760894e+02,9.523238182067871094e+00,-3.824593424797058105e-01,7.649187743663787842e-02,3.600000000000000000e+02
-4.272430574259724381e+02,-4.254722893855649772e+02,-2.246865727237982355e+02,-6.770993232638397785e+01,-4.017332057047449325e+02,-9.911222695802575799e+01,-2.098871725797332601e+02,-2.409987924705822024e+02,9.523238182067871094e+00,-3.824593424797058105e-01,7.649187743663787842e-02,3.610000000000000000e+02
-4.245134596981158666e+02,-4.244742035826711799e+02,-2.220457685111045976e+02,-6.925646816171729370e+01,-3.991615200874398397e+02,-1.011917004857157281e+02,-2.089401827324907117e+02,-2.398961844469395146e+02,9.523238182067871094e+00,-3.824593424797058105e-01,7.649187743663787842e-02,3.620000000000000000e+02
-4.228390804358887181e+02,-4.237708217032128459e+02,-2.207504648223866752e+02,-7.120245151494282254e+01,-3.974924289777588911e+02,-1.016828188077695359e+02,-2.089443762237449391e+02,-2.397148720963775759e+02,9.523238182067871094e+00,-3.824593424797058105e-01,7.649187743663787842e-02,3.630000000000000000e+02
-4.219541457069173020e+02,-4.222285831097958635e+02,-2.207188224290669041e+02,-7.263952355016317597e+01,-3.959825689322674407e+02,-1.004344326524196731e+02,-2.091271921424173570e+02,-2.394974729754891314e+02,9.523238182067871094e+00,-3.824593424797058105e-01,7.649187743663787842e-02,3.640000000000000000e+02
-4.210227517872358476e+02,-4.191011435390227007e+02,-2.214448322201378687e+02,-7.305643536796969784e+01,-3.942656643909422201e+02,-9.874054673142427418e+01,-2.089178949315867158e+02,-2.386081250009619907e+02,9.523238182067871094e+00,-3.824593424797058105e-01,7.649187743663787842e-02,3.650000000000000000e+02
-4.190633806428540993e+02,-4.147789043755642524e+02,-2.223336629380673912e+02,-7.294770123317243815e+01,-3.927229727709197959e+02,-9.837722084746110340e+01,-2.083143078397421277e+02,-2.374456180757157426e+02,9.523238182067871094e+00,-3.824593424797058105e-01,7.649187743663787842e-02,3.660000000000000000e+02
-4.155828340011663613e+02,-4.107239040318756906e+02,-2.228905812109862836e+02,-7.352020592218082129e+01,-3.920811411713461894e+02,-1.002634826175074068e+02,-2.076678026778079129e+02,-2.371721192365660045e+02,9.523238182067871094e+00,-3.824593424797058105e-01,7.649187743663787842e-02,3.670000000000000000e+02
-4.109400804108279317e+02,-4.084613264771385275e+02,-2.227895548590762473e+02,-7.563076298596683955e+01,-3.926345924773734168e+02,-1.038108036220787653e+02,-2.072513332322683937e+02,-2.386713156876469384e+02,9.523238182067871094e+00,-3.824593424797058105e-01,7.649187743663787842e-02,3.680000000000000000e+02
-4.061656661432348301e+02,-4.084000953220238443e+02,-2.219678514124059348e+02,-7.883692843307176190e+01,-3.938014475537274848e+02,-1.074243973912664387e+02,-2.071045538506277808e+02,-2.416354015522608734e+02,9.523238182067871094e+00,-3.824593424797058105e-01,7.649187743663787842e-02,3.690000000000000000e+02
-4.024000303916013763e+02,-4.094858537567176882e+02,-2.207201698837861841e+02,-8.143798912812349045e+01,-3.944152480265227041e+02,-1.096740317515989318e+02,-2.072160544525402202e+02,-2.445571663318344235e+02,9.523238182067871094e+00,-3.824593424797058105e-01,7.649187743663787842e-02,3.700000000000000000e+02
-4.003532284682901263e+02,-4.099924532038362486e+02,-2.195964342278371078e+02,-8.156952930581087458e+01,-3.935214292383006978e+02,-1.101926318147811799e+02,-2.076837658659413819e+02,-2.456423641568726453e+02,9.523238182067871094e+00,-3.824593424797058105e-01,7.649187743663787842e-02,3.710000000000000000e+02
-4.000612658122356606e+02,-4.087809772643170163e+02,-2.190621202045197151e+02,-7.851085161271771540e+01,-3.910392722319945733e+02,-1.096645832071835684e+02,-2.085831391321232786e+02,-2.439265635099025076e+02,9.523238182067871094e+00,-3.824593424797058105e-01,7.649187743663787842e-02,3.720000000000000000e+02
-4.009474052408922944e+02,-4.059899180331485695e+02,-2.191668273466342498e+02,-7.318351188455108058e+01,-3.877681859588719817e+02,-1.090296963075759322e+02,-2.096977850607654545e+02,-2.397660671489095421e+02,9.523238182067871094e+00,-3.824593424797058105e-01,7.649187743663787842e-02,3.730000000000000000e+02
-4.020517373575553393e+02,-4.026849597815325978e+02,-2.195151158666508309e+02,-6.750366828116057150e+01,-3.847292265544290331e+02,-1.086035211875532696e+02,-2.104946851750523820e+02,-2.344341381075807931e+02,9.523238182067871094e+00,-3.824593424797058105e-01,7.649187743663787842e-02,3.740000000000000000e+02
-4.023479076654050459e+02,-3.999161431089694361e+02,-2.195454179156786267e+02,-6.319254077701293681e+01,-3.823544272516237470e+02,-1.078147936474135804e+02,-2.104620216496714420e+02,-2.292650237161974474e+02,9.523238182067871094e+00,-3.824593424797058105e-01,7.649187743663787842e-02,3.750000000000000000e+02
-4.011046662216904224e+02,-3.980372600405673893e+02,-2.188333499567374929e+02,-6.102150819548887739e+01,-3.801823241088209215e+02,-1.057616999406834566e+02,-2.095117579473603655e+02,-2.250735813094861442e+02,9.523238182067871094e+00,-3.824593424797058105e-01,7.649187743663787842e-02,3.760000000000000000e+02
-3.981663895182687156e+02,-3.967541531370172834e+02,-2.171802690797817377e+02,-6.093659408026724122e+01,-3.773040238494218102e+02,-1.021187531291675441e+02,-2.080426800949903736e+02,-2.221923631371378178e+02,9.523238182067871094e+00,-3.824593424797058105e-01,7.649187743663787842e-02,3.770000000000000000e+02
-3.939757226187541619e+02,-3.956575986791963260e+02,-2.145733244612590624e+02,-6.266285678219878719e+01,-3.732112031958195075e+02,-9.763531701242277450e+01,-2.066234664960584269e+02,-2.208540430585808281e+02,9.523238182067871094e+00,-3.824593424797058105e-01,7.649187743663787842e-02,3.780000000000000000e+02
-3.892853645094430703e+02,-3.946333361250308371e+02,-2.112703542949298026e+02,-6.603586027955861937e+01,-3.683678119092369343e+02,-9.376695498200865586e+01,-2.056426224408362486e+02,-2.213607599060064786e+02,9.523238182067871094e+00,-3.824593424797058105e-01,7.649187743663787842e-02,3.790000000000000000e+02
-3.847470462339142614e+02,-3.937916179684591498e+02,-2.079686449253740648e+02,-7.072601202107125573e+01,-3.640090149899053813e+02,-9.167225558125232965e+01,-2.052153608881849323e+02,-2.237427478845975202e+02,9.523238182067871094e+00,-3.824593424797058105e-01,7.649187743663787842e-02,3.800000000000000000e+02
-3.806964129076375229e+02,-3.930969736375768662e+02,-2.056958029728575639e+02,-7.576344991628866410e+01,-3.612985000609116923e+02,-9.136320835586820976e+01,-2.052709383648862058e+02,-2.272257604463977714e+02,9.523238182067871094e+00,-3.824593424797058105e-01,7.649187743663787842e-02,3.810000000000000000e+02
-3.772744271139499688e+02,-3.921643462408817413e+02,-2.052125870888619374e+02,-7.953801681580534932e+01,-3.604967096179086639e+02,-9.170009652870271566e+01,-2.055457873964692226e+02,-2.301592419090779913e+02,9.523238182067871094e+00,-3.824593424797058105e-01,7.649187743663787842e-02,3.820000000000000000e+02
-3.746772953406521083e+02,-3.904789872747160189e+02,-2.062910305451375734e+02,-8.049956707209503293e+01,-3.607796215859616495e+02,-9.124251874006336038e+01,-2.054516600935598944e+02,-2.307387224721178427e+02,9.523238182067871094e+00,-3.824593424797058105e-01,7.649187743663787842e-02,3.830000000000000000e+02
-3.731809360631805248e+02,-3.878521588666776552e+02,-2.075852465324428522e+02,-7.807898575455737955e+01,-3.608169907842836892e+02,-8.926185713808331457e+01,-2.041315926910924645e+02,-2.281060188142128027e+02,9.523238182067871094e+00,-3.824593424797058105e-01,7.649187743663787842e-02,3.840000000000000000e+02
-3.728367155213156821e+02,-3.846807388896179418e+02,-2.074202821663423038e+02,-7.308511657774170089e+01,-3.596254488856582157e+02,-8.612767640713036599e+01,-2.009410194807160224e+02,-2.229398044474323797e+02,9.523238182067871094e+00,-3.442134261131286621e-01,3.824593871831893921e-02,3.850000000000000000e+02
-3.731460819731098582e+02,-3.817374014171382441e+02,-2.049502264965883569e+02,-6.724014888908504872e+01,-3.570316272846951051e+02,-8.286300687300808931e+01,-1.960855879073874348e+02,-2.169700736299955679e+02,9.523238182067871094e+00,-3.442134261131286621e-01,3.824593871831893921e-02,3.860000000000000000e+02
-3.731422840408749835e+02,-3.796351337873361445e+02,-2.006954674466282995e+02,-6.220362913834787832e+01,-3.534587882044904745e+02,-8.033812183574673327e+01,-1.907607882197976323e+02,-2.117465920290469512e+02,9.523238182067871094e+00,-3.442134261131286621e-01,3.824593871831893921e-02,3.870000000000000000e+02
-3.719505950607326668e+02,-3.783913127574323880e+02,-1.959934783055587104e+02,-5.878838917185203172e+01,-3.493406422672223925e+02,-7.875809295002363797e+01,-1.864769297960615404e+02,-2.076755822298241583e+02,9.523238182067871094e+00,-3.442134261131286621e-01,3.824593871831893921e-02,3.880000000000000000e+02
-3.693783865654086185e+02,-3.774184379311582234e+02,-1.919138639803372826e+02,-5.683767491926528237e+01,-3.447556178535064646e+02,-7.771305087518339860e+01,-1.840459863875978499e+02,-2.041361631497529743e+02,9.523238182067871094e+00,-3.442134261131286621e-01,3.824593871831893921e-02,3.890000000000000000e+02
-3.659821832242914752e+02,-3.759132803644347405e+02,-1.886615267212221170e+02,-5.568772565879839931e+01,-3.396280727403343462e+02,-7.657953373241434747e+01,-1.831278975073503261e+02,-2.005052338472669362e+02,9.523238182067871094e+00,-3.442134261131286621e-01,3.824593871831893921e-02,3.900000000000000000e+02
-3.625167583298641603e+02,-3.733274316920576439e+02,-1.859314086580197909e+02,-5.478037769897423459e+01,-3.342654733206525179e+02,-7.491317239356067148e+01,-1.827749396966555651e+02,-1.970993487157797972e+02,9.523238182067871094e+00,-3.442134261131286621e-01,3.824593871831893921e-02,3.910000000000000000e+02
-3.592834234733973062e+02,-3.696115198541344853e+02,-1.836882199121232588e+02,-5.401165286336890858e+01,-3.296236059434456820e+02,-7.264691273964808715e+01,-1.824353760950295964e+02,-1.951284192382843230e+02,9.523238182067871094e+00,-3.442134261131286621e-01,3.824593871831893921e-02,3.920000000000000000e+02
-3.560062616806642382e+02,-3.651451139671460169e+02,-1.824510968709996632e+02,-5.367841543613576505e+01,-3.268888236819179838e+02,-7.011170296607951968e+01,-1.823909724150939837e+02,-1.956726906448097907e+02,9.523238182067871094e+00,-3.442134261131286621e-01,3.824593871831893921e-02,3.930000000000000000e+02
-3.523541913877686511e+02,-3.604991287337786616e+02,-1.827640028061996418e+02,-5.415931783408314004e+01,-3.265870836147230420e+02,-6.791356487408029352e+01,-1.831713222505011345e+02,-1.985745769136008221e+02,9.523238182067871094e+00,-3.442134261131286621e-01,3.824593871831893921e-02,3.940000000000000000e+02
-3.485653070712173758e+02,-3.562128039868550786e+02,-1.844357052768707490e+02,-5.557015844113402636e+01,-3.279450913120554105e+02,-6.666364319544436512e+01,-1.845626298487354688e+02,-2.022061185094621578e+02,9.523238182067871094e+00,-3.442134261131286621e-01,3.824593871831893921e-02,3.950000000000000000e+02
-3.454878761153420328e+02,-3.526768350185159306e+02,-1.863765514363076363e+02,-5.757974680439792792e+01,-3.291245255469700624e+02,-6.661596717387692479e+01,-1.852987486762833669e+02,-2.043085332986365756e+02,9.523238182067871094e+00,-3.442134261131286621e-01,3.824593871831893921e-02,3.960000000000000000e+02
-3.439104159978353437e+02,-3.501077835201474500e+02,-1.872468577518473012e+02,-5.948103887661864064e+01,-3.282717758312198839e+02,-6.740710310421445683e+01,-1.838976093458918513e+02,-2.032742125596482765e+02,9.523238182067871094e+00,-3.442134261131286621e-01,3.824593871831893921e-02,3.970000000000000000e+02
-3.437700461181366336e+02,-3.485503075154917951e+02,-1.863175238174057995e+02,-6.048495025843703843e+01,-3.246320831011094015e+02,-6.811963389802804159e+01,-1.799543186167495605e+02,-1.989910360577671327e+02,9.523238182067871094e+00,-3.442134261131286621e-01,3.824593871831893921e-02,3.980000000000000000e+02
-3.439992817815727904e+02,-3.478576990303856746e+02,-1.837890289462538931e+02,-6.009047317503154773e+01,-3.189096354694845559e+02,-6.771269906706220354e+01,-1.746940907588707432e+02,-1.927992632887730906e+02,9.523238182067871094e+00,-3.442134261131286621e-01,3.824593871831893921e-02,3.990000000000000000e+02
-3.432035746557196489e+02,-3.476315048580611347e+02,-1.804076537830496818e+02,-5.832306624640386872e+01,-3.126694252770707863e+02,-6.560984476465910120e+01,-1.702321305449522697e+02,-1.867360946119179061e+02,9.523238182067871094e+00,-3.442134261131286621e-01,3.824593871831893921e-02,4.000000000000000000e+02
-3.406195470335305799e+02,-3.471804794480908640e+02,-1.768871167767811130e+02,-5.570586324291343772e+01,-3.073352392612696349e+02,-6.208869495937733518e+01,-1.681365318697139628e+02,-1.825737803352044466e+02,9.523238182067871094e+00,-3.442134261131286621e-01,3.824593871831893921e-02,4.010000000000000000e+02
-3.365854254670421142e+02,-3.456218196091083428e+02,-1.736865595026524716e+02,-5.296763234428999567e+01,-3.035409562680138151e+02,-5.821414303087112785e+01,-1.684765758972409913e+02,-1.811170429915482600e+02,9.523238182067871094e+00,-3.442134261131286621e-01,3.824593871831893921e-02,4.020000000000000000e+02
-3.321965043305372092e+02,-3.422077103624508254e+02,-1.711695814304273426e+02,-5.065586203436942014e+01,-3.011765647256270313e+02,-5.532088433961871488e+01,-1.700387879567881555e+02,-1.820186937590967773e+02,9.523238182067871094e+00,-3.442134261131286621e-01,3.824593871831893921e-02,4.030000000000000000e+02
-3.285024456598309825e+02,-3.367791629244065916e+02,-1.697305646653126132e+02,-4.890386895349047336e+01,-2.998692959257787152e+02,-5.431175406292777552e+01,-1.713598503683474519e+02,-1.841422934684846950e+02,9.523238182067871094e+00,-3.442134261131286621e-01,3.824593871831893921e-02,4.040000000000000000e+02
-3.259034366566750123e+02,-3.300138473659058036e+02,-1.695744949625595837e+02,-4.748119675096722858e+01,-2.993759798689613945e+02,-5.515553576033380523e+01,-1.716164747644365889e+02,-1.862396735547836215e+02,9.523238182067871094e+00,-3.442134261131286621e-01,3.824593871831893921e-02,4.050000000000000000e+02
-3.241144195007736926e+02,-3.231870304980448054e+02,-1.703463494107236329e+02,-4.606954040685604923e+01,-2.995983502373237570e+02,-5.689668331846405636e+01,-1.707431203330468179e+02,-1.875452695674798633e+02,9.523238182067871094e+00,-3.442134261131286621e-01,3.824593871831893921e-02,4.060000000000000000e+02
-3.225387781634760813e+02,-3.175405252893062880e+02,-1.710977007644967216e+02,-4.457351761029622139e+01,-3.003454802168321294e+02,-5.819735343065804045e+01,-1.689733074624007259e+02,-1.879636285661367765e+02,9.523238182067871094e+00,-3.442134261131286621e-01,3.824593871831893921e-02,4.070000000000000000e+02
-3.206668811066053877e+02,-3.137059909069307650e+02,-1.708001992827266804e+02,-4.325456178772037674e+01,-3.011615547224687361e+02,-5.810584975426627352e+01,-1.664613409338148813e+02,-1.878042581991760471e+02,9.523238182067871094e+00,-3.442134261131286621e-01,3.824593871831893921e-02,4.080000000000000000e+02
-3.182563322733722089e+02,-3.116070226754386567e+02,-1.690341483130584948e+02,-4.257533873656075230e+01,-3.013922899371218591e+02,-5.655952640666146181e+01,-1.633433163466165752e+02,-1.873218619239446525e+02,9.523238182067871094e+00,-3.442134261131286621e-01,3.824593871831893921e-02,4.090000000000000000e+02
-3.153279312471690901e+02,-3.108240537273700284e+02,-1.662394856176879330e+02,-4.283089701404333027e+01,-3.004175286288714233e+02,-5.429024998398335811e+01,-1.600084098147140139e+02,-1.864296036681264468e+02,9.523238182067871094e+00,-3.442134261131286621e-01,3.824593871831893921e-02,4.100000000000000000e+02
-3.121181730349585450e+02,-3.109916241932598950e+02,-1.632897666063540782e+02,-4.381836401442751594e+01,-2.978765499257910960e+02,-5.223074525776701194e+01,-1.571050217996321408e+02,-1.847666687663834182e+02,9.523238182067871094e+00,-3.442134261131286621e-01,3.824593871831893921e-02,4.110000000000000000e+02
-3.090184000248234497e+02,-3.118453377358828220e+02,-1.607614340545489995e+02,-4.482970931810223192e+01,-2.937473919162835045e+02,-5.087568097542771284e+01,-1.551205193199443784e+02,-1.819896830231671174e+02,9.523238182067871094e+00,-3.442134261131286621e-01,3.824593871831893921e-02,4.120000000000000000e+02
-3.064332888385422393e+02,-3.129773428564735696e+02,-1.585306860289376800e+02,-4.506284858817889472e+01,-2.882764461985457274e+02,-5.005474171175137599e+01,-1.539091853158336107e+02,-1.780376576789219598e+02,9.523238182067871094e+00,-3.442134261131286621e-01,3.824593871831893921e-02,4.130000000000000000e+02
-3.045327201625759699e+02,-3.137237535834897244e+02,-1.560089265009837618e+02,-4.423068983684515842e+01,-2.818589652228365594e+02,-4.923304015823759983e+01,-1.527079293790618522e+02,-1.732405886456519966e+02,9.523238182067871094e+00,-3.442134261131286621e-01,3.824593871831893921e-02,4.140000000000000000e+02
-3.030295532276168160e+02,-3.134486877109752641e+02,-1.527472554933049196e+02,-4.291826027097249607e+01,-2.749780670257678139e+02,-4.805289681239446509e+01,-1.507458046709375594e+02,-1.682767515058494610e+02,9.523238182067871094e+00,-3.442134261131286621e-01,3.824593871831893921e-02,4.150000000000000000e+02
-3.012204245757197896e+02,-3.119787783782844599e+02,-1.488778422422137737e+02,-4.232062186345001464e+01,-2.682281817563662116e+02,-4.666227618542006894e+01,-1.479539498597121110e+02,-1.640099110359242331e+02,9.484992027282714844e+00,-3.824593424797058105e-01,7.649187743663787842e-02,4.160000000000000000e+02
-2.983934450636265865e+02,-3.097012913167543502e+02,-1.450837744380150980e+02,-4.342579112808607533e+01,-2.623266795047679807e+02,-4.556946506696203869e+01,-1.451220979119470940e+02,-1.612058807521509607e+02,9.484992027282714844e+00,-3.824593424797058105e-01,7.649187743663787842e-02,4.170000000000000000e+02
-2.943801300841846569e+02,-3.071510891853426983e+02,-1.422137101076239105e+02,-4.619712855073794344e+01,-2.579914851410844676e+02,-4.516679697866948118e+01,-1.432931590607186081e+02,-1.601804410809827459e+02,9.484992027282714844e+00,-3.824593424797058105e-01,7.649187743663787842e-02,4.180000000000000000e+02
-2.898255701458447220e+02,-3.044800528052310256e+02,-1.408489920322931539e+02,-4.941531211847086524e+01,-2.556638754040741333e+02,-4.533053294938554245e+01,-1.428619828030491590e+02,-1.605686563514145746e+02,9.484992027282714844e+00,-3.824593424797058105e-01,7.649187743663787842e-02,4.190000000000000000e+02
-2.858744108332566611e+02,-3.013769453610516393e+02,-1.410404883055473420e+02,-5.138874253338553899e+01,-2.552385976392292832e+02,-4.544564545901175734e+01,-1.431507718092709638e+02,-1.614359182544876603e+02,9.484992027282714844e+00,-3.824593424797058105e-01,7.649187743663787842e-02,4.200000000000000000e+02
-2.834014622323434196e+02,-2.975525816522572313e+02,-1.422672516510408514e+02,-5.105312912832596339e+01,-2.560494196275631111e+02,-4.485882026536091871e+01,-1.428724731853099001e+02,-1.617752032655412222e+02,9.484992027282714844e+00,-3.824593424797058105e-01,7.649187743663787842e-02,4.210000000000000000e+02
-2.823509329078619885e+02,-2.933025768722332032e+02,-1.436264228029906462e+02,-4.863522083007410401e+01,-2.571962460978361378e+02,-4.338514884063533827e+01,-1.411629719281170310e+02,-1.611257191264726316e+02,9.484992027282714844e+00,-3.824593424797058105e-01,7.649187743663787842e-02,4.220000000000000000e+02
-2.817523022416030472e+02,-2.895321964856841532e+02,-1.442455651965569814e+02,-4.537936410648126184e+01,-2.580106946568475905e+02,-4.141726313303388451e+01,-1.383463958669274234e+02,-1.598608051705257367e+02,9.484992027282714844e+00,-3.824593424797058105e-01,7.649187743663787842e-02,4.230000000000000000e+02
-2.804750751217279685e+02,-2.871386636045958767e+02,-1.437793724578909860e+02,-4.260065498034464326e+01,-2.583052596982856812e+02,-3.954409903377700175e+01,-1.357820852904706044e+02,-1.588899755712848219e+02,9.484992027282714844e+00,-3.824593424797058105e-01,7.649187743663787842e-02,4.240000000000000000e+02
-2.781441446612843720e+02,-2.862890903260272353e+02,-1.426484134821205316e+02,-4.085165105297301125e+01,-2.582202723151858663e+02,-3.804592830615274579e+01,-1.348552832330813089e+02,-1.589524367649548822e+02,9.484992027282714844e+00,-3.824593424797058105e-01,7.649187743663787842e-02,4.250000000000000000e+02
-2.754355082033498547e+02,-2.862433656593530031e+02,-1.417203728975132435e+02,-3.981420652381166292e+01,-2.578277947836327257e+02,-3.674354473076800787e+01,-1.358812935689975347e+02,-1.600165486087407771e+02,9.484992027282714844e+00,-3.824593424797058105e-01,7.649187743663787842e-02,4.260000000000000000e+02
-2.734625962105324106e+02,-2.858797660850775628e+02,-1.415546616044839539e+02,-3.886511110978881334e+01,-2.568677558867898369e+02,-3.531927110744936726e+01,-1.378077456615078518e+02,-1.612612876172679535e+02,9.484992027282714844e+00,-3.824593424797058105e-01,7.649187743663787842e-02,4.270000000000000000e+02
-2.727599863340906268e+02,-2.844689700501132847e+02,-1.418087472541267289e+02,-3.773117448227276327e+01,-2.548741459450916409e+02,-3.374867479795420877e+01,-1.389902354992013898e+02,-1.616712924938233300e+02,9.484992027282714844e+00,-3.824593424797058105e-01,7.649187743663787842e-02,4.280000000000000000e+02
-2.727551202986524004e+02,-2.820834164545035492e+02,-1.413952908636110806e+02,-3.667307565889495891e+01,-2.516009144631370873e+02,-3.236737866923112961e+01,-1.384269050819862059e+02,-1.607774954833562333e+02,9.484992027282714844e+00,-3.824593424797058105e-01,7.649187743663787842e-02,4.290000000000000000e+02
-2.721995567779918019e+02,-2.793704526310662004e+02,-1.393639921195081115e+02,-3.612613758319548651e+01,-2.473853778873226474e+02,-3.150265206028234388e+01,-1.364393903279274127e+02,-1.589325366853588548e+02,9.484992027282714844e+00,-3.824593424797058105e-01,7.649187743663787842e-02,4.300000000000000000e+02
-2.701823250642869425e+02,-2.769582186241855197e+02,-1.357884234809384907e+02,-3.621739257646413535e+01,-2.431251380723451803e+02,-3.107104058922959666e+01,-1.342460374223610415e+02,-1.568894890020794719e+02,9.484992027282714844e+00,-3.824593424797058105e-01,7.649187743663787842e-02,4.310000000000000000e+02
-2.668360090985452189e+02,-2.749883342239772901e+02,-1.318628568684234779e+02,-3.657647943976553506e+01,-2.398262120336157750e+02,-3.054404051942719889e+01,-1.328169705580494337e+02,-1.550623920396342328e+02,9.484992027282714844e+00,-3.824593424797058105e-01,7.649187743663787842e-02,4.320000000000000000e+02
-2.631557027459002711e+02,-2.730637235315216458e+02,-1.290994083925825180e+02,-3.653061539169630123e+01,-2.380251394010256263e+02,-2.926741491630900782e+01,-1.320391273548875688e+02,-1.531813517886916998e+02,9.484992027282714844e+00,-3.824593424797058105e-01,7.649187743663787842e-02,4.330000000000000000e+02
-2.601369777949430500e+02,-2.705628526233726916e+02,-1.283068575772940676e+02,-3.547424147967467434e+01,-2.375100578622987086e+02,-2.678550502451025750e+01,-1.309451070092245573e+02,-1.507123681450975710e+02,9.484992027282714844e+00,-3.824593424797058105e-01,7.649187743663787842e-02,4.340000000000000000e+02
-2.580140459972399185e+02,-2.670412498026080357e+02,-1.291798162455729653e+02,-3.318126917107474583e+01,-2.375515475182755836e+02,-2.293993928000509186e+01,-1.287967319850049535e+02,-1.476805467974977546e+02,9.484992027282714844e+00,-3.824593424797058105e-01,7.649187743663787842e-02,4.350000000000000000e+02
-2.562099959201195816e+02,-2.624826787484839770e+02,-1.307111894202439544e+02,-2.996317523244488257e+01,-2.374444135379053478e+02,-1.788059706456351705e+01,-1.260069898451474728e+02,-1.450796618626609416e+02,9.484992027282714844e+00,-3.824593424797058105e-01,7.649187743663787842e-02,4.360000000000000000e+02
-2.539393748868728835e+02,-2.573187655203041686e+02,-1.319173703358565035e+02,-2.664826612299521003e+01,-2.368925494662926212e+02,-1.220635080056581501e+01,-1.239964038030684605e+02,-1.443456902486368563e+02,9.523238182067871094e+00,-3.824593424797058105e-01,7.649187743663787842e-02,4.370000000000000000e+02
-2.508910427142604931e+02,-2.522515971272869137e+02,-1.322228040111158407e+02,-2.432381510932918900e+01,-2.359042484332521781e+02,-7.114014063872673432e+00,-1.240282012858765484e+02,-1.462044653798948275e+02,9.523238182067871094e+00,-3.824593424797058105e-01,7.649187743663787842e-02,4.380000000000000000e+02
-2.474601043987122466e+02,-2.479438531360719935e+02,-1.313638376956250795e+02,-2.381911612351632357e+01,-2.343501851041028203e+02,-4.125187332168934518e+00,-1.260063406547305931e+02,-1.498489536312849850e+02,9.523238182067871094e+00,-3.824593424797058105e-01,7.649187743663787842e-02,4.390000000000000000e+02
-2.444413178752756721e+02,-2.446721719952770400e+02,-1.292081043251509982e+02,-2.511878180660278304e+01,-2.317388784429140287e+02,-4.239194447242880415e+00,-1.282981288009491436e+02,-1.532121337063676947e+02,9.523238182067871094e+00,-3.824593424797058105e-01,7.649187743663787842e-02,4.400000000000000000e+02
-2.424907116361741828e+02,-2.421249764482918181e+02,-1.258603477783822200e+02,-2.712015014259031886e+01,-2.275902939766592681e+02,-7.048602534487145022e+00,-1.287937376313070672e+02,-1.542202300629719502e+02,9.523238182067871094e+00,-3.824593424797058105e-01,7.649187743663787842e-02,4.410000000000000000e+02
-2.417336707651638790e+02,-2.395415562733996921e+02,-1.219367554388336430e+02,-2.806931301705253645e+01,-2.221540463600549629e+02,-1.067841140610880757e+01,-1.263838052616179084e+02,-1.520978982259725854e+02,9.523238182067871094e+00,-3.824593424797058105e-01,7.649187743663787842e-02,4.420000000000000000e+02
-2.416996179332722932e+02,-2.362123615593277464e+02,-1.185267058500780877e+02,-2.656658707613314618e+01,-2.167127339548214877e+02,-1.284578048833145658e+01,-1.217043971202688226e+02,-1.477752563619264947e+02,9.523238182067871094e+00,-3.824593424797058105e-01,7.649187743663787842e-02,4.430000000000000000e+02
-2.415575919845946373e+02,-2.320648253493177435e+02,-1.166181685243295760e+02,-2.252287830196019058e+01,-2.129584351260573385e+02,-1.231987887595460052e+01,-1.166266080135346783e+02,-1.431799006393716809e+02,9.523238182067871094e+00,-3.824593424797058105e-01,7.649187743663787842e-02,4.440000000000000000e+02
-2.405135736572187852e+02,-2.278765675602330703e+02,-1.163684007515830672e+02,-1.734358504050624106e+01,-2.118095648337084640e+02,-9.618521559867076576e+00,-1.129521765417157440e+02,-1.400058432687869754e+02,9.523238182067871094e+00,-3.824593424797058105e-01,7.649187743663787842e-02,4.450000000000000000e+02
-2.381915517653592360e+02,-2.248512076114166121e+02,-1.169088438942071662e+02,-1.311486423325732176e+01,-2.126902944788189416e+02,-6.387983439960407850e+00,-1.113098385397361199e+02,-1.388183558575219649e+02,9.523238182067871094e+00,-3.824593424797058105e-01,7.649187743663787842e-02,4.460000000000000000e+02
-2.348220595813186264e+02,-2.237950104230512807e+02,-1.169913151213295350e+02,-1.130348776719756643e+01,-2.139852597622730173e+02,-4.037754854916329350e+00,-1.109958863385381846e+02,-1.389708658360691516e+02,9.523238182067871094e+00,-3.824593424797058105e-01,7.649187743663787842e-02,4.470000000000000000e+02
-2.311175187419962640e+02,-2.245134502946084467e+02,-1.159880362028361560e+02,-1.188261694750326569e+01,-2.143140810563054401e+02,-2.800736837463318807e+00,-1.107254034360530568e+02,-1.391975987952741889e+02,9.523238182067871094e+00,-3.824593424797058105e-01,7.649187743663787842e-02,4.480000000000000000e+02
-2.278687236919508905e+02,-2.259350562730714955e+02,-1.143710893865754770e+02,-1.352044413277008061e+01,-2.134806114945972695e+02,-1.919373851947057119e+00,-1.096247687701124960e+02,-1.384126161234562460e+02,9.523238182067871094e+00,-3.824593424797058105e-01,7.649187743663787842e-02,4.490000000000000000e+02
-2.254803043858646561e+02,-2.268774558035493101e+02,-1.131998854828561889e+02,-1.466786701536148030e+01,-2.122545081536150064e+02,-6.143620403136083041e-01,-1.077202982623175558e+02,-1.362564407912968818e+02,9.523238182067871094e+00,-3.824593424797058105e-01,7.649187743663787842e-02,4.500000000000000000e+02
-2.237554519421332770e+02,-2.268255078264769509e+02,-1.130518234321025375e+02,-1.468909454533786629e+01,-2.113019998599415885e+02,1.124943772274036746e+00,-1.056624370620666014e+02,-1.331855038266289739e+02,9.523238182067871094e+00,-3.824593424797058105e-01,7.649187743663787842e-02,4.510000000000000000e+02
-2.220843963245038140e+02,-2.261097270320483403e+02,-1.133856445207038632e+02,-1.416225389425517278e+01,-2.104027257154098152e+02,2.599973113941814518e+00,-1.040442473664033969e+02,-1.301658024021066922e+02,9.523238182067871094e+00,-3.824593424797058105e-01,7.649187743663787842e-02,4.520000000000000000e+02
-2.198895268880187359e+02,-2.254271792763229314e+02,-1.129572572579795633e+02,-1.416813018936954904e+01,-2.087457159554933241e+02,3.156912146340800973e+00,-1.029361195963720093e+02,-1.281726446878801653e+02,9.523238182067871094e+00,-3.824593424797058105e-01,7.649187743663787842e-02,4.530000000000000000e+02
-2.170030492694072564e+02,-2.251979669013512648e+02,-1.109362790775039684e+02,-1.522497738548145207e+01,-2.059537184631076343e+02,2.890383518479211489e+00,-1.019945194946085394e+02,-1.277610671234397159e+02,9.523238182067871094e+00,-3.824593424797058105e-01,7.649187743663787842e-02,4.540000000000000000e+02
-2.137115112678411606e+02,-2.253098602177187786e+02,-1.076913465453098979e+02,-1.680162597855633067e+01,-2.027264119620813290e+02,2.653139138212736725e+00,-1.009727393960238260e+02,-1.289074039088545760e+02,9.523238182067871094e+00,-3.824593424797058105e-01,7.649187743663787842e-02,4.550000000000000000e+02
-2.104693777957900238e+02,-2.253584955938817984e+02,-1.045093458554570134e+02,-1.782048916317717158e+01,-2.003728293433764520e+02,3.378253668738580018e+00,-1.000937759873017967e+02,-1.311405112942802589e+02,9.523238182067871094e+00,-3.824593424797058105e-01,7.649187743663787842e-02,4.560000000000000000e+02
-2.075587674221110319e+02,-2.250283589712107641e+02,-1.025008910708829717e+02,-1.764931940862152260e+01,-1.996309937482933492e+02,5.319183843389964750e+00,-9.986662152236067413e+01,-1.337813143130633762e+02,9.523238182067871094e+00,-3.824593424797058105e-01,7.649187743663787842e-02,4.570000000000000000e+02
-2.049961464499060639e+02,-2.242239890852888493e+02,-1.017106808691155493e+02,-1.662827356022808090e+01,-1.999033185793041412e+02,7.878368086704540474e+00,-1.004602621767053279e+02,-1.360717042756327828e+02,9.523238182067871094e+00,-3.824593424797058105e-01,7.649187743663787842e-02,4.580000000000000000e+02
-2.027443696529412591e+02,-2.229337408691799283e+02,-1.012470203328043681e+02,-1.562903503372490377e+01,-1.996581631218136863e+02,1.016568474215455353e+01,-1.012285632171506222e+02,-1.371920497073238039e+02,9.523238182067871094e+00,-3.824593424797058105e-01,7.649187743663787842e-02,4.590000000000000000e+02
-2.009543942844393314e+02,-2.210925818687674109e+02,-1.002411080965898691e+02,-1.509860954031955771e+01,-1.976652488204458678e+02,1.176221958195856132e+01,-1.009359890297973834e+02,-1.363892080104992601e+02,9.523238182067871094e+00,-3.824593424797058105e-01,7.649187743663787842e-02,4.600000000000000000e+02
-1.998796936752173679e+02,-2.186572415830751197e+02,-9.864179801575528472e+01,-1.457035556971686674e+01,-1.939645006814894259e+02,1.296417168599964498e+01,-9.864849370839328913e+01,-1.333807572909490773e+02,9.523238182067871094e+00,-3.824593424797058105e-01,7.649187743663787842e-02,4.610000000000000000e+02
-1.994454524653820044e+02,-2.158155511119884977e+02,-9.707832589997860850e+01,-1.320096408940207766e+01,-1.897606642244168142e+02,1.425376106281419197e+01,-9.463250130290180095e+01,-1.288599186300616566e+02,9.484992027282714844e+00,-4.589512646198272705e-01,3.824593871831893921e-02,4.620000000000000000e+02
-1.988827414681195478e+02,-2.130388953860124275e+02,-9.600329312330268294e+01,-1.084555885791905894e+01,-1.864127743990229646e+02,1.550810658679984044e+01,-9.047025539883634337e+01,-1.245589801868400173e+02,9.484992027282714844e+00,-4.589512646198272705e-01,3.824593871831893921e-02,4.630000000000000000e+02
-1.969364044967082918e+02,-2.108323655737794979e+02,-9.507193332517545059e+01,-8.554389625800922659e+00,-1.844254019944473839e+02,1.579770336552337540e+01,-8.815632690081656619e+01,-1.224625362806541489e+02,9.484992027282714844e+00,-4.589512646198272705e-01,3.824593871831893921e-02,4.640000000000000000e+02
-1.927202463470207476e+02,-2.093545832428467293e+02,-9.345787336184775995e+01,-7.845851747607866855e+00,-1.832694395686821736e+02,1.412430509335172246e+01,-8.875702179619338494e+01,-1.234535491863048264e+02,9.484992027282714844e+00,-4.589512646198272705e-01,3.824593871831893921e-02,4.650000000000000000e+02
-1.866346582063492860e+02,-2.082281247452337993e+02,-9.081649549522626330e+01,-9.273142613434629311e+00,-1.820822741905381008e+02,1.053076239756637733e+01,-9.161360353847612714e+01,-1.263804378517220357e+02,9.484992027282714844e+00,-4.589512646198272705e-01,3.824593871831893921e-02,4.660000000000000000e+02
-1.805107410344940035e+02,-2.067257206619424323e+02,-8.790775588544829588e+01,-1.158890058176439197e+01,-1.805370960571158321e+02,6.545197465573437512e+00,-9.471011363271873051e+01,-1.284975898540419621e+02,9.484992027282714844e+00,-4.589512646198272705e-01,3.824593871831893921e-02,4.670000000000000000e+02
-1.766592200150798817e+02,-2.042138561313640821e+02,-8.618619302383513059e+01,-1.239310523289805133e+01,-1.791066967447100069e+02,4.423620493446833279e+00,-9.594898321926439166e+01,-1.272248276768250435e+02,9.484992027282714844e+00,-4.589512646198272705e-01,3.824593871831893921e-02,4.680000000000000000e+02
-1.764175427923651114e+02,-2.005568771933553762e+02,-8.667469614698438818e+01,-9.858454382660511328e+00,-1.785313277125428613e+02,5.704668100312119350e+00,-9.440918652207074047e+01,-1.220031228237703544e+02,9.484992027282714844e+00,-4.589512646198272705e-01,3.824593871831893921e-02,4.690000000000000000e+02
-1.792792551017373626e+02,-1.962230376300519765e+02,-8.912539792605366529e+01,-4.152658268229970417e+00,-1.789941438520909287e+02,1.021625058761583205e+01,-9.072712798232578280e+01,-1.147549164970398579e+02,9.484992027282714844e+00,-4.589512646198272705e-01,3.824593871831893921e-02,4.700000000000000000e+02
-1.832679885864035896e+02,-1.920524691720586361e+02,-9.217195049263136752e+01,2.599470793009004410e+00,-1.797415904802815021e+02,1.628171008690333110e+01,-8.645067075768815812e+01,-1.084954668131026665e+02,9.484992027282714844e+00,-4.589512646198272705e-01,3.824593871831893921e-02,4.710000000000000000e+02
-1.862234175769481226e+02,-1.888562807379998958e+02,-9.426745176530539538e+01,7.751874431624855788e+00,-1.794948014984579459e+02,2.186658307016841718e+01,-8.299035330043898284e+01,-1.052098833390839445e+02,9.484992027282714844e+00,-4.589512646198272705e-01,3.824593871831893921e-02,4.720000000000000000e+02
-1.869651166636081143e+02,-1.870766177611710646e+02,-9.456740859047135928e+01,9.784631235273536731e+00,-1.773529164040701289e+02,2.570027875386767846e+01,-8.096933826257554756e+01,-1.047453525264002110e+02,9.484992027282714844e+00,-4.589512646198272705e-01,3.824593871831893921e-02,4.730000000000000000e+02
-1.855379198029313557e+02,-1.866682417333554440e+02,-9.312151625931869603e+01,8.922563059156800591e+00,-1.734936870823194113e+02,2.759645060382626980e+01,-8.028109988300229816e+01,-1.055333728467057881e+02,9.484992027282714844e+00,-4.589512646198272705e-01,3.824593871831893921e-02,4.740000000000000000e+02
-1.826140724443316685e+02,-1.872072612070846844e+02,-9.046082495534164991e+01,6.458551682724191778e+00,-1.691242456551822215e+02,2.798574458452048930e+01,-8.051535528734621039e+01,-1.063012569766324305e+02,9.484992027282714844e+00,-4.589512646198272705e-01,3.824593871831893921e-02,4.750000000000000000e+02
-1.787966411769093611e+02,-1.881161113901503086e+02,-8.713925529026437289e+01,3.579106952498023020e+00,-1.657046527831312233e+02,2.729380455093951241e+01,-8.121628777304886171e+01,-1.071040598759495879e+02,9.484992027282714844e+00,-4.589512646198272705e-01,3.824593871831893921e-02,4.760000000000000000e+02
-1.744493287343532302e+02,-1.888571607768365084e+02,-8.361811032333389448e+01,7.108765137782029342e-01,-1.639946337076198688e+02,2.573547600227448129e+01,-8.183832669111006908e+01,-1.088128068369426273e+02,9.484992027282714844e+00,-4.589512646198272705e-01,3.824593871831893921e-02,4.770000000000000000e+02
-1.700065493768179294e+02,-1.890256933809173461e+02,-8.038367692122301378e+01,-2.265723967466328759e+00,-1.636018940924755043e+02,2.355547429937496418e+01,-8.174231052737764003e+01,-1.117525670096649719e+02,9.484992027282714844e+00,-4.589512646198272705e-01,3.824593871831893921e-02,4.780000000000000000e+02
-1.662153992783587455e+02,-1.883814566052235477e+02,-7.793726195580461535e+01,-5.387718517489702208e+00,-1.633433291024693972e+02,2.130295795100664691e+01,-8.054945131884369403e+01,-1.149598887912006830e+02,9.484992027282714844e+00,-4.589512646198272705e-01,3.824593871831893921e-02,4.790000000000000000e+02
-1.639145889406702281e+02,-1.868954310955232359e+02,-7.654800509528286057e+01,-8.255174990505565802e+00,-1.621383737886335439e+02,1.975683120456596953e+01,-7.864001064093645255e+01,-1.167951580071583066e+02,9.484992027282714844e+00,-4.589512646198272705e-01,3.824593871831893921e-02,4.800000000000000000e+02
-1.635137380979294903e+02,-1.848107929667710323e+02,-7.602308725775515086e+01,-1.019519952719747380e+01,-1.597426313335231498e+02,1.954278272247347559e+01,-7.716756718272745275e+01,-1.162307719354755591e+02,9.484992027282714844e+00,-4.589512646198272705e-01,3.824593871831893921e-02,4.810000000000000000e+02
-1.646783316513128739e+02,-1.826270279656300772e+02,-7.579533449535142609e+01,-1.064565218386087508e+01,-1.567736281226243591e+02,2.081365060632197128e+01,-7.725148837631854803e+01,-1.135241224977319234e+02,9.484992027282714844e+00,-4.589512646198272705e-01,3.824593871831893921e-02,4.820000000000000000e+02
-1.665129695946820902e+02,-1.809011959802592173e+02,-7.531344666163977308e+01,-9.381114283747592708e+00,-1.540722471248816419e+02,2.326929531391033379e+01,-7.886699669209065178e+01,-1.097384840658498888e+02,9.484992027282714844e+00,-4.589512646198272705e-01,3.824593871831893921e-02,4.830000000000000000e+02
-1.680462313451030241e+02,-1.798955534648378034e+02,-7.438792325590907240e+01,-6.501524272204733279e+00,-1.519902405015964177e+02,2.645341348244073743e+01,-8.046308331010459369e+01,-1.057800872369066383e+02,9.484992027282714844e+00,-4.589512646198272705e-01,3.824593871831893921e-02,4.840000000000000000e+02
-1.685895784803171864e+02,-1.792975577589727436e+02,-7.317436858260134613e+01,-2.391261762530120905e+00,-1.502424488650735839e+02,2.999628883064406182e+01,-7.987514348377430906e+01,-1.019856649279201974e+02,9.484992027282714844e+00,-4.589512646198272705e-01,3.824593871831893921e-02,4.850000000000000000e+02
-1.677800434696214325e+02,-1.782934528741354825e+02,-7.184122949766219790e+01,2.233099035126542731e+00,-1.484047408869605533e+02,3.355525449137849137e+01,-7.598578859290796572e+01,-9.853526841402208447e+01,9.484992027282714844e+00,-4.589512646198272705e-01,3.824593871831893921e-02,4.860000000000000000e+02
-1.655023554586605314e+02,-1.760690652416055855e+02,-7.030495452278614721e+01,6.340780981618763690e+00,-1.465165518564458580e+02,3.657509767727515282e+01,-6.979142131336766397e+01,-9.602103474949490192e+01,9.484992027282714844e+00,-4.589512646198272705e-01,3.824593871831893921e-02,4.870000000000000000e+02
-1.619591107096462110e+02,-1.724186916427227061e+02,-6.832968058924097932e+01,8.911703267318671351e+00,-1.451480410981976092e+02,3.825659446132749508e+01,-6.388313820649523223e+01,-9.534187543858161007e+01,9.484992027282714844e+00,-4.589512646198272705e-01,3.824593871831893921e-02,4.880000000000000000e+02
-1.578371464076112716e+02,-1.679583698490193910e+02,-6.590130741891539401e+01,9.504094005167189607e+00,-1.448434661840008175e+02,3.795620245466170672e+01,-6.066603689368844243e+01,-9.691625331225304762e+01,9.484992027282714844e+00,-4.589512646198272705e-01,3.824593871831893921e-02,4.890000000000000000e+02
-1.542206018257188589e+02,-1.637171525262801879e+02,-6.348511118839337541e+01,8.622368573547191772e+00,-1.455157947040856925e+02,3.576815833904902320e+01,-6.071635124448312126e+01,-1.000248127194979588e+02,9.484992027282714844e+00,-4.589512646198272705e-01,3.824593871831893921e-02,4.900000000000000000e+02
-1.520457332899666199e+02,-1.604151284370473149e+02,-6.185505566286246903e+01,7.469093915928851857e+00,-1.464359955193665428e+02,3.274399890750373743e+01,-6.254644472235509056e+01,-1.030368313177411892e+02,9.484992027282714844e+00,-4.589512646198272705e-01,3.824593871831893921e-02,4.910000000000000000e+02
-1.513989705701908406e+02,-1.580483370599290538e+02,-6.158833609065527526e+01,7.143084089239891910e+00,-1.468467462762198465e+02,3.040147073122398069e+01,-6.387269016312825443e+01,-1.044492807937017460e+02,9.484992027282714844e+00,-4.589512646198272705e-01,3.824593871831893921e-02,4.920000000000000000e+02
-1.512937721705875447e+02,-1.561440843366663103e+02,-6.262332916237119207e+01,7.872540846822630556e+00,-1.465698437848018330e+02,2.978941944051894097e+01,-6.328982822763009608e+01,-1.038780036363120871e+02,9.484992027282714844e+00,-4.589512646198272705e-01,3.824593871831893921e-02,4.930000000000000000e+02
-1.502917174286210411e+02,-1.544035246565758825e+02,-6.424570413981314232e+01,8.918283762985538488e+00,-1.459780889128339822e+02,3.082599650051224671e+01,-6.107606228532426940e+01,-1.021937611415814899e+02,9.484992027282714844e+00,-4.589512646198272705e-01,3.824593871831893921e-02,4.940000000000000000e+02
-1.475977933388787733e+02,-1.530558306722064117e+02,-6.551537182541915172e+01,9.254111193053631723e+00,-1.453840484515706066e+02,3.245835484128542703e+01,-5.869311946692255333e+01,-1.007350112839872054e+02,9.484992027282714844e+00,-4.589512646198272705e-01,3.824593871831893921e-02,4.950000000000000000e+02
-1.437388653005225478e+02,-1.525532216095371041e+02,-6.580470509553038028e+01,8.469348242753540035e+00,-1.445232224061333000e+02,3.353487839025001449e+01,-5.759353812549989016e+01,-1.002769180541937430e+02,9.484992027282714844e+00,-4.589512646198272705e-01,3.824593871831893921e-02,4.960000000000000000e+02
-1.401960666597517502e+02,-1.529509817631742408e+02,-6.506835527614873627e+01,7.130384783945373783e+00,-1.427111901343389491e+02,3.369458938691991534e+01,-5.832020755721907790e+01,-1.005942197884785401e+02,9.484992027282714844e+00,-4.589512646198272705e-01,3.824593871831893921e-02,4.970000000000000000e+02
-1.382317865220043132e+02,-1.536884590413948217e+02,-6.369910797755335352e+01,6.267056940656857478e+00,-1.395437861109498954e+02,3.354738686252630941e+01,-6.040760501617046430e+01,-1.009074779504841217e+02,9.484992027282714844e+00,-4.589512646198272705e-01,3.824593871831893921e-02,4.980000000000000000e+02
-1.378893749784272131e+02,-1.540770590553275952e+02,-6.213200758859807138e+01,6.410299025561243980e+00,-1.354186459566485610e+02,3.400540793303207465e+01,-6.285514227170006052e+01,-1.007383562905279177e+02,9.484992027282714844e+00,-4.589512646198272705e-01,3.824593871831893921e-02,4.990000000000000000e+02
-1.380394454574345673e+02,-1.540006779445122902e+02,-6.051936756707675613e+01,7.043297283918491303e+00,-1.313237190368646452e+02,3.532959587096820542e+01,-6.462661475587322002e+01,-1.003502969622031742e+02,9.484992027282714844e+00,-4.589512646198272705e-01,3.824593871831893921e-02,5.000000000000000000e+02
-1.374484311174404638e+02,-1.540332188329231258e+02,-5.873651707762007845e+01,7.032424202111087652e+00,-1.280796365329023274e+02,3.671448790729573375e+01,-6.488900200722014233e+01,-1.003154026596124595e+02,9.484992027282714844e+00,-4.589512646198272705e-01,3.824593871831893921e-02,5.010000000000000000e+02
-1.359269712277343842e+02,-1.547539973546186047e+02,-5.670943012820066542e+01,5.787791612153114329e+00,-1.257406645824344196e+02,3.686367042325173315e+01,-6.310748876000047858e+01,-1.005657842090793110e+02,9.484992027282714844e+00,-4.589512646198272705e-01,3.824593871831893921e-02,5.020000000000000000e+02
-1.345386648038600015e+02,-1.559149956351111541e+02,-5.478606265590531166e+01,4.184564226045040414e+00,-1.237071197746233793e+02,3.517763190505320381e+01,-5.921473997660029909e+01,-9.989408620150834395e+01,9.484992027282714844e+00,-4.589512646198272705e-01,3.824593871831893921e-02,5.030000000000000000e+02
-1.346748842798496071e+02,-1.563553353496499199e+02,-5.379124241345238033e+01,4.313397116267651654e+00,-1.214329942107917759e+02,3.256160775711146016e+01,-5.380941671660059455e+01,-9.663399945170397132e+01,9.484992027282714844e+00,-4.589512646198272705e-01,3.824593871831893921e-02,5.040000000000000000e+02
-1.367828460610494972e+02,-1.548654178293998029e+02,-5.459953953894472534e+01,8.008643689512837227e+00,-1.190949544414420416e+02,3.100982299189251989e+01,-4.809793907452592521e+01,-9.022058820536847179e+01,9.484992027282714844e+00,-4.589512646198272705e-01,3.824593871831893921e-02,5.050000000000000000e+02
-1.398296879432718356e+02,-1.512684349997450681e+02,-5.745259397299696502e+01,1.517462007523317880e+01,-1.176277461232523365e+02,3.208353067444215867e+01,-4.341599348177305728e+01,-8.232824440750050599e+01,9.484992027282714844e+00,-4.589512646198272705e-01,3.824593871831893921e-02,5.060000000000000000e+02
-1.419427338046430691e+02,-1.467484321516455452e+02,-6.154896290405781656e+01,2.328186805822076622e+01,-1.180495562906404530e+02,3.545878808800875959e+01,-4.056082429010410806e+01,-7.632732715986588801e+01,9.484992027282714844e+00,-4.589512646198272705e-01,3.824593871831893921e-02,5.070000000000000000e+02
-1.417031009310076399e+02,-1.431363768772704930e+02,-6.531898112229083608e+01,2.862953689441496863e+01,-1.205725589449968140e+02,3.885892917364810728e+01,-3.944702147568577288e+01,-7.510628174325984219e+01,9.484992027282714844e+00,-4.589512646198272705e-01,3.824593871831893921e-02,5.080000000000000000e+02
-1.390896485954652917e+02,-1.417633135440905221e+02,-6.728254547976898436e+01,2.861340175456436441e+01,-1.241687804564461146e+02,3.964426946674518604e+01,-3.937279362336047939e+01,-7.882099631645724003e+01,9.484992027282714844e+00,-4.589512646198272705e-01,3.824593871831893921e-02,5.090000000000000000e+02
-1.354211702122292422e+02,-1.427716490754376082e+02,-6.688668840590014497e+01,2.339614567426735903e+01,-1.269696431761178701e+02,3.684707131623186172e+01,-3.965422708816760178e+01,-8.445487398036324578e+01,9.484992027282714844e+00,-4.589512646198272705e-01,3.824593871831893921e-02,5.100000000000000000e+02
-1.324496253403673052e+02,-1.452671927853482998e+02,-6.471062898436895239e+01,1.579164978767880712e+01,-1.273105032750253827e+02,3.192315890777497600e+01,-4.006334154440263262e+01,-8.774345779495628506e+01,9.484992027282714844e+00,-4.589512646198272705e-01,3.824593871831893921e-02,5.110000000000000000e+02
-1.313250759193428507e+02,-1.480000352602280600e+02,-6.193876580203232152e+01,9.510574589163496739e+00,-1.247392390906552748e+02,2.753809199304379263e+01,-4.073277580104723938e+01,-8.607834906587100932e+01,9.484992027282714844e+00,-4.589512646198272705e-01,3.824593871831893921e-02,5.120000000000000000e+02
-1.320834609979841616e+02,-1.500042347816740289e+02,-5.958675867273990434e+01,7.060598363912788500e+00,-1.202868469749940914e+02,2.545407770649768509e+01,-4.172576335022245075e+01,-8.016529139062151899e+01,9.484992027282714844e+00,-4.589512646198272705e-01,3.824593871831893921e-02,5.130000000000000000e+02
-1.338296878669875696e+02,-1.508733964772964100e+02,-5.809165054912870119e+01,8.670014229155867724e+00,-1.157922008252452315e+02,2.539272860960102207e+01,-4.278633200407273307e+01,-7.323200666063758035e+01,9.484992027282714844e+00,-4.589512646198272705e-01,3.824593871831893921e-02,5.140000000000000000e+02
-1.353463309053954617e+02,-1.507275664526815149e+02,-5.743095495665153294e+01,1.268726909234067080e+01,-1.127519666973400945e+02,2.578356974931853074e+01,-4.353459316549481173e+01,-6.854069428566180022e+01,9.484992027282714844e+00,-4.589512646198272705e-01,3.824593871831893921e-02,5.150000000000000000e+02
-1.357273484006972240e+02,-1.500552103588833006e+02,-5.742298757719447622e+01,1.687255646065466408e+01,-1.115004746055193436e+02,2.552197538278880984e+01,-4.385117053468729864e+01,-6.719712254805449447e+01,9.484992027282714844e+00,-4.589512646198272705e-01,3.824593871831893921e-02,5.160000000000000000e+02
-1.347578802781642935e+02,-1.495230589472146221e+02,-5.780503427991891385e+01,1.962733623524559334e+01,-1.112266534322585585e+02,2.499842203711045840e+01,-4.397804120263788263e+01,-6.777690204840314436e+01,9.484992027282714844e+00,-4.589512646198272705e-01,3.824593871831893921e-02,5.170000000000000000e+02
-1.329216588087692799e+02,-1.497529885337297628e+02,-5.808651679392642109e+01,2.054064824713850612e+01,-1.106804342387727047e+02,2.550712681338131915e+01,-4.417821343059654282e+01,-6.771020390480953210e+01,9.484992027282714844e+00,-4.589512646198272705e-01,3.824593871831893921e-02,5.180000000000000000e+02
-1.310558089774302744e+02,-1.510790859068321197e+02,-5.754378829452093669e+01,2.019817532854744968e+01,-1.089783789588682339e+02,2.778270007283163068e+01,-4.432118435383335964e+01,-6.514453929688511380e+01,9.484992027282714844e+00,-4.589512646198272705e-01,3.824593871831893921e-02,5.190000000000000000e+02
-1.298199139675384686e+02,-1.533550989131665574e+02,-5.560834206700849336e+01,1.956116696833328206e+01,-1.060223202114220840e+02,3.115342250895855614e+01,-4.388092834741553361e+01,-5.997931180233308623e+01,9.484992027282714844e+00,-4.207052886486053467e-01,7.649187743663787842e-02,5.200000000000000000e+02
-1.292797697299461106e+02,-1.559060759517021779e+02,-5.241300669904376264e+01,1.930335232540141988e+01,-1.024569237193823028e+02,3.403466069937462635e+01,-4.242645299510604673e+01,-5.369034731246779302e+01,9.484992027282714844e+00,-4.207052886486053467e-01,7.649187743663787842e-02,5.210000000000000000e+02
-1.288996470755723749e+02,-1.577087665692554310e+02,-4.894970064361973527e+01,1.944454723055332579e+01,-9.936040610784903038e+01,3.515085840196775280e+01,-4.016680352097432660e+01,-4.842036720122314364e+01,9.484992027282714844e+00,-4.207052886486053467e-01,7.649187743663787842e-02,5.220000000000000000e+02
-1.279852753232360101e+02,-1.578086164946341796e+02,-4.655861075062216514e+01,1.946568041418686335e+01,-9.783269349058491571e+01,3.432526885861034316e+01,-3.801491718483703153e+01,-4.600468901861063387e+01,9.484992027282714844e+00,-4.207052886486053467e-01,7.649187743663787842e-02,5.230000000000000000e+02
-1.262374870513963288e+02,-1.558538545740357222e+02,-4.606703244337381875e+01,1.880158725147703080e+01,-9.853598711463064319e+01,3.229933570141702148e+01,-3.706612171584833959e+01,-4.729964982978344779e+01,9.484992027282714844e+00,-4.207052886486053467e-01,7.649187743663787842e-02,5.240000000000000000e+02
-1.239606430455328336e+02,-1.524530259860343904e+02,-4.724783867814971927e+01,1.731852313923559450e+01,-1.013053153624678089e+02,3.000558451517190406e+01,-3.790183989207753257e+01,-5.188551747367318967e+01,9.484992027282714844e+00,-4.207052886486053467e-01,7.649187743663787842e-02,5.250000000000000000e+02
-1.217750998621534109e+02,-1.490186519382646111e+02,-4.903949805344063861e+01,1.538327992584709136e+01,-1.051012795688843653e+02,2.802139787284477279e+01,-4.024189521332095865e+01,-5.818735728717001621e+01,9.484992027282714844e+00,-4.207052886486053467e-01,7.649187743663787842e-02,5.260000000000000000e+02
-1.201349756451186295e+02,-1.470468110464296387e+02,-5.031323498556594132e+01,1.351362629854793340e+01,-1.084516763687552157e+02,2.650423943060332022e+01,-4.312739901016311705e+01,-6.404064891197685938e+01,9.484992027282714844e+00,-4.207052886486053467e-01,7.649187743663787842e-02,5.270000000000000000e+02
-1.191149884730862141e+02,-1.472354976116521357e+02,-5.054837049741217925e+01,1.202007835761514798e+01,-1.101677852999910101e+02,2.539019714803816896e+01,-4.542008962391219029e+01,-6.754205211247790430e+01,9.484992027282714844e+00,-4.207052886486053467e-01,7.649187743663787842e-02,5.280000000000000000e+02
-1.186044303614908131e+02,-1.490685668535170407e+02,-4.994559905176492975e+01,1.101281832605991440e+01,-1.098606665739998789e+02,2.457249995128950104e+01,-4.628684647294039678e+01,-6.780621905005045846e+01,9.484992027282714844e+00,-4.207052886486053467e-01,7.649187743663787842e-02,5.290000000000000000e+02
-1.185859829379705843e+02,-1.511845697002481756e+02,-4.902526205078038402e+01,1.067153995181797654e+01,-1.079343379950746566e+02,2.400853747474002375e+01,-4.548664014692030833e+01,-6.523045572632054245e+01,9.484992027282714844e+00,-4.207052886486053467e-01,7.649187743663787842e-02,5.300000000000000000e+02
-1.191070200047397520e+02,-1.522455572823960210e+02,-4.815490599164513696e+01,1.131314809902960405e+01,-1.051740614122400075e+02,2.380857642080309233e+01,-4.343199116041841989e+01,-6.116522485807809062e+01,9.484992027282714844e+00,-4.207052886486053467e-01,7.649187743663787842e-02,5.310000000000000000e+02
-1.199607144992141912e+02,-1.516698630844584841e+02,-4.739572690616842010e+01,1.301206201925924688e+01,-1.023325882333283516e+02,2.423776565408206807e+01,-4.103144593488286773e+01,-5.724943242381414166e+01,9.484992027282714844e+00,-4.207052886486053467e-01,7.649187743663787842e-02,5.320000000000000000e+02
-1.205074380988944540e+02,-1.497733865249806513e+02,-4.667338330316943029e+01,1.515003472477019386e+01,-9.996261567417286642e+01,2.551640114373094548e+01,-3.931595109666841381e+01,-5.476428610171842593e+01,9.484992027282714844e+00,-4.207052886486053467e-01,7.649187743663787842e-02,5.330000000000000000e+02
-1.199821591089926187e+02,-1.473893361601849392e+02,-4.598095797083897196e+01,1.656197056088694808e+01,-9.838862770258401724e+01,2.753074665464919235e+01,-3.894452564933635585e+01,-5.421130511417413800e+01,9.484992027282714844e+00,-4.207052886486053467e-01,7.649187743663787842e-02,5.340000000000000000e+02
-1.180933527853285341e+02,-1.453688166975016429e+02,-4.539300173224819446e+01,1.639885560858920144e+01,-9.764930976855202971e+01,2.976450018994091806e+01,-3.986279176297512095e+01,-5.519686761630691763e+01,9.484992027282714844e+00,-4.207052886486053467e-01,7.649187743663787842e-02,5.350000000000000000e+02
-1.153049089759665549e+02,-1.442597907873241638e+02,-4.493174823200752144e+01,1.498637360500379145e+01,-9.744177911950509952e+01,3.163281499631284532e+01,-4.137351552160134815e+01,-5.666349741247995553e+01,9.484992027282714844e+00,-4.207052886486053467e-01,7.649187743663787842e-02,5.360000000000000000e+02
-1.124531781577088623e+02,-1.441912390208390207e+02,-4.449258695375192474e+01,1.374370491868285171e+01,-9.725019624324477263e+01,3.297357012499105622e+01,-4.260604005956065521e+01,-5.744228476568923725e+01,9.484992027282714844e+00,-4.207052886486053467e-01,7.649187743663787842e-02,5.370000000000000000e+02
-1.100490513321569779e+02,-1.448634423554308341e+02,-4.392394804717287116e+01,1.404275788401537284e+01,-9.667477408333343192e+01,3.419141235553342995e+01,-4.304737642089912697e+01,-5.690126868844708952e+01,9.484992027282714844e+00,-4.207052886486053467e-01,7.649187743663787842e-02,5.380000000000000000e+02
-1.079724116684801629e+02,-1.456581176079307625e+02,-4.315400208801838744e+01,1.597394233306295064e+01,-9.567922502975761745e+01,3.584139800398770603e+01,-4.274570810848808833e+01,-5.526295643674029634e+01,9.484992027282714844e+00,-4.207052886486053467e-01,7.649187743663787842e-02,5.390000000000000000e+02
-1.058753914810354217e+02,-1.459171610502125986e+02,-4.220526874274310103e+01,1.820252275631173688e+01,-9.448672542015810905e+01,3.801580952873882779e+01,-4.207898639300537980e+01,-5.329192932623209344e+01,9.484992027282714844e+00,-4.207052886486053467e-01,7.649187743663787842e-02,5.400000000000000000e+02
-1.038445029973117926e+02,-1.452676854025248758e+02,-4.110013238090186860e+01,1.913387356100429315e+01,-9.323607051423459779e+01,4.014084577429730416e+01,-4.135618996928133129e+01,-5.157420833216065148e+01,9.484992027282714844e+00,-3.059675097465515137e-01,3.824593871831893921e-02,5.410000000000000000e+02
-1.025509107401230722e+02,-1.437171162683707735e+02,-3.984135517530603465e+01,1.834933503221873252e+01,-9.182961643256840034e+01,4.140271032196505985e+01,-4.061835551208378092e+01,-5.006746219669457787e+01,9.484992027282714844e+00,-3.059675097465515137e-01,3.824593871831893921e-02,5.420000000000000000e+02
-1.026345381172441193e+02,-1.414064203108891888e+02,-3.856674662384557450e+01,1.696971834611304075e+01,-9.023115820398197684e+01,4.138410770463633526e+01,-3.976604628830864385e+01,-4.841440457006865472e+01,9.484992027282714844e+00,-3.059675097465515137e-01,3.824593871831893921e-02,5.430000000000000000e+02
-1.038905034824747418e+02,-1.383113089234866493e+02,-3.770567566367208201e+01,1.659152124567935971e+01,-8.890405190490764653e+01,4.028745444398100517e+01,-3.882615046238788636e+01,-4.673275495073175989e+01,9.484992027282714844e+00,-3.059675097465515137e-01,3.824593871831893921e-02,5.440000000000000000e+02
-1.051145170720619717e+02,-1.343332477133026259e+02,-3.783523117370805267e+01,1.776516647511380143e+01,-8.877273978838456969e+01,3.856430984386315686e+01,-3.806883661784650030e+01,-4.597234507799839776e+01,9.484992027282714844e+00,-3.059675097465515137e-01,3.824593871831893921e-02,5.450000000000000000e+02
-1.048677992639250078e+02,-1.298106466470435407e+02,-3.920096361859486933e+01,1.939619512606623175e+01,-9.051111009572923649e+01,3.641150370852119522e+01,-3.787860164991980128e+01,-4.726218470810545114e+01,9.484992027282714844e+00,-3.059675097465515137e-01,3.824593871831893921e-02,5.460000000000000000e+02
-1.025523864967099144e+02,-1.258671702537567398e+02,-4.130748787564061786e+01,1.960415526231463446e+01,-9.372009211331806000e+01,3.372624896121851634e+01,-3.851389614075560530e+01,-5.071982596000361809e+01,9.484992027282714844e+00,-3.059675097465515137e-01,3.824593871831893921e-02,5.470000000000000000e+02
-9.889401866943899222e+01,-1.239635933969402686e+02,-4.307581896760166273e+01,1.727818708875292941e+01,-9.685221073295724636e+01,3.058501510372479970e+01,-3.994896074174084788e+01,-5.491225358264546230e+01,9.484992027282714844e+00,-3.059675097465515137e-01,3.824593871831893921e-02,5.480000000000000000e+02
-9.546924351817051502e+01,-1.247663708012596544e+02,-4.360023170683416538e+01,1.301596352695105452e+01,-9.816055355244316161e+01,2.769855286799611349e+01,-4.186418110376780533e+01,-5.767665385837790382e+01,9.484992027282714844e+00,-3.059675097465515137e-01,3.824593871831893921e-02,5.490000000000000000e+02
-9.371050195781299408e+01,-1.273047740921201694e+02,-4.289596720495137561e+01,8.733635203559060756e+00,-9.696379507389247010e+01,2.624470742374796828e+01,-4.372191121674859460e+01,-5.768918934339762927e+01,9.484992027282714844e+00,-3.059675097465515137e-01,3.824593871831893921e-02,5.500000000000000000e+02
-9.415319965424623661e+01,-1.293820548885996686e+02,-4.190104225321010745e+01,6.351212185658368981e+00,-9.412216103242280951e+01,2.709200829695691937e+01,-4.488821674872542644e+01,-5.534748297389978688e+01,9.484992027282714844e+00,-3.059675097465515137e-01,3.824593871831893921e-02,5.510000000000000000e+02
-9.635390470794573048e+01,-1.291281662111778132e+02,-4.163134517722664896e+01,6.625982844280770223e+00,-9.126630097637371364e+01,3.010059526607983571e+01,-4.483525489555358945e+01,-5.215208815497499018e+01,9.484992027282714844e+00,-3.059675097465515137e-01,3.824593871831893921e-02,5.520000000000000000e+02
-9.932791683759387524e+01,-1.263983942085487797e+02,-4.223178375822317321e+01,8.924018886216799729e+00,-8.945162374085339252e+01,3.416328828440236975e+01,-4.343585104027624766e+01,-4.926305487731497124e+01,9.484992027282714844e+00,-3.059675097465515137e-01,3.824593871831893921e-02,5.530000000000000000e+02
-1.020627708473484745e+02,-1.227036014696659549e+02,-4.283169731401812896e+01,1.190991341653261770e+01,-8.843478507170948433e+01,3.797983419926276838e+01,-4.117118245948404365e+01,-4.669446619034624746e+01,9.484992027282714844e+00,-3.059675097465515137e-01,3.824593871831893921e-02,5.540000000000000000e+02
-1.038124864321716814e+02,-1.196875117986883197e+02,-4.238864930644649576e+01,1.449547388041901286e+01,-8.718903282547580602e+01,4.084775463497135206e+01,-3.897933971589282010e+01,-4.387557873800687958e+01,9.484992027282714844e+00,-3.059675097465515137e-01,3.824593871831893921e-02,5.550000000000000000e+02
-1.041839316204996067e+02,-1.175957216301858352e+02,-4.074018229572811833e+01,1.636417507193800702e+01,-8.511630229770889855e+01,4.278281145140317676e+01,-3.768329899792115611e+01,-4.081928542574132734e+01,9.484992027282714844e+00,-3.059675097465515137e-01,3.824593871831893921e-02,5.560000000000000000e+02
-1.031486676899512531e+02,-1.152471400984759384e+02,-3.882760365077592724e+01,1.784912688501390221e+01,-8.276162229229612421e+01,4.400445446918638481e+01,-3.733809146791190869e+01,-3.849290347611531615e+01,9.484992027282714844e+00,-3.059675097465515137e-01,3.824593871831893921e-02,5.570000000000000000e+02
-1.010286726467020344e+02,-1.115471770168287549e+02,-3.783671852710085659e+01,1.943351647395502368e+01,-8.133779388790571829e+01,4.445555119144410128e+01,-3.706075904412864475e+01,-3.789850273350930365e+01,9.484992027282714844e+00,-3.059675097465515137e-01,3.824593871831893921e-02,5.580000000000000000e+02
-9.839329474223086436e+01,-1.069915787958025248e+02,-3.806277207637049287e+01,2.131678056234341057e+01,-8.152574066686975129e+01,4.393044142767212179e+01,-3.562768605740529893e+01,-3.883745532961802382e+01,9.484992027282714844e+00,-3.059675097465515137e-01,3.824593871831893921e-02,5.590000000000000000e+02
-9.584285025927238166e+01,-1.035272127567886855e+02,-3.860093262538157433e+01,2.331104346649226500e+01,-8.271915127330976247e+01,4.264172115819201281e+01,-3.247896311216572940e+01,-3.975466679052806285e+01,9.484992027282714844e+00,-3.059675097465515137e-01,3.824593871831893921e-02,5.600000000000000000e+02
-9.378989373534750484e+01,-1.027565344513050150e+02,-3.818823838297794282e+01,2.505289067498961231e+01,-8.343870078608779295e+01,4.151735144239864894e+01,-2.832041654569093225e+01,-3.894114028657077142e+01,9.484992027282714844e+00,-3.059675097465515137e-01,3.824593871831893921e-02,5.610000000000000000e+02
-9.238998593426185835e+01,-1.042188813820748692e+02,-3.641489032053686969e+01,2.632163655938893498e+01,-8.251376784971034795e+01,4.177630607038008748e+01,-2.475108258853197185e+01,-3.593111157237126463e+01,9.484992027282714844e+00,-3.059675097465515137e-01,3.824593871831893921e-02,5.620000000000000000e+02
-9.165640180937225523e+01,-1.055173928268523014e+02,-3.416632567628403194e+01,2.723821999712890829e+01,-7.994264436113917327e+01,4.408133395751792705e+01,-2.313525882024441671e+01,-3.172459786568288109e+01,9.484992027282714844e+00,-3.059675097465515137e-01,3.824593871831893921e-02,5.630000000000000000e+02
-9.160629810039426957e+01,-1.043108940025886113e+02,-3.288532048278648290e+01,2.822245955919970584e+01,-7.671866077009872242e+01,4.803782751070320955e+01,-2.359501377179549308e+01,-2.771614085641067504e+01,9.484992027282714844e+00,-3.059675097465515137e-01,3.824593871831893921e-02,5.640000000000000000e+02
-9.223819347422613646e+01,-1.003499477552268218e+02,-3.332359196607285412e+01,2.973272330155668897e+01,-7.393276314275681216e+01,5.248532931631234533e+01,-2.493729390085172781e+01,-2.452603457263830933e+01,9.484992027282714844e+00,-3.059675097465515137e-01,3.824593871831893921e-02,5.650000000000000000e+02
-9.332371849594892410e+01,-9.565571319400442007e+01,-3.491517534795821120e+01,3.193256337039565551e+01,-7.208778843807158410e+01,5.628117636580282124e+01,-2.558242336775219883e+01,-2.193972081634819915e+01,9.408499717712402344e+00,-3.824593424797058105e-01,3.824593871831893921e-02,5.660000000000000000e+02
-9.423353593275169260e+01,-9.270207220025622519e+01,-3.629588070193312888e+01,3.449136448320314230e+01,-7.116293146815769433e+01,5.888466595447425789e+01,-2.475331777772771602e+01,-1.985720888241667126e+01,9.408499717712402344e+00,-3.824593424797058105e-01,3.824593871831893921e-02,5.670000000000000000e+02
-9.407053679696400650e+01,-9.233297120384668233e+01,-3.643406478490214795e+01,3.666873770131678612e+01,-7.109533374130114680e+01,6.034898167876963271e+01,-2.298721880972152576e+01,-1.900821631598955719e+01,9.408499717712402344e+00,-3.824593424797058105e-01,3.824593871831893921e-02,5.680000000000000000e+02
-9.214058842979466135e+01,-9.332448779307560471e+01,-3.532990142243215814e+01,3.767089164648132282e+01,-7.195399025537881244e+01,6.092966491411425523e+01,-2.160833224286761833e+01,-2.045789899893497932e+01,9.408499717712402344e+00,-3.824593424797058105e-01,3.824593871831893921e-02,5.690000000000000000e+02
-8.844673349037657317e+01,-9.385067837816859537e+01,-3.372263575488250353e+01,3.707232199688769470e+01,-7.357713922012590047e+01,6.075326975071402558e+01,-2.163651252135969116e+01,-2.432535461918632791e+01,9.408499717712402344e+00,-3.824593424797058105e-01,3.824593871831893921e-02,5.700000000000000000e+02
-8.379095395309559535e+01,-9.331775996039505117e+01,-3.221516077199157735e+01,3.503754124957777094e+01,-7.519551047696586465e+01,5.976428416005364852e+01,-2.298000332577976224e+01,-2.911463486551110691e+01,9.408499717712402344e+00,-3.824593424797058105e-01,3.824593871831893921e-02,5.710000000000000000e+02
-7.934536092249436479e+01,-9.281594213713833597e+01,-3.072644628637863207e+01,3.221420409222628223e+01,-7.567341187111560430e+01,5.785542413475195644e+01,-2.447038938178411627e+01,-3.251860858188592829e+01,9.408499717712402344e+00,-3.824593424797058105e-01,3.824593871831893921e-02,5.720000000000000000e+02
-7.600496143667623983e+01,-9.387851686554131447e+01,-2.878303446377140062e+01,2.938204040457458177e+01,-7.432889146657362289e+01,5.500595080913626589e+01,-2.465137407969086780e+01,-3.309048590389465971e+01,9.408499717712402344e+00,-3.824593424797058105e-01,3.824593871831893921e-02,5.730000000000000000e+02
-7.402419844643554825e+01,-9.682803820172921405e+01,-2.628555683606464299e+01,2.712039986176932871e+01,-7.157709692781281774e+01,5.140387797560833860e+01,-2.272239784557314124e+01,-3.124904589384459541e+01,9.408499717712402344e+00,-3.824593424797058105e-01,3.824593871831893921e-02,5.740000000000000000e+02
-7.315609373539336957e+01,-1.002391884193693841e+02,-2.389928035863340483e+01,2.571048239728406770e+01,-6.870934932680575002e+01,4.756100125942612067e+01,-1.900533503769656818e+01,-2.869580634689373255e+01,9.408499717712402344e+00,-3.824593424797058105e-01,3.824593871831893921e-02,5.750000000000000000e+02
-7.304512110519317503e+01,-1.019293951220297458e+02,-2.261529528737446526e+01,2.526350008541521674e+01,-6.693111390265221416e+01,4.429800745320608257e+01,-1.470301554633624619e+01,-2.684968701525576762e+01,9.408499717712402344e+00,-3.824593424797058105e-01,3.824593871831893921e-02,5.760000000000000000e+02
-7.345495871157254442e+01,-1.005498825387039687e+02,-2.287756981186976191e+01,2.587884323714388302e+01,-6.649786734851295478e+01,4.245419966280314839e+01,-1.119021300284111931e+01,-2.579191391328276950e+01,9.408499717712402344e+00,-3.824593424797058105e-01,3.824593871831893921e-02,5.770000000000000000e+02
-7.418611686967778951e+01,-9.649074946608561731e+01,-2.411940376433449273e+01,2.762825785641507537e+01,-6.668392424656121875e+01,4.240131399813253665e+01,-9.302123766194199561e+00,-2.461315440281032352e+01,9.408499717712402344e+00,-3.824593424797058105e-01,3.824593871831893921e-02,5.780000000000000000e+02
-7.492514308506179077e+01,-9.154386420522314438e+01,-2.515736829963861965e+01,3.036238813728050445e+01,-6.650579073523476836e+01,4.373899186557537178e+01,-8.997891453846023069e+00,-2.262278361580320052e+01,9.408499717712402344e+00,-3.824593424797058105e-01,3.824593871831893921e-02,5.790000000000000000e+02
-7.532075382747643744e+01,-8.774129710303714091e+01,-2.507550459346566640e+01,3.356775598733838706e+01,-6.547366337930543523e+01,4.551207344153226586e+01,-9.507634798259459785e+00,-2.011407654649156029e+01,9.408499717712402344e+00,-3.824593424797058105e-01,3.824593871831893921e-02,5.800000000000000000e+02
-7.524701264632858511e+01,-8.622499763379892102e+01,-2.381007213226075692e+01,3.651121099443844287e+01,-6.375502946845517727e+01,4.685459141691171681e+01,-9.809091937197081279e+00,-1.797928999661417038e+01,9.408499717712402344e+00,-3.824593424797058105e-01,3.824593871831893921e-02,5.810000000000000000e+02
-7.490730052676553896e+01,-8.677406900702408166e+01,-2.199415601563487144e+01,3.865605821887220372e+01,-6.177983797662636789e+01,4.753524403526171227e+01,-9.164595316689883475e+00,-1.670695672203510185e+01,9.408499717712402344e+00,-3.824593424797058105e-01,3.824593871831893921e-02,5.820000000000000000e+02
-7.457082226146303583e+01,-8.811523608504649019e+01,-2.033459866408520611e+01,4.003584380288521061e+01,-5.980618388343464176e+01,4.792234331690997351e+01,-7.477070309883856680e+00,-1.589144498530367855e+01,9.408499717712402344e+00,-3.824593424797058105e-01,3.824593871831893921e-02,5.830000000000000000e+02
-7.418528590927962796e+01,-8.873796843888521835e+01,-1.916911988452557125e+01,4.121190359312458895e+01,-5.786542049289710121e+01,4.841865737818807247e+01,-5.321870065172333852e+00,-1.476635590469959425e+01,9.408499717712402344e+00,-3.824593424797058105e-01,3.824593871831893921e-02,5.840000000000000000e+02
-7.333145176563084533e+01,-8.774164078411558876e+01,-1.851821779059173423e+01,4.277472848818069906e+01,-5.601762764341037837e+01,4.892902100024730316e+01,-3.624433196268000756e+00,-1.314188111943440163e+01,9.408499717712402344e+00,-3.824593424797058105e-01,3.824593871831893921e-02,5.850000000000000000e+02
-7.165487139725883026e+01,-8.526429290179839882e+01,-1.838281711229501525e+01,4.477501210201808135e+01,-5.453374344630356063e+01,4.890638411691543297e+01,-3.126059926175003056e+00,-1.173064760405759444e+01,9.408499717712402344e+00,-3.824593424797058105e-01,3.824593871831893921e-02,5.860000000000000000e+02
-6.935090837547795672e+01,-8.227534142320109822e+01,-1.884681887026454206e+01,4.658471133911007200e+01,-5.377868813656823477e+01,4.795313412494942895e+01,-3.930911309691509814e+00,-1.153794834157270088e+01,9.408499717712402344e+00,-3.824593424797058105e-01,3.824593871831893921e-02,5.870000000000000000e+02
-6.712909651650807064e+01,-7.988788656947690470e+01,-1.985520234877185430e+01,4.736207425223619794e+01,-5.391648311276003369e+01,4.640236883601028239e+01,-5.416981586731708376e+00,-1.295255054198059952e+01,9.408499717712402344e+00,-3.824593424797058105e-01,3.824593871831893921e-02,5.880000000000000000e+02
-6.558486698910201085e+01,-7.866052912762461347e+01,-2.097836253940295137e+01,4.675941560666251462e+01,-5.474197099063530914e+01,4.526707089108094806e+01,-6.603544593041078770e+00,-1.544132201355932921e+01,9.408499717712402344e+00,-3.824593424797058105e-01,3.824593871831893921e-02,5.890000000000000000e+02
-6.458194872262174613e+01,-7.834922973127140722e+01,-2.150286182528725476e+01,4.526800523238489404e+01,-5.578978237236515270e+01,4.550832232031461899e+01,-6.744269725948470295e+00,-1.806054714942365536e+01,9.408499717712402344e+00,-3.824593424797058105e-01,3.824593871831893921e-02,5.900000000000000000e+02
-6.332160504360945197e+01,-7.822175198947115859e+01,-2.084648612638375198e+01,4.389836866722544073e+01,-5.658714094227252644e+01,4.722210126696518273e+01,-5.742426413655266515e+00,-2.017452672309991613e+01,9.408499717712402344e+00,-3.824593424797058105e-01,3.824593871831893921e-02,5.910000000000000000e+02
-6.111298224501297227e+01,-7.762673101378641149e+01,-1.895695174211687117e+01,4.347148684263447649e+01,-5.682272605343678151e+01,4.947976361306064064e+01,-4.130911548030780978e+00,-2.168373688076826511e+01,9.408499717712402344e+00,-3.824593424797058105e-01,3.824593871831893921e-02,5.920000000000000000e+02
-5.811800094601130695e+01,-7.637195433796296129e+01,-1.637002849931013770e+01,4.411851177212884068e+01,-5.635256879213920911e+01,5.103564093926615897e+01,-2.680790065536712063e+00,-2.267019029298899113e+01,9.446745872497558594e+00,-4.207052886486053467e-01,0.000000000000000000e+00,5.930000000000000000e+02
-5.530865878574331873e+01,-7.470195390599837992e+01,-1.391026782348490087e+01,4.535429504415878910e+01,-5.515048642755573383e+01,5.134409063350540237e+01,-1.947324437409406528e+00,-2.298845514698041370e+01,9.446745872497558594e+00,-4.207052886486053467e-01,0.000000000000000000e+00,5.940000000000000000e+02
-5.363285813093534671e+01,-7.300114283728544251e+01,-1.228332749037508620e+01,4.656506318629180896e+01,-5.333264930696532247e+01,5.099186293885941268e+01,-2.041036918384634191e+00,-2.229519656517004478e+01,9.446745872497558594e+00,-4.207052886486053467e-01,0.000000000000000000e+00,5.950000000000000000e+02
-5.317982241361096385e+01,-7.151660495943724527e+01,-1.179723708771780366e+01,4.745077148855489213e+01,-5.123389564823810360e+01,5.113460470300924499e+01,-2.682513438092428260e+00,-2.044818489360113745e+01,9.446745872497558594e+00,-4.207052886486053467e-01,0.000000000000000000e+00,5.960000000000000000e+02
-5.315842536667332752e+01,-7.028414939271533513e+01,-1.230241862132970709e+01,4.809291686822689371e+01,-4.937827580391603988e+01,5.244732263461264665e+01,-3.419898804859258235e+00,-1.780322641199018108e+01,9.446745872497558594e+00,-4.207052886486053467e-01,0.000000000000000000e+00,5.970000000000000000e+02
-5.269654838416317943e+01,-6.922110512736617238e+01,-1.331610685469058808e+01,4.871340004503872478e+01,-4.826475188427139074e+01,5.456634850678165094e+01,-3.881237293804588262e+00,-1.509798998668338754e+01,9.446745872497558594e+00,-4.207052886486053467e-01,0.000000000000000000e+00,5.980000000000000000e+02
-5.167601100619867793e+01,-6.823110117257238016e+01,-1.427147786370551330e+01,4.943588533810543595e+01,-4.809318508479918819e+01,5.655184242775067105e+01,-3.989357143014785834e+00,-1.305481141606287565e+01,9.446745872497558594e+00,-4.207052886486053467e-01,0.000000000000000000e+00,5.990000000000000000e+02
-5.081495203527811100e+01,-6.721802201061291271e+01,-1.480205401418425026e+01,5.025487847421027254e+01,-4.866684053218705230e+01,5.790579228023125324e+01,-4.051410865064099198e+00,-1.206159053567898809e+01,9.446745872497558594e+00,-4.207052886486053467e-01,0.000000000000000000e+00,6.000000000000000000e+02
-5.095684554350737017e+01,-6.604932762918906519e+01,-1.491554475958764669e+01,5.115765720944546047e+01,-4.957270527375294478e+01,5.911096204543719068e+01,-4.603770241468737368e+00,-1.211624216756899841e+01,9.446745872497558594e+00,-4.207052886486053467e-01,0.000000000000000000e+00,6.010000000000000000e+02
-5.228476481584584690e+01,-6.459791005051010870e+01,-1.491913670770372846e+01,5.220026552526178421e+01,-5.047098542149615241e+01,6.112390951659472194e+01,-5.995076967999921180e+00,-1.293175451201386750e+01,9.446745872497558594e+00,-4.207052886486053467e-01,0.000000000000000000e+00,6.020000000000000000e+02
-5.419204670545514091e+01,-6.291020271300658351e+01,-1.511974204436046421e+01,5.344046484988211887e+01,-5.121996379361735308e+01,6.430595329850984854e+01,-7.957242031490750378e+00,-1.404727844941589865e+01,9.446745872497558594e+00,-4.207052886486053467e-01,0.000000000000000000e+00,6.030000000000000000e+02
-5.584048672814969905e+01,-6.137143406159157166e+01,-1.553599404924170813e+01,5.480749156006277190e+01,-5.175734333134460030e+01,6.786948180937179131e+01,-9.573444545054371702e+00,-1.496141909189464059e+01,9.446745872497558594e+00,-4.207052886486053467e-01,0.000000000000000000e+00,6.040000000000000000e+02
-5.678369540872517973e+01,-6.065119355286515201e+01,-1.587262388100862154e+01,5.604334509024920408e+01,-5.194370132272524643e+01,7.041800236452399986e+01,-9.834694078286702279e+00,-1.536443304277054267e+01,9.446745872497558594e+00,-4.207052886486053467e-01,0.000000000000000000e+00,6.050000000000000000e+02
-5.706741710593632888e+01,-6.134356643677165266e+01,-1.576273929968738230e+01,5.677906662369059632e+01,-5.159524989709461806e+01,7.108801998702256242e+01,-8.446090639532485511e+00,-1.535909693975554546e+01,9.446745872497558594e+00,-4.207052886486053467e-01,0.000000000000000000e+00,6.060000000000000000e+02
-5.683217009420332033e+01,-6.351198755912264460e+01,-1.504985352893709205e+01,5.670001513863826403e+01,-5.069359913592779776e+01,7.022416285058716312e+01,-6.203421807360427920e+00,-1.541887851804858656e+01,9.446745872497558594e+00,-4.207052886486053467e-01,0.000000000000000000e+00,6.070000000000000000e+02
-5.596190891482183360e+01,-6.650545651978245587e+01,-1.387276638163166353e+01,5.571568398729505134e+01,-4.952679594256187556e+01,6.900019962406804552e+01,-4.529414422901027137e+00,-1.598965248178137699e+01,9.446745872497558594e+00,-4.207052886486053467e-01,0.000000000000000000e+00,6.080000000000000000e+02
-5.422033986224050750e+01,-6.925017645474508754e+01,-1.254028233843928319e+01,5.406006993905612035e+01,-4.855727623204074916e+01,6.841460470842866926e+01,-4.471474815418332582e+00,-1.702167479958006879e+01,9.446745872497558594e+00,-4.207052886486053467e-01,0.000000000000000000e+00,6.090000000000000000e+02
-5.173200718974476331e+01,-7.082726287407058408e+01,-1.137297074654270546e+01,5.226172544187284075e+01,-4.812306065857046633e+01,6.859880951109516900e+01,-5.965220743131794734e+00,-1.789563952442040318e+01,9.446745872497558594e+00,-4.207052886486053467e-01,0.000000000000000000e+00,6.100000000000000000e+02
-4.923546128634552588e+01,-7.091455595972729498e+01,-1.064278761581954313e+01,5.097879719754928374e+01,-4.824208716097564320e+01,6.899713621548289666e+01,-7.958152750998124247e+00,-1.787519468268510536e+01,9.446745872497558594e+00,-4.207052886486053467e-01,0.000000000000000000e+00,6.110000000000000000e+02
-4.773518454060103977e+01,-6.981790663816718734e+01,-1.056154812459863024e+01,5.074778513320779894e+01,-4.867117976894951425e+01,6.913957082810520660e+01,-9.255851264122611610e+00,-1.671387946009417647e+01,9.446745872497558594e+00,-4.207052886486053467e-01,0.000000000000000000e+00,6.120000000000000000e+02
-4.778462832513832836e+01,-6.817908714511577273e+01,-1.118043351298183552e+01,5.174318543477784260e+01,-4.909336004375654738e+01,6.924189798479346791e+01,-9.348642733493761625e+00,-1.485718743832694599e+01,9.446745872497558594e+00,-4.207052886486053467e-01,0.000000000000000000e+00,6.130000000000000000e+02
-4.902950694279570598e+01,-6.666186045377253322e+01,-1.221911253303187550e+01,5.366087882208375959e+01,-4.921244412314263172e+01,7.010255389832309447e+01,-8.557293784877401777e+00,-1.304265833771205507e+01,9.446745872497558594e+00,-4.207052886486053467e-01,0.000000000000000000e+00,6.140000000000000000e+02
