F3,F4,C3,C4,P3,P4,Cz,Pz,Accel_x,Accel_y,Accel_z,Sample
-3.637978807091712952e-11,-5.093170329928398132e-11,-3.637978807091712952e-11,-4.547473508864641190e-11,-6.275513442233204842e-11,-5.275069270282983780e-11,-4.365574568510055542e-11,-4.183675628155469894e-11,9.523238182067871094e+00,-3.824593424797058105e-01,7.649187743663787842e-02,2.260000000000000000e+02
-1.543820933178631094e+01,-1.011456475476825290e+01,-5.609162599087540002e+00,-9.697884957351561752e+00,-2.429749876410551224e+01,-1.127705212613727781e+01,-1.095534953610876983e+01,-7.354716311357151426e+00,9.523238182067871094e+00,-3.824593424797058105e-01,7.649187743663787842e-02,2.270000000000000000e+02
-3.067468120498324424e+01,-2.256483523227689147e+01,-1.343749445840512635e+01,-1.688166191156960849e+01,-4.408975534073942981e+01,-1.877128390793586732e+01,-2.251075409335226141e+01,-1.688749517604446737e+01,9.523238182067871094e+00,-3.824593424797058105e-01,7.649187743663787842e-02,2.280000000000000000e+02
-4.579583988897047675e+01,-3.740794420508609619e+01,-2.366245119687118859e+01,-2.119741139639700123e+01,-5.868777390927971283e+01,-2.247540076563564071e+01,-3.456433992734309868e+01,-2.867090651963917480e+01,9.523238182067871094e+00,-3.824593424797058105e-01,7.649187743663787842e-02,2.290000000000000000e+02
-6.101859069294368965e+01,-5.248944490897065407e+01,-3.433784500451474742e+01,-2.454156881756352959e+01,-7.127673321196289180e+01,-2.611931147925315599e+01,-4.621950214617118036e+01,-4.054922041632926266e+01,9.523238182067871094e+00,-3.824593424797058105e-01,7.649187743663787842e-02,2.300000000000000000e+02
-7.627008470036344079e+01,-6.569359086994791141e+01,-4.327180950068941456e+01,-2.908229601254970476e+01,-8.537889219431963284e+01,-3.344128093745348451e+01,-5.634944039374477143e+01,-5.002602478733115277e+01,9.523238182067871094e+00,-3.824593424797058105e-01,7.649187743663787842e-02,2.310000000000000000e+02
-9.109964605910499813e+01,-7.694799943139969400e+01,-4.996638034164061537e+01,-3.521593272962672927e+01,-1.015074083750205318e+02,-4.461826439736069005e+01,-6.429967567659787164e+01,-5.629219817183911800e+01,9.523238182067871094e+00,-3.824593424797058105e-01,7.649187743663787842e-02,2.320000000000000000e+02
-1.051646795373962959e+02,-8.799810168513977260e+01,-5.581140811011664482e+01,-4.139906783956757863e+01,-1.172666837791284706e+02,-5.633984957754546485e+01,-7.019703506491441658e+01,-6.058119049978631665e+01,9.523238182067871094e+00,-3.824593424797058105e-01,7.649187743663787842e-02,2.330000000000000000e+02
-1.187661001307869810e+02,-1.004504034042993226e+02,-6.253391293994809530e+01,-4.582604262750828639e+01,-1.303093803563097026e+02,-6.513938497074377665e+01,-7.476212218846012547e+01,-6.478054768874153524e+01,9.523238182067871094e+00,-3.824593424797058105e-01,7.649187743663787842e-02,2.340000000000000000e+02
-1.327131277471053181e+02,-1.143043660795237884e+02,-7.056352524614976574e+01,-4.816157405483863840e+01,-1.407404845323098925e+02,-7.043295079308518325e+01,-7.892127560977678513e+01,-6.984047206624927639e+01,9.484992027282714844e+00,-3.442134261131286621e-01,7.649187743663787842e-02,2.350000000000000000e+02
-1.474999429151503136e+02,-1.283669053754128981e+02,-7.884552180597074766e+01,-4.969920418491801684e+01,-1.505964676265721209e+02,-7.442266013835251215e+01,-8.351578050861826341e+01,-7.544558974105984817e+01,9.484992027282714844e+00,-3.442134261131286621e-01,7.649187743663787842e-02,2.360000000000000000e+02
-1.626193708022301507e+02,-1.417499558644385615e+02,-8.604686403113100823e+01,-5.202996170455480751e+01,-1.614435463687614174e+02,-7.948253176456273650e+01,-8.913723205352380319e+01,-8.094250197073324671e+01,9.484992027282714844e+00,-3.442134261131286621e-01,7.649187743663787842e-02,2.370000000000000000e+02
-1.768196798826083977e+02,-1.546379154521891905e+02,-9.182300518355623353e+01,-5.569689582059800159e+01,-1.729705560850625261e+02,-8.598238393933752377e+01,-9.598786503801147774e+01,-8.634857848856427154e+01,9.484992027282714844e+00,-3.442134261131286621e-01,7.649187743663787842e-02,2.380000000000000000e+02
-1.891583485027258575e+02,-1.676224104925631764e+02,-9.698979154074913822e+01,-6.007520193705295242e+01,-1.839291899848703906e+02,-9.254979550101597852e+01,-1.037845635969670184e+02,-9.243219471412339772e+01,9.484992027282714844e+00,-3.442134261131286621e-01,7.649187743663787842e-02,2.390000000000000000e+02
-1.998450197893862423e+02,-1.806529283930922247e+02,-1.026483585085725281e+02,-6.432602970344487403e+01,-1.939804065759853984e+02,-9.797329324370184622e+01,-1.118657891545753955e+02,-9.995456920688138780e+01,9.484992027282714844e+00,-3.442134261131286621e-01,7.649187743663787842e-02,2.400000000000000000e+02
-2.100304835178676512e+02,-1.929590954353434427e+02,-1.092286960888286558e+02,-6.827531772798101883e+01,-2.041787136747270779e+02,-1.024678303173041058e+02,-1.195601099794857873e+02,-1.089438652679646111e+02,9.484992027282714844e+00,-3.442134261131286621e-01,7.649187743663787842e-02,2.410000000000000000e+02
-2.207601005157112013e+02,-2.039877391523577899e+02,-1.162765943780641464e+02,-7.236672807785726036e+01,-2.156708643770853087e+02,-1.071814502680299483e+02,-1.265823534227920391e+02,-1.186564505176693274e+02,9.484992027282714844e+00,-3.442134261131286621e-01,7.649187743663787842e-02,2.420000000000000000e+02
-2.321536621189152356e+02,-2.141687691159950191e+02,-1.229940152566114193e+02,-7.690858142401521036e+01,-2.282781501453837336e+02,-1.128622772773433098e+02,-1.331168314669002939e+02,-1.281184061343783469e+02,9.484992027282714844e+00,-3.442134261131286621e-01,7.649187743663787842e-02,2.430000000000000000e+02
-2.435833775650107782e+02,-2.245862268915843742e+02,-1.289426113287026965e+02,-8.153021826901749591e+01,-2.406435371671077519e+02,-1.192617853220453981e+02,-1.395148425572442648e+02,-1.366945657445094184e+02,9.484992027282714844e+00,-3.442134261131286621e-01,7.649187743663787842e-02,2.440000000000000000e+02
-2.545465752511754545e+02,-2.359539208429368955e+02,-1.343673092720873683e+02,-8.544193376403291040e+01,-2.517158203714197953e+02,-1.256861180061805499e+02,-1.459225787906798359e+02,-1.443043699153131456e+02,9.484992027282714844e+00,-3.442134261131286621e-01,7.649187743663787842e-02,2.450000000000000000e+02
-2.652563304197219622e+02,-2.480544935159587112e+02,-1.400133125343863867e+02,-8.822313857463086606e+01,-2.618565161453443579e+02,-1.317688219113369996e+02,-1.522085540864081850e+02,-1.512780248657700213e+02,9.484992027282714844e+00,-3.442134261131286621e-01,7.649187743663787842e-02,2.460000000000000000e+02
-2.763578738305595834e+02,-2.601597616191893394e+02,-1.466357576594891725e+02,-9.033829325242822961e+01,-2.724167276880743884e+02,-1.375591719087406091e+02,-1.582385096042035002e+02,-1.580411119195059655e+02,9.484992027282714844e+00,-3.442134261131286621e-01,7.649187743663787842e-02,2.470000000000000000e+02
-2.881456666045633028e+02,-2.718227812951099622e+02,-1.545030161979648256e+02,-9.282978186600576009e+01,-2.843515475773765502e+02,-1.430626063277841240e+02,-1.641528824003953559e+02,-1.648153994621261518e+02,9.484992027282714844e+00,-3.442134261131286621e-01,7.649187743663787842e-02,2.480000000000000000e+02
-3.001666587851195800e+02,-2.831291893491707015e+02,-1.631648903975974463e+02,-9.643048712838754000e+01,-2.973538953259885602e+02,-1.480423172461269132e+02,-1.703069329662748714e+02,-1.714805693540911307e+02,9.484992027282714844e+00,-3.442134261131286621e-01,7.649187743663787842e-02,2.490000000000000000e+02
-3.116096919458541379e+02,-2.942663105574283691e+02,-1.716382761716231471e+02,-1.009122151577985278e+02,-3.102375378755532438e+02,-1.524104048437884558e+02,-1.769147089447060353e+02,-1.776982888241254841e+02,9.484992027282714844e+00,-3.442134261131286621e-01,7.649187743663787842e-02,2.500000000000000000e+02
-3.220168806605224745e+02,-3.050806441403537974e+02,-1.789528239834062333e+02,-1.053042721546053144e+02,-3.219616588884518933e+02,-1.566664180944017062e+02,-1.837590724467327163e+02,-1.832551461887605910e+02,9.484992027282714844e+00,-3.442134261131286621e-01,7.649187743663787842e-02,2.510000000000000000e+02
-3.315583339441172939e+02,-3.151852768079115776e+02,-1.847246777216332703e+02,-1.088240382819330989e+02,-3.322524326073398697e+02,-1.617225880512578442e+02,-1.902557192670110453e+02,-1.883477378364577817e+02,9.484992027282714844e+00,-3.442134261131286621e-01,7.649187743663787842e-02,2.520000000000000000e+02
-3.406623463126661591e+02,-3.244408633139946687e+02,-1.893403494952508481e+02,-1.116641894394024348e+02,-3.414491428074034047e+02,-1.681549398204915633e+02,-1.958122643929027618e+02,-1.935017620442022235e+02,9.484992027282714844e+00,-3.442134261131286621e-01,7.649187743663787842e-02,2.530000000000000000e+02
-3.495144339328380738e+02,-3.331782670580296326e+02,-1.935886146920420288e+02,-1.148430676332091025e+02,-3.500216654313408071e+02,-1.756168024161088397e+02,-2.001636378458488252e+02,-1.991184617826129397e+02,9.484992027282714844e+00,-3.442134261131286621e-01,7.649187743663787842e-02,2.540000000000000000e+02
-3.580163335221086527e+02,-3.418867446074191321e+02,-1.980211769578654639e+02,-1.191780493906726406e+02,-3.582786965688001146e+02,-1.829972268110968798e+02,-2.034481235572320657e+02,-2.050412327956246372e+02,9.484992027282714844e+00,-3.442134261131286621e-01,7.649187743663787842e-02,2.550000000000000000e+02
-3.662002436457005388e+02,-3.507549954174346567e+02,-2.025726287951501945e+02,-1.243326181151114724e+02,-3.663295944067012897e+02,-1.891594003431773672e+02,-2.060862312852086689e+02,-2.106039023867906508e+02,9.484992027282714844e+00,-3.442134261131286621e-01,7.649187743663787842e-02,2.560000000000000000e+02
-3.745038284538368316e+02,-3.595892725592948409e+02,-2.067487813461557380e+02,-1.289240037165627655e+02,-3.740984352640170982e+02,-1.936148290000446650e+02,-2.086460854767638011e+02,-2.151870148963735119e+02,9.484992027282714844e+00,-3.442134261131286621e-01,7.649187743663787842e-02,2.570000000000000000e+02
-3.834453491197582480e+02,-3.681466838552328227e+02,-2.102000502151895489e+02,-1.317023229071937749e+02,-3.813546566273234930e+02,-1.966507945502307848e+02,-2.117388224165515567e+02,-2.187808905328456603e+02,9.484992027282714844e+00,-3.442134261131286621e-01,7.649187743663787842e-02,2.580000000000000000e+02
-3.929703466534765539e+02,-3.764375551416114831e+02,-2.131655330698167745e+02,-1.327280120306413664e+02,-3.879147743054709281e+02,-1.989611959868543636e+02,-2.158461067916659886e+02,-2.220022333355900628e+02,9.484992027282714844e+00,-3.442134261131286621e-01,7.649187743663787842e-02,2.590000000000000000e+02
-4.022147791831457653e+02,-3.846364025821849282e+02,-2.163864110823669762e+02,-1.333880950678894806e+02,-3.939678483548796066e+02,-2.011518717947556070e+02,-2.210606673892616527e+02,-2.255268020100775175e+02,9.484992027282714844e+00,-3.442134261131286621e-01,7.649187743663787842e-02,2.600000000000000000e+02
-4.101054823244940053e+02,-3.927439988977453140e+02,-2.205486046829496445e+02,-1.351843036320824467e+02,-4.001525056386280994e+02,-2.034128295206073744e+02,-2.269357460621831706e+02,-2.294826209285479308e+02,9.484992027282714844e+00,-3.442134261131286621e-01,7.649187743663787842e-02,2.610000000000000000e+02
-4.163320773678688056e+02,-4.004313304841753052e+02,-2.257070783284984827e+02,-1.384331256876394036e+02,-4.071312244672672023e+02,-2.054817525377329730e+02,-2.326663740563767533e+02,-2.333961538610033131e+02,9.484992027282714844e+00,-3.442134261131286621e-01,7.649187743663787842e-02,2.620000000000000000e+02
-4.217224911836710817e+02,-4.072770412318513991e+02,-2.311643070562176945e+02,-1.421092700279996279e+02,-4.149289597505667189e+02,-2.069063100667262916e+02,-2.375593013040006554e+02,-2.367359836584009827e+02,9.484992027282714844e+00,-3.442134261131286621e-01,7.649187743663787842e-02,2.630000000000000000e+02
-4.275611652639440763e+02,-4.131571417387467591e+02,-2.359130973403471216e+02,-1.449273684323370617e+02,-4.227049041464842958e+02,-2.075229140168048616e+02,-2.414432489113532938e+02,-2.395016747609020058e+02,9.484992027282714844e+00,-3.442134261131286621e-01,7.649187743663787842e-02,2.640000000000000000e+02
-4.344267256276011722e+02,-4.183931634451046193e+02,-2.393134822118231568e+02,-1.465322380958950816e+02,-4.293188249753102355e+02,-2.078553243380238200e+02,-2.446556157981140132e+02,-2.422619065918534034e+02,9.484992027282714844e+00,-3.442134261131286621e-01,7.649187743663787842e-02,2.650000000000000000e+02
-4.416598039208656701e+02,-4.235469570007721813e+02,-2.415030534303382410e+02,-1.476344756345197311e+02,-4.342685930914913115e+02,-2.090325056850706460e+02,-2.476189936843479700e+02,-2.455851647891545326e+02,9.523238182067871094e+00,-3.824593424797058105e-01,7.649187743663787842e-02,2.660000000000000000e+02
-4.480281403604299157e+02,-4.290730555711056695e+02,-2.432380778256633675e+02,-1.490803307739533921e+02,-4.381568036131639019e+02,-2.121246606747081387e+02,-2.503927025180300916e+02,-2.494007815432355528e+02,9.523238182067871094e+00,-3.824593424797058105e-01,7.649187743663787842e-02,2.670000000000000000e+02
-4.529868678862203524e+02,-4.351111349104567125e+02,-2.453245383735197720e+02,-1.509228059113884228e+02,-4.422237394067974492e+02,-2.173073165450268789e+02,-2.526179558054177505e+02,-2.529220636873455987e+02,9.523238182067871094e+00,-3.824593424797058105e-01,7.649187743663787842e-02,2.680000000000000000e+02
-4.573026382886382635e+02,-4.414999568360335616e+02,-2.480989559927779737e+02,-1.524627714693888265e+02,-4.473684246097941468e+02,-2.235479163278323540e+02,-2.539151874370541009e+02,-2.552543562853370531e+02,9.523238182067871094e+00,-3.824593424797058105e-01,7.649187743663787842e-02,2.690000000000000000e+02
-4.623897241138220124e+02,-4.479027773732177593e+02,-2.513321590915738852e+02,-1.531303088041640876e+02,-4.535218140575252619e+02,-2.291532547860224440e+02,-2.543712242815413447e+02,-2.561885984535351781e+02,9.523238182067871094e+00,-3.824593424797058105e-01,7.649187743663787842e-02,2.700000000000000000e+02
-4.689511820183270174e+02,-4.539573124126595758e+02,-2.545612502896633487e+02,-1.531915795163022267e+02,-4.598473088291375461e+02,-2.327819930067134919e+02,-2.546924411106724619e+02,-2.565141977967714411e+02,9.523238182067871094e+00,-3.824593424797058105e-01,7.649187743663787842e-02,2.710000000000000000e+02
-4.762323752929260081e+02,-4.594070378734800215e+02,-2.575142121122235039e+02,-1.535483033787477325e+02,-4.655070236971091617e+02,-2.341631065081610359e+02,-2.558922777284205949e+02,-2.575798607939741487e+02,9.523238182067871094e+00,-3.824593424797058105e-01,7.649187743663787842e-02,2.720000000000000000e+02
-4.826338029208500302e+02,-4.641851074840442379e+02,-2.602600422822338260e+02,-1.549137527971161035e+02,-4.703039073625641322e+02,-2.340534663346579691e+02,-2.587215796456498538e+02,-2.604168974298277135e+02,9.523238182067871094e+00,-3.824593424797058105e-01,7.649187743663787842e-02,2.730000000000000000e+02
-4.871351197538465385e+02,-4.684359665319962005e+02,-2.630303226886271659e+02,-1.572471788803559321e+02,-4.747069777677379534e+02,-2.335880984201858155e+02,-2.632182512721660714e+02,-2.650779917747508989e+02,9.523238182067871094e+00,-3.824593424797058105e-01,7.649187743663787842e-02,2.740000000000000000e+02
-4.902142165823197502e+02,-4.724526430289301970e+02,-2.659547688968136754e+02,-1.599506885052460348e+02,-4.793399304124918672e+02,-2.335638734363901676e+02,-2.686455774077303431e+02,-2.706518260188663589e+02,9.523238182067871094e+00,-3.824593424797058105e-01,7.649187743663787842e-02,2.750000000000000000e+02
-4.934168479009235853e+02,-4.765508885913673112e+02,-2.689792673943270529e+02,-1.624708993338917935e+02,-4.844300512319878180e+02,-2.341099301394415306e+02,-2.738398372831579763e+02,-2.758846953081579159e+02,9.523238182067871094e+00,-3.824593424797058105e-01,7.649187743663787842e-02,2.760000000000000000e+02
-4.980012941150575898e+02,-4.809316603798401957e+02,-2.719998930606129761e+02,-1.646106930744699639e+02,-4.896566350760076602e+02,-2.348297872661014480e+02,-2.777828428281627566e+02,-2.799344232013199871e+02,9.523238182067871094e+00,-3.824593424797058105e-01,7.649187743663787842e-02,2.770000000000000000e+02
-5.039153168447660391e+02,-4.855712257114496424e+02,-2.750219703261213908e+02,-1.663390413153215377e+02,-4.944728076303699709e+02,-2.352218509089561849e+02,-2.801016782460919785e+02,-2.827685565198935365e+02,9.523238182067871094e+00,-3.824593424797058105e-01,7.649187743663787842e-02,2.780000000000000000e+02
-5.099774104328421345e+02,-4.901839523297430787e+02,-2.781570777425044980e+02,-1.675351007814106197e+02,-4.985891545401441363e+02,-2.351029028241573542e+02,-2.812299293151299935e+02,-2.850390049258935505e+02,9.523238182067871094e+00,-3.824593424797058105e-01,7.649187743663787842e-02,2.790000000000000000e+02
-5.149701764528922467e+02,-4.943174407826068091e+02,-2.814588737700014462e+02,-1.681031201052715005e+02,-5.022088891412768135e+02,-2.347990144449195213e+02,-2.821228491174174451e+02,-2.876079691362638187e+02,9.523238182067871094e+00,-3.824593424797058105e-01,7.649187743663787842e-02,2.800000000000000000e+02
-5.185657193413485402e+02,-4.975892963186533962e+02,-2.847613923889657599e+02,-1.683313867168940305e+02,-5.058334818666635329e+02,-2.349999901859100646e+02,-2.837011857281759148e+02,-2.910456448736836137e+02,9.523238182067871094e+00,-3.824593424797058105e-01,7.649187743663787842e-02,2.810000000000000000e+02
-5.212923881052533943e+02,-4.999542154566133831e+02,-2.876758143398669745e+02,-1.689446043897628442e+02,-5.097992143973824568e+02,-2.363547042950867763e+02,-2.863638468909771291e+02,-2.953392646368915848e+02,9.523238182067871094e+00,-3.824593424797058105e-01,7.649187743663787842e-02,2.820000000000000000e+02
-5.237697630839238627e+02,-5.017939066541071043e+02,-2.897707510625473333e+02,-1.705831557980081925e+02,-5.139316471297693170e+02,-2.390798711040970375e+02,-2.898396912043335760e+02,-2.998952248499326743e+02,9.523238182067871094e+00,-3.824593424797058105e-01,7.649187743663787842e-02,2.830000000000000000e+02
-5.261211682191083128e+02,-5.037102337062960942e+02,-2.908307099543658296e+02,-1.731401604109155414e+02,-5.176109025085088433e+02,-2.428479974902538743e+02,-2.933916046414369703e+02,-3.037970121340595142e+02,9.523238182067871094e+00,-3.824593424797058105e-01,7.649187743663787842e-02,2.840000000000000000e+02
-5.281496000865704445e+02,-5.061408366054065482e+02,-2.910404189424734795e+02,-1.756731446455746664e+02,-5.202096571544389008e+02,-2.469968378375588145e+02,-2.961860263988837687e+02,-3.062096090118602660e+02,9.523238182067871094e+00,-3.824593424797058105e-01,7.649187743663787842e-02,2.850000000000000000e+02
-5.299765688828433667e+02,-5.091033427184411266e+02,-2.909710973930364162e+02,-1.770936372616861263e+02,-5.215700076836733388e+02,-2.508333963464065164e+02,-2.976340541509380273e+02,-3.067641590589551015e+02,9.523238182067871094e+00,-3.824593424797058105e-01,7.649187743663787842e-02,2.860000000000000000e+02
-5.323160616080899672e+02,-5.122746736665189928e+02,-2.913204666976284898e+02,-1.770488553465193036e+02,-5.221552061268585021e+02,-2.537787154669540541e+02,-2.976219437184818162e+02,-3.057394028695607631e+02,9.523238182067871094e+00,-2.677215635776519775e-01,7.649187743663787842e-02,2.870000000000000000e+02
-5.359290973637016577e+02,-5.153107822058364036e+02,-2.924962612557251305e+02,-1.761815426327657406e+02,-5.227706830795373207e+02,-2.553779456892580129e+02,-2.966124783706250128e+02,-3.039563235856571737e+02,9.523238182067871094e+00,-2.677215635776519775e-01,7.649187743663787842e-02,2.880000000000000000e+02
-5.407317746586076055e+02,-5.181043110966046470e+02,-2.943121683996832871e+02,-1.755352140097024858e+02,-5.240841986480991181e+02,-2.554082240562984225e+02,-2.955619450701301503e+02,-3.024721294395268387e+02,9.523238182067871094e+00,-2.677215635776519775e-01,7.649187743663787842e-02,2.890000000000000000e+02
-5.454954376792138646e+02,-5.207705284596509046e+02,-2.960805192016161982e+02,-1.756870794108876908e+02,-5.263055439053969167e+02,-2.541696707001426603e+02,-2.955437395014629374e+02,-3.022391064181238107e+02,9.523238182067871094e+00,-2.677215635776519775e-01,7.649187743663787842e-02,2.900000000000000000e+02
-5.485938435464511258e+02,-5.234386869981303789e+02,-2.971221136254695239e+02,-1.764137991009474717e+02,-5.292118755950616560e+02,-2.526639463759988757e+02,-2.971328630813530935e+02,-3.038298169614208746e+02,9.523238182067871094e+00,-2.677215635776519775e-01,7.649187743663787842e-02,2.910000000000000000e+02
-5.492535722141519727e+02,-5.261052691993661483e+02,-2.973439015596793524e+02,-1.771405188978874321e+02,-5.324170328852675311e+02,-2.522618899485476049e+02,-2.999412419981838411e+02,-3.072540520247075619e+02,9.523238182067871094e+00,-2.677215635776519775e-01,7.649187743663787842e-02,2.920000000000000000e+02
-5.482180922739670450e+02,-5.286749230407887126e+02,-2.974061210104297288e+02,-1.776569135297638695e+02,-5.356345986323826764e+02,-2.538737105384616370e+02,-3.027791798366278044e+02,-3.118918427194691958e+02,9.523238182067871094e+00,-2.677215635776519775e-01,7.649187743663787842e-02,2.930000000000000000e+02
-5.472182049369043852e+02,-5.310842251258109172e+02,-2.982923779124815837e+02,-1.783693869766334501e+02,-5.387500296537530176e+02,-2.572100208805388775e+02,-3.045030404091853597e+02,-3.166515376470990759e+02,9.523238182067871094e+00,-2.677215635776519775e-01,7.649187743663787842e-02,2.940000000000000000e+02
-5.476948370152085772e+02,-5.333426028621986461e+02,-3.005967590544870518e+02,-1.798715371346404481e+02,-5.417138247618713649e+02,-2.608402314056513660e+02,-3.049701037907616410e+02,-3.204254298100399865e+02,9.523238182067871094e+00,-2.677215635776519775e-01,7.649187743663787842e-02,2.950000000000000000e+02
-5.498705323263168339e+02,-5.354882807331173353e+02,-3.040906521677794672e+02,-1.822893419523336433e+02,-5.443984079083833194e+02,-2.631516394530005982e+02,-3.052622165264325531e+02,-3.226587284944622525e+02,9.523238182067871094e+00,-2.677215635776519775e-01,7.649187743663787842e-02,2.960000000000000000e+02
-5.528848498778655767e+02,-5.375956923284754794e+02,-3.078958149766980341e+02,-1.850419566357293206e+02,-5.465661167903540445e+02,-2.635169651782666733e+02,-3.068507485561124213e+02,-3.236307168521213953e+02,9.523238182067871094e+00,-2.677215635776519775e-01,7.649187743663787842e-02,2.970000000000000000e+02
-5.557154294524364104e+02,-5.398838696188912536e+02,-3.110746506244151988e+02,-1.872389924185349628e+02,-5.479903899572228738e+02,-2.627315114212394747e+02,-3.103208780813283738e+02,-3.241771971261263161e+02,9.523238182067871094e+00,-2.677215635776519775e-01,7.649187743663787842e-02,2.980000000000000000e+02
-5.579598105977759133e+02,-5.427728200054964418e+02,-3.131503929346072255e+02,-1.883541122815890958e+02,-5.486495054415702270e+02,-2.623623260645008486e+02,-3.147640170187740978e+02,-3.250654033209017371e+02,9.523238182067871094e+00,-2.677215635776519775e-01,7.649187743663787842e-02,2.990000000000000000e+02
-5.598129978287056474e+02,-5.466855251220426908e+02,-3.142218446732630355e+02,-1.885846042154730640e+02,-5.488450966391380916e+02,-2.635470771619463903e+02,-3.184373747311649367e+02,-3.265630382139668200e+02,9.523238182067871094e+00,-2.677215635776519775e-01,7.649187743663787842e-02,3.000000000000000000e+02
-5.614450642204737960e+02,-5.516389970998850458e+02,-3.147340752264256025e+02,-1.886456980316968384e+02,-5.491518249550374549e+02,-2.662151453187373136e+02,-3.201660045552362135e+02,-3.285698886278438522e+02,9.523238182067871094e+00,-2.677215635776519775e-01,7.649187743663787842e-02,3.010000000000000000e+02
-5.625728006750377972e+02,-5.569815994053622035e+02,-3.151921532363593315e+02,-1.892291179717396972e+02,-5.501948225155015280e+02,-2.693110719996800526e+02,-3.202593617779708666e+02,-3.310796390238464255e+02,9.523238182067871094e+00,-2.677215635776519775e-01,7.649187743663787842e-02,3.020000000000000000e+02
-5.627450109373273790e+02,-5.616308205994736227e+02,-3.160122079319941122e+02,-1.905664128754838202e+02,-5.523458074307327479e+02,-2.717341834663770896e+02,-3.201179150960065272e+02,-3.343417787346797923e+02,9.523238182067871094e+00,-2.677215635776519775e-01,7.649187743663787842e-02,3.030000000000000000e+02
-5.620460567614852607e+02,-5.647687473513137775e+02,-3.174651756610155644e+02,-1.923786600259452371e+02,-5.554806253162394114e+02,-2.731427663323470370e+02,-3.208916136149646263e+02,-3.384352260680808513e+02,9.523238182067871094e+00,-2.677215635776519775e-01,7.649187743663787842e-02,3.040000000000000000e+02
-5.614097748361759841e+02,-5.664824839386687927e+02,-3.196020454989011341e+02,-1.941360366069025076e+02,-5.589524431201915604e+02,-2.739852288590241187e+02,-3.224067971701637134e+02,-3.426995042270868908e+02,9.523238182067871094e+00,-2.677215635776519775e-01,7.649187743663787842e-02,3.050000000000000000e+02
-5.620790011543220999e+02,-5.677774806798230429e+02,-3.221700733698214663e+02,-1.953646852911740552e+02,-5.618456409769653419e+02,-2.748554210738934671e+02,-3.233121432815892149e+02,-3.457788139434410368e+02,9.523238182067871094e+00,-2.677215635776519775e-01,7.649187743663787842e-02,3.060000000000000000e+02
-5.645908020055786665e+02,-5.698688216283073871e+02,-3.246616486724574315e+02,-1.958169084854480388e+02,-5.634319982290016924e+02,-2.758461219514992990e+02,-3.222773337600730201e+02,-3.465000697110604051e+02,9.523238182067871094e+00,-2.677215635776519775e-01,7.649187743663787842e-02,3.070000000000000000e+02
-5.681920812181147085e+02,-5.732749051517898806e+02,-3.265580895885220798e+02,-1.955065160788540197e+02,-5.635889546720277394e+02,-2.765048167323150210e+02,-3.191682608812096760e+02,-3.448850759973432787e+02,9.523238182067871094e+00,-2.677215635776519775e-01,7.649187743663787842e-02,3.080000000000000000e+02
-5.712812820986234783e+02,-5.774442968077705700e+02,-3.276296602662373516e+02,-1.946994736259705405e+02,-5.628706325836285487e+02,-2.763786156148842110e+02,-3.152241218835457630e+02,-3.422964348123957734e+02,9.523238182067871094e+00,-2.677215635776519775e-01,7.649187743663787842e-02,3.090000000000000000e+02
-5.725870589454227684e+02,-5.812068893205789664e+02,-3.280615501415694553e+02,-1.938794641598092312e+02,-5.621236623254528695e+02,-2.755806199402736638e+02,-3.121863968704390118e+02,-3.404577413691779952e+02,9.523238182067871094e+00,-2.677215635776519775e-01,7.649187743663787842e-02,3.100000000000000000e+02
-5.721299298219026923e+02,-5.836586969214434930e+02,-3.282830585175606757e+02,-1.936225690643248072e+02,-5.618802673380471333e+02,-2.748076144719764216e+02,-3.111753106230707999e+02,-3.401476937563965066e+02,9.523238182067871094e+00,-2.677215635776519775e-01,7.649187743663787842e-02,3.110000000000000000e+02
-5.711846160158758039e+02,-5.847590190745934251e+02,-3.286435414112410172e+02,-1.943672162548712095e+02,-5.619933813403717977e+02,-2.748053402979687689e+02,-3.121846686929586667e+02,-3.407388871119844680e+02,9.446745872497558594e+00,-4.589512646198272705e-01,7.649187743663787842e-02,3.120000000000000000e+02
-5.712817655353385362e+02,-5.851926466569002514e+02,-3.292147110243946599e+02,-1.961728592026796605e+02,-5.618558963736134046e+02,-2.757894612099155438e+02,-3.144073045785189606e+02,-3.409813493945197251e+02,9.446745872497558594e+00,-4.589512646198272705e-01,7.649187743663787842e-02,3.130000000000000000e+02
-5.730758313361527598e+02,-5.857005037512014951e+02,-3.298832670097931441e+02,-1.986261493017950670e+02,-5.610550062612887814e+02,-2.773060050307060465e+02,-3.169251122302592876e+02,-3.402559431028075210e+02,9.446745872497558594e+00,-4.589512646198272705e-01,7.649187743663787842e-02,3.140000000000000000e+02
-5.759686151965793215e+02,-5.865011319871964588e+02,-3.306217054463975273e+02,-2.009863344990650376e+02,-5.598913903644663606e+02,-2.785647542467900166e+02,-3.191479552204176571e+02,-3.391178493635511586e+02,9.446745872497558594e+00,-4.589512646198272705e-01,7.649187743663787842e-02,3.150000000000000000e+02
-5.787121890811748699e+02,-5.872569274604486509e+02,-3.316557491913216040e+02,-2.024985627169940017e+02,-5.592655813044417528e+02,-2.788847796974844186e+02,-3.207814944578145742e+02,-3.386680719594137372e+02,9.446745872497558594e+00,-4.589512646198272705e-01,7.649187743663787842e-02,3.160000000000000000e+02
-5.804223679734438974e+02,-5.875075757893481523e+02,-3.333183322722282469e+02,-2.027010497953771164e+02,-5.599685447163585650e+02,-2.779301927112104522e+02,-3.215769819301078769e+02,-3.394064566909691507e+02,9.446745872497558594e+00,-4.589512646198272705e-01,7.649187743663787842e-02,3.170000000000000000e+02
-5.811448312056534178e+02,-5.871236437385490490e+02,-3.356698965471181282e+02,-2.015767315690311534e+02,-5.619674318220650093e+02,-2.757296796705580846e+02,-3.212490456120212912e+02,-3.406645660296744609e+02,9.446745872497558594e+00,-4.589512646198272705e-01,7.649187743663787842e-02,3.180000000000000000e+02
-5.815704135136122659e+02,-5.864025002533931001e+02,-3.382282728143310351e+02,-1.995189717479518094e+02,-5.643157451021412498e+02,-2.726498479824837204e+02,-3.197084199754100382e+02,-3.411282988697469705e+02,9.446745872497558594e+00,-4.589512646198272705e-01,7.649187743663787842e-02,3.190000000000000000e+02
-5.822435403055225152e+02,-5.858012355790663150e+02,-3.401067290748250116e+02,-1.971887963571102773e+02,-5.657824261244485342e+02,-2.693705362547168534e+02,-3.173891247047678235e+02,-3.399518738025338962e+02,9.446745872497558594e+00,-4.589512646198272705e-01,7.649187743663787842e-02,3.200000000000000000e+02
-5.830026532575285501e+02,-5.856117418826847825e+02,-3.405382811038463160e+02,-1.953322493939665492e+02,-5.656875364078260873e+02,-2.667156475135848268e+02,-3.152952593388133664e+02,-3.374618987862825179e+02,9.446745872497558594e+00,-4.589512646198272705e-01,7.649187743663787842e-02,3.210000000000000000e+02
-5.831292337996426340e+02,-5.858456083262728953e+02,-3.394037501980154730e+02,-1.945652876940432634e+02,-5.642622048652447120e+02,-2.652780092662035258e+02,-3.145521749194549557e+02,-3.348654932538770481e+02,9.446745872497558594e+00,-4.589512646198272705e-01,7.649187743663787842e-02,3.220000000000000000e+02
-5.820310158997890539e+02,-5.863501188253802638e+02,-3.373244826857242060e+02,-1.951357624359353622e+02,-5.622758496837620896e+02,-2.650729369469968333e+02,-3.156477974393715158e+02,-3.332554282038303199e+02,9.446745872497558594e+00,-4.589512646198272705e-01,7.649187743663787842e-02,3.230000000000000000e+02
-5.798287604538579671e+02,-5.869896338712510442e+02,-3.352176061351742646e+02,-1.967619819255236280e+02,-5.602895759128383588e+02,-2.655513023210021402e+02,-3.179148527681628593e+02,-3.327694059519873235e+02,9.446745872497558594e+00,-4.589512646198272705e-01,7.649187743663787842e-02,3.240000000000000000e+02
-5.773195444840168875e+02,-5.877208235727018746e+02,-3.336534711314870947e+02,-1.986998001100495230e+02,-5.581855027049834916e+02,-2.660339314516218110e+02,-3.197618931247543514e+02,-3.325755490445348528e+02,9.446745872497558594e+00,-4.589512646198272705e-01,7.649187743663787842e-02,3.250000000000000000e+02
-5.753648866755227118e+02,-5.885201261669117230e+02,-3.325330948836999596e+02,-2.000826209434845850e+02,-5.553666789655272851e+02,-2.661991384522800672e+02,-3.196500090597934332e+02,-3.316234869504592666e+02,9.446745872497558594e+00,-4.589512646198272705e-01,7.649187743663787842e-02,3.260000000000000000e+02
-5.742511013021007784e+02,-5.892345870536826169e+02,-3.313376315551540756e+02,-2.003533092147582693e+02,-5.514545417265826472e+02,-2.661702686254377568e+02,-3.171771423331533697e+02,-3.295036952656069502e+02,9.446745872497558594e+00,-4.589512646198272705e-01,7.649187743663787842e-02,3.270000000000000000e+02
-5.735527657207335324e+02,-5.894828885091532129e+02,-3.297229675694629805e+02,-1.994855655223626627e+02,-5.468963057091987139e+02,-2.661493848500647346e+02,-3.134320754721218236e+02,-3.267538142014625464e+02,9.446745872497558594e+00,-4.589512646198272705e-01,7.649187743663787842e-02,3.280000000000000000e+02
-5.725676770296603308e+02,-5.887357676487474691e+02,-3.279459704079280300e+02,-1.978448439522938997e+02,-5.429346670189617043e+02,-2.659992143187332658e+02,-3.102869091411408817e+02,-3.244576040327636406e+02,9.446745872497558594e+00,-4.589512646198272705e-01,7.649187743663787842e-02,3.290000000000000000e+02
-5.709096173200931617e+02,-5.866028908369382862e+02,-3.267486329899014663e+02,-1.958639850726444820e+02,-5.408785285204817228e+02,-2.652393114543513093e+02,-3.091403668998834746e+02,-3.235120087118223182e+02,9.446745872497558594e+00,-4.589512646198272705e-01,7.649187743663787842e-02,3.300000000000000000e+02
-5.687499418649663312e+02,-5.831745806050005285e+02,-3.267567286418959611e+02,-1.938432262680072427e+02,-5.411800761328579483e+02,-2.634870447252521899e+02,-3.100524318414475147e+02,-3.240759573553115729e+02,9.446745872497558594e+00,-4.589512646198272705e-01,7.649187743663787842e-02,3.310000000000000000e+02
-5.665737898518449356e+02,-5.791386479070008590e+02,-3.278614717328252937e+02,-1.920108226971628937e+02,-5.430206094490366695e+02,-2.609182561955269648e+02,-3.118651227847936980e+02,-3.254915993673292292e+02,9.446745872497558594e+00,-4.589512646198272705e-01,7.649187743663787842e-02,3.320000000000000000e+02
-5.647454391611560141e+02,-5.754816457092742894e+02,-3.290906179658201154e+02,-1.906585007433667442e+02,-5.447571364802093967e+02,-2.582894622718065420e+02,-3.130864565798007106e+02,-3.266211622731128159e+02,9.446745872497558594e+00,-4.589512646198272705e-01,7.649187743663787842e-02,3.330000000000000000e+02
-5.632765393896568185e+02,-5.729114929266726222e+02,-3.291294173608855544e+02,-1.900522497951848209e+02,-5.449195363609896958e+02,-2.564487176421814638e+02,-3.127593997507655104e+02,-3.263619628379456685e+02,9.446745872497558594e+00,-4.589512646198272705e-01,7.649187743663787842e-02,3.340000000000000000e+02
-5.619390606573754212e+02,-5.714151312333688111e+02,-3.271819732393387312e+02,-1.900995414605816904e+02,-5.430384219934264820e+02,-2.557331756970716015e+02,-3.107257652063741489e+02,-3.241301301214281239e+02,9.446745872497558594e+00,-4.589512646198272705e-01,7.649187743663787842e-02,3.350000000000000000e+02
-5.605248091389037199e+02,-5.703084774425783507e+02,-3.235670372977808711e+02,-1.901500841597975295e+02,-5.397447004620012194e+02,-2.557407752422711837e+02,-3.073476362227837626e+02,-3.201482252737039857e+02,9.446745872497558594e+00,-4.589512646198272705e-01,7.649187743663787842e-02,3.360000000000000000e+02
-5.589554188169645386e+02,-5.687572463092136559e+02,-3.195810430790259034e+02,-1.893211613488786043e+02,-5.361653933145732935e+02,-2.556639689230009935e+02,-3.031737763944034896e+02,-3.153874111982484578e+02,9.446745872497558594e+00,-4.589512646198272705e-01,7.649187743663787842e-02,3.370000000000000000e+02
-5.571689837997619179e+02,-5.663453797891895647e+02,-3.166782509554387275e+02,-1.872195432899872003e+02,-5.331523843698046221e+02,-2.549283372360987414e+02,-2.988604569023813724e+02,-3.111003180037725429e+02,9.446745872497558594e+00,-4.589512646198272705e-01,7.649187743663787842e-02,3.380000000000000000e+02
-5.549956186819448476e+02,-5.632585736253290634e+02,-3.155468649833932204e+02,-1.844170884235459198e+02,-5.308987404567449175e+02,-2.536034785036270023e+02,-2.951948436001603682e+02,-3.081407483132826428e+02,9.523238182067871094e+00,-3.059675097465515137e-01,7.649187743663787842e-02,3.390000000000000000e+02
-5.522568507663843320e+02,-5.600180887085615495e+02,-3.157626722202115275e+02,-1.821195232417019270e+02,-5.290781095000077130e+02,-2.522393526440521327e+02,-2.928906789526987495e+02,-3.064903407370367177e+02,9.523238182067871094e+00,-3.059675097465515137e-01,7.649187743663787842e-02,3.400000000000000000e+02
-5.490404464283612924e+02,-5.570743768840264920e+02,-3.162428337643236205e+02,-1.811981404319956255e+02,-5.272313437126947520e+02,-2.512707429459873083e+02,-2.921434197823336945e+02,-3.053501059057686007e+02,9.523238182067871094e+00,-3.059675097465515137e-01,7.649187743663787842e-02,3.410000000000000000e+02
-5.458411855445887113e+02,-5.546017857164583802e+02,-3.160721217591803907e+02,-1.814372665198695813e+02,-5.250518884393129611e+02,-2.505241911023172179e+02,-2.923441507722678807e+02,-3.037595312372640137e+02,9.523238182067871094e+00,-3.059675097465515137e-01,7.649187743663787842e-02,3.420000000000000000e+02
-5.433134868141094103e+02,-5.525536538092292176e+02,-3.149947739583453767e+02,-1.817352396633548324e+02,-5.224467632526477701e+02,-2.493097349082552228e+02,-2.923534837761933431e+02,-3.012768517356682878e+02,9.523238182067871094e+00,-3.059675097465515137e-01,7.649187743663787842e-02,3.430000000000000000e+02
-5.417590137376416806e+02,-5.507927293848531463e+02,-3.132412785244966926e+02,-1.811134501969668236e+02,-5.194625328018298660e+02,-2.470655667796258967e+02,-2.912516815603303257e+02,-2.982122150790995647e+02,9.523238182067871094e+00,-3.059675097465515137e-01,7.649187743663787842e-02,3.440000000000000000e+02
-5.407952073249314253e+02,-5.491342927895389039e+02,-3.110310417196740218e+02,-1.795923485572084246e+02,-5.162326006258065263e+02,-2.439835444508337332e+02,-2.889775648513939359e+02,-2.953147639575345238e+02,9.523238182067871094e+00,-3.059675097465515137e-01,7.649187743663787842e-02,3.450000000000000000e+02
-5.395515444371593503e+02,-5.473341186430088783e+02,-3.083572742858500533e+02,-1.781032254044450838e+02,-5.130071867460484327e+02,-2.410135449374801055e+02,-2.862975000633839500e+02,-2.932611104449334789e+02,9.523238182067871094e+00,-3.059675097465515137e-01,7.649187743663787842e-02,3.460000000000000000e+02
-5.372935662076113204e+02,-5.451372542404158139e+02,-3.052599869268694874e+02,-1.775461280567341191e+02,-5.101866616480513130e+02,-2.391954355592636148e+02,-2.841042227944080878e+02,-2.923479828364864943e+02,9.523238182067871094e+00,-3.059675097465515137e-01,7.649187743663787842e-02,3.470000000000000000e+02
-5.339761157728520402e+02,-5.424045904986626283e+02,-3.021882347980094892e+02,-1.779274589688319566e+02,-5.082474780068084783e+02,-2.388993014419963856e+02,-2.826483948522554783e+02,-2.925036786104831208e+02,9.523238182067871094e+00,-3.059675097465515137e-01,7.649187743663787842e-02,3.480000000000000000e+02
-5.302683078473002070e+02,-5.392028101880043778e+02,-2.999145950255413027e+02,-1.783944693291198291e+02,-5.075070341922089483e+02,-2.396330496777774215e+02,-2.813871995768752186e+02,-2.934342113777727263e+02,9.523238182067871094e+00,-3.059675097465515137e-01,7.649187743663787842e-02,3.490000000000000000e+02
-5.270474946905958404e+02,-5.357693061504977550e+02,-2.989515474692423140e+02,-1.780811246492939972e+02,-5.078165580629245142e+02,-2.405280125894107641e+02,-2.795814604603035605e+02,-2.947206685586262438e+02,9.523238182067871094e+00,-3.059675097465515137e-01,7.649187743663787842e-02,3.500000000000000000e+02
-5.247928445301022293e+02,-5.323821371700695408e+02,-2.990272360016424500e+02,-1.769008681209735414e+02,-5.084185456024067662e+02,-2.410002756694689197e+02,-2.770827026822785228e+02,-2.958913039523310999e+02,9.523238182067871094e+00,-3.059675097465515137e-01,7.649187743663787842e-02,3.510000000000000000e+02
-5.233333842746226310e+02,-5.292505338520245459e+02,-2.991982238287725977e+02,-1.755377631628749668e+02,-5.082023470872823054e+02,-2.409791432645120040e+02,-2.745680515939815223e+02,-2.965554510046924861e+02,9.523238182067871094e+00,-3.059675097465515137e-01,7.649187743663787842e-02,3.520000000000000000e+02
-5.220644498047258821e+02,-5.264979575187268210e+02,-2.985469540696323065e+02,-1.747332783203719373e+02,-5.063263103058857268e+02,-2.406072898845313830e+02,-2.729684624811148979e+02,-2.965576517814225781e+02,9.523238182067871094e+00,-3.059675097465515137e-01,7.649187743663787842e-02,3.530000000000000000e+02
-5.203823963445701111e+02,-5.241984693110736089e+02,-2.968164041856266522e+02,-1.746204908105432878e+02,-5.027857055576816947e+02,-2.398415214377450866e+02,-2.725865600173551684e+02,-2.959880177524447618e+02,9.523238182067871094e+00,-3.059675097465515137e-01,7.649187743663787842e-02,3.540000000000000000e+02
-5.180194222064512815e+02,-5.223854957461029471e+02,-2.944075340581124465e+02,-1.747309028792158188e+02,-4.984230590431933479e+02,-2.383967403365591053e+02,-2.727233691446608645e+02,-2.949953566529756017e+02,9.523238182067871094e+00,-3.059675097465515137e-01,7.649187743663787842e-02,3.550000000000000000e+02
-5.151370460753698808e+02,-5.209934507211787604e+02,-2.918396053535615238e+02,-1.745714552339467218e+02,-4.942875472977830213e+02,-2.360513932698243025e+02,-2.721919942555377929e+02,-2.935970767664805408e+02,9.523238182067871094e+00,-3.059675097465515137e-01,7.649187743663787842e-02,3.560000000000000000e+02
-5.122009948239968935e+02,-5.197618268345313481e+02,-2.892987807291356148e+02,-1.741201721847577346e+02,-4.908497798833398065e+02,-2.329461753195541860e+02,-2.702790813409412749e+02,-2.917075075969123645e+02,9.523238182067871094e+00,-3.059675097465515137e-01,7.649187743663787842e-02,3.570000000000000000e+02
-5.097246792490470852e+02,-5.181981067137064656e+02,-2.867310752646911851e+02,-1.737568796835339526e+02,-4.877751987852304865e+02,-2.295654920548788596e+02,-2.673007561963404441e+02,-2.893633655020453261e+02,9.523238182067871094e+00,-3.059675097465515137e-01,7.649187743663787842e-02,3.580000000000000000e+02
-5.079734888386776674e+02,-5.156983243645264565e+02,-2.842758066727468531e+02,-1.737632440513880283e+02,-4.844567421984684188e+02,-2.264364890636798009e+02,-2.642668598700878420e+02,-2.868742495935315446e+02,9.523238182067871094e+00,-3.059675097465515137e-01,7.649187743663787842e-02,3.590000000000000000e+02
-5.067844484055542580e+02,-5.118441400898956317e+02,-2.824426751814168028e+02,-1.739324896387631725e+02,-4.807771007144797295e+02,-2.238276831016069082e+02,-2.619954970675138384e+02,-2.846806684772370772e+02,9.523238182067871094e+00,-3.059675097465515137e-01,7.649187743663787842e-02,3.600000000000000000e+02
-5.056617725120804607e+02,-5.067374133174449753e+02,-2.817331886453160905e+02,-1.736731447000021262e+02,-4.773415913886937005e+02,-2.216685759550537114e+02,-2.605158586766800681e+02,-2.830497338744389708e+02,9.523238182067871094e+00,-3.059675097465515137e-01,7.649187743663787842e-02,3.610000000000000000e+02
-5.041244518194425837e+02,-5.010962845830026708e+02,-2.820704967860415309e+02,-1.724950667295543099e+02,-4.749720801346434200e+02,-2.196973847487511193e+02,-2.592903526311522455e+02,-2.819693629576969442e+02,9.523238182067871094e+00,-3.059675097465515137e-01,7.649187743663787842e-02,3.620000000000000000e+02
-5.020311290949307477e+02,-4.959255181583814647e+02,-2.826732581984177841e+02,-1.704379392364257910e+02,-4.739854961761030836e+02,-2.176954850969989366e+02,-2.579599690741147242e+02,-2.813679081765850469e+02,9.523238182067871094e+00,-3.059675097465515137e-01,7.649187743663787842e-02,3.630000000000000000e+02
-4.995703595120278351e+02,-4.919117047815211663e+02,-2.825709855796827696e+02,-1.680849407559664996e+02,-4.739366529107419410e+02,-2.156490873456475583e+02,-2.567917667326074707e+02,-2.813546641176867524e+02,9.523238182067871094e+00,-3.059675097465515137e-01,7.649187743663787842e-02,3.640000000000000000e+02
-4.969125314562312496e+02,-4.889996068180224711e+02,-2.812821599033936764e+02,-1.661764292273603587e+02,-4.739667502234906351e+02,-2.137588022447371259e+02,-2.563382344207146843e+02,-2.820886359885923866e+02,9.523238182067871094e+00,-3.059675097465515137e-01,7.649187743663787842e-02,3.650000000000000000e+02
-4.939122750007096556e+02,-4.865467308392808263e+02,-2.790139165024078238e+02,-1.651346404924327089e+02,-4.732987561736129010e+02,-2.122936863964837357e+02,-2.566395828358095059e+02,-2.832865192246368906e+02,9.523238182067871094e+00,-3.059675097465515137e-01,7.649187743663787842e-02,3.660000000000000000e+02
-4.902510802439431927e+02,-4.839706135646620169e+02,-2.762436727706694910e+02,-1.648255956707855603e+02,-4.714105618317446442e+02,-2.113607839962835442e+02,-2.568133953738079072e+02,-2.838902570593793371e+02,9.523238182067871094e+00,-3.059675097465515137e-01,7.649187743663787842e-02,3.670000000000000000e+02
-4.859251965625069261e+02,-4.813009020730954717e+02,-2.731742835623037990e+02,-1.646755316825824593e+02,-4.679292630771290078e+02,-2.107509835698374445e+02,-2.555512203768694235e+02,-2.824333252497540343e+02,9.523238182067871094e+00,-3.059675097465515137e-01,7.649187743663787842e-02,3.680000000000000000e+02
-4.815285661152452121e+02,-4.790777567410148094e+02,-2.696460858735973716e+02,-1.640314783546389208e+02,-4.626406060622070981e+02,-2.100024508127560239e+02,-2.521802027135679509e+02,-2.780236946848103798e+02,9.523238182067871094e+00,-3.059675097465515137e-01,7.649187743663787842e-02,3.690000000000000000e+02
-4.779062822210423747e+02,-4.776490451101772123e+02,-2.655630941977508428e+02,-1.625230149044366499e+02,-4.557862545062039317e+02,-2.086609524780942593e+02,-2.473535956974378678e+02,-2.711849558490338268e+02,9.446745872497558594e+00,-3.442134261131286621e-01,3.824593871831893921e-02,3.700000000000000000e+02
-4.754029315441225663e+02,-4.765521825747415505e+02,-2.613169297174443955e+02,-1.602177928795597381e+02,-4.483180397400926722e+02,-2.065415851473906059e+02,-2.427141317018182463e+02,-2.637687925348473073e+02,9.446745872497558594e+00,-3.442134261131286621e-01,3.824593871831893921e-02,3.710000000000000000e+02
-4.734508832284254822e+02,-4.746511024343828922e+02,-2.576925382278157031e+02,-1.574929127807540681e+02,-4.416494755147664364e+02,-2.037964672398009043e+02,-2.397418309983295330e+02,-2.578691991464737612e+02,9.446745872497558594e+00,-3.442134261131286621e-01,3.824593871831893921e-02,3.720000000000000000e+02
-4.710052867410429371e+02,-4.710011664309766957e+02,-2.553007899941894721e+02,-1.547171427907182988e+02,-4.369181361275459494e+02,-2.007755020957290526e+02,-2.386995874949943754e+02,-2.545412074740272601e+02,9.446745872497558594e+00,-3.442134261131286621e-01,3.824593871831893921e-02,3.730000000000000000e+02
-4.674810714625543824e+02,-4.656984326775227601e+02,-2.540862226676267710e+02,-1.519870588522935577e+02,-4.343205290898863495e+02,-1.978368899267211418e+02,-2.385045987238684120e+02,-2.533215724960998614e+02,9.446745872497558594e+00,-3.442134261131286621e-01,3.824593871831893921e-02,3.740000000000000000e+02
-4.632711629231084771e+02,-4.599367194671810921e+02,-2.533828983575485836e+02,-1.491519012435805962e+02,-4.330874768462394968e+02,-1.952724035101052777e+02,-2.376021319668495835e+02,-2.528824529525318212e+02,9.446745872497558594e+00,-3.442134261131286621e-01,3.824593871831893921e-02,3.750000000000000000e+02
-4.592923095942730924e+02,-4.551969651136885204e+02,-2.524463417561091774e+02,-1.461542919121420709e+02,-4.321103632487647701e+02,-1.933591638686532406e+02,-2.351501512248898962e+02,-2.522102767846988627e+02,9.446745872497558594e+00,-3.442134261131286621e-01,3.824593871831893921e-02,3.760000000000000000e+02
-4.559928371777068605e+02,-4.522446373798129571e+02,-2.509577805681360587e+02,-1.433997434760976830e+02,-4.306713451289219847e+02,-1.923948576111333750e+02,-2.316239551645294341e+02,-2.513036090781836265e+02,9.446745872497558594e+00,-3.442134261131286621e-01,3.824593871831893921e-02,3.770000000000000000e+02
-4.528466626982776688e+02,-4.507297259207232401e+02,-2.490945853664620699e+02,-1.417541320076938973e+02,-4.287241754796486930e+02,-1.926123335161275918e+02,-2.284267871022157124e+02,-2.508748531353890030e+02,9.446745872497558594e+00,-3.442134261131286621e-01,3.824593871831893921e-02,3.780000000000000000e+02
-4.489073599905129868e+02,-4.496038945907289417e+02,-2.472346564490262608e+02,-1.420157243352639398e+02,-4.266345751666769957e+02,-1.939919934202023342e+02,-2.268522288175854555e+02,-2.514202273019363929e+02,9.446745872497558594e+00,-3.442134261131286621e-01,3.824593871831893921e-02,3.790000000000000000e+02
-4.439084789676508080e+02,-4.478981404172443490e+02,-2.456606438425792476e+02,-1.441646032805233517e+02,-4.247259714844788050e+02,-1.960901085650257301e+02,-2.271844598289749229e+02,-2.525137087348000478e+02,9.446745872497558594e+00,-3.442134261131286621e-01,3.824593871831893921e-02,3.800000000000000000e+02
-4.387896464952036695e+02,-4.452383183946190002e+02,-2.444957566931288966e+02,-1.470141286666539600e+02,-4.230195720265687669e+02,-1.980308840888092163e+02,-2.285512052876547386e+02,-2.529199770440143311e+02,9.446745872497558594e+00,-3.442134261131286621e-01,3.824593871831893921e-02,3.810000000000000000e+02
-4.350594504317730298e+02,-4.418498559718464094e+02,-2.437608551142261604e+02,-1.486970702596868250e+02,-4.212720758762138757e+02,-1.987447365392990832e+02,-2.295463835569121329e+02,-2.514079793414612141e+02,9.446745872497558594e+00,-3.442134261131286621e-01,3.824593871831893921e-02,3.820000000000000000e+02
-4.335389828118300102e+02,-4.382508715243593542e+02,-2.433382690508738051e+02,-1.477705491800879827e+02,-4.191620308634783214e+02,-1.974184784094295537e+02,-2.291039029783178194e+02,-2.475901032082083475e+02,9.446745872497558594e+00,-3.442134261131286621e-01,3.824593871831893921e-02,3.830000000000000000e+02
-4.336294282333387855e+02,-4.349395400341577442e+02,-2.428614282361772894e+02,-1.441582342427468575e+02,-4.164532603599636786e+02,-1.939507950515812809e+02,-2.270097240353179586e+02,-2.421683881468861728e+02,9.446745872497558594e+00,-3.442134261131286621e-01,3.824593871831893921e-02,3.840000000000000000e+02
-4.337396285970644385e+02,-4.321913654200520796e+02,-2.417744718068670409e+02,-1.392091813020674635e+02,-4.130905626737812781e+02,-1.891162045841401778e+02,-2.238251751361044626e+02,-2.365182911170186344e+02,9.446745872497558594e+00,-3.442134261131286621e-01,3.824593871831893921e-02,3.850000000000000000e+02
-4.324348146114627980e+02,-4.299305325057557639e+02,-2.396723020931424344e+02,-1.348115942033132342e+02,-4.092337378647248443e+02,-1.842458010661350727e+02,-2.204523924036855078e+02,-2.319795163841790782e+02,9.446745872497558594e+00,-3.442134261131286621e-01,3.824593871831893921e-02,3.860000000000000000e+02
-4.292959819399088701e+02,-4.276855772603673813e+02,-2.366712352622714661e+02,-1.322376506727209744e+02,-4.052110974478050593e+02,-1.805307442963501217e+02,-2.177158584366284231e+02,-2.292983255357873986e+02,9.446745872497558594e+00,-3.442134261131286621e-01,3.824593871831893921e-02,3.870000000000000000e+02
-4.248940473822003696e+02,-4.247495068941350382e+02,-2.334198469723094149e+02,-1.315516271794394925e+02,-4.013782310556043740e+02,-1.783668918428884353e+02,-2.161296833125470584e+02,-2.284268204324025646e+02,9.446745872497558594e+00,-3.442134261131286621e-01,3.824593871831893921e-02,3.880000000000000000e+02
-4.201607137425489782e+02,-4.205778013797698804e+02,-2.306649432162371340e+02,-1.318714071770546070e+02,-3.979428967816136264e+02,-1.771854180842524329e+02,-2.157722983729536281e+02,-2.286327332527416729e+02,9.446745872497558594e+00,-3.442134261131286621e-01,3.824593871831893921e-02,3.890000000000000000e+02
-4.158465131734276383e+02,-4.152011510908096170e+02,-2.287315278841431336e+02,-1.320995647077893409e+02,-3.948712932671405724e+02,-1.759022153939267810e+02,-2.161729029859288858e+02,-2.288102797287340309e+02,9.446745872497558594e+00,-3.442134261131286621e-01,3.824593871831893921e-02,3.900000000000000000e+02
-4.123974170757896900e+02,-4.093024478006254867e+02,-2.273813020943564425e+02,-1.315058617201771085e+02,-3.919685005334283687e+02,-1.736827848796674516e+02,-2.163243486610513173e+02,-2.279194335442980446e+02,9.446745872497558594e+00,-3.059675097465515137e-01,1.147378161549568176e-01,3.910000000000000000e+02
-4.100131277335863160e+02,-4.038345475191551941e+02,-2.261321195910325059e+02,-1.298808230202159848e+02,-3.890738856220941670e+02,-1.705096395885366292e+02,-2.150240737572398757e+02,-2.254399028745037867e+02,9.446745872497558594e+00,-3.059675097465515137e-01,1.147378161549568176e-01,3.920000000000000000e+02
-4.085404560186327672e+02,-3.994558976721307317e+02,-2.246699648318826803e+02,-1.274159427112203957e+02,-3.861860073200523402e+02,-1.671877781172584037e+02,-2.115083506329133343e+02,-2.216167908646418709e+02,9.446745872497558594e+00,-3.059675097465515137e-01,1.147378161549568176e-01,3.930000000000000000e+02
-4.072854307942336618e+02,-3.962292270906305021e+02,-2.229508659552341214e+02,-1.245666189276109890e+02,-3.833875194123652363e+02,-1.647912510735054639e+02,-2.059898717172391116e+02,-2.173072112296001706e+02,9.446745872497558594e+00,-3.059675097465515137e-01,1.147378161549568176e-01,3.940000000000000000e+02
-4.051642125458197370e+02,-3.937751896340789699e+02,-2.209861167158801436e+02,-1.219404812588620644e+02,-3.806340371413562025e+02,-1.639003342150867866e+02,-1.996294064282012641e+02,-2.134557092841694157e+02,9.446745872497558594e+00,-3.059675097465515137e-01,1.147378161549568176e-01,3.950000000000000000e+02
-4.013633842889041716e+02,-3.916383055980720655e+02,-2.186755148889703833e+02,-1.200860596479897140e+02,-3.776482168186521449e+02,-1.641197982079647772e+02,-1.938725642202530253e+02,-2.105477835245153528e+02,9.446745872497558594e+00,-3.059675097465515137e-01,1.147378161549568176e-01,3.960000000000000000e+02
-3.960510244163385778e+02,-3.894632839933854029e+02,-2.159577990358370698e+02,-1.191795059704454616e+02,-3.741123982987305681e+02,-1.642185595078267397e+02,-1.896284111718446184e+02,-2.084525357633278873e+02,9.446745872497558594e+00,-3.059675097465515137e-01,1.147378161549568176e-01,3.970000000000000000e+02
-3.904146904192755301e+02,-3.869044247002643715e+02,-2.131038892471672170e+02,-1.188612490003083622e+02,-3.700539842125435825e+02,-1.628738669894714803e+02,-1.869270282817985844e+02,-2.067584393548638673e+02,9.446745872497558594e+00,-3.059675097465515137e-01,1.147378161549568176e-01,3.980000000000000000e+02
-3.858225906898223911e+02,-3.835755388919426423e+02,-2.107294946059228096e+02,-1.184618098363775971e+02,-3.660479075210457722e+02,-1.595777988046220344e+02,-1.852653887876997487e+02,-2.052864554667235097e+02,9.446745872497558594e+00,-3.059675097465515137e-01,1.147378161549568176e-01,3.990000000000000000e+02
-3.827625273776307040e+02,-3.793032317214094746e+02,-2.093714068450126433e+02,-1.175200836661470021e+02,-3.629362792103643187e+02,-1.550816750179533301e+02,-1.842467530160033675e+02,-2.043081161845830138e+02,9.446745872497558594e+00,-3.059675097465515137e-01,1.147378161549568176e-01,4.000000000000000000e+02
-3.805150251316745198e+02,-3.745076785469752849e+02,-2.089716313923054258e+02,-1.161708529183449627e+02,-3.611877456531763073e+02,-1.510079282093438451e+02,-1.839022767439969357e+02,-2.042657969108413454e+02,9.446745872497558594e+00,-3.059675097465515137e-01,1.147378161549568176e-01,4.010000000000000000e+02
-3.778793423932120277e+02,-3.702101436094096698e+02,-2.088009675405435246e+02,-1.150351842409741039e+02,-3.604236412379245849e+02,-1.488419117322009697e+02,-1.844375193352450424e+02,-2.052337889156081019e+02,9.446745872497558594e+00,-3.059675097465515137e-01,1.147378161549568176e-01,4.020000000000000000e+02
-3.742866776917703646e+02,-3.674142446424432364e+02,-2.079812553037709222e+02,-1.146913279711629912e+02,-3.595922583759604549e+02,-1.490031578091729898e+02,-1.857288979559946256e+02,-2.066144376067520625e+02,9.446745872497558594e+00,-3.059675097465515137e-01,1.147378161549568176e-01,4.030000000000000000e+02
-3.702682095473837762e+02,-3.662903757584665527e+02,-2.061769929367244458e+02,-1.151748922096492151e+02,-3.577084739282940973e+02,-1.506072357586795079e+02,-1.871162261017739183e+02,-2.073730290925996087e+02,9.446745872497558594e+00,-3.059675097465515137e-01,1.147378161549568176e-01,4.040000000000000000e+02
-3.668738406563340959e+02,-3.659438214796998636e+02,-2.038419065679802316e+02,-1.159219664733018362e+02,-3.545544501203228265e+02,-1.520107198447767587e+02,-1.877294615598843848e+02,-2.066609866017977311e+02,9.446745872497558594e+00,-3.059675097465515137e-01,1.147378161549568176e-01,4.050000000000000000e+02
-3.646452941194170307e+02,-3.650861971303213522e+02,-2.017986040211440013e+02,-1.161717629166159895e+02,-3.507403264010206385e+02,-1.516989278092055429e+02,-1.870560719351201442e+02,-2.043486934990978625e+02,9.446745872497558594e+00,-3.059675097465515137e-01,1.147378161549568176e-01,4.060000000000000000e+02
-3.631177726316100234e+02,-3.630546385406889840e+02,-2.005400927843561476e+02,-1.154746421421796185e+02,-3.471147669030451652e+02,-1.489650757590034118e+02,-1.852422718879968215e+02,-2.010803843856247113e+02,9.446745872497558594e+00,-3.059675097465515137e-01,1.147378161549568176e-01,4.070000000000000000e+02
-3.612613117029166006e+02,-3.602426210281394106e+02,-1.998804772171347395e+02,-1.139327188760867102e+02,-3.441187774621889730e+02,-1.441314388090227112e+02,-1.829031264993159311e+02,-1.978568091776794518e+02,9.446745872497558594e+00,-3.059675097465515137e-01,1.147378161549568176e-01,4.080000000000000000e+02
-3.583605735001954145e+02,-3.575544728065751769e+02,-1.992320757061193035e+02,-1.120574168456500956e+02,-3.416618786160702257e+02,-1.383548887462884522e+02,-1.806709141370199632e+02,-1.955080347145426458e+02,9.446745872497558594e+00,-3.059675097465515137e-01,1.147378161549568176e-01,4.090000000000000000e+02
-3.545034158213290993e+02,-3.554507494435406443e+02,-1.982114613668670700e+02,-1.104098255808730755e+02,-3.395199639864065375e+02,-1.331409665726541789e+02,-1.788768071661202157e+02,-1.944169954103408600e+02,9.446745872497558594e+00,-3.059675097465515137e-01,1.147378161549568176e-01,4.100000000000000000e+02
-3.503351027363903540e+02,-3.535301312005544787e+02,-1.969894483392881739e+02,-1.092695788975693176e+02,-3.377202816573385462e+02,-1.296891562690570936e+02,-1.775367429671673563e+02,-1.945534359249716090e+02,9.446745872497558594e+00,-3.059675097465515137e-01,1.147378161549568176e-01,4.110000000000000000e+02
-3.464577891349977108e+02,-3.510024915851265632e+02,-1.960685836960767574e+02,-1.085046084777077340e+02,-3.364632374193242867e+02,-1.283047124374984378e+02,-1.764924025927841740e+02,-1.956139924901942777e+02,9.446745872497558594e+00,-3.059675097465515137e-01,1.147378161549568176e-01,4.120000000000000000e+02
-3.430907491773064066e+02,-3.475023981449642179e+02,-1.957083179808337263e+02,-1.076969852352931412e+02,-3.357049322427014886e+02,-1.282486350432523068e+02,-1.754919203828303580e+02,-1.970909599129131493e+02,9.446745872497558594e+00,-3.059675097465515137e-01,1.147378161549568176e-01,4.130000000000000000e+02
-3.401897253300169268e+02,-3.434154671423236778e+02,-1.955387057089667451e+02,-1.064446271625729423e+02,-3.349167649742385038e+02,-1.282519734600259653e+02,-1.741945881783256027e+02,-1.983122152348616964e+02,9.446745872497558594e+00,-3.059675097465515137e-01,1.147378161549568176e-01,4.140000000000000000e+02
-3.377000203478883122e+02,-3.394647656985437152e+02,-1.947267975357756313e+02,-1.046615487331273471e+02,-3.333492170245276611e+02,-1.274205709574534922e+02,-1.722592342886709957e+02,-1.986092591759540937e+02,9.446745872497558594e+00,-3.059675097465515137e-01,1.147378161549568176e-01,4.150000000000000000e+02
-3.355895790519164166e+02,-3.360802625504470598e+02,-1.925821500856063722e+02,-1.026818377427307496e+02,-3.305699064520913453e+02,-1.258450508858222747e+02,-1.695959947993294463e+02,-1.976247134444893163e+02,9.446745872497558594e+00,-4.207052886486053467e-01,3.824593871831893921e-02,4.160000000000000000e+02
-3.336817389458567504e+02,-3.331992123328118396e+02,-1.890990671298463894e+02,-1.010550555227546283e+02,-3.267431276196580257e+02,-1.243854512152001917e+02,-1.665793925694822519e+02,-1.955086030888517143e+02,9.446745872497558594e+00,-4.207052886486053467e-01,3.824593871831893921e-02,4.170000000000000000e+02
-3.316100449801563173e+02,-3.305667440873810392e+02,-1.850047229439446710e+02,-1.001291236602814934e+02,-3.224085743054956765e+02,-1.238015074902959896e+02,-1.639155816419686289e+02,-1.927582931671749975e+02,9.446745872497558594e+00,-4.207052886486053467e-01,3.824593871831893921e-02,4.180000000000000000e+02
-3.290725006026477786e+02,-3.280670656925224193e+02,-1.812857797081205717e+02,-9.971706330263396012e+01,-3.180215884338681462e+02,-1.239923499580463613e+02,-1.621435537222714629e+02,-1.897920190411648491e+02,9.446745872497558594e+00,-4.207052886486053467e-01,3.824593871831893921e-02,4.190000000000000000e+02
-3.261481029751157621e+02,-3.256959852534453148e+02,-1.785741574413821127e+02,-9.914586667909406970e+01,-3.137120870459812068e+02,-1.240295523676404628e+02,-1.611705988164328573e+02,-1.866673049113112484e+02,9.446745872497558594e+00,-4.207052886486053467e-01,3.824593871831893921e-02,4.200000000000000000e+02
-3.232695611955300592e+02,-3.233084397601253386e+02,-1.768296342101364189e+02,-9.771280652474342787e+01,-3.094360562081196804e+02,-1.229649179784100852e+02,-1.603115554038997743e+02,-1.832609969571199144e+02,9.446745872497558594e+00,-4.207052886486053467e-01,3.824593871831893921e-02,4.210000000000000000e+02
-3.207867311096006233e+02,-3.205731263042762293e+02,-1.754823025223263357e+02,-9.523294121341996288e+01,-3.052829175694573678e+02,-1.206886992693234788e+02,-1.588630076814595213e+02,-1.797280710642810391e+02,9.446745872497558594e+00,-4.207052886486053467e-01,3.824593871831893921e-02,4.220000000000000000e+02
-3.185334944886981248e+02,-3.172781952755265138e+02,-1.738616348847476729e+02,-9.224811565291292936e+01,-3.015797355717477330e+02,-1.180768482872113054e+02,-1.567091845863089929e+02,-1.767047525479845262e+02,9.446745872497558594e+00,-4.207052886486053467e-01,3.824593871831893921e-02,4.230000000000000000e+02
-3.158891955276749286e+02,-3.136357398642301177e+02,-1.716070310211862306e+02,-8.968113297639274606e+01,-2.986737228811721252e+02,-1.162947627060584637e+02,-1.543848687196621086e+02,-1.749181831953696928e+02,9.446745872497558594e+00,-4.207052886486053467e-01,3.824593871831893921e-02,4.240000000000000000e+02
-3.123536406914349755e+02,-3.101751799686512641e+02,-1.688353308992361690e+02,-8.816307405548786846e+01,-2.966079092026525359e+02,-1.158502634469982695e+02,-1.525280563293972591e+02,-1.744885502809718218e+02,9.446745872497558594e+00,-4.207052886486053467e-01,3.824593871831893921e-02,4.250000000000000000e+02
-3.080992004373943018e+02,-3.072699120107163253e+02,-1.660154552740652889e+02,-8.756027832105974085e+01,-2.949946748041215869e+02,-1.161814527171286500e+02,-1.512576038588590563e+02,-1.746215439402749325e+02,9.446745872497558594e+00,-4.207052886486053467e-01,3.824593871831893921e-02,4.260000000000000000e+02
-3.039267552402507135e+02,-3.047807245080737175e+02,-1.636478398259637288e+02,-8.711013731517505221e+01,-2.932078821026852893e+02,-1.161176770405095340e+02,-1.500973290604538306e+02,-1.741047474308611527e+02,9.446745872497558594e+00,-4.207052886486053467e-01,3.824593871831893921e-02,4.270000000000000000e+02
-3.006020572665779582e+02,-3.022163226111290442e+02,-1.619270884591285267e+02,-8.609174467106004158e+01,-2.907544562553857759e+02,-1.148457936502322809e+02,-1.484932207327665310e+02,-1.722477317303403197e+02,9.446745872497558594e+00,-4.207052886486053467e-01,3.824593871831893921e-02,4.280000000000000000e+02
-2.981544541888329150e+02,-2.992631126034830231e+02,-1.606003741554643511e+02,-8.449481516580181051e+01,-2.875708435737869877e+02,-1.125983974031969410e+02,-1.463736736126516007e+02,-1.694481638957122414e+02,9.446745872497558594e+00,-4.207052886486053467e-01,3.824593871831893921e-02,4.290000000000000000e+02
-2.958059076542981529e+02,-2.961146237303669295e+02,-1.591504287176771868e+02,-8.309602283577942217e+01,-2.840573408563359408e+02,-1.104944761438850946e+02,-1.441774215472769356e+02,-1.668539386284478496e+02,9.446745872497558594e+00,-4.207052886486053467e-01,3.824593871831893921e-02,4.300000000000000000e+02
-2.926410992853475364e+02,-2.932355363351553024e+02,-1.572161241029803023e+02,-8.281495087624944063e+01,-2.808316383972692165e+02,-1.096373989390126553e+02,-1.423415227263781162e+02,-1.654041293580171441e+02,9.446745872497558594e+00,-4.207052886486053467e-01,3.824593871831893921e-02,4.310000000000000000e+02
-2.884435211411951059e+02,-2.908034142169303777e+02,-1.549350328847999663e+02,-8.385137787094845407e+01,-2.783543818763200761e+02,-1.101974946011469001e+02,-1.408191532014016047e+02,-1.650827465034431043e+02,9.446745872497558594e+00,-4.207052886486053467e-01,3.824593871831893921e-02,4.320000000000000000e+02
-2.839577596177755368e+02,-2.884310855662861286e+02,-1.528812122480198923e+02,-8.535599656480144404e+01,-2.766573118302167131e+02,-1.112547066303809515e+02,-1.391486419061766355e+02,-1.650018988693409483e+02,9.446745872497558594e+00,-4.207052886486053467e-01,3.824593871831893921e-02,4.330000000000000000e+02
-2.803412189211476289e+02,-2.855046707056435480e+02,-1.515919479913286523e+02,-8.599360740275642456e+01,-2.753454545560571205e+02,-1.115436888650647234e+02,-1.370003279299853602e+02,-1.642098610666052991e+02,9.446745872497558594e+00,-4.207052886486053467e-01,3.824593871831893921e-02,4.340000000000000000e+02
-2.782606715909719242e+02,-2.818168507760246939e+02,-1.510602585005563014e+02,-8.497621385603679300e+01,-2.738642677852735687e+02,-1.104415578017042208e+02,-1.346052876153762554e+02,-1.625003055233842133e+02,9.446745872497558594e+00,-4.207052886486053467e-01,3.824593871831893921e-02,4.350000000000000000e+02
-2.773830015857975013e+02,-2.778536074692442526e+02,-1.506536110044999077e+02,-8.269786078711558730e+01,-2.718481394821528738e+02,-1.083192869799509026e+02,-1.325996833449062251e+02,-1.605394496354992953e+02,9.446745872497558594e+00,-4.207052886486053467e-01,3.824593871831893921e-02,4.360000000000000000e+02
-2.766482990655254071e+02,-2.744219978997894032e+02,-1.495739831477203552e+02,-8.039631937629110325e+01,-2.693111565565814089e+02,-1.059880840669497957e+02,-1.314286867898636046e+02,-1.592530658298542221e+02,9.446745872497558594e+00,-4.207052886486053467e-01,3.824593871831893921e-02,4.370000000000000000e+02
-2.750501472129853937e+02,-2.719573691440004950e+02,-1.474743524150194389e+02,-7.909607236096326233e+01,-2.665444409011447533e+02,-1.038261539832851668e+02,-1.309181332137545724e+02,-1.590068880814001204e+02,9.446745872497558594e+00,-4.207052886486053467e-01,3.824593871831893921e-02,4.380000000000000000e+02
-2.722795416080930408e+02,-2.701806721307880252e+02,-1.446845544620186956e+02,-7.874092393569208070e+01,-2.638074644643643296e+02,-1.014486765782030488e+02,-1.304496326705352658e+02,-1.592463633555371416e+02,9.446745872497558594e+00,-4.207052886486053467e-01,3.824593871831893921e-02,4.390000000000000000e+02
-2.687799005423253220e+02,-2.684193007934209163e+02,-1.418750121484822557e+02,-7.828570231912590316e+01,-2.610600117172461978e+02,-9.821886204693282707e+01,-1.295514903809089446e+02,-1.588769645407282951e+02,9.446745872497558594e+00,-4.207052886486053467e-01,3.824593871831893921e-02,4.400000000000000000e+02
-2.652869211951283432e+02,-2.662374578813819426e+02,-1.395210915393704454e+02,-7.667877076059039609e+01,-2.579657171288577047e+02,-9.403477610994104907e+01,-1.283058516219575722e+02,-1.570839241244989353e+02,9.446745872497558594e+00,-4.207052886486053467e-01,3.824593871831893921e-02,4.410000000000000000e+02
-2.623033908149618583e+02,-2.637356757130396545e+02,-1.376833965741052452e+02,-7.386222927274820904e+01,-2.542068670586286316e+02,-8.958049950837130382e+01,-1.271706268547804939e+02,-1.539583896675471806e+02,9.446745872497558594e+00,-4.207052886486053467e-01,3.824593871831893921e-02,4.420000000000000000e+02
-2.599033324841752801e+02,-2.612482378039380819e+02,-1.362469980892133208e+02,-7.088381002858523061e+01,-2.498880823269296343e+02,-8.581101302701790701e+01,-1.264093713550169014e+02,-1.504496002526452685e+02,9.446745872497558594e+00,-3.442134261131286621e-01,7.649187743663787842e-02,4.430000000000000000e+02
-2.579059973201046887e+02,-2.588174664215430312e+02,-1.352617592787487411e+02,-6.899816799338759665e+01,-2.456779252070523398e+02,-8.320096916440161294e+01,-1.257086536428287218e+02,-1.476725722616765779e+02,9.446745872497558594e+00,-3.442134261131286621e-01,7.649187743663787842e-02,4.440000000000000000e+02
-2.561373629223458011e+02,-2.560510163531353101e+02,-1.349373456906055253e+02,-6.854833394278284686e+01,-2.424950323103121264e+02,-8.148108833933747519e+01,-1.243725576090337199e+02,-1.461154721693492320e+02,9.446745872497558594e+00,-3.442134261131286621e-01,7.649187743663787842e-02,4.450000000000000000e+02
-2.544997299258052408e+02,-2.525494878180325031e+02,-1.352655085686501479e+02,-6.863452288879852858e+01,-2.409076587545728216e+02,-8.004940521983826329e+01,-1.219422579470378878e+02,-1.453833006446407126e+02,9.446745872497558594e+00,-3.442134261131286621e-01,7.649187743663787842e-02,4.460000000000000000e+02
-2.528427410753565709e+02,-2.484602072083043822e+02,-1.357111010655262362e+02,-6.788782257406364806e+01,-2.406897822458363407e+02,-7.857769446088468612e+01,-1.186978221569534071e+02,-1.446693613124712101e+02,9.446745872497558594e+00,-3.442134261131286621e-01,7.649187743663787842e-02,4.470000000000000000e+02
-2.508680288463356192e+02,-2.445456240589619483e+02,-1.354060311383914268e+02,-6.566876856738281276e+01,-2.409162506268389734e+02,-7.723041039762665605e+01,-1.156023565387131384e+02,-1.435370149668879094e+02,9.446745872497558594e+00,-3.442134261131286621e-01,7.649187743663787842e-02,4.480000000000000000e+02
-2.482626933113715495e+02,-2.416446939614529583e+02,-1.337827510213119240e+02,-6.263099257788644536e+01,-2.405686356649962363e+02,-7.637991756796600384e+01,-1.137320638805526869e+02,-1.423202756689224771e+02,9.446745872497558594e+00,-3.442134261131286621e-01,7.649187743663787842e-02,4.490000000000000000e+02
-2.449923081669858220e+02,-2.400204906500894140e+02,-1.310905889082905560e+02,-6.016382755889117107e+01,-2.392042853559505602e+02,-7.618746850331262976e+01,-1.136149728844861784e+02,-1.417657628543529427e+02,9.446745872497558594e+00,-3.442134261131286621e-01,7.649187743663787842e-02,4.500000000000000000e+02
-2.414541514659204040e+02,-2.391961307133815353e+02,-1.282710317152450443e+02,-5.922453932411826827e+01,-2.371666647751717392e+02,-7.646489843041581480e+01,-1.149205303566141083e+02,-1.422221028872722854e+02,9.446745872497558594e+00,-3.442134261131286621e-01,7.649187743663787842e-02,4.510000000000000000e+02
-2.382663184486495993e+02,-2.383939569599187962e+02,-1.262468124186002569e+02,-5.960112991647883973e+01,-2.352010963533734866e+02,-7.687930408889860701e+01,-1.166568819484514279e+02,-1.431386869192847371e+02,9.446745872497558594e+00,-3.442134261131286621e-01,7.649187743663787842e-02,4.520000000000000000e+02
-2.357938675424811663e+02,-2.371313662145676062e+02,-1.252267266468493290e+02,-6.022137789827411325e+01,-2.338165227517033600e+02,-7.722327350815749014e+01,-1.176965430432801440e+02,-1.433805633635397498e+02,9.446745872497558594e+00,-3.442134261131286621e-01,7.649187743663787842e-02,4.530000000000000000e+02
-2.338104866977168967e+02,-2.354580780060423422e+02,-1.246221065341565009e+02,-6.016932881184220605e+01,-2.328959060561669503e+02,-7.748522333474511470e+01,-1.173125356692044079e+02,-1.421425205911305056e+02,9.446745872497558594e+00,-3.442134261131286621e-01,7.649187743663787842e-02,4.540000000000000000e+02
-2.316363732213903859e+02,-2.337290148058627892e+02,-1.236159652903165806e+02,-5.946818114191273708e+01,-2.318283437416557717e+02,-7.771870677097103908e+01,-1.154783754702198166e+02,-1.396734999514474111e+02,9.446745872497558594e+00,-3.442134261131286621e-01,7.649187743663787842e-02,4.550000000000000000e+02
-2.286921891254387447e+02,-2.322215718246275173e+02,-1.218452979892895200e+02,-5.893870975447816818e+01,-2.299968973944723984e+02,-7.789858187341815210e+01,-1.128139204853550837e+02,-1.371250750281233195e+02,9.446745872497558594e+00,-3.442134261131286621e-01,7.649187743663787842e-02,4.560000000000000000e+02
-2.250247592123350842e+02,-2.309466128775661673e+02,-1.196092827775278238e+02,-5.932020821457808779e+01,-2.272263427543739454e+02,-7.791002253981878312e+01,-1.102255280303793370e+02,-1.356106652199423479e+02,9.446745872497558594e+00,-3.442134261131286621e-01,7.649187743663787842e-02,4.570000000000000000e+02
-2.213399923770507485e+02,-2.297061561459331642e+02,-1.175132663399022022e+02,-6.048930130931921667e+01,-2.238980128979305846e+02,-7.764915921608553617e+01,-1.084199847207469247e+02,-1.352828976036016684e+02,9.446745872497558594e+00,-3.442134261131286621e-01,7.649187743663787842e-02,4.580000000000000000e+02
-2.184939079040236720e+02,-2.282459874721480446e+02,-1.159640373509619167e+02,-6.148139976389984440e+01,-2.207057545431539438e+02,-7.709955609126291165e+01,-1.075538305956561089e+02,-1.352468026931965142e+02,9.446745872497558594e+00,-3.442134261131286621e-01,7.649187743663787842e-02,4.590000000000000000e+02
-2.168552065818425945e+02,-2.263870717383701958e+02,-1.149743804260233446e+02,-6.127640347794886111e+01,-2.182494675283069228e+02,-7.630202920767351316e+01,-1.072214572028015027e+02,-1.344006115861984654e+02,9.446745872497558594e+00,-3.442134261131286621e-01,7.649187743663787842e-02,4.600000000000000000e+02
-2.160449162134436847e+02,-2.241323728316124289e+02,-1.143307798927708063e+02,-5.964760734000265074e+01,-2.167203084215384479e+02,-7.526423142652129172e+01,-1.067830044002230352e+02,-1.324528260651832170e+02,9.446745872497558594e+00,-3.442134261131286621e-01,7.649187743663787842e-02,4.610000000000000000e+02
-2.152282827892395289e+02,-2.217353922379998039e+02,-1.138277882220099855e+02,-5.736672548796059345e+01,-2.158518710701773671e+02,-7.393670685049983149e+01,-1.058088440845622245e+02,-1.302002809574541971e+02,9.446745872497558594e+00,-3.442134261131286621e-01,7.649187743663787842e-02,4.620000000000000000e+02
-2.136859297029664049e+02,-2.196168788135687464e+02,-1.133121095890232937e+02,-5.562432008608948308e+01,-2.151349140872489443e+02,-7.230366140440901290e+01,-1.043427180337630489e+02,-1.288116416907273560e+02,9.446745872497558594e+00,-3.442134261131286621e-01,7.649187743663787842e-02,4.630000000000000000e+02
-2.112307473802538880e+02,-2.180769352978959432e+02,-1.125987463102087531e+02,-5.515556527003627707e+01,-2.141318098793485660e+02,-7.050598008549923179e+01,-1.028235337416808761e+02,-1.287679180758250368e+02,9.446745872497558594e+00,-3.442134261131286621e-01,7.649187743663787842e-02,4.640000000000000000e+02
-2.082412833080093151e+02,-2.169896336986262213e+02,-1.115021874387016396e+02,-5.574188759850858332e+01,-2.126797272651010644e+02,-6.885614074251088823e+01,-1.017532086334445012e+02,-1.294160088778457975e+02,9.446745872497558594e+00,-3.442134261131286621e-01,7.649187743663787842e-02,4.650000000000000000e+02
-2.053924249226606662e+02,-2.158023013546244329e+02,-1.100348945452069529e+02,-5.640993535218785837e+01,-2.108813154737063087e+02,-6.767311551380453238e+01,-1.013560308524429274e+02,-1.295149668184021721e+02,9.446745872497558594e+00,-3.442134261131286621e-01,7.649187743663787842e-02,4.660000000000000000e+02
-2.032896906849891820e+02,-2.139462780007092988e+02,-1.085195146683331586e+02,-5.612944407068243891e+01,-2.089456149184311471e+02,-6.702588130285539592e+01,-1.014339023827797064e+02,-1.282499328388557842e+02,9.446745872497558594e+00,-3.442134261131286621e-01,7.649187743663787842e-02,4.670000000000000000e+02
-2.021572057064322507e+02,-2.113392003559847581e+02,-1.073750642936815893e+02,-5.448973595239795031e+01,-2.070495333211429170e+02,-6.658439116565205040e+01,-1.014591711395346465e+02,-1.258070325361677533e+02,9.446745872497558594e+00,-3.442134261131286621e-01,7.649187743663787842e-02,4.680000000000000000e+02
-2.016726173428519360e+02,-2.085015266955497282e+02,-1.066883193033233965e+02,-5.190834660322980199e+01,-2.053019061642785346e+02,-6.570556217584953629e+01,-1.008132903786363386e+02,-1.230442606198162139e+02,9.446745872497558594e+00,-3.442134261131286621e-01,7.649187743663787842e-02,4.690000000000000000e+02
-2.010416667561116810e+02,-2.061371710753799107e+02,-1.060021472551968600e+02,-4.928795359945797827e+01,-2.037345478765696498e+02,-6.373917150023771683e+01,-9.905133142771137500e+01,-1.206321962883375818e+02,9.446745872497558594e+00,-3.442134261131286621e-01,7.649187743663787842e-02,4.700000000000000000e+02
-1.993776859679533118e+02,-2.045467399237454629e+02,-1.046231082086030710e+02,-4.739176976465842017e+01,-2.022442828173898306e+02,-6.039599300638747081e+01,-9.610128883035304170e+01,-1.184912466310909167e+02,9.446745872497558594e+00,-3.442134261131286621e-01,7.649187743663787842e-02,4.710000000000000000e+02
-1.962683006855090753e+02,-2.034265774601367411e+02,-1.022282817266084294e+02,-4.637506671031133010e+01,-2.005378762779491808e+02,-5.597782261642578305e+01,-9.234292934451514157e+01,-1.160066323537921562e+02,9.446745872497558594e+00,-3.442134261131286621e-01,7.649187743663787842e-02,4.720000000000000000e+02
-1.921554468964632179e+02,-2.022156570313113662e+02,-9.919998281909784055e+01,-4.576824630597275245e+01,-1.982337746347479879e+02,-5.132885812171389261e+01,-8.851571629566160482e+01,-1.127609754541440452e+02,9.446745872497558594e+00,-3.442134261131286621e-01,7.649187743663787842e-02,4.730000000000000000e+02
-1.881540789013088215e+02,-2.006232322915252553e+02,-9.634292424603131622e+01,-4.489183853780923528e+01,-1.951486283854205794e+02,-4.748366964518618261e+01,-8.545966168301879406e+01,-1.090774981694278267e+02,9.484992027282714844e+00,-3.824593424797058105e-01,7.649187743663787842e-02,4.740000000000000000e+02
-1.853315903128618629e+02,-1.988216525199195530e+02,-9.423968906946311108e+01,-4.339059613433346385e+01,-1.915633310366592923e+02,-4.516284710099353106e+01,-8.377917765085339852e+01,-1.058885223882809896e+02,9.484992027282714844e+00,-3.824593424797058105e-01,7.649187743663787842e-02,4.750000000000000000e+02
-1.839603630132132821e+02,-1.971522304600766802e+02,-9.285410678864104739e+01,-4.150131217397847649e+01,-1.881849075855034243e+02,-4.441055903204005517e+01,-8.358119959497253149e+01,-1.040671343045046342e+02,9.484992027282714844e+00,-3.824593424797058105e-01,7.649187743663787842e-02,4.760000000000000000e+02
-1.833501577905915383e+02,-1.956790576164648883e+02,-9.174200577000033263e+01,-3.988082469508981376e+01,-1.857545655938333766e+02,-4.464536760758801393e+01,-8.444051991956257552e+01,-1.038152769020557571e+02,9.484992027282714844e+00,-3.824593424797058105e-01,7.649187743663787842e-02,4.770000000000000000e+02
-1.824210826287539930e+02,-1.940665223124599379e+02,-9.059901774747459058e+01,-3.915899301127592480e+01,-1.845810595449784159e+02,-4.513272334486828186e+01,-8.562696131227403384e+01,-1.045939533700659467e+02,9.484992027282714844e+00,-3.824593424797058105e-01,7.649187743663787842e-02,4.780000000000000000e+02
-1.805501530562466996e+02,-1.919234101981651293e+02,-8.954605077689734571e+01,-3.955992016071422768e+01,-1.843560070535845625e+02,-4.552206689659851691e+01,-8.647156334787064225e+01,-1.055628511929151045e+02,9.484992027282714844e+00,-3.824593424797058105e-01,7.649187743663787842e-02,4.790000000000000000e+02
-1.780032908114924339e+02,-1.892762249503302883e+02,-8.887159079925550031e+01,-4.084056221005857878e+01,-1.843752679361773517e+02,-4.598414463602921387e+01,-8.666870396953186173e+01,-1.060999850646571758e+02,9.484992027282714844e+00,-3.824593424797058105e-01,7.649187743663787842e-02,4.800000000000000000e+02
-1.756321774263165025e+02,-1.866800897980772334e+02,-8.854728806699267807e+01,-4.249206509500027096e+01,-1.839599072542187059e+02,-4.681516375095316107e+01,-8.634284117699576200e+01,-1.059835951246479908e+02,9.484992027282714844e+00,-3.824593424797058105e-01,7.649187743663787842e-02,4.810000000000000000e+02
-1.741565687379240899e+02,-1.848058280137536258e+02,-8.809187500490111233e+01,-4.394887427266348823e+01,-1.827672649526680289e+02,-4.789118695518072855e+01,-8.584415712733516557e+01,-1.051841595942830736e+02,9.484992027282714844e+00,-3.824593424797058105e-01,7.649187743663787842e-02,4.820000000000000000e+02
-1.736632574373707030e+02,-1.838163485448969823e+02,-8.700591130082193558e+01,-4.464558625453037166e+01,-1.808505871368470252e+02,-4.854383211079721150e+01,-8.540503817598528258e+01,-1.035897481635049644e+02,9.484992027282714844e+00,-3.824593424797058105e-01,7.649187743663787842e-02,4.830000000000000000e+02
-1.736847529185718031e+02,-1.830795476003816020e+02,-8.537607780104667654e+01,-4.402674415857245549e+01,-1.785287217400414193e+02,-4.802142196940485519e+01,-8.490893105396935425e+01,-1.010105168000618505e+02,9.484992027282714844e+00,-3.824593424797058105e-01,7.649187743663787842e-02,4.840000000000000000e+02
-1.736841329570165726e+02,-1.815345224003453950e+02,-8.400713747500162754e+01,-4.172792508714155701e+01,-1.762028788905186047e+02,-4.610417528187144853e+01,-8.395259439141977964e+01,-9.747816371073008668e+01,9.484992027282714844e+00,-3.824593424797058105e-01,7.649187743663787842e-02,4.850000000000000000e+02
-1.734563869278167658e+02,-1.784927643723526671e+02,-8.384719207400303276e+01,-3.794573061859000518e+01,-1.741957607666681724e+02,-4.328889294699138190e+01,-8.216874158050404731e+01,-9.350501357992334306e+01,9.484992027282714844e+00,-3.824593424797058105e-01,7.649187743663787842e-02,4.860000000000000000e+02
-1.731169181774575918e+02,-1.742712931345399738e+02,-8.514559787771349875e+01,-3.367193808243655440e+01,-1.726372338625280918e+02,-4.039826439401304015e+01,-7.956673183653902015e+01,-8.995028827204009758e+01,9.484992027282714844e+00,-3.824593424797058105e-01,7.649187743663787842e-02,4.870000000000000000e+02
-1.727768706202716658e+02,-1.701226779041026020e+02,-8.708835783200743208e+01,-3.038685378264585779e+01,-1.714318570768532481e+02,-3.802229847183298261e+01,-7.661064227726251374e+01,-8.750111420971575171e+01,9.484992027282714844e+00,-3.824593424797058105e-01,7.649187743663787842e-02,4.880000000000000000e+02
-1.722743332016611930e+02,-1.674543522794888304e+02,-8.828854488551223767e+01,-2.921717006663084248e+01,-1.703410555090811158e+02,-3.629373003768614581e+01,-7.397303599925930939e+01,-8.618889338428198243e+01,9.484992027282714844e+00,-3.824593424797058105e-01,7.649187743663787842e-02,4.890000000000000000e+02
-1.712314601452867464e+02,-1.668970326559262958e+02,-8.775622897448602089e+01,-3.012131562504714566e+01,-1.691092001075444387e+02,-3.505126879100953374e+01,-7.214920665826593904e+01,-8.536922538964176965e+01,9.484992027282714844e+00,-3.824593424797058105e-01,7.649187743663787842e-02,4.900000000000000000e+02
-1.693712733613879209e+02,-1.679127020488872404e+02,-8.554139974128861468e+01,-3.182080155294988799e+01,-1.675297745767215929e+02,-3.405459633275131637e+01,-7.120817238003860439e+01,-8.421168382353698689e+01,9.484992027282714844e+00,-3.824593424797058105e-01,7.649187743663787842e-02,4.910000000000000000e+02
-1.667920176734103279e+02,-1.692028106430634580e+02,-8.253597446586240949e+01,-3.266712165953595104e+01,-1.654295247226775700e+02,-3.300550237567040313e+01,-7.083345121259640109e+01,-8.229189375669920992e+01,9.484992027282714844e+00,-3.824593424797058105e-01,7.649187743663787842e-02,4.920000000000000000e+02
-1.639435972702081017e+02,-1.695621575428997403e+02,-7.966085515082090751e+01,-3.182696928463042241e+01,-1.626647067257390518e+02,-3.153258789392702965e+01,-7.056326990526031295e+01,-7.981271764386997347e+01,9.484992027282714844e+00,-3.824593424797058105e-01,7.649187743663787842e-02,4.930000000000000000e+02
-1.613300215662027313e+02,-1.685437105832436373e+02,-7.718737983304686168e+01,-2.983808498623830019e+01,-1.592183835700468535e+02,-2.940259430681203412e+01,-7.001252620724358167e+01,-7.733683481505113377e+01,9.484992027282714844e+00,-3.824593424797058105e-01,7.649187743663787842e-02,4.940000000000000000e+02
-1.591858223103065484e+02,-1.665404789320145937e+02,-7.476020709973681733e+01,-2.807865605361780581e+01,-1.553235935199231790e+02,-2.686362934221006071e+01,-6.895186001135289189e+01,-7.532550814227761293e+01,9.523238182067871094e+00,-3.824593424797058105e-01,7.649187743663787842e-02,4.950000000000000000e+02
-1.573840068456818244e+02,-1.643814765594547680e+02,-7.199137625494881831e+01,-2.762706617638013995e+01,-1.514328519032608256e+02,-2.467277039396435612e+01,-6.728550469801666623e+01,-7.386920364761260771e+01,9.523238182067871094e+00,-3.824593424797058105e-01,7.649187743663787842e-02,4.960000000000000000e+02
-1.556213247469818270e+02,-1.628156922539187690e+02,-6.896659502350235016e+01,-2.848082846511715616e+01,-1.479679913495501751e+02,-2.355089966280706903e+01,-6.504131168083938519e+01,-7.272740651087508468e+01,9.523238182067871094e+00,-3.824593424797058105e-01,7.649187743663787842e-02,4.970000000000000000e+02
-1.536939485525997497e+02,-1.621548203622917299e+02,-6.617168381188071180e+01,-2.971221619570269468e+01,-1.450449991360628701e+02,-2.346459608780310191e+01,-6.242190640286355574e+01,-7.154167809429634417e+01,9.523238182067871094e+00,-3.824593424797058105e-01,7.649187743663787842e-02,4.980000000000000000e+02
-1.516375874354994266e+02,-1.621392876865681956e+02,-6.399952301981500113e+01,-3.027179200967202632e+01,-1.424690333838361767e+02,-2.345664182923792396e+01,-5.985128558953215361e+01,-7.004481138565563469e+01,9.523238182067871094e+00,-3.824593424797058105e-01,7.649187743663787842e-02,4.990000000000000000e+02
-1.496509974467867323e+02,-1.620218732329994964e+02,-6.244096472691683175e+01,-2.966369111044400597e+01,-1.400431038252343114e+02,-2.231690845292860104e+01,-5.790404756777866169e+01,-6.820876243321663424e+01,9.523238182067871094e+00,-3.824593424797058105e-01,7.649187743663787842e-02,5.000000000000000000e+02
-1.479040861801879601e+02,-1.609049036538631299e+02,-6.130380715620162846e+01,-2.800060330009182508e+01,-1.378825257359173975e+02,-1.954512523485209385e+01,-5.706580985281868834e+01,-6.630914396652519827e+01,9.523238182067871094e+00,-3.824593424797058105e-01,7.649187743663787842e-02,5.010000000000000000e+02
-1.464092932926980666e+02,-1.583023554584739259e+02,-6.064659937978751714e+01,-2.562076154995270372e+01,-1.363577612794622382e+02,-1.571650774822160201e+01,-5.740911989532685311e+01,-6.479738393660454676e+01,9.523238182067871094e+00,-3.824593424797058105e-01,7.649187743663787842e-02,5.020000000000000000e+02
-1.450521789656287410e+02,-1.546403928289618079e+02,-6.082385518071589559e+01,-2.280353643716489387e+01,-1.356380906549976544e+02,-1.191550499039362876e+01,-5.839762591005990089e+01,-6.395027857255922754e+01,9.523238182067871094e+00,-3.824593424797058105e-01,7.649187743663787842e-02,5.030000000000000000e+02
-1.437268768062106119e+02,-1.512430736858049727e+02,-6.200254777822954111e+01,-1.984589511920205496e+01,-1.352859363634112242e+02,-8.798226261384456848e+00,-5.905018279153443927e+01,-6.353612182303049849e+01,9.523238182067871094e+00,-3.824593424797058105e-01,7.649187743663787842e-02,5.040000000000000000e+02
-1.424329815070051950e+02,-1.496090370269081973e+02,-6.367775317648681721e+01,-1.725072512201597874e+01,-1.344116932892526393e+02,-6.183886049187208300e+00,-5.848455412941075338e+01,-6.289735263844539759e+01,9.523238182067871094e+00,-3.824593424797058105e-01,7.649187743663787842e-02,5.050000000000000000e+02
-1.412487314496583508e+02,-1.503781334170822106e+02,-6.484912344381575622e+01,-1.563887444570525531e+01,-1.324044268791736840e+02,-3.509342230555603237e+00,-5.654681043783728001e+01,-6.155852519049125249e+01,9.523238182067871094e+00,-3.824593424797058105e-01,7.649187743663787842e-02,5.060000000000000000e+02
-1.402230822627734597e+02,-1.527950867561023642e+02,-6.485327822490683047e+01,-1.535126549890054548e+01,-1.296410963038152886e+02,-6.281004189175405372e-01,-5.404705970465744258e+01,-5.988437721037723804e+01,9.523238182067871094e+00,-3.824593424797058105e-01,7.649187743663787842e-02,5.070000000000000000e+02
-1.392921922162273631e+02,-1.552009936876272604e+02,-6.404953082658420271e+01,-1.610464685424983600e+01,-1.274393316504661016e+02,1.877423999474899574e+00,-5.227160904852215140e+01,-5.903469003138826565e+01,9.523238182067871094e+00,-3.824593424797058105e-01,7.649187743663787842e-02,5.080000000000000000e+02
-1.383128252982780282e+02,-1.562662170825428234e+02,-6.357373529094526532e+01,-1.708224605241977656e+01,-1.271070759517087936e+02,3.184758912922916352e+00,-5.201529800732842546e+01,-6.000391537477526072e+01,9.523238182067871094e+00,-3.824593424797058105e-01,7.649187743663787842e-02,5.090000000000000000e+02
-1.372137821557620896e+02,-1.559952347631868861e+02,-6.427712610866056764e+01,-1.744930048096849617e+01,-1.287842303825235888e+02,3.045048858051160323e+00,-5.287298868974980337e+01,-6.249163192271984713e+01,9.523238182067871094e+00,-3.824593424797058105e-01,7.649187743663787842e-02,5.100000000000000000e+02
-1.361468057618097873e+02,-1.556587376643963694e+02,-6.583974471017074848e+01,-1.687971248118959977e+01,-1.310788440737683516e+02,2.150738739771924202e+00,-5.344746787406188560e+01,-6.471335507461165548e+01,9.523238182067871094e+00,-3.824593424797058105e-01,7.649187743663787842e-02,5.110000000000000000e+02
-1.354870234513400646e+02,-1.566940537659568804e+02,-6.696176393627476386e+01,-1.568394179522863396e+01,-1.319220945948069641e+02,1.703230327946158695e+00,-5.241445208293225733e+01,-6.452923356605239746e+01,9.523238182067871094e+00,-3.824593424797058105e-01,7.649187743663787842e-02,5.120000000000000000e+02
-1.356275111916419291e+02,-1.594856986498671176e+02,-6.651451777303842050e+01,-1.447482283857107177e+01,-1.300333849943170321e+02,2.533144203329925404e+00,-4.960234744115314243e+01,-6.104938696000604637e+01,9.523238182067871094e+00,-3.824593424797058105e-01,7.649187743663787842e-02,5.130000000000000000e+02
-1.366930905644279619e+02,-1.630238505474233648e+02,-6.459172783592885025e+01,-1.365053278147576066e+01,-1.258187640132280762e+02,4.520094671808692510e+00,-4.615485568640133351e+01,-5.533689108891564956e+01,9.523238182067871094e+00,-3.824593424797058105e-01,7.649187743663787842e-02,5.140000000000000000e+02
-1.384077575888767342e+02,-1.656625358536973636e+02,-6.248246579473243401e+01,-1.307058476017687099e+01,-1.209715656562182176e+02,6.788076440259146693e+00,-4.360369015920002767e+01,-4.960157736227694159e+01,9.523238182067871094e+00,-3.824593424797058105e-01,7.649187743663787842e-02,5.150000000000000000e+02
-1.402535409708100360e+02,-1.662806026164491868e+02,-6.160953270519155467e+01,-1.212331973750190173e+01,-1.171450041832408715e+02,8.490419508122613479e+00,-4.265331835914935255e+01,-4.560024068493646610e+01,9.523238182067871094e+00,-3.824593424797058105e-01,7.649187743663787842e-02,5.160000000000000000e+02
-1.418104233133112757e+02,-1.648930502316825368e+02,-6.241625123101823647e+01,-1.014473971262418672e+01,-1.148406936613561129e+02,9.501426859776302081e+00,-4.274458397202761262e+01,-4.360031865354494585e+01,9.523238182067871094e+00,-3.824593424797058105e-01,7.649187743663787842e-02,5.170000000000000000e+02
-1.429762110401209156e+02,-1.623479651292415156e+02,-6.414642641163288772e+01,-6.937821428660981837e+00,-1.133899361187774275e+02,1.043735662708172640e+01,-4.273599730870466828e+01,-4.263592186932658024e+01,9.523238182067871094e+00,-3.824593424797058105e-01,7.649187743663787842e-02,5.180000000000000000e+02
-1.438580146321216944e+02,-1.595548115560666247e+02,-6.558188233466410111e+01,-3.044367176274363374e+00,-1.118759290281502672e+02,1.205389299485023002e+01,-4.200868037836778512e+01,-4.158692852833917186e+01,9.523238182067871094e+00,-3.824593424797058105e-01,7.649187743663787842e-02,5.190000000000000000e+02
-1.444490302431836426e+02,-1.569822830133859952e+02,-6.598711176158781200e+01,4.557679287745486363e-01,-1.100637743780403071e+02,1.458767191877814184e+01,-4.096135358387027736e+01,-4.005139103904571130e+01,9.484992027282714844e+00,-3.442134261131286621e-01,3.824593871831893921e-02,5.200000000000000000e+02
-1.444486298858932969e+02,-1.547399920146472141e+02,-6.547342186561741073e+01,2.549716947051138050e+00,-1.085258999720108477e+02,1.762761046946729948e+01,-4.048041721008939930e+01,-3.841832214667238077e+01,9.484992027282714844e+00,-3.442134261131286621e-01,3.824593871831893921e-02,5.210000000000000000e+02
-1.434756727032588515e+02,-1.529262513832200057e+02,-6.465231022351554202e+01,2.912080646948425056e+00,-1.080040554822587637e+02,2.056296507758179359e+01,-4.097204320280252432e+01,-3.736737744811648554e+01,9.484992027282714844e+00,-3.442134261131286621e-01,3.824593871831893921e-02,5.220000000000000000e+02
-1.415127099754090523e+02,-1.517440178903384549e+02,-6.404459484184826579e+01,2.084286029473332746e+00,-1.087284019936851109e+02,2.309761398127966459e+01,-4.190912545751143625e+01,-3.738188350762516166e+01,9.484992027282714844e+00,-3.442134261131286621e-01,3.824593871831893921e-02,5.230000000000000000e+02
-1.391294128043909950e+02,-1.512677444548862695e+02,-6.376099902391206342e+01,1.047051814603719322e+00,-1.102846404146507666e+02,2.531549979271994744e+01,-4.229777508088932336e+01,-3.858114110791325402e+01,9.484992027282714844e+00,-3.442134261131286621e-01,3.824593871831893921e-02,5.240000000000000000e+02
-1.371840679416400235e+02,-1.512101938049540877e+02,-6.359504662553763410e+01,5.103647817240926088e-01,-1.119916483014510504e+02,2.730835532196124404e+01,-4.159603876562050573e+01,-4.075957250248234232e+01,9.484992027282714844e+00,-3.442134261131286621e-01,3.824593871831893921e-02,5.250000000000000000e+02
-1.362020322678256434e+02,-1.510602554619536022e+02,-6.329494172520981010e+01,4.774077573588328960e-01,-1.133117659153849672e+02,2.884880576828936682e+01,-4.021885999902269759e+01,-4.344954714838831933e+01,9.484992027282714844e+00,-3.442134261131286621e-01,3.824593871831893921e-02,5.260000000000000000e+02
-1.360017268081726343e+02,-1.505349285246777526e+02,-6.275007262758072102e+01,4.096771472900400113e-01,-1.139691366175707117e+02,2.953590592901900891e+01,-3.919800218694217619e+01,-4.601944248133736437e+01,9.484992027282714844e+00,-3.442134261131286621e-01,3.824593871831893921e-02,5.270000000000000000e+02
-1.359418541940467549e+02,-1.498838947048050159e+02,-6.202186714804406620e+01,-1.794182735193317058e-01,-1.138712428027151873e+02,2.930035718039516723e+01,-3.934086689691184802e+01,-4.788743737453251015e+01,9.484992027282714844e+00,-3.442134261131286621e-01,3.824593871831893921e-02,5.280000000000000000e+02
-1.355783444713238168e+02,-1.496801907584526816e+02,-6.127049762239312258e+01,-1.220759749876378919e+00,-1.130679131330043674e+02,2.873312455847872116e+01,-4.062137896294143502e+01,-4.876073239358061073e+01,9.484992027282714844e+00,-3.442134261131286621e-01,3.824593871831893921e-02,5.290000000000000000e+02
-1.350964658304123986e+02,-1.502462315113334625e+02,-6.063740101121447879e+01,-2.078770910924049531e+00,-1.117666994425753728e+02,2.884418466825673022e+01,-4.225725173932733014e+01,-4.866696440900523157e+01,9.484992027282714844e+00,-3.442134261131286621e-01,3.824593871831893921e-02,5.300000000000000000e+02
-1.350803169463615632e+02,-1.512523870732725300e+02,-6.013510560553095274e+01,-2.025304008907369280e+00,-1.102486686613401616e+02,3.039818926804036892e+01,-4.332237405513660633e+01,-4.772646835021078005e+01,9.484992027282714844e+00,-3.442134261131286621e-01,3.824593871831893921e-02,5.310000000000000000e+02
-1.358338542938186038e+02,-1.518896002386427426e+02,-5.962058083896044991e+01,-8.248935731353412848e-01,-1.086616936529512714e+02,3.338054267451843771e+01,-4.336551235670503956e+01,-4.593449419357921215e+01,9.484992027282714844e+00,-3.442134261131286621e-01,3.824593871831893921e-02,5.320000000000000000e+02
-1.369228547529000934e+02,-1.514821317357595944e+02,-5.891578973365676575e+01,1.004631068094568036e+00,-1.069217112058568091e+02,3.702070464758435264e+01,-4.260472948490132694e+01,-4.324905414786053370e+01,9.484992027282714844e+00,-3.442134261131286621e-01,3.824593871831893921e-02,5.330000000000000000e+02
-1.374174939059994358e+02,-1.500029953093285258e+02,-5.800123355011328385e+01,2.450918701401860744e+00,-1.048971565152583025e+02,4.031762099940533517e+01,-4.164514176524744471e+01,-3.991634454397808440e+01,9.484992027282714844e+00,-3.442134261131286621e-01,3.824593871831893921e-02,5.340000000000000000e+02
-1.366447866956114012e+02,-1.480549606790900725e+02,-5.708837669394006298e+01,2.628592708108044462e+00,-1.027042723948006824e+02,4.263091514133975579e+01,-4.099138611194939585e+01,-3.661188867048758766e+01,9.484992027282714844e+00,-3.442134261131286621e-01,3.824593871831893921e-02,5.350000000000000000e+02
-1.347693373706829334e+02,-1.463644282362574813e+02,-5.644220054212382820e+01,1.380157488038548763e+00,-1.007367806516772362e+02,4.393841536883519439e+01,-4.069953024021288002e+01,-3.409982688474292445e+01,9.484992027282714844e+00,-3.442134261131286621e-01,3.824593871831893921e-02,5.360000000000000000e+02
-1.326701577303847444e+02,-1.452371473172775040e+02,-5.608642146540751128e+01,-5.333006352793745464e-01,-9.930956539340877498e+01,4.467247217085059674e+01,-4.037365273070099647e+01,-3.263203700734538870e+01,9.484992027282714844e+00,-3.442134261131286621e-01,3.824593871831893921e-02,5.370000000000000000e+02
-1.312416886144192176e+02,-1.444060203358617400e+02,-5.571767962796002394e+01,-1.829396379261197580e+00,-9.829238079226252012e+01,4.532336849528837774e+01,-3.950588797711634470e+01,-3.170888892807715820e+01,9.484992027282714844e+00,-3.442134261131286621e-01,3.824593871831893921e-02,5.380000000000000000e+02
-1.307424731662963495e+02,-1.433232040603356836e+02,-5.499328003159962464e+01,-1.470778215030804859e+00,-9.721540836913209205e+01,4.612426386355764407e+01,-3.794246504219927374e+01,-3.053476460009096627e+01,9.484992027282714844e+00,-3.442134261131286621e-01,3.824593871831893921e-02,5.390000000000000000e+02
-1.307278460895709031e+02,-1.415975227214680672e+02,-5.395372163970614565e+01,6.941287567133258563e-01,-9.582605445346962370e+01,4.701001128808729845e+01,-3.614006565146246430e+01,-2.878446138100571261e+01,9.484992027282714844e+00,-3.442134261131286621e-01,3.824593871831893921e-02,5.400000000000000000e+02
-1.305397143466043417e+02,-1.392285672815442013e+02,-5.313166816621105681e+01,3.851547728381774505e+00,-9.451861066314813797e+01,4.781617585769890866e+01,-3.497283755864464183e+01,-2.693482934123994710e+01,9.484992027282714844e+00,-3.442134261131286621e-01,3.824593871831893921e-02,5.410000000000000000e+02
-1.298445429647381388e+02,-1.365261044496878640e+02,-5.313987577129046258e+01,6.769386544687222340e+00,-9.409095538072506315e+01,4.851502406018062175e+01,-3.514292781891435880e+01,-2.579422418918920812e+01,9.484992027282714844e+00,-3.442134261131286621e-01,3.824593871831893921e-02,5.420000000000000000e+02
-1.287659644485847821e+02,-1.338791280957848358e+02,-5.406181647997254913e+01,8.579204035485417990e+00,-9.496097843421375728e+01,4.926855250259723107e+01,-3.661275603277954360e+01,-2.567745340163583023e+01,9.484992027282714844e+00,-3.442134261131286621e-01,3.824593871831893921e-02,5.430000000000000000e+02
-1.276018638219802597e+02,-1.315999997853605237e+02,-5.523040096985823766e+01,9.230694352213504317e+00,-9.659455151848214882e+01,5.024336230595599773e+01,-3.853604676752547675e+01,-2.605793774973335530e+01,9.484992027282714844e+00,-3.442134261131286621e-01,3.824593871831893921e-02,5.440000000000000000e+02
-1.265066733335170284e+02,-1.299090418617788600e+02,-5.565545652379569219e+01,9.333200766622212541e+00,-9.776649543112398533e+01,5.135978220531615079e+01,-3.980750262109449977e+01,-2.604357460689243453e+01,9.484992027282714844e+00,-3.442134261131286621e-01,3.824593871831893921e-02,5.450000000000000000e+02
-1.254659391236946249e+02,-1.289514394829038793e+02,-5.474878329443981784e+01,9.575420228450639115e+00,-9.747501273008947464e+01,5.223415902654778620e+01,-3.982985888185612566e+01,-2.518262216674793308e+01,9.484992027282714844e+00,-3.442134261131286621e-01,3.824593871831893921e-02,5.460000000000000000e+02
-1.245038335118842951e+02,-1.287246483979806726e+02,-5.270433011336808704e+01,1.020950899352465058e+01,-9.568753315774756629e+01,5.240666308362142445e+01,-3.887656478684402828e+01,-2.378362625455883972e+01,9.484992027282714844e+00,-3.059675097465515137e-01,3.824593871831893921e-02,5.470000000000000000e+02
-1.238010500124692044e+02,-1.289601420831768337e+02,-5.023934781226671475e+01,1.098041554716019164e+01,-9.325992941354343202e+01,5.168032624065835989e+01,-3.774585663820107584e+01,-2.246897504536354973e+01,9.484992027282714844e+00,-3.059675097465515137e-01,3.824593871831893921e-02,5.480000000000000000e+02
-1.235320491083957677e+02,-1.291421037714872000e+02,-4.801256837774235464e+01,1.148588208983437653e+01,-9.116860842351252359e+01,5.029527583721574047e+01,-3.703752344481654291e+01,-2.149783567016038432e+01,9.484992027282714844e+00,-3.059675097465515137e-01,3.824593871831893921e-02,5.490000000000000000e+02
-1.235777360774309273e+02,-1.287617077549857640e+02,-4.628368956142821844e+01,1.160770532523565635e+01,-8.980444822842855501e+01,4.881575027781218523e+01,-3.671648667650333664e+01,-2.060740597733547474e+01,9.484992027282714844e+00,-3.059675097465515137e-01,3.824593871831893921e-02,5.500000000000000000e+02
-1.234529265272285556e+02,-1.276611631971882161e+02,-4.503077671710616414e+01,1.162832442045146308e+01,-8.893012743175677315e+01,4.783802613827720052e+01,-3.632142032537376508e+01,-1.951290470200274285e+01,9.484992027282714844e+00,-3.059675097465515137e-01,3.824593871831893921e-02,5.510000000000000000e+02
-1.226058588511014023e+02,-1.261622172725546989e+02,-4.423155138118454488e+01,1.194598473380119685e+01,-8.821080059730138601e+01,4.771878260160883656e+01,-3.554003368566736754e+01,-1.842856070936250035e+01,9.484992027282714844e+00,-3.059675097465515137e-01,3.824593871831893921e-02,5.520000000000000000e+02
-1.208638153076008166e+02,-1.248043892946880078e+02,-4.390631018513795425e+01,1.265945162713160244e+01,-8.768445716274163715e+01,4.844793188181392907e+01,-3.453981839446896629e+01,-1.791770916372661304e+01,9.484992027282714844e+00,-3.059675097465515137e-01,3.824593871831893921e-02,5.530000000000000000e+02
-1.186179753615178925e+02,-1.238751792207740436e+02,-4.391049877193654538e+01,1.342274691172497114e+01,-8.768060736982624803e+01,4.966647983431903413e+01,-3.374586381931749202e+01,-1.816319291509171308e+01,9.484992027282714844e+00,-3.059675097465515137e-01,3.824593871831893921e-02,5.540000000000000000e+02
-1.165565406764280851e+02,-1.231416877354258759e+02,-4.382885164317849558e+01,1.373684441645673360e+01,-8.831539238608274900e+01,5.081497903675881389e+01,-3.335291896035414538e+01,-1.848586548442108324e+01,9.484992027282714844e+00,-3.059675097465515137e-01,3.824593871831893921e-02,5.550000000000000000e+02
-1.151642130867294327e+02,-1.220390530225058683e+02,-4.322533508771812194e+01,1.343924901994432730e+01,-8.913813525058048981e+01,5.137869243306704448e+01,-3.312302802752219577e+01,-1.778258450726480078e+01,9.484992027282714844e+00,-3.059675097465515137e-01,3.824593871831893921e-02,5.560000000000000000e+02
-1.144128737816208741e+02,-1.201571169864691910e+02,-4.204174850066738145e+01,1.295250407471030485e+01,-8.935626545821651234e+01,5.113584162219558493e+01,-3.266636183108312252e+01,-1.558709720119895792e+01,9.484992027282714844e+00,-3.059675097465515137e-01,3.824593871831893921e-02,5.570000000000000000e+02
-1.138767743627358868e+02,-1.175968688878401736e+02,-4.069857155973386398e+01,1.301028938298441062e+01,-8.847922962254961021e+01,5.024107800991259865e+01,-3.187301170223872759e+01,-1.271264344509017974e+01,9.484992027282714844e+00,-3.059675097465515137e-01,3.824593871831893921e-02,5.580000000000000000e+02
-1.131324783364798350e+02,-1.149018183399221016e+02,-3.972838868005874247e+01,1.405326036585393013e+01,-8.679542751378903631e+01,4.906286848406489298e+01,-3.101692531361459260e+01,-1.072924510217308125e+01,9.484992027282714844e+00,-3.059675097465515137e-01,3.824593871831893921e-02,5.590000000000000000e+02
-1.120760571158734820e+02,-1.126524553412509704e+02,-3.928724920176500746e+01,1.583587067585722252e+01,-8.521671493028225086e+01,4.792069716199694085e+01,-3.043333938047453557e+01,-1.064463821496610763e+01,9.484992027282714844e+00,-3.059675097465515137e-01,3.824593871831893921e-02,5.600000000000000000e+02
-1.109211179290468863e+02,-1.110845477382054014e+02,-3.906324048184342246e+01,1.761988971325808961e+01,-8.460163917027966818e+01,4.697263034207571764e+01,-3.015621815844497178e+01,-1.200252738076051173e+01,9.484992027282714844e+00,-3.059675097465515137e-01,3.824593871831893921e-02,5.610000000000000000e+02
-1.099488459296935616e+02,-1.100252175934392653e+02,-3.867028964698420168e+01,1.880820205182317295e+01,-8.512906545764781185e+01,4.633685754013276892e+01,-2.991680465377612563e+01,-1.325889998930597358e+01,9.484992027282714844e+00,-3.059675097465515137e-01,3.824593871831893921e-02,5.620000000000000000e+02
-1.092758959198927187e+02,-1.091195094404083648e+02,-3.807725707593363040e+01,1.943897531142101798e+01,-8.622266294427936373e+01,4.624187227188849647e+01,-2.947668540023005335e+01,-1.308778743711718562e+01,9.484992027282714844e+00,-3.059675097465515137e-01,3.824593871831893921e-02,5.630000000000000000e+02
-1.088212951363311731e+02,-1.081058384368971019e+02,-3.758721568990040396e+01,2.005823979901470011e+01,-8.701965025683421118e+01,4.693293078712849820e+01,-2.889991203758472693e+01,-1.142900409375397430e+01,9.484992027282714844e+00,-3.059675097465515137e-01,3.824593871831893921e-02,5.640000000000000000e+02
-1.084190472640275402e+02,-1.069246926603700558e+02,-3.738257123316725483e+01,2.109600718051842705e+01,-8.692980677749801544e+01,4.835043108733043482e+01,-2.845375987093939329e+01,-9.373410465595952701e+00,9.484992027282714844e+00,-3.059675097465515137e-01,3.824593871831893921e-02,5.650000000000000000e+02
-1.079136780658063799e+02,-1.056484740746891475e+02,-3.716615974256274058e+01,2.236697869567979069e+01,-8.585855407372037007e+01,4.990678766832024849e+01,-2.826788104417755676e+01,-8.103338718150553177e+00,9.484992027282714844e+00,-3.059675097465515137e-01,3.824593871831893921e-02,5.660000000000000000e+02
-1.071571575826019398e+02,-1.043601706570752867e+02,-3.635345128944936732e+01,2.321172745199874043e+01,-8.405725953510591353e+01,5.067308462016444537e+01,-2.814896661170314474e+01,-7.922198971717079985e+00,9.484992027282714844e+00,-3.059675097465515137e-01,3.824593871831893921e-02,5.670000000000000000e+02
-1.059989992784376227e+02,-1.030961649815708370e+02,-3.468371309855865547e+01,2.317146276561288687e+01,-8.188799807748728199e+01,4.990854932178990566e+01,-2.775751177555684990e+01,-8.181949660527607193e+00,9.484992027282714844e+00,-3.059675097465515137e-01,3.824593871831893921e-02,5.680000000000000000e+02
-1.043892492415507149e+02,-1.018731152364143782e+02,-3.262643470135117241e+01,2.254052502207741782e+01,-7.972467639863498334e+01,4.751173385388392489e+01,-2.694648326612150413e+01,-7.997714930190340965e+00,9.484992027282714844e+00,-3.059675097465515137e-01,3.824593871831893921e-02,5.690000000000000000e+02
-1.025411755816294317e+02,-1.007376782405790436e+02,-3.110763240056803625e+01,2.221956158312605112e+01,-7.792749965560142300e+01,4.401556070824699418e+01,-2.588721596194227459e+01,-6.972107165229317616e+00,9.484992027282714844e+00,-3.059675097465515137e-01,3.824593871831893921e-02,5.700000000000000000e+02
-1.009505651364434016e+02,-9.976747141665509844e+01,-3.074684106578752107e+01,2.294342168877483346e+01,-7.672234428352021496e+01,4.017438651770316937e+01,-2.485397603902310948e+01,-5.329899996722815558e+00,9.484992027282714844e+00,-3.059675097465515137e-01,3.824593871831893921e-02,5.710000000000000000e+02
-1.001202643823362450e+02,-9.899528837982143159e+01,-3.129951064688066253e+01,2.458451128360866278e+01,-7.601898574341794301e+01,3.653358401673540357e+01,-2.392868335403909441e+01,-3.554074196827059495e+00,9.484992027282714844e+00,-3.059675097465515137e-01,3.824593871831893921e-02,5.720000000000000000e+02
-1.001221721088968479e+02,-9.831701613169025222e+01,-3.183075773038945044e+01,2.619531158073186816e+01,-7.540606076012591075e+01,3.329980295276618563e+01,-2.295947450151470548e+01,-2.018353338760789484e+00,9.484992027282714844e+00,-3.059675097465515137e-01,3.824593871831893921e-02,5.730000000000000000e+02
-1.003790784788834571e+02,-9.749086085525050294e+01,-3.147067157423407480e+01,2.678794274657593633e+01,-7.445388982177973958e+01,3.048806411502664560e+01,-2.180496050616238790e+01,-9.110464579207473435e-01,9.484992027282714844e+00,-3.059675097465515137e-01,3.824593871831893921e-02,5.740000000000000000e+02
-9.995383939196108258e+01,-9.628197478576475987e+01,-3.008083093479945092e+01,2.616666567812353605e+01,-7.310689282948442269e+01,2.809263330760950339e+01,-2.056667118038240005e+01,-3.186909548021503724e-01,9.484992027282714844e+00,-3.059675097465515137e-01,3.824593871831893921e-02,5.750000000000000000e+02
-9.822029712410221691e+01,-9.466060529909191246e+01,-2.827792160446188063e+01,2.508321594244262087e+01,-7.177006879853797727e+01,2.611551386126666330e+01,-1.953377074940181046e+01,-2.009919898682710482e-01,9.484992027282714844e+00,-3.059675097465515137e-01,3.824593871831893921e-02,5.760000000000000000e+02
-9.541030740762835194e+01,-9.286717408171352872e+01,-2.685284485291958845e+01,2.458960392990593391e+01,-7.095946950057805225e+01,2.451046995116485050e+01,-1.888527707687535440e+01,-2.676143602893716889e-01,9.484992027282714844e+00,-3.059675097465515137e-01,3.824593871831893921e-02,5.770000000000000000e+02
-9.253962118177878438e+01,-9.123556755436220556e+01,-2.613979397854200215e+01,2.517521229472004052e+01,-7.083250906588182261e+01,2.318675476245698519e+01,-1.846419737111500581e+01,-3.508168242660758551e-02,9.523238182067871094e+00,-4.207052886486053467e-01,1.147378161549568176e-01,5.780000000000000000e+02
-9.070741246761826915e+01,-8.990270294105539506e+01,-2.587434359657709138e+01,2.644033322705763567e+01,-7.105625681410310790e+01,2.209800214161441545e+01,-1.788207481442077551e+01,8.009330832028354052e-01,9.523238182067871094e+00,-4.207052886486053467e-01,1.147378161549568176e-01,5.790000000000000000e+02
-9.030608447744634759e+01,-8.868411305101835751e+01,-2.557641411360418715e+01,2.754110080896680302e+01,-7.112549772125748859e+01,2.129177494363102596e+01,-1.686595704474348167e+01,1.976246280348277651e+00,9.523238182067871094e+00,-4.207052886486053467e-01,1.147378161549568176e-01,5.800000000000000000e+02
-9.077612749708168849e+01,-8.725009338497329736e+01,-2.503639766541164136e+01,2.795209165135202056e+01,-7.079744920219309279e+01,2.081100558358957642e+01,-1.552468581869652553e+01,2.715933627219783375e+00,9.523238182067871094e+00,-4.207052886486053467e-01,1.147378161549568176e-01,5.810000000000000000e+02
-9.109385065154310723e+01,-8.543843800247850595e+01,-2.446102227086521452e+01,2.786725366368773393e+01,-7.022234365967779013e+01,2.052203518760143197e+01,-1.428411202035022143e+01,2.340713564881298225e+00,9.523238182067871094e+00,-4.207052886486053467e-01,1.147378161549568176e-01,5.820000000000000000e+02
-9.056554716687242035e+01,-8.338683717180538224e+01,-2.421217692601931049e+01,2.793710828207258601e+01,-6.970911827108284342e+01,2.007476943818983273e+01,-1.355766168225818546e+01,9.281644783732190263e-01,9.523238182067871094e+00,-4.207052886486053467e-01,1.147378161549568176e-01,5.830000000000000000e+02
-8.928184969010908389e+01,-8.136114880169952812e+01,-2.446426334180978301e+01,2.863562307332540513e+01,-6.943694770149340911e+01,1.910668113387509948e+01,-1.345275779680196138e+01,-6.359768398160667857e-01,9.523238182067871094e+00,-4.207052886486053467e-01,1.147378161549568176e-01,5.840000000000000000e+02
-8.791147266258121817e+01,-7.948494543922970479e+01,-2.510322468164304155e+01,2.985296137997647747e+01,-6.940345095186057733e+01,1.755965882217424223e+01,-1.374160376766485570e+01,-1.345392581290070666e+00,9.523238182067871094e+00,-4.207052886486053467e-01,1.147378161549568176e-01,5.850000000000000000e+02
-8.709124591786712699e+01,-7.768414467436195991e+01,-2.588131874271857669e+01,3.104363594781898428e+01,-6.956964220855661551e+01,1.580079864110302879e+01,-1.406108904532811721e+01,-9.015588175934681203e-01,9.523238182067871094e+00,-4.207052886486053467e-01,1.147378161549568176e-01,5.860000000000000000e+02
-8.694940993565978715e+01,-7.590193619244928414e+01,-2.658731282152075437e+01,3.173250474073211080e+01,-6.993543370124098146e+01,1.437479611294838833e+01,-1.411868329832395830e+01,8.764130283452686854e-02,9.523238182067871094e+00,-4.207052886486053467e-01,1.147378161549568176e-01,5.870000000000000000e+02
-8.709615966159981326e+01,-7.431058381553157233e+01,-2.704016541152122954e+01,3.189022666365053738e+01,-7.042616630639167852e+01,1.356060884446924319e+01,-1.373963918017761898e+01,7.276654996639990713e-01,9.523238182067871094e+00,-4.207052886486053467e-01,1.147378161549568176e-01,5.880000000000000000e+02
-8.698764273378765211e+01,-7.324321196770688402e+01,-2.698691441679693526e+01,3.186917997997079510e+01,-7.075944955914746970e+01,1.314819664922470110e+01,-1.280526128745077585e+01,6.781577790643495973e-01,9.523238182067871094e+00,-4.207052886486053467e-01,1.147378161549568176e-01,5.890000000000000000e+02
-8.631945017785255914e+01,-7.288856526054041751e+01,-2.615578271383674291e+01,3.200910308488892042e+01,-7.054250164876066265e+01,1.269783152687523398e+01,-1.126129944696185703e+01,4.175883675870863954e-01,9.523238182067871094e+00,-4.207052886486053467e-01,1.147378161549568176e-01,5.900000000000000000e+02
-8.517397756345599191e+01,-7.307491552157989645e+01,-2.451999876002628298e+01,3.230986721337831113e+01,-6.958143827619278454e+01,1.208567171431059251e+01,-9.252035045561569859e+00,7.220688533943757648e-01,9.523238182067871094e+00,-4.207052886486053467e-01,1.147378161549568176e-01,5.910000000000000000e+02
-8.388648215320790769e+01,-7.337372128795141180e+01,-2.251189386074656795e+01,3.248141682512869011e+01,-6.810580898849366349e+01,1.180288178677074029e+01,-7.223892240432178369e+00,1.914563304990224424e+00,9.523238182067871094e+00,-4.207052886486053467e-01,1.147378161549568176e-01,5.920000000000000000e+02
-8.280493275794651709e+01,-7.342215180988932843e+01,-2.087259117914072704e+01,3.229764014913234860e+01,-6.664691815047262935e+01,1.262072014204022707e+01,-5.795204896712675691e+00,3.616088544074955280e+00,9.523238182067871094e+00,-4.207052886486053467e-01,1.147378161549568176e-01,5.930000000000000000e+02
-8.210484820349302026e+01,-7.315050281653020647e+01,-2.013681386324606137e+01,3.189167097309109522e+01,-6.561723033247835701e+01,1.484883964651817223e+01,-5.380302978428517235e+00,5.178724844077805756e+00,9.523238182067871094e+00,-4.207052886486053467e-01,1.147378161549568176e-01,5.940000000000000000e+02
-8.172335652641049819e+01,-7.273076285155184451e+01,-2.016058261637226678e+01,3.169491603093774756e+01,-6.495001485271495767e+01,1.787499223772101686e+01,-5.846383770000102231e+00,6.305910462484462187e+00,9.523238182067871094e+00,-4.207052886486053467e-01,1.147378161549568176e-01,5.950000000000000000e+02
-8.141313092994096223e+01,-7.235173694375043851e+01,-2.016098077725109761e+01,3.206787207473098533e+01,-6.413026481838460313e+01,2.048387625982650206e+01,-6.536132711924437899e+00,7.236590753447671887e+00,9.523238182067871094e+00,-4.207052886486053467e-01,1.147378161549568176e-01,5.960000000000000000e+02
-8.087916993339968030e+01,-7.206668362098571379e+01,-1.931264643147005700e+01,3.297459821561642457e+01,-6.260453675157259568e+01,2.174193620826918050e+01,-6.717764476557931630e+00,8.371936915362311993e+00,9.523238182067871094e+00,-4.207052886486053467e-01,1.147378161549568176e-01,5.970000000000000000e+02
-7.994320531336779823e+01,-7.181519947888955357e+01,-1.743280421680901782e+01,3.402268803258266416e+01,-6.025022874629939906e+01,2.167809166717779590e+01,-6.136863704326970037e+00,9.775502248099655844e+00,9.523238182067871094e+00,-4.207052886486053467e-01,1.147378161549568176e-01,5.980000000000000000e+02
-7.865839067620254355e+01,-7.151932053647760767e+01,-1.517819336304455646e+01,3.483563801720447373e+01,-5.755288434611429693e+01,2.116013875675707823e+01,-5.211725773035141174e+00,1.103059883386958973e+01,9.484992027282714844e+00,-3.824593424797058105e-01,1.147378161549568176e-01,5.990000000000000000e+02
-7.729072063217245159e+01,-7.112680767331403331e+01,-1.358214886603673222e+01,3.538028936234331923e+01,-5.538300235181668540e+01,2.110185613025532803e+01,-4.702048526141879847e+00,1.155036510706486297e+01,9.484992027282714844e+00,-3.824593424797058105e-01,1.147378161549568176e-01,6.000000000000000000e+02
-7.616081522128661163e+01,-7.059783629962839768e+01,-1.330152368192284484e+01,3.589481317799072713e+01,-5.454161186124110827e+01,2.171993620003922842e+01,-5.114393962434405694e+00,1.102730648328360985e+01,9.484992027282714844e+00,-3.824593424797058105e-01,1.147378161549568176e-01,6.010000000000000000e+02
-7.543397351570456522e+01,-6.992199837055522949e+01,-1.417316104498968343e+01,3.647395369487276184e+01,-5.535241447405132931e+01,2.245593600665233680e+01,-6.324048676775419153e+00,9.656486473122640746e+00,9.484992027282714844e+00,-3.824593424797058105e-01,1.147378161549568176e-01,6.020000000000000000e+02
-7.499425372773839626e+01,-6.917768930745660327e+01,-1.539400386974375579e+01,3.676465100642963080e+01,-5.750147315109643387e+01,2.254274557587632444e+01,-7.701203157754207496e+00,8.015362720918346895e+00,9.484992027282714844e+00,-3.824593424797058105e-01,1.147378161549568176e-01,6.030000000000000000e+02
-7.451023972223993042e+01,-6.854484106552990852e+01,-1.612287012199521996e+01,3.616991913829406258e+01,-6.016695335970871383e+01,2.166634129456724622e+01,-8.607085615385585697e+00,6.733641828635882121e+00,9.484992027282714844e+00,-3.824593424797058105e-01,1.147378161549568176e-01,6.040000000000000000e+02
-7.367948742637963733e+01,-6.820633146453474183e+01,-1.600750047272231313e+01,3.445257796058649546e+01,-6.234392500224566902e+01,2.021426568671449786e+01,-8.836262368746247375e+00,6.167983117418771144e+00,9.484992027282714844e+00,-3.824593424797058105e-01,1.147378161549568176e-01,6.050000000000000000e+02
-7.249087390749627957e+01,-6.820858780420167022e+01,-1.527135293292303686e+01,3.215449243659531930e+01,-6.323330966279900167e+01,1.901288819452020107e+01,-8.682248724951932672e+00,6.246592892472108360e+00,9.484992027282714844e+00,-3.824593424797058105e-01,1.147378161549568176e-01,6.060000000000000000e+02
-7.128935367162557668e+01,-6.842259599925819202e+01,-1.437560781142383348e+01,3.033845794339140411e+01,-6.254727458953857422e+01,1.882353683141991496e+01,-8.629453658311831532e+00,6.553042484662000788e+00,9.484992027282714844e+00,-3.824593424797058105e-01,1.147378161549568176e-01,6.070000000000000000e+02
-7.055504970126639819e+01,-6.864098281600672635e+01,-1.360244687171871192e+01,2.979344609934923938e+01,-6.060424748568038922e+01,1.992493109987117350e+01,-8.956720933751057601e+00,6.611242146635049721e+00,9.484992027282714844e+00,-3.824593424797058105e-01,1.147378161549568176e-01,6.080000000000000000e+02
-7.054272758832303225e+01,-6.870360482110845624e+01,-1.291165694800292840e+01,3.040697706996797933e+01,-5.814979741409115377e+01,2.197065263760305243e+01,-9.549910312893189257e+00,6.186811079136532499e+00,9.484992027282714844e+00,-3.824593424797058105e-01,1.147378161549568176e-01,6.090000000000000000e+02
-7.106395718914427562e+01,-6.850984298185721855e+01,-1.212935076106805354e+01,3.130412725341739133e+01,-5.598330436363539775e+01,2.416756561238435097e+01,-1.000986992831894895e+01,5.364767879127612105e+00,9.484992027282714844e+00,-3.824593424797058105e-01,1.147378161549568176e-01,6.100000000000000000e+02
-7.160605865049001295e+01,-6.793592677984270267e+01,-1.124261223166467971e+01,3.163491742622136371e+01,-5.461335978271745262e+01,2.570587155545945279e+01,-9.930747038630215684e+00,4.332640831125900149e+00,9.484992027282714844e+00,-3.824593424797058105e-01,1.147378161549568176e-01,6.110000000000000000e+02
-7.169110558965985547e+01,-6.680725944245932624e+01,-1.048419259143702220e+01,3.127180967278764001e+01,-5.413190407616275479e+01,2.621450666620512493e+01,-9.149196503003622638e+00,3.096841265076363925e+00,9.484992027282714844e+00,-3.824593424797058105e-01,1.147378161549568176e-01,6.120000000000000000e+02
-7.117018696164814173e+01,-6.504597648552953615e+01,-1.011634779158703168e+01,3.078354060830315575e+01,-5.432936542644529254e+01,2.593380655522196321e+01,-7.846206696649460355e+00,1.466269007520168088e+00,9.484992027282714844e+00,-3.824593424797058105e-01,1.147378161549568176e-01,6.130000000000000000e+02
