F3,F4,C3,C4,P3,P4,Cz,Pz,Accel_x,Accel_y,Accel_z,Sample
-4.001776687800884247e-11,-2.091837814077734947e-11,-3.183231456205248833e-11,-6.912159733474254608e-11,-4.911271389573812485e-11,-7.275957614183425903e-11,-2.546585164964199066e-11,-3.001332515850663185e-11,9.446745872497558594e+00,-7.649186849594116211e-01,-1.300361871719360352e+00,2.010000000000000000e+02
-5.534649019763492106e+00,-6.727201325108580932e+00,5.135519714016481885e+00,1.815986693175182154e+01,1.520038142991688801e+01,1.556414365198725136e+01,3.931076627168295090e+00,-1.321980144464760087e+00,9.446745872497558594e+00,-7.649186849594116211e-01,-1.300361871719360352e+00,2.020000000000000000e+02
-1.153079073349726968e+01,-1.129519588814764575e+01,1.029819231759938702e+01,2.740212341476944857e+01,1.861424044693922042e+01,2.051653172752776300e+01,4.600516804353901534e+00,-5.326674240768625168e-01,9.446745872497558594e+00,-7.649186849594116211e-01,-1.300361871719360352e+00,2.030000000000000000e+02
-1.924974496674167312e+01,-1.401426798602551571e+01,1.333781904655279504e+01,2.622725604567312985e+01,8.355724171051406302e+00,1.337685359704482835e+01,4.863124213297851384e-01,8.872714202780116466e-01,9.446745872497558594e+00,-7.649186849594116211e-01,-1.300361871719360352e+00,2.040000000000000000e+02
-3.012917022043620818e+01,-1.756982367746604723e+01,1.105936781272430380e+01,2.093477163318311796e+01,-7.293472903822475928e+00,2.062941408719780156e+00,-7.598757937955269881e+00,-1.337014100344276812e+00,9.446745872497558594e+00,-7.649186849594116211e-01,-1.300361871719360352e+00,2.050000000000000000e+02
-4.387557830365767586e+01,-2.423807333384684171e+01,3.123603192148948438e+00,1.914988294239446986e+01,-1.871400840257228992e+01,-4.367909365615560091e+00,-1.705185988828634436e+01,-9.435660664386887220e+00,9.446745872497558594e+00,-7.649186849594116211e-01,-1.300361871719360352e+00,2.060000000000000000e+02
-5.707033515794319101e+01,-3.291964486393317202e+01,-5.373955868614757492e+00,2.336514722888750839e+01,-2.319586713314674853e+01,-3.706908729931456037e+00,-2.432091816688807739e+01,-1.961060391472710762e+01,9.446745872497558594e+00,-7.649186849594116211e-01,-1.300361871719360352e+00,2.070000000000000000e+02
-6.416150252168245061e+01,-3.888926149889448425e+01,-6.043296556638779293e+00,3.056710079461481655e+01,-2.457623997473729105e+01,-6.547632321162382141e-01,-2.564273647651771171e+01,-2.338662746870431874e+01,9.446745872497558594e+00,-7.649186849594116211e-01,-1.147378087043762207e+00,2.080000000000000000e+02
-6.081706383988057496e+01,-3.687070622491046379e+01,6.982172556912701111e+00,3.715022575601688004e+01,-2.620537961671107041e+01,-1.684441211200464750e-01,-1.812579667050067656e+01,-1.375203247477384139e+01,9.446745872497558594e+00,-7.649186849594116211e-01,-1.147378087043762207e+00,2.090000000000000000e+02
-4.730533074982395192e+01,-2.507069117903574806e+01,3.238786708590123453e+01,4.312394396154741116e+01,-2.605378027612096048e+01,-1.959001664012248511e+00,-1.382746074629721988e+00,9.146615687408484519e+00,9.446745872497558594e+00,-7.649186849594116211e-01,-1.147378087043762207e+00,2.100000000000000000e+02
-2.904922969140989153e+01,-6.871492041909732507e+00,6.228024030006235989e+01,5.133602223251000396e+01,-1.937191134807562776e+01,-1.680539412131111021e+00,2.130252069053221931e+01,3.771379432460889802e+01,9.446745872497558594e+00,-7.649186849594116211e-01,-1.147378087043762207e+00,2.110000000000000000e+02
-1.351001244553481229e+01,1.120493757689382619e+01,8.756181340884268138e+01,6.341882312071174965e+01,-5.240171243818622315e+00,3.490735274244798347e+00,4.383828658618949703e+01,6.216222715722960857e+01,9.446745872497558594e+00,-7.649186849594116211e-01,-1.147378087043762207e+00,2.120000000000000000e+02
-5.586866325926166610e+00,2.357122447480742267e+01,1.035264297374369562e+02,7.745285641173722979e+01,1.084900293523878645e+01,1.154038253293765592e+01,6.035850234382451163e+01,7.677997415441950579e+01,9.446745872497558594e+00,-7.649186849594116211e-01,-1.147378087043762207e+00,2.130000000000000000e+02
-5.052813843829426332e+00,2.848859573872960027e+01,1.113675984416458959e+02,8.978032306412205799e+01,2.138460920805118803e+01,1.788037425562652061e+01,6.839934866289331694e+01,8.233077355645673379e+01,9.446745872497558594e+00,-7.649186849594116211e-01,-1.147378087043762207e+00,2.140000000000000000e+02
-7.852123915993615810e+00,2.789695194818341406e+01,1.152792861412226557e+02,9.853978282055868476e+01,2.340890537731866061e+01,2.008988837861943466e+01,6.969264794647187955e+01,8.357125335352975526e+01,9.446745872497558594e+00,-7.649186849594116211e-01,-1.147378087043762207e+00,2.150000000000000000e+02
-9.835990909581596497e+00,2.496138459852136293e+01,1.185192077519741360e+02,1.049382327432376769e+02,2.045632694241612626e+01,1.982056123258917069e+01,6.805589065825824946e+01,8.491141962178517133e+01,9.446745872497558594e+00,-7.649186849594116211e-01,-1.147378087043762207e+00,2.160000000000000000e+02
-9.660593657667959633e+00,2.179571875715100759e+01,1.219190351918578017e+02,1.112936588736956764e+02,1.843806728654453764e+01,2.035410140722160577e+01,6.645849992725743505e+01,8.796934889447766182e+01,9.446745872497558594e+00,-7.649186849594116211e-01,-1.147378087043762207e+00,2.170000000000000000e+02
-8.718795202124965726e+00,1.907047533254444716e+01,1.253058148443515165e+02,1.184771271166573570e+02,2.025740890874476463e+01,2.309578731769397564e+01,6.580370633399070357e+01,9.221904072569486743e+01,9.446745872497558594e+00,-7.649186849594116211e-01,-1.147378087043762207e+00,2.180000000000000000e+02
-8.845242798033723375e+00,1.708361380381029448e+01,1.294377366722465013e+02,1.255642903780535562e+02,2.439393881993964897e+01,2.679059375853466918e+01,6.593045747978339932e+01,9.699831818128041050e+01,9.446745872497558594e+00,-7.649186849594116211e-01,-1.147378087043762207e+00,2.190000000000000000e+02
-1.033558748871200805e+01,1.658270538952274364e+01,1.360961849217546842e+02,1.315809508753245609e+02,2.782268317793750612e+01,2.963968377204400895e+01,6.710244312668783095e+01,1.025482737709317007e+02,9.446745872497558594e+00,-7.649186849594116211e-01,-1.147378087043762207e+00,2.200000000000000000e+02
-1.198475945564860012e+01,1.832334233396068157e+01,1.464081737739770688e+02,1.369518785228374327e+02,2.938581500907366717e+01,3.141974577461041918e+01,7.019693022272349481e+01,1.094575251392980135e+02,9.446745872497558594e+00,-7.649186849594116211e-01,-1.147378087043762207e+00,2.210000000000000000e+02
-1.258487466097358265e+01,2.202816484094455518e+01,1.594408474157435194e+02,1.430188322844951472e+02,3.028722892520363530e+01,3.336040968676388729e+01,7.566515285393506929e+01,1.176511232762850341e+02,9.446745872497558594e+00,-7.649186849594116211e-01,-1.147378087043762207e+00,2.220000000000000000e+02
-1.203114192077100597e+01,2.617718272744241403e+01,1.726751639836902541e+02,1.504480730228096945e+02,3.210296897299849661e+01,3.644630032250461227e+01,8.277205957984460838e+01,1.262317841762151147e+02,9.446745872497558594e+00,-7.649186849594116211e-01,-1.147378087043762207e+00,2.230000000000000000e+02
-1.098895990541223000e+01,2.912986778407048405e+01,1.838741902199890319e+02,1.584969021180440905e+02,3.505976905401712429e+01,4.036326302292036416e+01,9.012872258017432614e+01,1.342720567876522182e+02,9.446745872497558594e+00,-7.649186849594116211e-01,-1.147378087043762207e+00,2.240000000000000000e+02
-9.827948451000338537e+00,3.051439894467239355e+01,1.924807572356794481e+02,1.658606522800673702e+02,3.823968931144645467e+01,4.408048948670693790e+01,9.687479368710046401e+01,1.415858003173852921e+02,9.446745872497558594e+00,-7.649186849594116211e-01,-1.147378087043762207e+00,2.250000000000000000e+02
-8.237672285348708101e+00,3.139347982103299728e+01,1.993343146035977043e+02,1.719773576688148751e+02,4.089527901916335395e+01,4.702856740814968362e+01,1.031290067239888231e+02,1.486532735010414399e+02,9.446745872497558594e+00,-7.649186849594116211e-01,-1.147378087043762207e+00,2.260000000000000000e+02
-5.967200096701162693e+00,3.293495824147248641e+01,2.053121238581879879e+02,1.773629226825651131e+02,4.316113954527645546e+01,4.944990692018473055e+01,1.092901591950430884e+02,1.558543082976448204e+02,9.446745872497558594e+00,-7.649186849594116211e-01,-1.147378087043762207e+00,2.270000000000000000e+02
-3.724877959322384413e+00,3.491169528135196742e+01,2.104803827340065254e+02,1.828278614926621231e+02,4.560216630205559341e+01,5.179785447090762318e+01,1.151560292724034298e+02,1.628825275068106748e+02,9.446745872497558594e+00,-7.649186849594116211e-01,-1.147378087043762207e+00,2.280000000000000000e+02
-3.023875380067693186e+00,3.564774430639681668e+01,2.145749766352337247e+02,1.886266896937813726e+02,4.844996220445955259e+01,5.417836161585000809e+01,1.199784177338851805e+02,1.689631637199427132e+02,9.446745872497558594e+00,-7.649186849594116211e-01,-1.147378087043762207e+00,2.290000000000000000e+02
-4.915880770619423856e+00,3.361992457575797744e+01,2.180566471724732764e+02,1.944081084925292089e+02,5.144130465969010402e+01,5.648957115360099124e+01,1.233672635062516747e+02,1.736225629342407046e+02,9.446745872497558594e+00,-7.649186849594116211e-01,-1.147378087043762207e+00,2.300000000000000000e+02
-8.807343552733073011e+00,2.923003288005384093e+01,2.223562641933658597e+02,1.997813133660547464e+02,5.423499828609692486e+01,5.886103662907589751e+01,1.258963805031862648e+02,1.772179833683521792e+02,9.446745872497558594e+00,-7.649186849594116211e-01,-1.147378087043762207e+00,2.310000000000000000e+02
-1.257975860763281162e+01,2.499590956099245886e+01,2.288441595674439668e+02,2.047344434427923261e+02,5.678795956072553963e+01,6.167157668935396941e+01,1.285985823728792639e+02,1.806999992386913618e+02,9.446745872497558594e+00,-7.649186849594116211e-01,-1.147378087043762207e+00,2.320000000000000000e+02
-1.404900924388221028e+01,2.381910940892885264e+01,2.374605758468951535e+02,2.095091321957315813e+02,5.929888177426710172e+01,6.508209669941606990e+01,1.318088476371376601e+02,1.847924496219620778e+02,9.446745872497558594e+00,-7.266727685928344727e-01,-1.185624003410339355e+00,2.330000000000000000e+02
-1.258153784183559765e+01,2.674605647307134859e+01,2.463770830374305660e+02,2.142248423653400096e+02,6.187421612878551969e+01,6.869763896686708904e+01,1.346047409607967893e+02,1.892900597254342756e+02,9.446745872497558594e+00,-7.266727685928344727e-01,-1.185624003410339355e+00,2.340000000000000000e+02
-9.542140606800785463e+00,3.211356188906438547e+01,2.531381372299147188e+02,2.187288362443705410e+02,6.427607643701321649e+01,7.181197365498519503e+01,1.355248320101595709e+02,1.930873513133128654e+02,9.446745872497558594e+00,-7.266727685928344727e-01,-1.185624003410339355e+00,2.350000000000000000e+02
-7.246006333651166642e+00,3.676177259558244259e+01,2.563621020927857899e+02,2.227758097741543679e+02,6.596604218670290720e+01,7.397436464675411116e+01,1.339691878685853226e+02,1.949647074209033235e+02,9.446745872497558594e+00,-7.266727685928344727e-01,-1.185624003410339355e+00,2.360000000000000000e+02
-7.259330405170203449e+00,3.831026629545840478e+01,2.566750056313662753e+02,2.262929080125568362e+02,6.645862815371219767e+01,7.529986254062896478e+01,1.310441973378656257e+02,1.946141085442782241e+02,9.446745872497558594e+00,-7.266727685928344727e-01,-1.185624003410339355e+00,2.370000000000000000e+02
-9.370638487744145095e+00,3.668831250596440441e+01,2.562455593394261086e+02,2.294725093386759909e+02,6.577817017400502664e+01,7.627993947404866049e+01,1.290579078902310357e+02,1.931501798242675250e+02,9.446745872497558594e+00,-7.266727685928344727e-01,-1.185624003410339355e+00,2.380000000000000000e+02
-1.195976519334271870e+01,3.385128379650450370e+01,2.573915957527497085e+02,2.326638478223349011e+02,6.468032157364359591e+01,7.737719527515037043e+01,1.300102933565326566e+02,1.926432853934120430e+02,9.446745872497558594e+00,-7.266727685928344727e-01,-1.185624003410339355e+00,2.390000000000000000e+02
-1.335645529077146421e+01,3.213250796246074970e+01,2.613610520521756371e+02,2.361818518313020832e+02,6.435463943128434039e+01,7.880062709297817491e+01,1.342575497945836105e+02,1.949279397768113995e+02,9.446745872497558594e+00,-7.266727685928344727e-01,-1.185624003410339355e+00,2.400000000000000000e+02
-1.308229349742305203e+01,3.260588159986764367e+01,2.680162553422264864e+02,2.401278467510210248e+02,6.568371391625169053e+01,8.053618720540725917e+01,1.403558857896018708e+02,2.004913440521590928e+02,9.446745872497558594e+00,-7.266727685928344727e-01,-1.185624003410339355e+00,2.410000000000000000e+02
-1.203616268109499288e+01,3.459238053596664031e+01,2.763399961837035335e+02,2.443007005471126831e+02,6.862541011857683770e+01,8.246918534353517316e+01,1.461696576078429644e+02,2.082369309003661328e+02,9.446745872497558594e+00,-7.266727685928344727e-01,-1.185624003410339355e+00,2.420000000000000000e+02
-1.157064875916421443e+01,3.643308480502173552e+01,2.851547011304555781e+02,2.482906744974898174e+02,7.231528411051840521e+01,8.447566661490873230e+01,1.503695466198842041e+02,2.162975678858065294e+02,9.446745872497558594e+00,-7.266727685928344727e-01,-1.185624003410339355e+00,2.430000000000000000e+02
-1.230356250584009103e+01,3.674952558987206430e+01,2.935057474467134853e+02,2.517754964623190972e+02,7.584590672408558021e+01,8.650177322583203932e+01,1.531593379084838489e+02,2.232182141853022586e+02,9.446745872497558594e+00,-7.266727685928344727e-01,-1.185624003410339355e+00,2.440000000000000000e+02
-1.369368429107225893e+01,3.523461833976807611e+01,3.006006098357001974e+02,2.548060536395323652e+02,7.894510503697529202e+01,8.861948531377765903e+01,1.556571836311932202e+02,2.285147780193210565e+02,9.446745872497558594e+00,-7.266727685928344727e-01,-1.185624003410339355e+00,2.450000000000000000e+02
-1.470748834974392594e+01,3.254553087426802449e+01,3.056301498275497579e+02,2.577457900771041750e+02,8.179204950180701417e+01,9.092408178268942720e+01,1.584527002989052562e+02,2.322152085181683105e+02,9.446745872497558594e+00,-7.266727685928344727e-01,-1.185624003410339355e+00,2.460000000000000000e+02
-1.488083087687073203e+01,2.959704095576034888e+01,3.078981729536039893e+02,2.608421655382899189e+02,8.421860456821832486e+01,9.330389549924984749e+01,1.606692382345986516e+02,2.340200064785549330e+02,9.446745872497558594e+00,-7.266727685928344727e-01,-1.185624003410339355e+00,2.470000000000000000e+02
-1.471000841765044242e+01,2.693011676647438435e+01,3.073623640800292378e+02,2.638416429337230511e+02,8.534067000922641455e+01,9.535178124237518205e+01,1.605434203151389738e+02,2.331607029276515277e+02,9.446745872497558594e+00,-7.266727685928344727e-01,-1.185624003410339355e+00,2.480000000000000000e+02
-1.499085162532946924e+01,2.464172063367777810e+01,3.051986189054118768e+02,2.660860773942804371e+02,8.421802238765667425e+01,9.660171255218847364e+01,1.571892458517113482e+02,2.293480029297561487e+02,9.446745872497558594e+00,-7.266727685928344727e-01,-1.185624003410339355e+00,2.490000000000000000e+02
-1.579641075920108051e+01,2.281334547817186831e+01,3.037365172326117317e+02,2.670826034775836888e+02,8.094413940841513977e+01,9.693403292453695030e+01,1.519879671079356740e+02,2.239249135779391509e+02,9.446745872497558594e+00,-7.266727685928344727e-01,-1.185624003410339355e+00,2.500000000000000000e+02
-1.619301819387646901e+01,2.193923442139794133e+01,3.054461831218395673e+02,2.670368611037365554e+02,7.696650406224034668e+01,9.675528410457809514e+01,1.481431445566736329e+02,2.198160950465749011e+02,9.446745872497558594e+00,-7.266727685928344727e-01,-1.185624003410339355e+00,2.510000000000000000e+02
-1.507352628691842256e+01,2.286921013880373721e+01,3.114594197175188128e+02,2.668266088889286038e+02,7.418226603424682253e+01,9.674584643490015878e+01,1.485038311282210088e+02,2.198522090824562838e+02,9.446745872497558594e+00,-7.266727685928344727e-01,-1.185624003410339355e+00,2.520000000000000000e+02
-1.235215006001089932e+01,2.619291389720001462e+01,3.206565698556605639e+02,2.673925415896374034e+02,7.360370760083696950e+01,9.738568569972449041e+01,1.533613451744631675e+02,2.246646887156757657e+02,9.446745872497558594e+00,-7.266727685928344727e-01,-1.185624003410339355e+00,2.530000000000000000e+02
-9.352184371865860157e+00,3.151636561394752789e+01,3.301170769898194521e+02,2.690621971793034390e+02,7.479610905574099888e+01,9.867406264180044673e+01,1.601005602254886071e+02,2.320298451718608703e+02,9.446745872497558594e+00,-7.266727685928344727e-01,-1.185624003410339355e+00,2.540000000000000000e+02
-7.896626061691222276e+00,3.732776058146964715e+01,3.368222350598571211e+02,2.714178882461474132e+02,7.651518913776044428e+01,1.002748961025445169e+02,1.651354783288225008e+02,2.385125615930041931e+02,9.446745872497558594e+00,-7.266727685928344727e-01,-1.185624003410339355e+00,2.550000000000000000e+02
-8.859025913326149748e+00,4.173887785202077794e+01,3.394373141660712463e+02,2.738242524163870257e+02,7.782435614965379500e+01,1.019076407168831793e+02,1.665848301098217235e+02,2.421441709282375996e+02,9.446745872497558594e+00,-7.266727685928344727e-01,-1.185624003410339355e+00,2.560000000000000000e+02
-1.147722703413091949e+01,4.363534390131553664e+01,3.388830463290673833e+02,2.761088871351030321e+02,7.864207883002427479e+01,1.035980605596287205e+02,1.654923960909418383e+02,2.437826961875944107e+02,9.446745872497558594e+00,-7.266727685928344727e-01,-1.185624003410339355e+00,2.570000000000000000e+02
-1.401030138643500322e+01,4.337461714008531999e+01,3.373927278230603406e+02,2.787423306698601664e+02,7.941057284258431537e+01,1.055870086713257479e+02,1.646947710305671535e+02,2.459201350512244062e+02,9.446745872497558594e+00,-7.266727685928344727e-01,-1.185624003410339355e+00,2.580000000000000000e+02
-1.508782038279150584e+01,4.245442881657754697e+01,3.369297690922549009e+02,2.823187242549220173e+02,8.042469181080377894e+01,1.080079618520076110e+02,1.664261637007375612e+02,2.500321358509763741e+02,9.446745872497558594e+00,-7.266727685928344727e-01,-1.185624003410339355e+00,2.590000000000000000e+02
-1.453267710865748086e+01,4.238755459080311994e+01,3.382452989501352931e+02,2.868105166864970670e+02,8.150685842837219752e+01,1.106284894233758678e+02,1.707055412145555238e+02,2.549682611251978415e+02,9.484992027282714844e+00,-7.649186849594116211e-01,-1.223870038986206055e+00,2.600000000000000000e+02
-1.304458050953735437e+01,4.366849561848766825e+01,3.411040165743911530e+02,2.913319192826766084e+02,8.221373167199453746e+01,1.128822041305375024e+02,1.757098926293278964e+02,2.579425920103781209e+02,9.484992027282714844e+00,-7.649186849594116211e-01,-1.223870038986206055e+00,2.610000000000000000e+02
-1.125625719026493243e+01,4.563212421684329456e+01,3.451080565405673042e+02,2.947128918280386642e+02,8.225493514221489022e+01,1.142014630633584602e+02,1.795505697765051991e+02,2.572629024738375847e+02,9.484992027282714844e+00,-7.649186849594116211e-01,-1.223870038986206055e+00,2.620000000000000000e+02
-9.202582517492373881e+00,4.723064563906427793e+01,3.501498203606402058e+02,2.964226208689869964e+02,8.175104047929198714e+01,1.144420147109194659e+02,1.817723520153867867e+02,2.542883578507999118e+02,9.484992027282714844e+00,-7.649186849594116211e-01,-1.223870038986206055e+00,2.630000000000000000e+02
-6.716040618602391987e+00,4.794087224055556362e+01,3.560880259062259938e+02,2.969819900580923786e+02,8.118846870786342151e+01,1.140682971514081601e+02,1.833341636926584215e+02,2.527178902898156139e+02,9.484992027282714844e+00,-7.649186849594116211e-01,-1.223870038986206055e+00,2.640000000000000000e+02
-4.245875736983180104e+00,4.795516000437055482e+01,3.621475418929546777e+02,2.974193791599709584e+02,8.113100434802663585e+01,1.138884509366835118e+02,1.853012206386142680e+02,2.556676770213780401e+02,9.484992027282714844e+00,-7.649186849594116211e-01,-1.223870038986206055e+00,2.650000000000000000e+02
-3.088840140900174447e+00,4.758598973361858953e+01,3.668791610690227571e+02,2.982417115395387555e+02,8.184643006892633821e+01,1.144776865530370742e+02,1.876029150790609492e+02,2.629956227635800587e+02,9.484992027282714844e+00,-7.649186849594116211e-01,-1.223870038986206055e+00,2.660000000000000000e+02
-4.573904276206803843e+00,4.664090566007189409e+01,3.689508983331047602e+02,2.989139093525373028e+02,8.307095803055199212e+01,1.157375943296178775e+02,1.890289349747547476e+02,2.711761028409282517e+02,9.484992027282714844e+00,-7.649186849594116211e-01,-1.223870038986206055e+00,2.670000000000000000e+02
-8.802243179979313936e+00,4.453897342593609210e+01,3.681674555906349724e+02,2.984055898268261444e+02,8.413554171778423552e+01,1.169971691380962966e+02,1.884199720221013195e+02,2.758711924220724541e+02,9.484992027282714844e+00,-7.649186849594116211e-01,-1.223870038986206055e+00,2.680000000000000000e+02
-1.408706488058385276e+01,4.113076615697218585e+01,3.658268274658398695e+02,2.963089136133294232e+02,8.446574674363318991e+01,1.176043085532289751e+02,1.859125673398034451e+02,2.751324740471725363e+02,9.484992027282714844e+00,-7.649186849594116211e-01,-1.223870038986206055e+00,2.690000000000000000e+02
-1.775925242701032403e+01,3.735123958963390578e+01,3.640479905912068261e+02,2.934013366937047067e+02,8.411074237595676095e+01,1.174800999109249915e+02,1.830861360773635624e+02,2.706994841283399182e+02,9.484992027282714844e+00,-7.649186849594116211e-01,-1.223870038986206055e+00,2.700000000000000000e+02
-1.785779234001847726e+01,3.486774870269232451e+01,3.645361068346646789e+02,2.910226588186774279e+02,8.382067512037838242e+01,1.171298164024574362e+02,1.818737583202798760e+02,2.664823828053836223e+02,9.484992027282714844e+00,-7.649186849594116211e-01,-1.223870038986206055e+00,2.710000000000000000e+02
-1.444814568326557946e+01,3.483431152606976866e+01,3.676480190043980656e+02,2.898077548982660119e+02,8.451189656395331440e+01,1.171234100118199422e+02,1.831603240866204487e+02,2.655670046397970054e+02,9.484992027282714844e+00,-7.649186849594116211e-01,-1.223870038986206055e+00,2.720000000000000000e+02
-9.580813012665089445e+00,3.684700474066380593e+01,3.723188491220657852e+02,2.890260888139346207e+02,8.652086548401030086e+01,1.175863174062351391e+02,1.862060866694507695e+02,2.681448502319983618e+02,9.484992027282714844e+00,-7.649186849594116211e-01,-1.223870038986206055e+00,2.730000000000000000e+02
-5.966198430269628261e+00,3.914674903961520158e+01,3.767474527500537533e+02,2.872298907665544903e+02,8.927442705315365856e+01,1.181878185700743416e+02,1.892624018725337010e+02,2.718468753609881787e+02,9.484992027282714844e+00,-7.649186849594116211e-01,-1.223870038986206055e+00,2.740000000000000000e+02
-5.395961204390687271e+00,4.000651909029090803e+01,3.792890377110174995e+02,2.836481454030690657e+02,9.164764561992114977e+01,1.185622309583229708e+02,1.907815414333017543e+02,2.739225329363850960e+02,9.484992027282714844e+00,-7.649186849594116211e-01,-1.223870038986206055e+00,2.750000000000000000e+02
-8.003816751510612448e+00,3.911335761755287876e+01,3.790458532675472725e+02,2.790196821508507128e+02,9.268110459777108190e+01,1.186639363748652158e+02,1.902567853672837828e+02,2.732923266245541072e+02,9.484992027282714844e+00,-7.649186849594116211e-01,-1.223870038986206055e+00,2.760000000000000000e+02
-1.266269309027200052e+01,3.772180044585149972e+01,3.760321051032235573e+02,2.750723530697769093e+02,9.207195692007621801e+01,1.186926265703391437e+02,1.881914913773368880e+02,2.708817320705452403e+02,9.484992027282714844e+00,-7.649186849594116211e-01,-1.223870038986206055e+00,2.770000000000000000e+02
-1.792692581605228952e+01,3.749014648210970790e+01,3.710776471350332031e+02,2.731388472893277140e+02,9.015238211820474135e+01,1.187600337047472294e+02,1.854698891832820209e+02,2.683261393874397527e+02,9.484992027282714844e+00,-7.649186849594116211e-01,-1.223870038986206055e+00,2.780000000000000000e+02
-2.272159009548477115e+01,3.907863597717278026e+01,3.655881390208287485e+02,2.731521136832657248e+02,8.751436933950253660e+01,1.187346943743636984e+02,1.827505625115820749e+02,2.664911794056836243e+02,9.484992027282714844e+00,-7.649186849594116211e-01,-1.223870038986206055e+00,2.790000000000000000e+02
-2.646728218634189034e+01,4.170212631848335150e+01,3.611254519844442257e+02,2.738600833781383699e+02,8.466379508851514402e+01,1.184452108003661124e+02,1.802773235958607074e+02,2.651521161831587960e+02,9.484992027282714844e+00,-7.649186849594116211e-01,-1.223870038986206055e+00,2.800000000000000000e+02
-2.892467942437360762e+01,4.384768909615866050e+01,3.588058554025578815e+02,2.739708725647483334e+02,8.193165294065352100e+01,1.179692136762203063e+02,1.780410867434122792e+02,2.638552380354042270e+02,9.484992027282714844e+00,-7.649186849594116211e-01,-1.223870038986206055e+00,2.810000000000000000e+02
-3.013232868627108019e+01,4.433124623312585300e+01,3.587577596164248916e+02,2.731548465676544311e+02,7.957260763491285616e+01,1.176295895850987563e+02,1.759851826163953774e+02,2.628001804517227811e+02,9.484992027282714844e+00,-7.649186849594116211e-01,-1.223870038986206055e+00,2.820000000000000000e+02
-3.046178558279689241e+01,4.277997238535999713e+01,3.600243852895207510e+02,2.720642323081758605e+02,7.785129814672063731e+01,1.176664604443058124e+02,1.740611044169943398e+02,2.626883364118957616e+02,9.484992027282714844e+00,-7.649186849594116211e-01,-1.223870038986206055e+00,2.830000000000000000e+02
-3.053958109895233974e+01,3.940901835423017019e+01,3.611064469791547253e+02,2.714590487774221401e+02,7.698477946820435136e+01,1.179388805270380089e+02,1.721692658466158719e+02,2.637113824278501397e+02,9.484992027282714844e+00,-7.649186849594116211e-01,-1.223870038986206055e+00,2.840000000000000000e+02
-3.090937727804430324e+01,3.468230886329695295e+01,3.608770601067678854e+02,2.712964641942701292e+02,7.699222281835636750e+01,1.180017611550690617e+02,1.701446400687352707e+02,2.648683178450789910e+02,9.484992027282714844e+00,-7.649186849594116211e-01,-1.223870038986206055e+00,2.850000000000000000e+02
-3.167894486650266117e+01,2.931847035634154963e+01,3.592391409347883382e+02,2.706111669431384144e+02,7.761751991758160329e+01,1.175165378044355293e+02,1.678674568136784728e+02,2.645103541963619591e+02,9.484992027282714844e+00,-7.649186849594116211e-01,-1.223870038986206055e+00,2.860000000000000000e+02
-3.252802137801950266e+01,2.441434714696697483e+01,3.570479298014195138e+02,2.682897057334409965e+02,7.845443053757617236e+01,1.165991192243002388e+02,1.654288667980385981e+02,2.617290293163316619e+02,9.484992027282714844e+00,-7.649186849594116211e-01,-1.223870038986206055e+00,2.870000000000000000e+02
-3.312557878636312125e+01,2.112615439049477573e+01,3.553897274320806901e+02,2.640679657251846493e+02,7.923000209533211091e+01,1.157576863057913670e+02,1.632014234303333069e+02,2.572540666963998319e+02,9.484992027282714844e+00,-7.649186849594116211e-01,-1.223870038986206055e+00,2.880000000000000000e+02
-3.356912204485036000e+01,1.985783412103683077e+01,3.547937341003332676e+02,2.588858447020904805e+02,8.001038904909341909e+01,1.154495355394635681e+02,1.617104190541890603e+02,2.529245179351778461e+02,9.484992027282714844e+00,-7.649186849594116211e-01,-1.223870038986206055e+00,2.890000000000000000e+02
-3.440618564202293328e+01,1.970325780131770443e+01,3.549246086018192727e+02,2.542686549471072794e+02,8.109047469806489516e+01,1.156425409159423907e+02,1.613250982170980024e+02,2.501629810714450741e+02,9.484992027282714844e+00,-7.649186849594116211e-01,-1.223870038986206055e+00,2.900000000000000000e+02
-3.623145069158033493e+01,1.892001249307361377e+01,3.548551241077386749e+02,2.512276595416119562e+02,8.258845123930075260e+01,1.157754479701518449e+02,1.619296178535057606e+02,2.488319708052213173e+02,9.484992027282714844e+00,-7.266727685928344727e-01,-1.147378087043762207e+00,2.910000000000000000e+02
-3.926477120768981877e+01,1.627212450764864116e+01,3.535933188720662201e+02,2.495701978713873359e+02,8.408585374751282870e+01,1.151850167776033231e+02,1.628131778919073440e+02,2.475006802044044889e+02,9.484992027282714844e+00,-7.266727685928344727e-01,-1.147378087043762207e+00,2.920000000000000000e+02
-4.327875084133620476e+01,1.208140521275493029e+01,3.505006686579654342e+02,2.481602021749979485e+02,8.470039828223593759e+01,1.136660054980391124e+02,1.629264126753007531e+02,2.448311218491038517e+02,9.484992027282714844e+00,-7.266727685928344727e-01,-1.147378087043762207e+00,2.930000000000000000e+02
-4.783637231289924330e+01,7.909514055009140066e+00,3.454733490246483143e+02,2.458520035227782046e+02,8.362770289995592066e+01,1.116836295558546226e+02,1.613919986510638864e+02,2.407915566545694901e+02,9.484992027282714844e+00,-7.266727685928344727e-01,-1.147378087043762207e+00,2.940000000000000000e+02
-5.248856852616336255e+01,5.042003186219290001e+00,3.389624769542131162e+02,2.422871653462618724e+02,8.075290733698363965e+01,1.100259968620507607e+02,1.579440882516462352e+02,2.366337926446274196e+02,9.484992027282714844e+00,-7.266727685928344727e-01,-1.147378087043762207e+00,2.950000000000000000e+02
-5.675453636929898948e+01,3.169294062666153877e+00,3.318645472674215853e+02,2.379668357305313293e+02,7.682522200181824701e+01,1.091646657410794887e+02,1.530038726882048650e+02,2.337391505028950860e+02,9.484992027282714844e+00,-7.266727685928344727e-01,-1.147378087043762207e+00,2.960000000000000000e+02
-6.010226342967268920e+01,5.918503417590272875e-01,3.252042092436036000e+02,2.337039178395580166e+02,7.301842140906239820e+01,1.088661450022423196e+02,1.473563162802263378e+02,2.324040248573272720e+02,9.484992027282714844e+00,-7.266727685928344727e-01,-1.147378087043762207e+00,2.970000000000000000e+02
-6.220135415899460440e+01,-4.127452373111850648e+00,3.196685934221784464e+02,2.300574251162056498e+02,7.020797469254046064e+01,1.084003849298028399e+02,1.417142866356591639e+02,2.316092843865577606e+02,9.484992027282714844e+00,-7.266727685928344727e-01,-1.147378087043762207e+00,2.980000000000000000e+02
-6.330663176199902864e+01,-1.056660150451943991e+01,3.152919632159384946e+02,2.271821525325333369e+02,6.850346839991163961e+01,1.071645400843551670e+02,1.365291456389788891e+02,2.299203492579258636e+02,9.484992027282714844e+00,-7.266727685928344727e-01,-1.147378087043762207e+00,2.990000000000000000e+02
-6.424815784592988166e+01,-1.644886836325997592e+01,3.116306733628830443e+02,2.249958025428045403e+02,6.734963977802010504e+01,1.051657813829735915e+02,1.321562974080741242e+02,2.267186035269027116e+02,9.484992027282714844e+00,-7.266727685928344727e-01,-1.147378087043762207e+00,3.000000000000000000e+02
-6.574422007956229663e+01,-1.935233907504289164e+01,3.084118990399781524e+02,2.232904225847428279e+02,6.609526678437600822e+01,1.029577856070150119e+02,1.291249058608241285e+02,2.227658350662484281e+02,9.484992027282714844e+00,-7.266727685928344727e-01,-1.147378087043762207e+00,3.010000000000000000e+02
-6.754378453083904787e+01,-1.868423217737586128e+01,3.060816014354888921e+02,2.216490756473235706e+02,6.459623762144099146e+01,1.011426343044113310e+02,1.281041445457544796e+02,2.196713603508127335e+02,9.484992027282714844e+00,-7.266727685928344727e-01,-1.147378087043762207e+00,3.020000000000000000e+02
-6.835905356575813130e+01,-1.624758669250411458e+01,3.055941429444173991e+02,2.194111908309118917e+02,6.338847569700237727e+01,9.991262907237091895e+01,1.293953036635748504e+02,2.186591139973537565e+02,9.484992027282714844e+00,-7.266727685928344727e-01,-1.147378087043762207e+00,3.030000000000000000e+02
-6.699141950152954905e+01,-1.496369311921773715e+01,3.074344097085977410e+02,2.159379016956945634e+02,6.324877984836041378e+01,9.898933388467162331e+01,1.322841347456876520e+02,2.195595773184975315e+02,9.484992027282714844e+00,-7.266727685928344727e-01,-1.147378087043762207e+00,3.040000000000000000e+02
-6.381169026482234585e+01,-1.682999990242763033e+01,3.106988516200582353e+02,2.110821549868107923e+02,6.444405445508709818e+01,9.792233748762305368e+01,1.349252786746313859e+02,2.208230651956893098e+02,9.484992027282714844e+00,-7.266727685928344727e-01,-1.147378087043762207e+00,3.050000000000000000e+02
-6.111053878264885952e+01,-2.167843630469462823e+01,3.132154818009071278e+02,2.054426167953499771e+02,6.630699586825369352e+01,9.643678368848918581e+01,1.351574604287097827e+02,2.206047779729353806e+02,9.484992027282714844e+00,-7.266727685928344727e-01,-1.147378087043762207e+00,3.060000000000000000e+02
-6.162911375474379838e+01,-2.748352581897870550e+01,3.128909120204583587e+02,2.001133526657763468e+02,6.763596938840464645e+01,9.459264151626166495e+01,1.319162424812273002e+02,2.181924108982464077e+02,9.484992027282714844e+00,-7.266727685928344727e-01,-1.147378087043762207e+00,3.070000000000000000e+02
-6.628111713373766634e+01,-3.175217170938537947e+01,3.093325699515886527e+02,1.960913456841626612e+02,6.772810456749118657e+01,9.274586637815559698e+01,1.262453902792657345e+02,2.147012878638396387e+02,9.484992027282714844e+00,-7.266727685928344727e-01,-1.147378087043762207e+00,3.080000000000000000e+02
-7.304319748467173667e+01,-3.292359291788000064e+01,3.043918574788215210e+02,1.938066461454195633e+02,6.716294359081916809e+01,9.138020100492826714e+01,1.209791262222867090e+02,2.124280563923985028e+02,9.484992027282714844e+00,-7.266727685928344727e-01,-1.147378087043762207e+00,3.090000000000000000e+02
-7.813513878585479233e+01,-3.096571295395324341e+01,3.010837375209741822e+02,1.931101859236273413e+02,6.751220936032768805e+01,9.085661903549976159e+01,1.191137260213358786e+02,2.132773808662902866e+02,9.484992027282714844e+00,-7.266727685928344727e-01,-1.147378087043762207e+00,3.100000000000000000e+02
-7.860314568368210075e+01,-2.704961273297567459e+01,3.016514731283676838e+02,1.936422062089861811e+02,7.005343887902154165e+01,9.116985418295621457e+01,1.219545968491828489e+02,2.174261466003616761e+02,9.484992027282714844e+00,-7.266727685928344727e-01,-1.147378087043762207e+00,3.110000000000000000e+02
-7.418369658300935043e+01,-2.272894122660682115e+01,3.062018810407591900e+02,1.952035427884054570e+02,7.454309291202559962e+01,9.188437121194397150e+01,1.283649832756101432e+02,2.231959182576902094e+02,9.370253562927246094e+00,-7.649186849594116211e-01,-1.185624003410339355e+00,3.120000000000000000e+02
-6.703713273403570838e+01,-1.916025426145358779e+01,3.128012982390715706e+02,1.978132803367473116e+02,7.918173190023333063e+01,9.237306131513673790e+01,1.356053909198967631e+02,2.281353009538280503e+02,9.370253562927246094e+00,-7.649186849594116211e-01,-1.185624003410339355e+00,3.130000000000000000e+02
-5.988709927807406075e+01,-1.675694367959545161e+01,3.187404183540514850e+02,2.014345990545102723e+02,8.185917605434292454e+01,9.222129826361265259e+01,1.410037476622596841e+02,2.303784816992958895e+02,9.370253562927246094e+00,-7.649186849594116211e-01,-1.185624003410339355e+00,3.140000000000000000e+02
-5.437619216528662491e+01,-1.538149042401869337e+01,3.219409387342196851e+02,2.056610344041305325e+02,8.161162713810460900e+01,9.144905505881752106e+01,1.431732066362634441e+02,2.293045617193657790e+02,9.370253562927246094e+00,-7.649186849594116211e-01,-1.185624003410339355e+00,3.150000000000000000e+02
-5.087391813614885905e+01,-1.483787394733803922e+01,3.216712080682864325e+02,2.097251968617877083e+02,7.909666366984015440e+01,9.034704227894212636e+01,1.421310232032351450e+02,2.253361055215070792e+02,9.370253562927246094e+00,-7.649186849594116211e-01,-1.185624003410339355e+00,3.160000000000000000e+02
-4.932932367085072656e+01,-1.521450768366958073e+01,3.184772260587199071e+02,2.129431988281176018e+02,7.586393150032006361e+01,8.911689532618925114e+01,1.387148265443580613e+02,2.194694975629143983e+02,9.370253562927246094e+00,-7.649186849594116211e-01,-1.185624003410339355e+00,3.170000000000000000e+02
-4.981322146337424783e+01,-1.672480889336509335e+01,3.137428927299815768e+02,2.153044984069540533e+02,7.325800453195256523e+01,8.773115390005705194e+01,1.341048256652281907e+02,2.130937467485289289e+02,9.370253562927246094e+00,-7.649186849594116211e-01,-1.185624003410339355e+00,3.180000000000000000e+02
-5.206900435177146846e+01,-1.915752540751009292e+01,3.091901573197189919e+02,2.176588777556125933e+02,7.188159284759694856e+01,8.616311879450358902e+01,1.297292302805907411e+02,2.079812613350119364e+02,9.370253562927246094e+00,-7.649186849594116211e-01,-1.185624003410339355e+00,3.190000000000000000e+02
-5.478616017095691859e+01,-2.153125137591177918e+01,3.063323497303575778e+02,2.211865593828265446e+02,7.177334977469320165e+01,8.467313107507447967e+01,1.271087900834979791e+02,2.058828816339938612e+02,9.370253562927246094e+00,-7.649186849594116211e-01,-1.185624003410339355e+00,3.200000000000000000e+02
-5.581196924337518794e+01,-2.247927260072071931e+01,3.059356764665748187e+02,2.264619637239090935e+02,7.278093246365995128e+01,8.374987974207169827e+01,1.272266890504622552e+02,2.076125339201204270e+02,9.370253562927246094e+00,-7.649186849594116211e-01,-1.185624003410339355e+00,3.210000000000000000e+02
-5.352933384995299093e+01,-2.122539256223831217e+01,3.077569514681230203e+02,2.328918023676494613e+02,7.467481526621463672e+01,8.370147274460077824e+01,1.297518557046189471e+02,2.123215364782245160e+02,9.370253562927246094e+00,-7.649186849594116211e-01,-1.185624003410339355e+00,3.220000000000000000e+02
-4.824326051179320984e+01,-1.833591855753843447e+01,3.108414106893807229e+02,2.390943979918067726e+02,7.708128917628800991e+01,8.433306805335632816e+01,1.329733447209315500e+02,2.178094970571095246e+02,9.370253562927246094e+00,-7.649186849594116211e-01,-1.185624003410339355e+00,3.230000000000000000e+02
-4.218912250532571306e+01,-1.548095710636584954e+01,3.142327859500674094e+02,2.439552667624836886e+02,7.955732487706336542e+01,8.507610820767808946e+01,1.348443401693241412e+02,2.218687939476096744e+02,9.370253562927246094e+00,-7.649186849594116211e-01,-1.185624003410339355e+00,3.240000000000000000e+02
-3.798531638065503557e+01,-1.426085228239526259e+01,3.174712240784338064e+02,2.474414588563940924e+02,8.185516000999496100e+01,8.545088950112335624e+01,1.344419266393881571e+02,2.236126109130827899e+02,9.370253562927246094e+00,-7.649186849594116211e-01,-1.185624003410339355e+00,3.250000000000000000e+02
-3.681082375557525665e+01,-1.504281239937290593e+01,3.204118861831376535e+02,2.504318710306299636e+02,8.407258544620617613e+01,8.538481796628502707e+01,1.325657145532964023e+02,2.236453625101845546e+02,9.370253562927246094e+00,-7.649186849594116211e-01,-1.185624003410339355e+00,3.260000000000000000e+02
-3.784111851087527612e+01,-1.677107328577130829e+01,3.226154027071177097e+02,2.537622225490088113e+02,8.646924804021205091e+01,8.509124061742340928e+01,1.308902952170500384e+02,2.230496869871877834e+02,9.370253562927246094e+00,-7.649186849594116211e-01,-1.185624003410339355e+00,3.270000000000000000e+02
-3.928088778643552814e+01,-1.786100635638717904e+01,3.231043343501894469e+02,2.574315721289829071e+02,8.912608677476760022e+01,8.471356987131548522e+01,1.304447312766930054e+02,2.222942246999272129e+02,9.370253562927246094e+00,-7.649186849594116211e-01,-1.185624003410339355e+00,3.280000000000000000e+02
-3.992611420955233825e+01,-1.737831222713646184e+01,3.209702482852151206e+02,2.607008222248277889e+02,9.179612331253383672e+01,8.414838382155403451e+01,1.308310455419410800e+02,2.211245928923731299e+02,9.370253562927246094e+00,-7.649186849594116211e-01,-1.185624003410339355e+00,3.290000000000000000e+02
-3.987266493492404607e+01,-1.555202192941487738e+01,3.163519976040423671e+02,2.629081723451461130e+02,9.405969964354835611e+01,8.320514470965645160e+01,1.308649716927650388e+02,2.193468008950151216e+02,9.370253562927246094e+00,-7.649186849594116211e-01,-1.185624003410339355e+00,3.300000000000000000e+02
-3.994201270473058685e+01,-1.334620411937532936e+01,3.107550710050948055e+02,2.641573601034151579e+02,9.558853547949604490e+01,8.188634206897631884e+01,1.299400963484774820e+02,2.174616483459060419e+02,9.370253562927246094e+00,-7.649186849594116211e-01,-1.185624003410339355e+00,3.310000000000000000e+02
-4.058686974513420864e+01,-1.161752880264191390e+01,3.062118498921712444e+02,2.652580501967026976e+02,9.629451033451516651e+01,8.048767169574830405e+01,1.287333670680974365e+02,2.163767653145342820e+02,9.370253562927246094e+00,-7.649186849594116211e-01,-1.185624003410339355e+00,3.320000000000000000e+02
-4.134504879556493506e+01,-1.056280820285121536e+01,3.039472603572473872e+02,2.670914874766867797e+02,9.636018462701099452e+01,7.945738620670726959e+01,1.285733025907998126e+02,2.165482582264918392e+02,9.370253562927246094e+00,-7.649186849594116211e-01,-1.185624003410339355e+00,3.330000000000000000e+02
-4.121784946412935824e+01,-9.748576188720562641e+00,3.037687758647645069e+02,2.700317631226544108e+02,9.622103532074368104e+01,7.916064328049424148e+01,1.301214477439640405e+02,2.175502943843981711e+02,9.370253562927246094e+00,-7.649186849594116211e-01,-1.185624003410339355e+00,3.340000000000000000e+02
-3.947066097953256758e+01,-8.517464549678607000e+00,3.047068621417064378e+02,2.738241805792126797e+02,9.646919409345582608e+01,7.969997826822623210e+01,1.326858823631301902e+02,2.185578383940526237e+02,9.370253562927246094e+00,-7.649186849594116211e-01,-1.185624003410339355e+00,3.350000000000000000e+02
-3.610704276861849849e+01,-6.415312430889002826e+00,3.061730881624947642e+02,2.778145189890358324e+02,9.760686742832376694e+01,8.085003654536399154e+01,1.348493244767499846e+02,2.191675840223404066e+02,9.370253562927246094e+00,-7.649186849594116211e-01,-1.185624003410339355e+00,3.360000000000000000e+02
-3.176583532712515989e+01,-3.461145326077030404e+00,3.083829380978088466e+02,2.812132419286488130e+02,9.973758308544552165e+01,8.211498425788317945e+01,1.357793927429976293e+02,2.196247864792053406e+02,9.408499717712402344e+00,-7.266727685928344727e-01,-1.223870038986206055e+00,3.370000000000000000e+02
-2.733686962761748873e+01,-2.028855695564288908e-01,3.116479362815256309e+02,2.833222716450577536e+02,1.025069246313073563e+02,8.295389233660716855e+01,1.359725370923744094e+02,2.203243186096697173e+02,9.408499717712402344e+00,-7.266727685928344727e-01,-1.223870038986206055e+00,3.380000000000000000e+02
-2.366691435736890980e+01,2.514264082756653806e+00,3.154179167522032685e+02,2.838399599649812899e+02,1.054547016437672937e+02,8.312136755707865632e+01,1.367681161893167427e+02,2.213567746940254892e+02,9.408499717712402344e+00,-7.266727685928344727e-01,-1.223870038986206055e+00,3.390000000000000000e+02
-2.141321193790474808e+01,4.069339398442480160e+00,3.182447414154707985e+02,2.831988046787546409e+02,1.084922567861879088e+02,8.288473709785625942e+01,1.391346293566674603e+02,2.227063204431165104e+02,9.408499717712402344e+00,-7.266727685928344727e-01,-1.223870038986206055e+00,3.400000000000000000e+02
-2.087130240899864475e+01,4.584196197463825229e+00,3.188290413701422494e+02,2.825956653578211899e+02,1.119946217409119527e+02,8.286539705860059257e+01,1.428292966861689592e+02,2.247134601339785149e+02,9.408499717712402344e+00,-7.266727685928344727e-01,-1.223870038986206055e+00,3.410000000000000000e+02
-2.175492088481462361e+01,4.952965791170754528e+00,3.170827459369897952e+02,2.834450719130409198e+02,1.163333044594910461e+02,8.354763446493711854e+01,1.465831594443781114e+02,2.279187900541003273e+02,9.408499717712402344e+00,-7.266727685928344727e-01,-1.223870038986206055e+00,3.420000000000000000e+02
-2.317608690314602882e+01,6.163994940211864559e+00,3.140598036413371119e+02,2.864813896234081767e+02,1.212624269435630140e+02,8.484634973687298043e+01,1.489901326987330776e+02,2.321197066351328431e+02,9.408499717712402344e+00,-7.266727685928344727e-01,-1.223870038986206055e+00,3.430000000000000000e+02
-2.409548707196518080e+01,8.311294910621086274e+00,3.107602607722027415e+02,2.911465443120578129e+02,1.257585577182860561e+02,8.611472655191937520e+01,1.492177184956651672e+02,2.356065361511175524e+02,9.408499717712402344e+00,-7.266727685928344727e-01,-1.223870038986206055e+00,3.440000000000000000e+02
-2.407827781684432011e+01,1.009999041463231606e+01,3.069922407627198027e+02,2.957710902541539326e+02,1.284952835408087140e+02,8.658304218346802372e+01,1.470079196726007922e+02,2.356812721991398121e+02,9.408499717712402344e+00,-7.266727685928344727e-01,-1.223870038986206055e+00,3.450000000000000000e+02
-2.377609754013565180e+01,9.362451537652873412e+00,3.014137757380253788e+02,2.984428274565100310e+02,1.285215586279405215e+02,8.583331659195437169e+01,1.422178426480652433e+02,2.303207215530464964e+02,9.408499717712402344e+00,-7.266727685928344727e-01,-1.223870038986206055e+00,3.460000000000000000e+02
-2.464759264127599181e+01,4.268080762708905240e+00,2.926819639715547510e+02,2.979251061897352884e+02,1.255565868763701474e+02,8.390758415797336056e+01,1.345369362931057822e+02,2.195188564793156729e+02,9.408499717712402344e+00,-7.266727685928344727e-01,-1.223870038986206055e+00,3.470000000000000000e+02
-2.805229727472931245e+01,-5.683772521223431795e+00,2.805485781707726574e+02,2.940191373392028709e+02,1.197584588587715189e+02,8.102690955498201220e+01,1.237112245915927815e+02,2.050122857686577618e+02,9.408499717712402344e+00,-7.266727685928344727e-01,-1.223870038986206055e+00,3.480000000000000000e+02
-3.442109088619270096e+01,-1.955185485498759590e+01,2.658783070137399136e+02,2.872736378230729315e+02,1.113318509186847223e+02,7.724853057611153417e+01,1.100110917563897601e+02,1.887024414655663804e+02,9.408499717712402344e+00,-7.266727685928344727e-01,-1.223870038986206055e+00,3.490000000000000000e+02
-4.314105646587586307e+01,-3.561025620212853937e+01,2.497242712934610154e+02,2.784347941564167286e+02,1.004066758463059159e+02,7.237984961875736190e+01,9.441535735669663154e+01,1.714038302356998429e+02,9.408499717712402344e+00,-7.266727685928344727e-01,-1.223870038986206055e+00,3.500000000000000000e+02
-5.314674339497469191e+01,-5.213301808637527301e+01,2.325103826237316298e+02,2.681039767759168626e+02,8.724891618962965367e+01,6.618727569819566270e+01,7.826936920723005642e+01,1.530980567768824585e+02,9.408499717712402344e+00,-7.266727685928344727e-01,-1.223870038986206055e+00,3.510000000000000000e+02
-6.360165971843832722e+01,-6.781830678794460709e+01,2.141302250810190344e+02,2.567468245595132430e+02,7.249078787651592393e+01,5.868189935545660774e+01,6.266703798695812111e+01,1.341621925677478657e+02,9.408499717712402344e+00,-7.266727685928344727e-01,-1.223870038986206055e+00,3.520000000000000000e+02
-7.408639455631430337e+01,-8.185949537457418046e+01,1.947366981441152802e+02,2.448589630338876759e+02,5.707195341462420402e+01,5.025009744522549227e+01,4.803212702818746038e+01,1.160086926857718481e+02,9.408499717712402344e+00,-7.266727685928344727e-01,-1.223870038986206055e+00,3.530000000000000000e+02
-8.431570457471968894e+01,-9.394076591998612002e+01,1.752683239026332558e+02,2.330086330859439840e+02,4.187870264414232224e+01,4.153997765041913226e+01,3.417120469330961896e+01,1.003073707457810997e+02,9.408499717712402344e+00,-7.266727685928344727e-01,-1.223870038986206055e+00,3.540000000000000000e+02
-9.389816692464751213e+01,-1.042549960326928158e+02,1.571037128270677385e+02,2.216663963446067100e+02,2.736983607363936244e+01,3.318990780942476704e+01,2.070396734156247476e+01,8.763168104339376896e+01,9.408499717712402344e+00,-7.266727685928344727e-01,-1.223870038986206055e+00,3.550000000000000000e+02
-1.024818404852138656e+02,-1.133460601510348624e+02,1.411924191784160030e+02,2.110092960375241091e+02,1.351529879993722716e+01,2.558553815218056116e+01,7.565177619988844526e+00,7.707479573098351011e+01,9.408499717712402344e+00,-7.266727685928344727e-01,-1.223870038986206055e+00,3.560000000000000000e+02
-1.100701662730541557e+02,-1.216744100065900511e+02,1.275690109169202060e+02,2.009323257663008917e+02,1.134226606241099944e-01,1.879839225146270110e+01,-4.733929668840801241e+00,6.731971663768581493e+01,9.408499717712402344e+00,-7.266727685928344727e-01,-1.223870038986206055e+00,3.570000000000000000e+02
-1.169982190731110450e+02,-1.291837083124788705e+02,1.157457625487857058e+02,1.913029424865562760e+02,-1.276612584305485143e+01,1.272115680502793111e+01,-1.524782030976643910e+01,5.802624431324215948e+01,9.408499717712402344e+00,-7.266727685928344727e-01,-1.223870038986206055e+00,3.580000000000000000e+02
-1.234336351561844367e+02,-1.353149021010377737e+02,1.055480657649854948e+02,1.822248093262360271e+02,-2.459939574085319691e+01,7.246702233627729584e+00,-2.310315669633325797e+01,5.003374979308773618e+01,9.408499717712402344e+00,-7.266727685928344727e-01,-1.223870038986206055e+00,3.590000000000000000e+02
-1.289063692058462038e+02,-1.395614382951403059e+02,9.747085818234245380e+01,1.740121053578191095e+02,-3.469022323917761241e+01,2.309879929230191919e+00,-2.809977899063528639e+01,4.418231673843752105e+01,9.408499717712402344e+00,-7.266727685928344727e-01,-1.223870038986206055e+00,3.600000000000000000e+02
-1.324838240710898845e+02,-1.420898591484335611e+02,9.211552008888247656e+01,1.668427548772428963e+02,-4.271602125901381442e+01,-2.219138554855817347e+00,-3.097871235849902405e+01,4.008698654724503285e+01,9.408499717712402344e+00,-7.266727685928344727e-01,-1.223870038986206055e+00,3.610000000000000000e+02
-1.335766404078942742e+02,-1.437851810021711572e+02,8.923019898550955986e+01,1.603956937371794993e+02,-4.904822838418340325e+01,-6.589992716754750290e+00,-3.304630270810957882e+01,3.627604374833015299e+01,9.408499717712402344e+00,-7.266727685928344727e-01,-1.223870038986206055e+00,3.620000000000000000e+02
-1.326337418347548009e+02,-1.455841102233218862e+02,8.736026750301198263e+01,1.538586869616619879e+02,-5.450120358939739162e+01,-1.100067250791062179e+01,-3.530836655179291483e+01,3.164377541510998526e+01,9.408499717712402344e+00,-7.266727685928344727e-01,-1.223870038986206055e+00,3.630000000000000000e+02
-1.309787245808665830e+02,-1.476480035443044017e+02,8.462907594842295111e+01,1.463877966814343381e+02,-5.966221557068911352e+01,-1.532024140525845723e+01,-3.775375528698850758e+01,2.675703983596940816e+01,9.523238182067871094e+00,-7.649186849594116211e-01,-1.185624003410339355e+00,3.640000000000000000e+02
-1.298327449140190311e+02,-1.491230790451318171e+02,8.011604942230860615e+01,1.376935173862239026e+02,-6.436591471693418498e+01,-1.904790714658338402e+01,-3.941669352004987559e+01,2.365786041250362359e+01,9.523238182067871094e+00,-7.649186849594116211e-01,-1.185624003410339355e+00,3.650000000000000000e+02
-1.294090979986458478e+02,-1.487414174800476303e+02,7.461366645958241861e+01,1.283006304714235739e+02,-6.779714103900914779e+01,-2.168917624728055671e+01,-3.924023671376835409e+01,2.423475956244419649e+01,9.523238182067871094e+00,-7.649186849594116211e-01,-1.185624003410339355e+00,3.660000000000000000e+02
-1.289361380057835049e+02,-1.458001437193020138e+02,7.001190832690031129e+01,1.192920926151314234e+02,-6.917213740184888593e+01,-2.327033963720168686e+01,-3.704425952505744135e+01,2.858695042653880591e+01,9.523238182067871094e+00,-7.649186849594116211e-01,-1.185624003410339355e+00,3.670000000000000000e+02
-1.275371549499068351e+02,-1.407603326740290868e+02,6.779598372870418643e+01,1.117444198075968416e+02,-6.844580561860334456e+01,-2.445875641077736873e+01,-3.373330264941660062e+01,3.480181664834435651e+01,9.523238182067871094e+00,-7.649186849594116211e-01,-1.185624003410339355e+00,3.680000000000000000e+02
-1.250476482509855032e+02,-1.350395654052422287e+02,6.798851600838906961e+01,1.062315245710769887e+02,-6.648981922077609852e+01,-2.608244250168809231e+01,-3.053297665619606960e+01,4.029157056816484328e+01,9.523238182067871094e+00,-7.649186849594116211e-01,-1.185624003410339355e+00,3.690000000000000000e+02
-1.219533694253505018e+02,-1.301845397655247325e+02,6.947786366661625834e+01,1.026550395274730363e+02,-6.462309054715160528e+01,-2.844365915946445966e+01,-2.792521292178344083e+01,4.353412335271923439e+01,9.523238182067871094e+00,-7.649186849594116211e-01,-1.185624003410339355e+00,3.700000000000000000e+02
-1.185912459273115473e+02,-1.269967727744303829e+02,7.138021876031052670e+01,1.004184012321538830e+02,-6.384268230124803267e+01,-3.106906874756441539e+01,-2.524616408844394755e+01,4.486515187521263215e+01,9.523238182067871094e+00,-7.649186849594116211e-01,-1.185624003410339355e+00,3.710000000000000000e+02
-1.145647234532166294e+02,-1.251288467789181595e+02,7.406736385584622440e+01,9.880165873185342207e+01,-6.423816563231139298e+01,-3.312655259943812780e+01,-2.131530229643249186e+01,4.589627598391780339e+01,9.523238182067871094e+00,-7.649186849594116211e-01,-1.185624003410339355e+00,3.720000000000000000e+02
-1.091053311931825647e+02,-1.233154700638542636e+02,7.878843488122311101e+01,9.734880798221911391e+01,-6.490843609500325329e+01,-3.408576790963525127e+01,-1.551544791710261961e+01,4.824289727316022436e+01,9.523238182067871094e+00,-7.649186849594116211e-01,-1.185624003410339355e+00,3.730000000000000000e+02
-1.020852385121891075e+02,-1.200695601016295768e+02,8.617925841959322497e+01,9.607165056106623524e+01,-6.444669536178980707e+01,-3.401080505481877481e+01,-8.383229147178099083e+00,5.258994937303191364e+01,9.523238182067871094e+00,-7.649186849594116211e-01,-1.185624003410339355e+00,3.740000000000000000e+02
-9.464725813867767101e+01,-1.144972457469380061e+02,9.509401404379332234e+01,9.534353327630833519e+01,-6.178634524791482363e+01,-3.329962342529142916e+01,-1.244651286057660400e+00,5.860222142085126507e+01,9.523238182067871094e+00,-7.649186849594116211e-01,-1.185624003410339355e+00,3.750000000000000000e+02
-8.870985843486687372e+01,-1.068430661823751961e+02,1.029728116772228077e+02,9.553215925253880414e+01,-5.696277984469406874e+01,-3.224338613264580999e+01,4.721552150851266560e+00,6.541358314277476893e+01,9.523238182067871094e+00,-7.649186849594116211e-01,-1.185624003410339355e+00,3.760000000000000000e+02
-8.567377433269484754e+01,-9.848337204033850867e+01,1.075374943923961837e+02,9.664253069666938245e+01,-5.127634118568494159e+01,-3.088217566662069657e+01,9.150865783466997527e+00,7.208657027622939495e+01,9.523238182067871094e+00,-7.649186849594116211e-01,-1.185624003410339355e+00,3.770000000000000000e+02
-8.541414080682966414e+01,-9.131540590001873170e+01,1.083717936513442055e+02,9.826987600959455449e+01,-4.661940871162482836e+01,-2.922552248015881560e+01,1.238613019856666142e+01,7.773578969521759063e+01,9.523238182067871094e+00,-7.649186849594116211e-01,-1.185624003410339355e+00,3.780000000000000000e+02
-8.638971587931200702e+01,-8.681855559859604909e+01,1.070490540557666463e+02,9.990234078812409280e+01,-4.432333066786554809e+01,-2.750867956125966884e+01,1.483223164395872118e+01,8.152756158236297779e+01,9.523238182067871094e+00,-7.649186849594116211e-01,-1.185624003410339355e+00,3.790000000000000000e+02
-8.673010880326137340e+01,-8.531627776908339911e+01,1.057798853925066851e+02,1.012742162619697410e+02,-4.433404135046794181e+01,-2.616276042518165923e+01,1.644223736071808162e+01,8.290162855092626160e+01,9.523238182067871094e+00,-7.649186849594116211e-01,-1.185624003410339355e+00,3.800000000000000000e+02
-8.538127720555530686e+01,-8.588079503170365570e+01,1.058271317130715943e+02,1.024316097434184485e+02,-4.536076340803538187e+01,-2.551757246267106893e+01,1.682433463458710321e+01,8.201533511527122755e+01,9.523238182067871094e+00,-7.649186849594116211e-01,-1.185624003410339355e+00,3.810000000000000000e+02
-8.250614782771754108e+01,-8.692805705497266899e+01,1.069868924037059514e+02,1.034919123752069936e+02,-4.587954773769479289e+01,-2.553321129618780105e+01,1.585412196029551524e+01,7.997538795334412498e+01,9.523238182067871094e+00,-7.649186849594116211e-01,-1.185624003410339355e+00,3.820000000000000000e+02
-7.907028676119193733e+01,-8.711367947766143516e+01,1.083427168847892972e+02,1.044053539060055300e+02,-4.518950402976906844e+01,-2.580433747615825268e+01,1.420134406397528437e+01,7.842656560758632622e+01,9.523238182067871094e+00,-7.649186849594116211e-01,-1.185624003410339355e+00,3.830000000000000000e+02
-7.611117536443521203e+01,-8.594043613545272819e+01,1.094093655883091287e+02,1.050136532442447788e+02,-4.371620387862094503e+01,-2.582323304278634168e+01,1.324872054069533078e+01,7.863975757313528447e+01,9.523238182067871094e+00,-7.649186849594116211e-01,-1.185624003410339355e+00,3.840000000000000000e+02
-7.419707001500319166e+01,-8.371731523332323377e+01,1.106417344455833245e+02,1.053415249267882245e+02,-4.242348970583998380e+01,-2.528713372766833345e+01,1.439168993538714858e+01,8.081252474522057128e+01,9.523238182067871094e+00,-7.649186849594116211e-01,-1.185624003410339355e+00,3.850000000000000000e+02
-7.324737241934940357e+01,-8.100791965376538428e+01,1.130271431804321765e+02,1.057646513221961868e+02,-4.190007771515411150e+01,-2.422208988040347322e+01,1.821382618820689459e+01,8.421390234326349855e+01,9.523238182067871094e+00,-7.649186849594116211e-01,-1.185624003410339355e+00,3.860000000000000000e+02
-7.264414219832087838e+01,-7.807897300338618152e+01,1.172651306101688533e+02,1.068014595801855648e+02,-4.186163580302991249e+01,-2.285462859896506416e+01,2.411387414301429999e+01,8.801764748469486221e+01,9.523238182067871094e+00,-7.649186849594116211e-01,-1.185624003410339355e+00,3.870000000000000000e+02
-7.157634253021387849e+01,-7.481302791418465858e+01,1.232033533500884914e+02,1.086785165757660252e+02,-4.138531342667329227e+01,-2.135342374583888159e+01,3.062557078358418039e+01,9.197850767375325631e+01,9.523238182067871094e+00,-7.649186849594116211e-01,-1.185624003410339355e+00,3.880000000000000000e+02
-6.954954458755310043e+01,-7.111482626583187994e+01,1.298328105873169989e+02,1.110895632875813135e+02,-3.962101576444956663e+01,-1.967370342678032102e+01,3.618885642253894730e+01,9.627050469194887228e+01,9.523238182067871094e+00,-7.649186849594116211e-01,-1.185624003410339355e+00,3.890000000000000000e+02
-6.680520899617840769e+01,-6.736399555780553783e+01,1.357222201948573002e+02,1.134199758986214874e+02,-3.642624827407962584e+01,-1.766041930842311558e+01,3.988826841667605549e+01,1.007115798094148431e+02,9.523238182067871094e+00,-7.649186849594116211e-01,-1.185624003410339355e+00,3.900000000000000000e+02
-6.425759541456500301e+01,-6.442000907305555302e+01,1.396160543294035961e+02,1.152672673967299488e+02,-3.249471090573479160e+01,-1.532643028250186035e+01,4.177217968269133053e+01,1.043124706513192450e+02,9.523238182067871094e+00,-7.649186849594116211e-01,-1.185624003410339355e+00,3.910000000000000000e+02
-6.282647810796265730e+01,-6.311315258092372460e+01,1.409432620098541520e+02,1.167965493533506560e+02,-2.893822451618234481e+01,-1.303492047410099985e+01,4.262949938090014257e+01,1.057736297164497046e+02,9.523238182067871094e+00,-7.649186849594116211e-01,-1.185624003410339355e+00,3.920000000000000000e+02
-6.261594577075720736e+01,-6.364197909034646727e+01,1.400106047347021558e+02,1.186072167860456830e+02,-2.663906719145370516e+01,-1.136336640718491253e+01,4.338478558664382945e+01,1.045439966549874953e+02,9.523238182067871094e+00,-7.649186849594116211e-01,-1.185624003410339355e+00,3.930000000000000000e+02
-6.268703134754696293e+01,-6.538604389458350852e+01,1.377558934854500876e+02,1.212059873192074519e+02,-2.582176253124953291e+01,-1.071909381189016131e+01,4.446714839527999175e+01,1.014024633726380671e+02,9.523238182067871094e+00,-7.649186849594116211e-01,-1.185624003410339355e+00,3.940000000000000000e+02
-6.175594927542920232e+01,-6.728173121430472747e+01,1.351527253101758106e+02,1.245401065961818858e+02,-2.610337934957988182e+01,-1.104294330098036880e+01,4.553514628730272307e+01,9.793474235623875757e+01,9.484992027282714844e+00,-7.266727685928344727e-01,-1.185624003410339355e+00,3.950000000000000000e+02
-5.930229528224890601e+01,-6.842064419091911986e+01,1.326538846960065712e+02,1.280191032032048497e+02,-2.688699708594003823e+01,-1.186588772418326698e+01,4.577599724989067909e+01,9.539851170658880619e+01,9.484992027282714844e+00,-7.266727685928344727e-01,-1.185624003410339355e+00,3.960000000000000000e+02
-5.609571147233145894e+01,-6.837668106014825753e+01,1.300963177712294510e+02,1.310442343134109251e+02,-2.770180951343854758e+01,-1.264041184809320839e+01,4.463702752375957061e+01,9.408386651949149382e+01,9.484992027282714844e+00,-7.266727685928344727e-01,-1.185624003410339355e+00,3.970000000000000000e+02
-5.363358691624625862e+01,-6.713104530895361677e+01,1.271129486513323172e+02,1.336024029323689319e+02,-2.823225827265696353e+01,-1.302330666176476370e+01,4.244334193305894587e+01,9.367209446323204247e+01,9.484992027282714844e+00,-7.266727685928344727e-01,-1.185624003410339355e+00,3.980000000000000000e+02
-5.297313640390279943e+01,-6.488315370262716897e+01,1.236490299887461788e+02,1.363521695848785384e+02,-2.817882732640191534e+01,-1.290673648916435923e+01,4.033915184782426877e+01,9.401146523787269871e+01,9.484992027282714844e+00,-7.266727685928344727e-01,-1.185624003410339355e+00,3.990000000000000000e+02
-5.397205127871166042e+01,-6.205539054134987964e+01,1.201010893347793171e+02,1.400284550867436337e+02,-2.727696831770617791e+01,-1.230215210306414519e+01,3.949517961934907362e+01,9.533960317869241408e+01,9.484992027282714844e+00,-7.266727685928344727e-01,-1.185624003410339355e+00,4.000000000000000000e+02
-5.553366722609325734e+01,-5.940869789636258247e+01,1.170324037487332589e+02,1.446491291633437868e+02,-2.552996550683201349e+01,-1.130344580166729429e+01,4.021774206968962062e+01,9.772945348940857002e+01,9.484992027282714844e+00,-7.266727685928344727e-01,-1.185624003410339355e+00,4.010000000000000000e+02
-5.649978863187152456e+01,-5.787144678532877151e+01,1.148583687490213379e+02,1.492966225288814712e+02,-2.332222155197769098e+01,-1.014834675385009177e+01,4.177497978263045297e+01,1.005232552849695367e+02,9.484992027282714844e+00,-7.266727685928344727e-01,-1.185624003410339355e+00,4.020000000000000000e+02
-5.636018380152495411e+01,-5.793365766844362952e+01,1.137874454822451753e+02,1.528046919874541345e+02,-2.113750910138196559e+01,-9.188240702938855975e+00,4.310537548893421445e+01,1.025612853996351532e+02,9.484992027282714844e+00,-7.266727685928344727e-01,-1.185624003410339355e+00,4.030000000000000000e+02
-5.530493676322976171e+01,-5.905856351531156179e+01,1.139125099927096016e+02,1.548187108272331898e+02,-1.908612331389167593e+01,-8.672583958976247231e+00,4.372699744079000084e+01,1.031115401315714735e+02,9.484992027282714844e+00,-7.266727685928344727e-01,-1.185624003410339355e+00,4.040000000000000000e+02
-5.386159746801513393e+01,-5.981744956656098111e+01,1.151277076817625584e+02,1.562533946012063097e+02,-1.676991081069627398e+01,-8.527735490401937568e+00,4.397926776384974801e+01,1.025605821488766196e+02,9.484992027282714844e+00,-7.266727685928344727e-01,-1.185624003410339355e+00,4.050000000000000000e+02
-5.262245861187079754e+01,-5.892616787420683977e+01,1.167844946733596316e+02,1.586364989690823677e+02,-1.374645280319555241e+01,-8.414297318412536697e+00,4.440024037800640144e+01,1.020582378347189660e+02,9.484992027282714844e+00,-7.266727685928344727e-01,-1.185624003410339355e+00,4.060000000000000000e+02
-5.220564173095272054e+01,-5.641870992917142758e+01,1.175594347157243647e+02,1.628490905712019412e+02,-1.016518071394830258e+01,-8.071198888623257517e+00,4.497401991827814527e+01,1.024231114199772037e+02,9.484992027282714844e+00,-7.266727685928344727e-01,-1.185624003410339355e+00,4.070000000000000000e+02
-5.314243749894262692e+01,-5.381819676477925896e+01,1.160182265041762548e+02,1.683872498246628311e+02,-6.845201971815640718e+00,-7.595027694442251232e+00,4.512136727957249605e+01,1.034359966844783685e+02,9.484992027282714844e+00,-7.266727685928344727e-01,-1.185624003410339355e+00,4.080000000000000000e+02
-5.545881613509163799e+01,-5.294450148033433834e+01,1.116864897139739696e+02,1.738262523784405857e+02,-4.619567042791004496e+00,-7.327402145183441462e+00,4.445328384850813563e+01,1.042276221785707548e+02,9.484992027282714844e+00,-7.266727685928344727e-01,-1.185624003410339355e+00,4.090000000000000000e+02
-5.825879913563858281e+01,-5.430613837651821996e+01,1.057550868510152213e+02,1.780581878113648600e+02,-3.574681679222976527e+00,-7.446124886774668994e+00,4.341593009890652866e+01,1.043128963226424730e+02,9.484992027282714844e+00,-7.266727685928344727e-01,-1.185624003410339355e+00,4.100000000000000000e+02
-5.990055034512215570e+01,-5.654207192765170475e+01,1.006032696298659630e+02,1.811892227904613719e+02,-2.963098328887099342e+00,-7.690411588158895029e+00,4.301128934321423003e+01,1.041626469951440868e+02,9.484992027282714844e+00,-7.266727685928344727e-01,-1.185624003410339355e+00,4.110000000000000000e+02
-5.890975947003175861e+01,-5.750997571249422435e+01,9.830917941384154801e+01,1.843277713071538528e+02,-1.881407441760075017e+00,-7.533496649074550078e+00,4.378021325918348339e+01,1.047187417927325441e+02,9.484992027282714844e+00,-7.266727685928344727e-01,-1.185624003410339355e+00,4.120000000000000000e+02
-5.501721644522217503e+01,-5.608292389027542413e+01,9.929322805549418263e+01,1.885327437167916287e+02,-5.124233757214824436e-03,-6.644240425837779185e+00,4.512248555856717758e+01,1.063963200492501073e+02,9.484992027282714844e+00,-7.266727685928344727e-01,-1.185624003410339355e+00,4.130000000000000000e+02
-4.944497064521146967e+01,-5.299796277282848678e+01,1.021971077657622118e+02,1.938934804060236274e+02,2.331344174375317380e+00,-5.187547276544137276e+00,4.577563488334158137e+01,1.086395652337232605e+02,9.484992027282714844e+00,-7.266727685928344727e-01,-1.185624003410339355e+00,4.140000000000000000e+02
-4.413906432632643373e+01,-5.000844071933056512e+01,1.050405408764772801e+02,1.994936143328250182e+02,4.676428026276880701e+00,-3.683718873926409287e+00,4.509804766842717072e+01,1.104895049734705026e+02,9.484992027282714844e+00,-7.266727685928344727e-01,-1.185624003410339355e+00,4.150000000000000000e+02
-4.055318129404008687e+01,-4.823959986911313536e+01,1.065963244448694240e+02,2.041773174017835117e+02,6.960679303228062054e+00,-2.584157055135619885e+00,4.388734015985755832e+01,1.115323302901106217e+02,9.446745872497558594e+00,-8.031646609306335449e-01,-1.223870038986206055e+00,4.160000000000000000e+02
-3.895838886809224277e+01,-4.738507648065478861e+01,1.068329955152416915e+02,2.073936635293862309e+02,9.427703775093959848e+00,-1.972123623738298193e+00,4.380675248283114342e+01,1.122034958195501986e+02,9.446745872497558594e+00,-8.031646609306335449e-01,-1.223870038986206055e+00,4.170000000000000000e+02
-3.873311186535534034e+01,-4.646665795401054311e+01,1.062400107264538747e+02,2.094415706336308176e+02,1.215331799350224173e+01,-1.634060946244062507e+00,4.582277932544866417e+01,1.131163406370960729e+02,9.446745872497558594e+00,-8.031646609306335449e-01,-1.223870038986206055e+00,4.180000000000000000e+02
-3.920582493315964712e+01,-4.522711354160992414e+01,1.049015961277746101e+02,2.110261474484345854e+02,1.472414445265530958e+01,-1.388256169197120471e+00,4.907052452909010754e+01,1.141354936407897185e+02,9.446745872497558594e+00,-8.031646609306335449e-01,-1.223870038986206055e+00,4.190000000000000000e+02
-4.020993670649204432e+01,-4.455362232768879949e+01,1.023143601637466418e+02,2.125990914890649037e+02,1.642449257212501834e+01,-1.327788198660527996e+00,5.127116974551472595e+01,1.142246361633660854e+02,9.446745872497558594e+00,-8.031646609306335449e-01,-1.223870038986206055e+00,4.200000000000000000e+02
-4.192648699350684183e+01,-4.541809045138643341e+01,9.808211838685929251e+01,2.140550754388382302e+02,1.675261258095406447e+01,-1.736293408637720859e+00,5.046783618335257415e+01,1.123370585440050036e+02,9.446745872497558594e+00,-8.031646609306335449e-01,-1.223870038986206055e+00,4.210000000000000000e+02
-4.431385322580990760e+01,-4.748991139194640709e+01,9.272629025844048556e+01,2.149996838377614949e+02,1.583249056637441754e+01,-2.736102624072373146e+00,4.667167279104342015e+01,1.085849261315693184e+02,9.446745872497558594e+00,-8.031646609306335449e-01,-1.223870038986206055e+00,4.220000000000000000e+02
-4.676475720567077587e+01,-4.903357607925750017e+01,8.774272897250693859e+01,2.152979555847473421e+02,1.443687204198567997e+01,-3.990614345949325070e+00,4.205373550311765030e+01,1.045703563228935309e+02,9.446745872497558594e+00,-8.031646609306335449e-01,-1.223870038986206055e+00,4.230000000000000000e+02
-4.833642316637451586e+01,-4.840893909331816758e+01,8.476012932468029248e+01,2.153754906485123684e+02,1.362303435910462213e+01,-4.783863443389236636e+00,3.949358457867106154e+01,1.024258514320667928e+02,9.446745872497558594e+00,-8.031646609306335449e-01,-1.223870038986206055e+00,4.240000000000000000e+02
-4.833488423572202919e+01,-4.574586495964763344e+01,8.450164288188648243e+01,2.159528539320986056e+02,1.417480103433217664e+01,-4.497758869463723386e+00,4.059239249795655269e+01,1.032533464300483956e+02,9.446745872497558594e+00,-8.031646609306335449e-01,-1.223870038986206055e+00,4.250000000000000000e+02
-4.671437919108757342e+01,-4.302373593337892999e+01,8.642955529899518297e+01,2.174240525938953397e+02,1.615232015494484585e+01,-3.116047154291663901e+00,4.466074021769736646e+01,1.062683839777216690e+02,9.446745872497558594e+00,-8.031646609306335449e-01,-1.223870038986206055e+00,4.260000000000000000e+02
-4.397998043241909727e+01,-4.232811150782322329e+01,8.931569404607171236e+01,2.194539710868502880e+02,1.884807948719299020e+01,-1.287761284099360637e+00,4.937192218968289126e+01,1.094096170343123049e+02,9.446745872497558594e+00,-8.031646609306335449e-01,-1.223870038986206055e+00,4.270000000000000000e+02
-4.075067320353673495e+01,-4.391664983701139136e+01,9.216768212089550616e+01,2.212025381044559253e+02,2.125488404924772112e+01,1.626400083887347137e-01,5.247318431903954661e+01,1.109421381416912027e+02,9.446745872497558594e+00,-8.031646609306335449e-01,-1.223870038986206055e+00,4.280000000000000000e+02
-3.738391979247830932e+01,-4.598438471941767602e+01,9.469498817700446125e+01,2.220047401820938830e+02,2.276924330754354742e+01,8.703170029257307760e-01,5.321877803928509820e+01,1.107147439891355134e+02,9.446745872497558594e+00,-8.031646609306335449e-01,-1.223870038986206055e+00,4.290000000000000000e+02
-3.396824923270787622e+01,-4.637480547342511272e+01,9.698526504483697863e+01,2.218786891317395202e+02,2.354905557682150175e+01,1.118420815020726877e+00,5.251047460682661949e+01,1.099910686667035407e+02,9.446745872497558594e+00,-8.031646609306335449e-01,-1.223870038986206055e+00,4.300000000000000000e+02
-3.062540810655059431e+01,-4.456871434885306371e+01,9.881736240357440693e+01,2.213957915562941707e+02,2.416446481063849205e+01,1.402302850625346764e+00,5.179646604774006846e+01,1.100201590839042183e+02,9.446745872497558594e+00,-8.031646609306335449e-01,-1.223870038986206055e+00,4.310000000000000000e+02
-2.781434633607409523e+01,-4.203651707736116805e+01,9.936454005018140379e+01,2.210843195403067512e+02,2.485231029974511330e+01,1.823477424974043970e+00,5.172442233217611829e+01,1.106792224152682138e+02,9.446745872497558594e+00,-8.031646609306335449e-01,-1.223870038986206055e+00,4.320000000000000000e+02
-2.633300183217988888e+01,-4.068569006468646876e+01,9.767229406327214747e+01,2.210136127276746265e+02,2.514748719874614835e+01,1.954830218835923006e+00,5.166146455332886944e+01,1.105118873931007784e+02,9.446745872497558594e+00,-8.031646609306335449e-01,-1.223870038986206055e+00,4.330000000000000000e+02
-2.696269058494249293e+01,-4.099966608954991898e+01,9.354309262578408379e+01,2.209665874588927181e+02,2.433014369920556419e+01,1.314062055538670393e+00,5.040473375109627341e+01,1.082050873044122454e+02,9.446745872497558594e+00,-8.031646609306335449e-01,-1.223870038986206055e+00,4.340000000000000000e+02
-2.993811692838471572e+01,-4.168459076308636213e+01,8.804372670759084940e+01,2.209448564758822613e+02,2.229550800443394110e+01,-6.709601389502495294e-02,4.742663175710913492e+01,1.041415905094388563e+02,9.446745872497558594e+00,-8.031646609306335449e-01,-1.223870038986206055e+00,4.350000000000000000e+02
-3.456588651938614021e+01,-4.107566955564743694e+01,8.312002103252143570e+01,2.213765356903518295e+02,1.996252751548399829e+01,-1.581170008268600213e+00,4.360595361680134374e+01,1.004785567562651067e+02,9.446745872497558594e+00,-8.031646609306335449e-01,-1.223870038986206055e+00,4.360000000000000000e+02
-3.927487034396267518e+01,-3.882503307052957098e+01,8.054458454545692803e+01,2.227300992233094803e+02,1.873603826107773784e+01,-2.537395246502455848e+00,4.083626849891288657e+01,9.950593408065833501e+01,9.446745872497558594e+00,-8.031646609306335449e-01,-1.223870038986206055e+00,4.370000000000000000e+02
-4.217106689130650921e+01,-3.622208719947911959e+01,8.099200599558957947e+01,2.249279036010420896e+02,1.946008870392824974e+01,-2.681079824877997453e+00,4.080530664688330944e+01,1.016606222383461500e+02,9.446745872497558594e+00,-8.031646609306335449e-01,-1.223870038986206055e+00,4.380000000000000000e+02
-4.189092869996034096e+01,-3.491932726559275579e+01,8.391362232502660845e+01,2.272204693421363118e+02,2.179348624988097072e+01,-2.240871589328889968e+00,4.385313202387214915e+01,1.050010582537915980e+02,9.446745872497558594e+00,-8.031646609306335449e-01,-1.223870038986206055e+00,4.390000000000000000e+02
-3.831040226765162515e+01,-3.535395963988526091e+01,8.819564092049290593e+01,2.287360830367570088e+02,2.452685759268433685e+01,-1.557006686930435535e+00,4.874718007744081660e+01,1.066922341331228381e+02,9.446745872497558594e+00,-8.031646609306335449e-01,-1.223870038986206055e+00,4.400000000000000000e+02
-3.266929986554509924e+01,-3.633284401593778057e+01,9.296624251248044857e+01,2.292116560643553385e+02,2.649910401609668043e+01,-7.721623492807339062e-01,5.350265446227035682e+01,1.052542868276518675e+02,9.523238182067871094e+00,-7.266727685928344727e-01,-1.147378087043762207e+00,4.410000000000000000e+02
-2.695045546007986559e+01,-3.604065994762413538e+01,9.790112863677245514e+01,2.292237820645032116e+02,2.734805075022495657e+01,1.167172098193987040e-01,5.661030225464946852e+01,1.016714716307078561e+02,9.523238182067871094e+00,-7.266727685928344727e-01,-1.147378087043762207e+00,4.420000000000000000e+02
-2.283975364336220082e+01,-3.347211083959973621e+01,1.029221211491385475e+02,2.297189292444281818e+02,2.761823019232633669e+01,1.028164026981357893e+00,5.777985435695404703e+01,9.849735959883264513e+01,9.523238182067871094e+00,-7.266727685928344727e-01,-1.147378087043762207e+00,4.430000000000000000e+02
-2.089470481372609356e+01,-2.908431226099219202e+01,1.077498159158046747e+02,2.313028223458372850e+02,2.832604562211054144e+01,1.756569944984221365e+00,5.776336427482146973e+01,9.786227635389832358e+01,9.523238182067871094e+00,-7.266727685928344727e-01,-1.147378087043762207e+00,4.440000000000000000e+02
-2.044213036039809595e+01,-2.431476154848633087e+01,1.117959457755357562e+02,2.339252564459607129e+02,3.038751397311216351e+01,2.189703591825491458e+00,5.756004801964263606e+01,1.000848135485657622e+02,9.523238182067871094e+00,-7.266727685928344727e-01,-1.147378087043762207e+00,4.450000000000000000e+02
-2.025056340817195633e+01,-2.058354686942925582e+01,1.144305593045830847e+02,2.371462311589020828e+02,3.420304736807838708e+01,2.484170085052937793e+00,5.771903562257034537e+01,1.038228642375631807e+02,9.523238182067871094e+00,-7.266727685928344727e-01,-1.147378087043762207e+00,4.460000000000000000e+02
-1.948050217189233990e+01,-1.861138104217320688e+01,1.152716780508978900e+02,2.406111186107327740e+02,3.946880917621729168e+01,2.929016355045860109e+00,5.824155057652819778e+01,1.072901349739879606e+02,9.523238182067871094e+00,-7.266727685928344727e-01,-1.147378087043762207e+00,4.470000000000000000e+02
-1.822339328928910618e+01,-1.837589032689743362e+01,1.142081262512413105e+02,2.442337047147411795e+02,4.522070883740252611e+01,3.609953465058424626e+00,5.896389484469045783e+01,1.093378911271049674e+02,9.523238182067871094e+00,-7.266727685928344727e-01,-1.147378087043762207e+00,4.480000000000000000e+02
-1.725734648549064332e+01,-1.943421917749719796e+01,1.112692703328002608e+02,2.479701647623851386e+02,5.014052964254142353e+01,4.236812077651848085e+00,5.988097554817909440e+01,1.096828102908480105e+02,9.523238182067871094e+00,-7.266727685928344727e-01,-1.147378087043762207e+00,4.490000000000000000e+02
-1.725546703801319381e+01,-2.118970923548681640e+01,1.066372813825312278e+02,2.515354620700909436e+02,5.307278569725576745e+01,4.340798137463934836e+00,6.103528182747277242e+01,1.084960085640632315e+02,9.523238182067871094e+00,-7.266727685928344727e-01,-1.147378087043762207e+00,4.500000000000000000e+02
-1.811520634996509216e+01,-2.295999702579024415e+01,1.008820773532229396e+02,2.544592152553982487e+02,5.353118518663950454e+01,3.670451912182670640e+00,6.214015002199039372e+01,1.060191456471104630e+02,9.523238182067871094e+00,-7.266727685928344727e-01,-1.147378087043762207e+00,4.510000000000000000e+02
-1.896390491822057811e+01,-2.399703870743496736e+01,9.511608478896118868e+01,2.564706756771010987e+02,5.189983910500814090e+01,2.436145683596805611e+00,6.246958455718822734e+01,1.025724821345318105e+02,9.523238182067871094e+00,-7.266727685928344727e-01,-1.147378087043762207e+00,4.520000000000000000e+02
-1.883992966789787715e+01,-2.365065277913890895e+01,9.072406124081680900e+01,2.577986970653009848e+02,4.920459177777911464e+01,1.222774481735086738e+00,6.129134861242414445e+01,9.876408775878917368e+01,9.523238182067871094e+00,-7.266727685928344727e-01,-1.147378087043762207e+00,4.530000000000000000e+02
-1.746589816165533193e+01,-2.168704735231563063e+01,8.874137613588914064e+01,2.590005585244362010e+02,4.660164635710225411e+01,6.564359352055362251e-01,5.852747459971692479e+01,9.552322583670502354e+01,9.523238182067871094e+00,-7.266727685928344727e-01,-1.147378087043762207e+00,4.540000000000000000e+02
-1.542332378614628396e+01,-1.852444172277614598e+01,8.939426399427088654e+01,2.604261159495054017e+02,4.492324527014216073e+01,1.067222177395706240e+00,5.504533854688997963e+01,9.386321490982390969e+01,9.523238182067871094e+00,-7.266727685928344727e-01,-1.147378087043762207e+00,4.550000000000000000e+02
-1.356034753279573124e+01,-1.511860600762224749e+01,9.219402858745979756e+01,2.618639671458431621e+02,4.453785377238727961e+01,2.342605145330708183e+00,5.227242406835011934e+01,9.452104921398131410e+01,9.523238182067871094e+00,-7.266727685928344727e-01,-1.147378087043762207e+00,4.560000000000000000e+02
-1.214994795986171994e+01,-1.244047421441950974e+01,9.644085235374996046e+01,2.627971725097077069e+02,4.549798652383242370e+01,4.028678309432507376e+00,5.143280688390223077e+01,9.765204978816109360e+01,9.523238182067871094e+00,-7.266727685928344727e-01,-1.147378087043762207e+00,4.570000000000000000e+02
-1.057701614042116489e+01,-1.082871390929858535e+01,1.015785717376934372e+02,2.630833262453770658e+02,4.773855038745841739e+01,5.613474687162124610e+00,5.299665515087167478e+01,1.026793896869055516e+02,9.523238182067871094e+00,-7.266727685928344727e-01,-1.147378087043762207e+00,4.580000000000000000e+02
-7.912415690114357858e+00,-9.731131387529558197e+00,1.070492526078141964e+02,2.633447986305013728e+02,5.108652197392348171e+01,6.801894720075779333e+00,5.664782306958340996e+01,1.083606347554418790e+02,9.523238182067871094e+00,-7.266727685928344727e-01,-1.147378087043762207e+00,4.590000000000000000e+02
-3.911054969785254798e+00,-8.143416484450881399e+00,1.119273874990265085e+02,2.645699024622786055e+02,5.509368139312573476e+01,7.591118396851470607e+00,6.158204189868183676e+01,1.131422257222918688e+02,9.523238182067871094e+00,-7.266727685928344727e-01,-1.147378087043762207e+00,4.600000000000000000e+02
4.780581011784761358e-01,-5.485690930829605350e+00,1.149771618575191496e+02,2.672270770740879016e+02,5.897093898362936670e+01,8.113481103261165117e+00,6.678815584903850322e+01,1.157834570149182127e+02,9.523238182067871094e+00,-7.266727685928344727e-01,-1.147378087043762207e+00,4.610000000000000000e+02
3.632446110861337729e+00,-2.187255814448690217e+00,1.153772749646032025e+02,2.707689815189096407e+02,6.187739315152998643e+01,8.431682070089209446e+00,7.121404105131182405e+01,1.159662570639227397e+02,9.523238182067871094e+00,-7.266727685928344727e-01,-1.147378087043762207e+00,4.620000000000000000e+02
4.432348418838273574e+00,6.031942334170707909e-01,1.135155355964948285e+02,2.740921000805028598e+02,6.345976719844293257e+01,8.531905028801702429e+00,7.396180768113367776e+01,1.144473558372872048e+02,9.523238182067871094e+00,-7.266727685928344727e-01,-1.147378087043762207e+00,4.630000000000000000e+02
3.103257358639211816e+00,2.005350775148372122e+00,1.109641883986157609e+02,2.765337809270527032e+02,6.416227467691123820e+01,8.526331901766297960e+00,7.458774117940924953e+01,1.125566119817981416e+02,9.523238182067871094e+00,-7.266727685928344727e-01,-1.147378087043762207e+00,4.640000000000000000e+02
1.024926647906795552e+00,2.228895876606429738e+00,1.094339794085083213e+02,2.783928518134298429e+02,6.491111197686086598e+01,8.790507183899080701e+00,7.334151521232615778e+01,1.113704981172036241e+02,9.523238182067871094e+00,-7.266727685928344727e-01,-1.147378087043762207e+00,4.650000000000000000e+02
-2.895948675934505445e-01,2.443540496226887626e+00,1.095386192897415185e+02,2.804157806743978654e+02,6.633910261384130536e+01,9.777163125560491608e+00,7.109199810796781094e+01,1.111793470008701661e+02,9.523238182067871094e+00,-7.266727685928344727e-01,-1.147378087043762207e+00,4.660000000000000000e+02
-1.526721580005414580e-01,3.773703419284174743e+00,1.105158478929456578e+02,2.827851219473609490e+02,6.822588611721494090e+01,1.160402526735606443e+01,6.893678680018729210e+01,1.116294481036102297e+02,9.523238182067871094e+00,-7.266727685928344727e-01,-1.147378087043762207e+00,4.670000000000000000e+02
1.128205037187967719e+00,6.340768809619248714e+00,1.112099122456902478e+02,2.847172889451821902e+02,6.971877034699787146e+01,1.383403501977909400e+01,6.777831321414100785e+01,1.123353052476363700e+02,9.484992027282714844e+00,-8.031646609306335449e-01,-1.185624003410339355e+00,4.680000000000000000e+02
2.811784407103232297e+00,9.239307469625714475e+00,1.113704672703131564e+02,2.851584085198301182e+02,7.016347074562554553e+01,1.574068528560292179e+01,6.813916382105969660e+01,1.133624561805501116e+02,9.484992027282714844e+00,-8.031646609306335449e-01,-1.185624003410339355e+00,4.690000000000000000e+02
4.370791937382705328e+00,1.142323497941424648e+01,1.119370293226154445e+02,2.839066131002427937e+02,6.975782483053194483e+01,1.687154604255556478e+01,7.019174479530272492e+01,1.151274346539826183e+02,9.484992027282714844e+00,-8.031646609306335449e-01,-1.185624003410339355e+00,4.700000000000000000e+02
5.698515583604830681e+00,1.258258567767779823e+01,1.139270267856509236e+02,2.819962916081922231e+02,6.938057400565912758e+01,1.739654737181808741e+01,7.375948630681989471e+01,1.177847222375110050e+02,9.484992027282714844e+00,-8.031646609306335449e-01,-1.185624003410339355e+00,4.710000000000000000e+02
6.896127092144752169e+00,1.317138013606847835e+01,1.169865568321088176e+02,2.808894403551153118e+02,6.974643925102327557e+01,1.791143834375952792e+01,7.817623938779934178e+01,1.206593278246776890e+02,9.484992027282714844e+00,-8.031646609306335449e-01,-1.185624003410339355e+00,4.720000000000000000e+02
8.039025498576847895e+00,1.369288122700390886e+01,1.191445765294432704e+02,2.812272227637035940e+02,7.069551862970365619e+01,1.888894383807428312e+01,8.222716010190606539e+01,1.223139505292717786e+02,9.484992027282714844e+00,-8.031646609306335449e-01,-1.185624003410339355e+00,4.730000000000000000e+02
9.165259866388396404e+00,1.413994315044647010e+01,1.182680748064283307e+02,2.823436133565903674e+02,7.128542939998214933e+01,2.029179149902529389e+01,8.450318086939091700e+01,1.213688082527610277e+02,9.484992027282714844e+00,-8.031646609306335449e-01,-1.185624003410339355e+00,4.740000000000000000e+02
1.034861405274216395e+01,1.424603707805442809e+01,1.140617590743994469e+02,2.829820586480973361e+02,7.059566885252479551e+01,2.167065739265126467e+01,8.416473555748655144e+01,1.175677858104095321e+02,9.484992027282714844e+00,-8.031646609306335449e-01,-1.185624003410339355e+00,4.750000000000000000e+02
1.164354871988894047e+01,1.421286204951843501e+01,1.087805078257658806e+02,2.824957981281067987e+02,6.854653892181136143e+01,2.260931787917161273e+01,8.162860299130238673e+01,1.122983487728690761e+02,9.484992027282714844e+00,-8.031646609306335449e-01,-1.185624003410339355e+00,4.760000000000000000e+02
1.293854512569271265e+01,1.495451499401497131e+01,1.058428841517795718e+02,2.814014554138359472e+02,6.609285784222925031e+01,2.309771587718387309e+01,7.855879277916426418e+01,1.080494687989046270e+02,9.484992027282714844e+00,-8.031646609306335449e-01,-1.185624003410339355e+00,4.770000000000000000e+02
1.396476680931584724e+01,1.737954301062632112e+01,1.073588181117102067e+02,2.808356355055857421e+02,6.469394312360191179e+01,2.353237686932629913e+01,7.697592802438498438e+01,1.070029511549391259e+02,9.484992027282714844e+00,-8.031646609306335449e-01,-1.185624003410339355e+00,4.780000000000000000e+02
1.455536139847470167e+01,2.133866966076811877e+01,1.125850338773843760e+02,2.815049275518941840e+02,6.545676065852421743e+01,2.437580002632353171e+01,7.798889015624462218e+01,1.096655384669362547e+02,9.484992027282714844e+00,-8.031646609306335449e-01,-1.185624003410339355e+00,4.790000000000000000e+02
1.489538638167982754e+01,2.536974112514508306e+01,1.185413059115666101e+02,2.831078226607810393e+02,6.848473278893084171e+01,2.576337450873563739e+01,8.103100708933914120e+01,1.145311031679411826e+02,9.484992027282714844e+00,-8.031646609306335449e-01,-1.185624003410339355e+00,4.800000000000000000e+02
1.543036588818870314e+01,2.766207025229920191e+01,1.222140468370932922e+02,2.846794495671820187e+02,7.280967380811057410e+01,2.736380036671994276e+01,8.419714477288368926e+01,1.190594581003019243e+02,9.484992027282714844e+00,-8.031646609306335449e-01,-1.185624003410339355e+00,4.810000000000000000e+02
1.643372052316141207e+01,2.743287741913110267e+01,1.225484379480849384e+02,2.854419589754480739e+02,7.694854642872343220e+01,2.859559004651282521e+01,8.551086635759179444e+01,1.212885683499170000e+02,9.484992027282714844e+00,-8.031646609306335449e-01,-1.185624003410339355e+00,4.820000000000000000e+02
1.763695140723103805e+01,2.545251872632587720e+01,1.207519832834276201e+02,2.853472940108880493e+02,7.974979847876375061e+01,2.903990043564090229e+01,8.425779467704268200e+01,1.208963221082572659e+02,9.484992027282714844e+00,-8.031646609306335449e-01,-1.185624003410339355e+00,4.830000000000000000e+02
1.831279328065022582e+01,2.324767109791577013e+01,1.189126672346946236e+02,2.848772202467031320e+02,8.095290293319359876e+01,2.872726623399586288e+01,8.142691041567348975e+01,1.190029775497228002e+02,9.484992027282714844e+00,-8.031646609306335449e-01,-1.185624003410339355e+00,4.840000000000000000e+02
1.779579836606010446e+01,2.178525968091489773e+01,1.182778671753466426e+02,2.844040932890036402e+02,8.106712018970961253e+01,2.807123309722435067e+01,7.895933609480294990e+01,1.170671357536080563e+02,9.484992027282714844e+00,-8.031646609306335449e-01,-1.185624003410339355e+00,4.850000000000000000e+02
1.602900341183659805e+01,2.088323966918935781e+01,1.185837443771914650e+02,2.838074203592295248e+02,8.073048811506694733e+01,2.752431091420211828e+01,7.836074843768362541e+01,1.158741759996273686e+02,9.484992027282714844e+00,-8.031646609306335449e-01,-1.185624003410339355e+00,4.860000000000000000e+02
1.368056748601770778e+01,1.979945050743465629e+01,1.187424015835560738e+02,2.827282627819583922e+02,8.018941255598059570e+01,2.727496410690639550e+01,7.968115304216473760e+01,1.153833685946843985e+02,9.484992027282714844e+00,-8.031646609306335449e-01,-1.185624003410339355e+00,4.870000000000000000e+02
1.177227562985399345e+01,1.830198805019176689e+01,1.180846994631127131e+02,2.811839142699901117e+02,7.943983641696786435e+01,2.727057688018760473e+01,8.160045632369309487e+01,1.153371983276504125e+02,9.484992027282714844e+00,-8.031646609306335449e-01,-1.185624003410339355e+00,4.880000000000000000e+02
1.109225041465901995e+01,1.709602695155808760e+01,1.170038011027882590e+02,2.798635487929509509e+02,7.880940145317600809e+01,2.748474867807954070e+01,8.247348533173413898e+01,1.158054271941172715e+02,9.484992027282714844e+00,-8.031646609306335449e-01,-1.185624003410339355e+00,4.890000000000000000e+02
1.173448252709602002e+01,1.717868311025011963e+01,1.164965925602201082e+02,2.797069501435502161e+02,7.916878642636538643e+01,2.806289611003364826e+01,8.146666605892977486e+01,1.170132922623333229e+02,9.484992027282714844e+00,-8.031646609306335449e-01,-1.185624003410339355e+00,4.900000000000000000e+02
1.298307853362024389e+01,1.876649482595473728e+01,1.171131462227631914e+02,2.810817557579371169e+02,8.129021512319650355e+01,2.912227241463392602e+01,7.895007828026592733e+01,1.186687234868455221e+02,9.484992027282714844e+00,-8.031646609306335449e-01,-1.185624003410339355e+00,4.910000000000000000e+02
1.362519072068062087e+01,2.082864158877612226e+01,1.183003637728805870e+02,2.833277050679703279e+02,8.486561834095380163e+01,3.041278776486115021e+01,7.598233938979728919e+01,1.196108980157298447e+02,9.484992027282714844e+00,-8.031646609306335449e-01,-1.185624003410339355e+00,4.920000000000000000e+02
1.261810755352894375e+01,2.167773953555752087e+01,1.187525454776125571e+02,2.851558915729453929e+02,8.828820008067725666e+01,3.128720798122958513e+01,7.345253459871230461e+01,1.183458374385614889e+02,9.484992027282714844e+00,-8.031646609306335449e-01,-1.185624003410339355e+00,4.930000000000000000e+02
9.812480788318225677e+00,2.013324105892797888e+01,1.174957753191065422e+02,2.855977736461111363e+02,8.969490461966574912e+01,3.114237677936398541e+01,7.160913665639611736e+01,1.141754069744213211e+02,9.484992027282714844e+00,-8.031646609306335449e-01,-1.185624003410339355e+00,4.940000000000000000e+02
6.236534604266807946e+00,1.633056511337906613e+01,1.147645445762873351e+02,2.846862219991064649e+02,8.846997211325924582e+01,2.996628299017947938e+01,7.022136753800555198e+01,1.079608565698854363e+02,9.484992027282714844e+00,-8.031646609306335449e-01,-1.185624003410339355e+00,4.950000000000000000e+02
3.580652212654058530e+00,1.160844106853505764e+01,1.118809798137085636e+02,2.833019131233868393e+02,8.581159254368458278e+01,2.844215071460757827e+01,6.901919510155494208e+01,1.017807540197150047e+02,9.484992027282714844e+00,-8.031646609306335449e-01,-1.185624003410339355e+00,4.960000000000000000e+02
3.071422676148586106e+00,7.638176262378692627e+00,1.101933618743752277e+02,2.823860753628387101e+02,8.377402443846881397e+01,2.745596606831577446e+01,6.791108679920989744e+01,9.767649681546913598e+01,9.484992027282714844e+00,-8.031646609306335449e-01,-1.185624003410339355e+00,4.970000000000000000e+02
4.528523900775098809e+00,5.454760658217082891e+00,1.099726383743244469e+02,2.822472410236241558e+02,8.364011328850233440e+01,2.742467356277620638e+01,6.684816953791118976e+01,9.645446975197148731e+01,9.484992027282714844e+00,-8.031646609306335449e-01,-1.185624003410339355e+00,4.980000000000000000e+02
6.429055341629236864e+00,5.021471133031354839e+00,1.102537514684652251e+02,2.824982801769128855e+02,8.509037215575062874e+01,2.802231350942020072e+01,6.566087614341245171e+01,9.745029998079826328e+01,9.446745872497558594e+00,-7.266727685928344727e-01,-1.147378087043762207e+00,4.990000000000000000e+02
7.058868894273700789e+00,5.528458461250465916e+00,1.098040760366384347e+02,2.825295662316852940e+02,8.683187450342461489e+01,2.849038319206374581e+01,6.422112319704774563e+01,9.932486308866964464e+01,9.446745872497558594e+00,-7.266727685928344727e-01,-1.147378087043762207e+00,5.000000000000000000e+02
5.882246325729738601e+00,6.135458565564704259e+00,1.083721735744452417e+02,2.820124920783014204e+02,8.794586485447825908e+01,2.821656632883968996e+01,6.284978394375502830e+01,1.011258840271423196e+02,9.446745872497558594e+00,-7.266727685928344727e-01,-1.147378087043762207e+00,5.010000000000000000e+02
3.991084446048034806e+00,6.611266613184852758e+00,1.070622724839477087e+02,2.810510226472870272e+02,8.863257570906898763e+01,2.712312752080470091e+01,6.246352668636018279e+01,1.027207800802502788e+02,9.446745872497558594e+00,-7.266727685928344727e-01,-1.147378087043762207e+00,5.020000000000000000e+02
3.241516486138834807e+00,7.411701315117625199e+00,1.074318778082035806e+02,2.799985791071712811e+02,8.973987321107597381e+01,2.565600320489375008e+01,6.406539738365609082e+01,1.043631809384426106e+02,9.446745872497558594e+00,-7.266727685928344727e-01,-1.147378087043762207e+00,5.030000000000000000e+02
4.799479603196687094e+00,9.160082226379472559e+00,1.100761223831566440e+02,2.791662037025616883e+02,9.167634788847408345e+01,2.447519874266708939e+01,6.781180043091126208e+01,1.059620453949660259e+02,9.446745872497558594e+00,-7.266727685928344727e-01,-1.147378087043762207e+00,5.040000000000000000e+02
8.281386146418526550e+00,1.194528125304054811e+01,1.139337762516447583e+02,2.785971061162772457e+02,9.382047193947346386e+01,2.405949725884420332e+01,7.244400073831616282e+01,1.068090759447970868e+02,9.446745872497558594e+00,-7.266727685928344727e-01,-1.147378087043762207e+00,5.050000000000000000e+02
1.211970343482880708e+01,1.502546411848129537e+01,1.169461008136861437e+02,2.779947316510924793e+02,9.498338487114278905e+01,2.442628265767962148e+01,7.576729616273973988e+01,1.060597361969275880e+02,9.446745872497558594e+00,-7.266727685928344727e-01,-1.147378087043762207e+00,5.060000000000000000e+02
1.473115716219558635e+01,1.723670616949175383e+01,1.175302419329477743e+02,2.768724431560040102e+02,9.446967733294104619e+01,2.512257855178631871e+01,7.603767649157407504e+01,1.035533935082107746e+02,9.446745872497558594e+00,-7.266727685928344727e-01,-1.147378087043762207e+00,5.070000000000000000e+02
1.548946523654149132e+01,1.782938567932751539e+01,1.156657708176744563e+02,2.749273725372204353e+02,9.276752581929804364e+01,2.553878196945515811e+01,7.325885205492681962e+01,1.002357505326540377e+02,9.446745872497558594e+00,-7.266727685928344727e-01,-1.147378087043762207e+00,5.080000000000000000e+02
1.484872237538866102e+01,1.706862805250148085e+01,1.128130206875748627e+02,2.724171402399751969e+02,9.126597345895015678e+01,2.538269189530728909e+01,6.933486234939118731e+01,9.779728737306413677e+01,9.446745872497558594e+00,-7.266727685928344727e-01,-1.147378087043762207e+00,5.090000000000000000e+02
1.377338114482245146e+01,1.609388957729788672e+01,1.108912243860349918e+02,2.701698061813885943e+02,9.125921618672327895e+01,2.495755698265566025e+01,6.688863568026226858e+01,9.777016076782365417e+01,9.446745872497558594e+00,-7.266727685928344727e-01,-1.147378087043762207e+00,5.100000000000000000e+02
1.309831589559098575e+01,1.612941969060466363e+01,1.111974397844960549e+02,2.690737163673411487e+02,9.307993215282021993e+01,2.496229836379916378e+01,6.761199730917587658e+01,1.006954064145838856e+02,9.446745872497558594e+00,-7.266727685928344727e-01,-1.147378087043762207e+00,5.110000000000000000e+02
1.326170903220463515e+01,1.765063913106087057e+01,1.139473578005236050e+02,2.693854465079857619e+02,9.604642340750524454e+01,2.592030853212418151e+01,7.133482610009832570e+01,1.058539831489906646e+02,9.446745872497558594e+00,-7.266727685928344727e-01,-1.147378087043762207e+00,5.120000000000000000e+02
1.434030045213876292e+01,2.012624357781260187e+01,1.184468200167912073e+02,2.704799026456848878e+02,9.917696920213347767e+01,2.771948629396774777e+01,7.634517255061928154e+01,1.116150830897449850e+02,9.446745872497558594e+00,-7.266727685928344727e-01,-1.147378087043762207e+00,5.130000000000000000e+02
1.607748712729380713e+01,2.245360652801082324e+01,1.234516240760594883e+02,2.713155470449692075e+02,1.019318443037427642e+02,2.966204350242696819e+01,8.048553599152410243e+01,1.160891513327410394e+02,9.446745872497558594e+00,-7.266727685928344727e-01,-1.147378087043762207e+00,5.140000000000000000e+02
1.783542803940099475e+01,2.366962166050143423e+01,1.274477132657762013e+02,2.712171034137736569e+02,1.042856853515177136e+02,3.096917008365926449e+01,8.214578094075932313e+01,1.177461534420822318e+02,9.446745872497558594e+00,-7.266727685928344727e-01,-1.147378087043762207e+00,5.150000000000000000e+02
1.869972620926364471e+01,2.339649191148009777e+01,1.289879814698556402e+02,2.702734454018991528e+02,1.061586959457708872e+02,3.128918321026685589e+01,8.068150740081455297e+01,1.158480450722795467e+02,9.446745872497558594e+00,-7.266727685928344727e-01,-1.147378087043762207e+00,5.160000000000000000e+02
1.792793937567330431e+01,2.184214606893647215e+01,1.272829846739637105e+02,2.690544163079475766e+02,1.069441527850030980e+02,3.081217738310806453e+01,7.643284866878366302e+01,1.107143142877357604e+02,9.446745872497558594e+00,-7.266727685928344727e-01,-1.147378087043762207e+00,5.170000000000000000e+02
1.552757673580435949e+01,1.955941005701652102e+01,1.228321699663379150e+02,2.680324494739652437e+02,1.058099012759630568e+02,3.000609635056025581e+01,7.065905577038847696e+01,1.037827465886962273e+02,9.446745872497558594e+00,-7.266727685928344727e-01,-1.147378087043762207e+00,5.180000000000000000e+02
1.246248763402127224e+01,1.722032819833384565e+01,1.175239437308309789e+02,2.673066000469934806e+02,1.026125297942217003e+02,2.928104766013711924e+01,6.533253933699643312e+01,9.729703192392753408e+01,9.446745872497558594e+00,-7.266727685928344727e-01,-1.147378087043762207e+00,5.190000000000000000e+02
1.016517813347218180e+01,1.546214416503426037e+01,1.138199731893578246e+02,2.667910601904859504e+02,9.849316956570055481e+01,2.884146032097669377e+01,6.249270886873136988e+01,9.349823762010873907e+01,9.484992027282714844e+00,-6.501809358596801758e-01,-1.147378087043762207e+00,5.200000000000000000e+02
9.613123155165339995e+00,1.470643594152761580e+01,1.133720532955262570e+02,2.664894142202174407e+02,9.538213502736289229e+01,2.872157527302078961e+01,6.320250067514416514e+01,9.353854456016870245e+01,9.484992027282714844e+00,-6.501809358596801758e-01,-1.147378087043762207e+00,5.210000000000000000e+02
1.065982417268878635e+01,1.494481474318627079e+01,1.160168680201663847e+02,2.664573882569438865e+02,9.466284573865868879e+01,2.884841952287024469e+01,6.675833018464163615e+01,9.672263169063899113e+01,9.484992027282714844e+00,-6.501809358596801758e-01,-1.147378087043762207e+00,5.220000000000000000e+02
1.218480773865849187e+01,1.567367093047050730e+01,1.199395494631817201e+02,2.665258880002184014e+02,9.613358531035282795e+01,2.906377804511066643e+01,7.091517501107455246e+01,1.007046907104290767e+02,9.484992027282714844e+00,-6.501809358596801758e-01,-1.147378087043762207e+00,5.230000000000000000e+02
1.297016431169504358e+01,1.614781133404358116e+01,1.229254058058850205e+02,2.661957342898713250e+02,9.819998302712065197e+01,2.914296463966093143e+01,7.316125062381888711e+01,1.027212005897558811e+02,9.484992027282714844e+00,-6.501809358596801758e-01,-1.147378087043762207e+00,5.240000000000000000e+02
1.259364543721676455e+01,1.582936215027348226e+01,1.237520173659695502e+02,2.649237099135480094e+02,9.913309529676826060e+01,2.885619523674358788e+01,7.216466887518163276e+01,1.011695014911711041e+02,9.484992027282714844e+00,-6.501809358596801758e-01,-1.147378087043762207e+00,5.250000000000000000e+02
1.160320640803729475e+01,1.465071138030725706e+01,1.226943839226050841e+02,2.625453796139390761e+02,9.830675706493821053e+01,2.805617111788706097e+01,6.831958424509866745e+01,9.646365932147455169e+01,9.484992027282714844e+00,-6.501809358596801758e-01,-1.147378087043762207e+00,5.260000000000000000e+02
1.083096187313458358e+01,1.282132160163382650e+01,1.208934621423049975e+02,2.593928694748792623e+02,9.642329843104926113e+01,2.673110788950907590e+01,6.309461641211601091e+01,9.056782794310038298e+01,9.484992027282714844e+00,-6.501809358596801758e-01,-1.147378087043762207e+00,5.270000000000000000e+02
1.046723270687016338e+01,1.038267078563967516e+01,1.192805529343331727e+02,2.560051736268633249e+02,9.471825090814036230e+01,2.501373971163047827e+01,5.791988917074922938e+01,8.561938443118106079e+01,9.484992027282714844e+00,-6.501809358596801758e-01,-1.147378087043762207e+00,5.280000000000000000e+02
9.757392010440526064e+00,7.053430898476108268e+00,1.180213194238604046e+02,2.527622244103513367e+02,9.397138699960123631e+01,2.314777427498484030e+01,5.358736105420302920e+01,8.272669955615219806e+01,9.484992027282714844e+00,-6.501809358596801758e-01,-1.147378087043762207e+00,5.290000000000000000e+02
7.665618545888719382e+00,2.678699128492553427e+00,1.168499494386142032e+02,2.498237078224174184e+02,9.413981366883490409e+01,2.141144249509670772e+01,5.045853686414648109e+01,8.179319568013124808e+01,9.484992027282714844e+00,-6.501809358596801758e-01,-1.147378087043762207e+00,5.300000000000000000e+02
4.001489252673309238e+00,-2.053605982658154971e+00,1.157853850800966029e+02,2.473749731101088400e+02,9.472210168815399811e+01,2.001185280141180556e+01,4.892229675033831882e+01,8.224367973203879956e+01,9.484992027282714844e+00,-6.501809358596801758e-01,-1.147378087043762207e+00,5.310000000000000000e+02
2.294036930834408849e-04,-5.434060476191916678e+00,1.153730551075141193e+02,2.458009294986768509e+02,9.532872719724946364e+01,1.900959827872065944e+01,4.937951673273983033e+01,8.373973405326341890e+01,9.484992027282714844e+00,-6.501809358596801758e-01,-1.147378087043762207e+00,5.320000000000000000e+02
-2.281613832745279069e+00,-5.578117405412740482e+00,1.161308165649115836e+02,2.454993664306985011e+02,9.591897359622089425e+01,1.835166361479241459e+01,5.170073167751615983e+01,8.614542225076183968e+01,9.484992027282714844e+00,-6.501809358596801758e-01,-1.147378087043762207e+00,5.330000000000000000e+02
-1.439286035297300259e+00,-1.880560737254199921e+00,1.176967670941421602e+02,2.464526884780243563e+02,9.656724764204409439e+01,1.796431570561253466e+01,5.477636593376792007e+01,8.885682431314762653e+01,9.484992027282714844e+00,-6.501809358596801758e-01,-1.147378087043762207e+00,5.340000000000000000e+02
2.044040535018211813e+00,4.079153449150908273e+00,1.185428616709059497e+02,2.479873969095187931e+02,9.705734493613454106e+01,1.777117723831906915e+01,5.677804139458748978e+01,9.036457672894539428e+01,9.484992027282714844e+00,-6.501809358596801758e-01,-1.147378087043762207e+00,5.350000000000000000e+02
5.847619290055263264e+00,9.136215920178983652e+00,1.167030714932416231e+02,2.490389472198421572e+02,9.672681801759790687e+01,1.759662744146771729e+01,5.611161257488038245e+01,8.879807140818866174e+01,9.484992027282714844e+00,-6.501809358596801758e-01,-1.147378087043762207e+00,5.360000000000000000e+02
7.242355371866324276e+00,1.043408100884698797e+01,1.110889214997168892e+02,2.487853787034018751e+02,9.476114343029257725e+01,1.710303559481326374e+01,5.236536689298645797e+01,8.323939206624800136e+01,9.484992027282714844e+00,-6.501809358596801758e-01,-1.147378087043762207e+00,5.370000000000000000e+02
4.895113068871069117e+00,7.276038074515781773e+00,1.024088344819811027e+02,2.471571494636609714e+02,9.077550861855161202e+01,1.595444876671899692e+01,4.652194092295394512e+01,7.476891076142874226e+01,9.484992027282714844e+00,-6.501809358596801758e-01,-1.147378087043762207e+00,5.380000000000000000e+02
-3.020900379997328855e-01,1.493148435319199052e+00,9.295295457673728379e+01,2.447980003136708547e+02,8.526469625590289070e+01,1.416074079897953197e+01,4.030669452267466113e+01,6.628374766429442388e+01,9.484992027282714844e+00,-6.501809358596801758e-01,-1.147378087043762207e+00,5.390000000000000000e+02
-5.990186090083625459e+00,-4.004903947363345651e+00,8.532444031016075314e+01,2.425090509201272653e+02,7.953377107303822413e+01,1.226555787847246393e+01,3.519286359738543979e+01,6.103109593160206714e+01,9.484992027282714844e+00,-6.501809358596801758e-01,-1.147378087043762207e+00,5.400000000000000000e+02
-1.003660019795188418e+01,-7.322773194563524157e+00,8.100864883388385351e+01,2.406528110157105402e+02,7.508638767008233117e+01,1.109560502327440190e+01,3.179430602350930712e+01,6.084727515042868617e+01,9.484992027282714844e+00,-6.501809358596801758e-01,-1.147378087043762207e+00,5.410000000000000000e+02
-1.180688121994990070e+01,-8.631253008883504663e+00,7.976557843308455631e+01,2.390189026628249849e+02,7.286000032845731766e+01,1.118894685787017806e+01,2.997919275501499214e+01,6.529226895391548169e+01,9.484992027282714844e+00,-6.501809358596801758e-01,-1.147378087043762207e+00,5.420000000000000000e+02
-1.211942572113457572e+01,-9.438224823293239751e+00,8.013382325474503887e+01,2.372301564147091995e+02,7.280172986344405217e+01,1.238018251214089105e+01,2.940350284828855365e+01,7.211074876965085423e+01,9.484992027282714844e+00,-6.501809358596801758e-01,-1.147378087043762207e+00,5.430000000000000000e+02
-1.216352149651902437e+01,-1.090364233748186962e+01,8.050522924287179194e+01,2.352633837881112413e+02,7.399932685133899213e+01,1.391902331556048011e+01,2.986803053181483847e+01,7.851336280636041920e+01,9.484992027282714844e+00,-6.501809358596801758e-01,-1.147378087043762207e+00,5.440000000000000000e+02
-1.245696788693658164e+01,-1.280130653158994392e+01,7.992764295270808361e+01,2.335532382468118158e+02,7.518073970336263301e+01,1.500626501557053416e+01,3.119534456869587302e+01,8.238050885557549918e+01,9.370253562927246094e+00,-7.649186849594116211e-01,-1.185624003410339355e+00,5.450000000000000000e+02
-1.270061173971316748e+01,-1.401090830410248600e+01,7.819739419951474702e+01,2.325686718355464109e+02,7.523664039246068569e+01,1.527464481348579284e+01,3.287590493244533718e+01,8.282740224488861713e+01,9.370253562927246094e+00,-7.649186849594116211e-01,-1.185624003410339355e+00,5.460000000000000000e+02
-1.244301627851928060e+01,-1.392884555861382978e+01,7.548128111135883955e+01,2.322780681166004797e+02,7.356633834355307044e+01,1.486565967028946034e+01,3.401400386188652192e+01,8.018508625608774310e+01,9.370253562927246094e+00,-7.649186849594116211e-01,-1.185624003410339355e+00,5.470000000000000000e+02
-1.172642348525914713e+01,-1.332682766731704760e+01,7.203428212745166093e+01,2.320435357329697581e+02,7.024647658366666292e+01,1.417395243649298209e+01,3.382792646371854062e+01,7.573266971891462163e+01,9.370253562927246094e+00,-7.649186849594116211e-01,-1.185624003410339355e+00,5.480000000000000000e+02
-1.105844445717048075e+01,-1.378508384283304622e+01,6.826002972561764182e+01,2.310579703388611961e+02,6.600600549129558203e+01,1.356477851753879804e+01,3.232578519945309381e+01,7.131308256309057469e+01,9.370253562927246094e+00,-7.649186849594116211e-01,-1.185624003410339355e+00,5.490000000000000000e+02
-1.085943583289918024e+01,-1.626789046623889590e+01,6.480721469192576478e+01,2.289173291636652721e+02,6.190949693122274766e+01,1.324955112373208976e+01,3.045604672970694082e+01,6.871891331935512426e+01,9.370253562927246094e+00,-7.649186849594116211e-01,-1.185624003410339355e+00,5.500000000000000000e+02
-1.108442085157003021e+01,-2.024684188789797190e+01,6.230351196709489159e+01,2.258275772405104362e+02,5.879248966264094634e+01,1.326408483238265035e+01,2.942394214399064367e+01,6.889530707750964211e+01,9.370253562927246094e+00,-7.649186849594116211e-01,-1.185624003410339355e+00,5.510000000000000000e+02
-1.144321216230127902e+01,-2.419745548680111824e+01,6.082303910338123387e+01,2.223357671195044531e+02,5.678893550507200416e+01,1.346168717402542825e+01,2.968121331459406065e+01,7.142120701435123920e+01,9.370253562927246094e+00,-7.649186849594116211e-01,-1.185624003410339355e+00,5.520000000000000000e+02
-1.190145836758529185e+01,-2.690791919176081137e+01,5.968020858790077909e+01,2.189295240465289680e+02,5.537408754787429643e+01,1.356799487979515106e+01,3.052542128499044338e+01,7.481294454996532295e+01,9.370253562927246094e+00,-7.649186849594116211e-01,-1.185624003410339355e+00,5.530000000000000000e+02
-1.279527080440129794e+01,-2.829325828135006304e+01,5.798232677755731856e+01,2.158779116715595592e+02,5.395443637919925095e+01,1.336757074266279233e+01,3.076463376877472911e+01,7.763832588836703508e+01,9.370253562927246094e+00,-7.649186849594116211e-01,-1.185624003410339355e+00,5.540000000000000000e+02
-1.435837269082912826e+01,-2.902701264780625934e+01,5.555345390909496928e+01,2.133354242092027562e+02,5.248257516570083681e+01,1.293570525779796299e+01,2.989005333443492418e+01,7.959347506285848795e+01,9.370253562927246094e+00,-7.649186849594116211e-01,-1.185624003410339355e+00,5.550000000000000000e+02
-1.621247550600674003e+01,-2.956746027899862383e+01,5.326763802997265884e+01,2.114344344471755903e+02,5.146936693428142462e+01,1.267133471068154904e+01,2.861757428911369061e+01,8.154246687640807068e+01,9.370253562927246094e+00,-7.649186849594116211e-01,-1.185624003410339355e+00,5.560000000000000000e+02
-1.748848679130969686e+01,-2.971291465010472166e+01,5.229458407899801387e+01,2.101925457229917811e+02,5.133783543106619618e+01,1.302091601744905347e+01,2.821195500965586689e+01,8.439030754766281461e+01,9.370253562927246094e+00,-7.649186849594116211e-01,-1.185624003410339355e+00,5.570000000000000000e+02
-1.759236614224755613e+01,-2.912315970522467978e+01,5.287849963787084562e+01,2.093686644489607716e+02,5.175495324442454148e+01,1.410450275821858668e+01,2.919583504213551350e+01,8.781362238608926418e+01,9.370253562927246094e+00,-7.649186849594116211e-01,-1.185624003410339355e+00,5.580000000000000000e+02
-1.685601122991465672e+01,-2.811099790278785804e+01,5.389151219945779303e+01,2.085090879272975144e+02,5.164840253773945733e+01,1.558540184444427723e+01,3.069936991450958885e+01,9.014495550115498190e+01,9.370253562927246094e+00,-7.649186849594116211e-01,-1.185624003410339355e+00,5.590000000000000000e+02
-1.631881653856544290e+01,-2.768465701624700159e+01,5.373481093554073595e+01,2.072152963773623924e+02,4.997077934622575413e+01,1.691560258706158493e+01,3.113757789493683958e+01,8.966180000013082463e+01,9.370253562927246094e+00,-7.649186849594116211e-01,-1.185624003410339355e+00,5.600000000000000000e+02
-1.676863594060705509e+01,-2.867936309756987612e+01,5.176884843186053331e+01,2.054089675444411114e+02,4.653327786105000996e+01,1.773243043007823871e+01,2.959988491557123780e+01,8.610630975300591672e+01,9.370253562927246094e+00,-7.649186849594116211e-01,-1.185624003410339355e+00,5.610000000000000000e+02
-1.799326498285518028e+01,-3.088477582957784762e+01,4.881856253777368693e+01,2.033503656737520942e+02,4.214533794067028794e+01,1.805366651058284333e+01,2.660100177336062188e+01,8.094296592004684499e+01,9.370253562927246094e+00,-7.649186849594116211e-01,-1.185624003410339355e+00,5.620000000000000000e+02
-1.906229512709069240e+01,-3.316090070280188229e+01,4.620206764536487754e+01,2.013939132061859709e+02,3.794164184463807032e+01,1.812149964380296296e+01,2.346027115232027427e+01,7.606892977132520173e+01,9.370253562927246094e+00,-7.649186849594116211e-01,-1.185624003410339355e+00,5.630000000000000000e+02
-1.939245698208105750e+01,-3.449155017252996913e+01,4.431241897963082010e+01,1.996939541080973868e+02,3.451819475952288485e+01,1.808643282864068169e+01,2.095926638538003317e+01,7.225146767597652797e+01,9.370253562927246094e+00,-7.649186849594116211e-01,-1.185624003410339355e+00,5.640000000000000000e+02
-1.947455509844257904e+01,-3.491613267796128639e+01,4.232131961281265831e+01,1.980921978282385680e+02,3.164159790434860042e+01,1.785626000739284791e+01,1.867362838876033493e+01,6.885712671143301122e+01,9.370253562927246094e+00,-7.649186849594116211e-01,-1.185624003410339355e+00,5.650000000000000000e+02
-2.043153389745748427e+01,-3.536710556199250277e+01,3.939018670020050195e+01,1.962491186716579250e+02,2.873345222443822422e+01,1.724546328587894095e+01,1.570112910660282068e+01,6.509844388804413029e+01,9.370253562927246094e+00,-7.649186849594116211e-01,-1.185624003410339355e+00,5.660000000000000000e+02
-2.277870585636082978e+01,-3.656373864356100967e+01,3.605834505345410435e+01,1.939221583320831996e+02,2.563563731593239936e+01,1.627952187100163428e+01,1.204994609382993076e+01,6.140346576609954354e+01,9.370253562927246094e+00,-7.649186849594116211e-01,-1.185624003410339355e+00,5.670000000000000000e+02
-2.564054114634200232e+01,-3.811258380529579881e+01,3.416879322654858697e+01,1.912135592655104119e+02,2.294071922241710126e+01,1.535798373257421190e+01,9.205109067177545512e+00,5.937505485689507623e+01,9.370253562927246094e+00,-7.649186849594116211e-01,-1.185624003410339355e+00,5.680000000000000000e+02
-2.729983583778630418e+01,-3.877367644366495369e+01,3.519604340602563752e+01,1.886057588136645791e+02,2.156313947827948141e+01,1.507531801259756321e+01,9.140082140575032099e+00,6.028758807633494143e+01,9.370253562927246094e+00,-7.649186849594116211e-01,-1.185624003410339355e+00,5.690000000000000000e+02
-2.664433038222341565e+01,-3.766340867825783789e+01,3.862375903601423488e+01,1.867133803868491668e+02,2.191309585437193164e+01,1.579055663118197117e+01,1.259226419254628127e+01,6.366779466662228515e+01,9.370253562927246094e+00,-7.649186849594116211e-01,-1.185624003410339355e+00,5.700000000000000000e+02
-2.413720165494123648e+01,-3.520549822390421468e+01,4.214110306840120757e+01,1.858712791352409113e+02,2.341182742912860704e+01,1.729643827983818483e+01,1.822164383816743793e+01,6.749759104900658713e+01,9.370253562927246094e+00,-7.649186849594116211e-01,-1.185624003410339355e+00,5.710000000000000000e+02
-2.138280679899071401e+01,-3.286938592459227948e+01,4.359269483783100441e+01,1.858629301540968299e+02,2.480910743507047300e+01,1.891785528205946321e+01,2.347192791308953019e+01,6.989401556425036688e+01,9.408499717712402344e+00,-7.649186849594116211e-01,-1.223870038986206055e+00,5.720000000000000000e+02
-1.975011082590572187e+01,-3.192204139599380142e+01,4.278124921844391793e+01,1.860566797268111259e+02,2.505103811421577120e+01,2.001607659180444898e+01,2.635945202659240749e+01,7.058414185897527204e+01,9.408499717712402344e+00,-7.649186849594116211e-01,-1.223870038986206055e+00,5.730000000000000000e+02
-1.938823895598216041e+01,-3.234282260473810311e+01,4.133655191081743396e+01,1.859009529656177619e+02,2.393689751062993309e+01,2.048316867926769191e+01,2.662751337304507615e+01,7.073026232613483444e+01,9.408499717712402344e+00,-7.649186849594116211e-01,-1.223870038986206055e+00,5.740000000000000000e+02
-1.949742787765899266e+01,-3.286679588544393482e+01,4.083301425087665848e+01,1.853793052543260274e+02,2.200338824317441322e+01,2.077033230877714232e+01,2.541788656018252368e+01,7.137178321016654081e+01,9.408499717712402344e+00,-7.649186849594116211e-01,-1.223870038986206055e+00,5.750000000000000000e+02
-1.940734331148087222e+01,-3.207462523719186720e+01,4.114695912498973485e+01,1.850065762719023041e+02,1.982228374682381400e+01,2.139831520491134143e+01,2.403295188957054052e+01,7.217803009025737992e+01,9.408499717712402344e+00,-7.649186849594116211e-01,-1.223870038986206055e+00,5.760000000000000000e+02
-1.925302113241923507e+01,-2.955582065161434002e+01,4.075602818575680431e+01,1.853264009332269779e+02,1.748031750383961480e+01,2.240866344871028559e+01,2.305437482756860845e+01,7.183250680758283124e+01,9.408499717712402344e+00,-7.649186849594116211e-01,-1.223870038986206055e+00,5.770000000000000000e+02
-1.960134382009346155e+01,-2.621691520515378215e+01,3.859539117252825235e+01,1.863455296306201490e+02,1.477904711956580286e+01,2.330540136459603673e+01,2.245823073888095678e+01,6.960990554825912113e+01,9.408499717712402344e+00,-7.649186849594116211e-01,-1.223870038986206055e+00,5.780000000000000000e+02
-2.058693876014331181e+01,-2.361690783882659161e+01,3.543240240304294275e+01,1.874195525092654862e+02,1.186898788895268808e+01,2.354979782435839297e+01,2.220780054715760343e+01,6.643311153066497354e+01,9.408499717712402344e+00,-7.649186849594116211e-01,-1.223870038986206055e+00,5.790000000000000000e+02
-2.161290558222208347e+01,-2.296662837641633814e+01,3.325697516050786362e+01,1.877083109774757759e+02,9.522341869054798735e+00,2.310743069156160345e+01,2.243136294955183985e+01,6.423017043483014277e+01,9.408499717712402344e+00,-7.649186849594116211e-01,-1.223870038986206055e+00,5.800000000000000000e+02
-2.195882785938738380e+01,-2.450949891104755807e+01,3.330728030196041800e+01,1.868057216252636863e+02,8.623502141934295651e+00,2.249425547018472571e+01,2.302515890910945018e+01,6.418830194022666547e+01,9.408499717712402344e+00,-7.649186849594116211e-01,-1.223870038986206055e+00,5.810000000000000000e+02
-2.155111131844387273e+01,-2.752596074516259250e+01,3.481238762626890093e+01,1.850160597967624199e+02,9.332124063952505821e+00,2.228521956394979497e+01,2.334791750422300538e+01,6.563576707152242307e+01,9.408499717712402344e+00,-7.649186849594116211e-01,-1.223870038986206055e+00,5.820000000000000000e+02
-2.095287868580999202e+01,-3.072180286211732891e+01,3.580298867741657887e+01,1.830898161330769653e+02,1.079720789587008767e+01,2.259701495139597682e+01,2.263440690437710145e+01,6.666496092594752554e+01,9.408499717712402344e+00,-7.649186849594116211e-01,-1.223870038986206055e+00,5.830000000000000000e+02
-2.055112089540853049e+01,-3.269506883809663123e+01,3.518381599146232475e+01,1.816725258714213851e+02,1.174642201187452883e+01,2.304076172883651452e+01,2.085263739849688136e+01,6.587793203544424614e+01,9.408499717712402344e+00,-7.649186849594116211e-01,-1.223870038986206055e+00,5.840000000000000000e+02
-1.990131665260196314e+01,-3.237154372790973866e+01,3.395773011500205030e+01,1.809213859727315139e+02,1.138465872909364407e+01,2.314433799681137316e+01,1.906287809249261045e+01,6.358141473492287332e+01,9.408499717712402344e+00,-7.649186849594116211e-01,-1.223870038986206055e+00,5.850000000000000000e+02
-1.810051279068648000e+01,-2.942123574168363120e+01,3.435833569930764497e+01,1.805447395736264298e+02,9.774208602535509272e+00,2.279307134822010994e+01,1.872829464124515653e+01,6.137951019904357963e+01,9.408499717712402344e+00,-7.649186849594116211e-01,-1.223870038986206055e+00,5.860000000000000000e+02
-1.492606319838523632e+01,-2.455272024447913282e+01,3.773693307703069877e+01,1.801393416597566102e+02,7.476206266317603877e+00,2.228443748354766285e+01,2.049425702821463346e+01,6.067167376565703307e+01,9.408499717712402344e+00,-7.649186849594116211e-01,-1.223870038986206055e+00,5.870000000000000000e+02
-1.153440868258985574e+01,-1.941912087726450409e+01,4.322182434815840679e+01,1.794807410138164414e+02,4.986659713551489403e+00,2.201976220029609976e+01,2.353851627715266659e+01,6.149693784916598815e+01,9.408499717712402344e+00,-7.649186849594116211e-01,-1.223870038986206055e+00,5.880000000000000000e+02
-9.825720219963841373e+00,-1.598357295593814342e+01,4.835165498512651538e+01,1.785236237947246991e+02,2.549322493145155022e+00,2.216036966236424632e+01,2.607762142426508944e+01,6.267014860512790619e+01,9.408499717712402344e+00,-7.649186849594116211e-01,-1.223870038986206055e+00,5.890000000000000000e+02
-1.089877645297747222e+01,-1.556481213741426473e+01,5.101783629085548455e+01,1.771962672355803079e+02,3.585042405647982378e-01,2.252775086528708925e+01,2.658144323037413415e+01,6.288565935824590269e+01,9.408499717712402344e+00,-7.649186849594116211e-01,-1.223870038986206055e+00,5.900000000000000000e+02
-1.401753729139090865e+01,-1.811817457220968208e+01,5.095292892105862848e+01,1.752863712256585131e+02,-1.296351469984074356e+00,2.275421901473600883e+01,2.469220520646194927e+01,6.168022974518680712e+01,9.408499717712402344e+00,-7.649186849594116211e-01,-1.223870038986206055e+00,5.910000000000000000e+02
-1.709352928534644889e+01,-2.223227014059011708e+01,4.963244801442488097e+01,1.726372752265306190e+02,-2.193555432299035601e+00,2.252728136091172928e+01,2.126588707263363176e+01,5.953298808474937687e+01,9.408499717712402344e+00,-7.649186849594116211e-01,-1.223870038986206055e+00,5.920000000000000000e+02
-1.829465157774393447e+01,-2.586276628409905243e+01,4.894990455473089241e+01,1.695119828649112605e+02,-2.407930876099271700e+00,2.178682978854340035e+01,1.776513989350132761e+01,5.730709558855596697e+01,9.408499717712402344e+00,-7.649186849594116211e-01,-1.223870038986206055e+00,5.930000000000000000e+02
-1.737980916665401310e+01,-2.733820320199447451e+01,4.991682063841290073e+01,1.666996591428032843e+02,-2.264075411476369482e+00,2.078631881778710522e+01,1.556799635692004813e+01,5.569401808117982000e+01,9.408499717712402344e+00,-7.649186849594116211e-01,-1.223870038986206055e+00,5.940000000000000000e+02
