F3,F4,C3,C4,P3,P4,Cz,Pz,Accel_x,Accel_y,Accel_z,Sample
-6.730260793119668961e-11,-4.729372449219226837e-11,-4.911271389573812485e-11,-1.200533006340265274e-10,-1.164153218269348145e-10,-1.273292582482099533e-10,-2.273736754432320595e-11,-3.183231456205248833e-11,9.446745872497558594e+00,-7.266727685928344727e-01,-1.032640218734741211e+00,2.250000000000000000e+02
-3.875884930072879797e+01,-4.054259386164812895e+01,-1.266856728682432731e+01,4.749330723736056825e+01,3.314795664217308513e+01,9.015371237690123962e+01,-9.240332678000413580e+00,-1.570704264140567830e+01,9.446745872497558594e+00,-7.266727685928344727e-01,-1.032640218734741211e+00,2.260000000000000000e+02
-7.513122578602633439e+01,-7.809785264914262370e+01,-2.307989011942936486e+01,8.387279640343331266e+01,4.745153490835946286e+01,1.661653359015872411e+02,-2.001918075208050141e+01,-2.805075746931197500e+01,9.446745872497558594e+00,-7.266727685928344727e-01,-1.032640218734741211e+00,2.270000000000000000e+02
-1.085901391674051411e+02,-1.122035873316763173e+02,-3.111765381715395051e+01,1.076110904712986667e+02,4.026339685087805265e+01,2.255992964118522650e+02,-3.293033573732463992e+01,-3.686768145584483136e+01,9.446745872497558594e+00,-7.266727685928344727e-01,-1.032640218734741211e+00,2.280000000000000000e+02
-1.406820153056942218e+02,-1.449292308387512094e+02,-3.880599653162789764e+01,1.269663672482165566e+02,2.557709228313251515e+01,2.781420693106483668e+02,-4.738195828611424076e+01,-4.510786919846304954e+01,9.332008361816406250e+00,-6.884268522262573242e-01,-1.109132170677185059e+00,2.290000000000000000e+02
-1.735233337557310733e+02,-1.785318689591931616e+02,-4.826352884756306594e+01,1.511679483968327986e+02,1.924595719893113710e+01,3.350741624098845932e+02,-6.220020351680250315e+01,-5.572581999198155245e+01,9.332008361816406250e+00,-6.884268522262573242e-01,-1.109132170677185059e+00,2.300000000000000000e+02
-2.080592685442843504e+02,-2.133313343677455123e+02,-5.977303467651836399e+01,1.819570196399072302e+02,2.460679562001314480e+01,3.989578638680904987e+02,-7.651995324108975183e+01,-6.894278250821753318e+01,9.332008361816406250e+00,-6.884268522262573242e-01,-1.109132170677185059e+00,2.310000000000000000e+02
-2.435690458532708362e+02,-2.478890211718144201e+02,-7.181188034710066859e+01,2.136028969637845876e+02,3.225252985420229379e+01,4.633621114517845854e+02,-9.020880137388667208e+01,-8.260278019372799463e+01,9.332008361816406250e+00,-6.884268522262573242e-01,-1.109132170677185059e+00,2.320000000000000000e+02
-2.785435188870569618e+02,-2.809107577299118930e+02,-8.270979512801386591e+01,2.401190989346614515e+02,3.207675755572745402e+01,5.213000412306646467e+02,-1.035247904630377889e+02,-9.483710510072160105e+01,9.332008361816406250e+00,-6.884268522262573242e-01,-1.109132170677185059e+00,2.330000000000000000e+02
-3.118496965370131875e+02,-3.125366331370205444e+02,-9.204085426954679861e+01,2.613469116907435819e+02,2.371633099460996164e+01,5.725285715883837838e+02,-1.164332062399298593e+02,-1.058953734750939475e+02,9.332008361816406250e+00,-6.884268522262573242e-01,-1.109132170677185059e+00,2.340000000000000000e+02
-3.431545898995818789e+02,-3.436469251509661262e+02,-1.004560643426975730e+02,2.819744658025410899e+02,1.519690777917276137e+01,6.225258775550973951e+02,-1.283218602699416806e+02,-1.172502371678056079e+02,9.332008361816406250e+00,-6.884268522262573242e-01,-1.109132170677185059e+00,2.350000000000000000e+02
-3.726007655631847229e+02,-3.742565510446083863e+02,-1.085436540132013761e+02,3.057862253008315747e+02,1.325327420469875506e+01,6.756989123039638798e+02,-1.384802223792048608e+02,-1.293416498038468490e+02,9.332008361816406250e+00,-6.884268522262573242e-01,-1.109132170677185059e+00,2.360000000000000000e+02
-4.004179772769512056e+02,-4.030860017645563858e+02,-1.162188458837063081e+02,3.319783434032033256e+02,1.675076107290078653e+01,7.309385406516776129e+02,-1.469425707726441033e+02,-1.407492844942544252e+02,9.332008361816406250e+00,-6.884268522262573242e-01,-1.109132170677185059e+00,2.370000000000000000e+02
-4.269137712063156869e+02,-4.289046051809709752e+02,-1.232405810628488325e+02,3.569995153495656268e+02,1.943935372233681846e+01,7.838072136719056289e+02,-1.548530001013004949e+02,-1.497434059767992949e+02,9.332008361816406250e+00,-6.884268522262573242e-01,-1.109132170677185059e+00,2.380000000000000000e+02
-4.526250310272125716e+02,-4.521152286351298244e+02,-1.299810052936745706e+02,3.788831133802777913e+02,1.740423933747297269e+01,8.318729392027053109e+02,-1.638503278815396698e+02,-1.563535552915473090e+02,9.332008361816406250e+00,-6.884268522262573242e-01,-1.109132170677185059e+00,2.390000000000000000e+02
-4.782120563980079169e+02,-4.747376898551028717e+02,-1.373180947994260350e+02,3.989179049339181802e+02,1.249710067023806914e+01,8.769257912247703644e+02,-1.748614784332794443e+02,-1.625434727257588747e+02,9.332008361816406250e+00,-6.884268522262573242e-01,-1.109132170677185059e+00,2.400000000000000000e+02
-5.040697627685995030e+02,-4.987361985992520204e+02,-1.456872051211985308e+02,4.194025828775775153e+02,9.005139482047525235e+00,9.222700923453121504e+02,-1.872921553321502870e+02,-1.702948520178779290e+02,9.332008361816406250e+00,-6.884268522262573242e-01,-1.109132170677185059e+00,2.410000000000000000e+02
-5.300423668634375645e+02,-5.244000708408639184e+02,-1.543786663167875304e+02,4.407969919596798718e+02,8.575174239435000345e+00,9.689140004573018814e+02,-1.993031391686372444e+02,-1.796608952900642180e+02,9.332008361816406250e+00,-6.884268522262573242e-01,-1.109132170677185059e+00,2.420000000000000000e+02
-5.555649149940682037e+02,-5.503536170153502098e+02,-1.619833309321429624e+02,4.616512210761102324e+02,9.256821727527494659e+00,1.014994014976284234e+03,-2.089857284442314267e+02,-1.888037383874270745e+02,9.332008361816406250e+00,-6.884268522262573242e-01,-1.109132170677185059e+00,2.430000000000000000e+02
-5.801255885308100915e+02,-5.750102438719059137e+02,-1.676219560972785985e+02,4.809159019922553853e+02,8.793575187575697782e+00,1.058465856271690427e+03,-2.155458639054259038e+02,-1.958353465422833324e+02,9.332008361816406250e+00,-6.884268522262573242e-01,-1.109132170677185059e+00,2.440000000000000000e+02
-6.036492697897028847e+02,-5.978976484143468042e+02,-1.717521933451052973e+02,4.994901489883923205e+02,7.518711375785642304e+00,1.099502953554478154e+03,-2.196897666244049105e+02,-2.004921152408260241e+02,9.332008361816406250e+00,-6.884268522262573242e-01,-1.109132170677185059e+00,2.450000000000000000e+02
-6.265382193752293460e+02,-6.196893539412985774e+02,-1.758098977263152847e+02,5.191864558817651414e+02,7.588305007138842484e+00,1.140028759877044649e+03,-2.231177735612936885e+02,-2.041199141687038718e+02,9.332008361816406250e+00,-6.884268522262573242e-01,-1.109132170677185059e+00,2.460000000000000000e+02
-6.493960632924809033e+02,-6.412591169365878159e+02,-1.810816979756018554e+02,5.405444416758400621e+02,1.005997639668021293e+01,1.181392488495872385e+03,-2.276484109122338850e+02,-2.083206915326836679e+02,9.332008361816406250e+00,-6.884268522262573242e-01,-1.109132170677185059e+00,2.470000000000000000e+02
-6.726247453928035611e+02,-6.629164782602638297e+02,-1.878344428345299093e+02,5.621589135056092346e+02,1.357972905269525654e+01,1.223044172876183438e+03,-2.344993365657655886e+02,-2.137991860282963898e+02,9.332008361816406250e+00,-6.884268522262573242e-01,-1.109132170677185059e+00,2.480000000000000000e+02
-6.960861800619941278e+02,-6.844514651219797088e+02,-1.953227292563933588e+02,5.822012164634434157e+02,1.600295153912884416e+01,1.263442208112111985e+03,-2.438899450896760754e+02,-2.203805351711080220e+02,9.332008361816406250e+00,-6.884268522262573242e-01,-1.109132170677185059e+00,2.490000000000000000e+02
-7.190285873582060958e+02,-7.056089374875800786e+02,-2.024731595187640778e+02,6.002720457933810394e+02,1.670268534410752181e+01,1.301782481961192389e+03,-2.549436977917903278e+02,-2.277736185287667467e+02,9.332008361816406250e+00,-6.884268522262573242e-01,-1.109132170677185059e+00,2.500000000000000000e+02
-7.404237769992932954e+02,-7.263233559450709436e+02,-2.085896086189832204e+02,6.175674841069831018e+02,1.690849421050552337e+01,1.338584773799648246e+03,-2.659786183310407068e+02,-2.360192310965103388e+02,9.332008361816406250e+00,-6.884268522262573242e-01,-1.109132170677185059e+00,2.510000000000000000e+02
-7.596267055415737559e+02,-7.465647085249502197e+02,-2.136028947904078450e+02,6.353710596177843399e+02,1.800303808721218957e+01,1.374797615074352507e+03,-2.752844133524713470e+02,-2.451525793134733249e+02,9.332008361816406250e+00,-6.884268522262573242e-01,-1.109132170677185059e+00,2.520000000000000000e+02
-7.769334405413701461e+02,-7.661902073407081843e+02,-2.178614441588188129e+02,6.536502925537733972e+02,1.995990497704588051e+01,1.410717191698789975e+03,-2.821066205623692440e+02,-2.546007963945367010e+02,9.332008361816406250e+00,-6.884268522262573242e-01,-1.109132170677185059e+00,2.530000000000000000e+02
-7.935109556402185262e+02,-7.850700357997702667e+02,-2.217366809162085701e+02,6.711773811925886548e+02,2.157564712217936176e+01,1.445882008573054918e+03,-2.871118548109570838e+02,-2.630994953599320070e+02,9.484992027282714844e+00,-7.266727685928344727e-01,-1.109132170677185059e+00,2.540000000000000000e+02
-8.106026892459440205e+02,-8.032716721389197119e+02,-2.253356504912535456e+02,6.868357076022675756e+02,2.191339369223896938e+01,1.479779312050763110e+03,-2.918106340421481946e+02,-2.693285392936768403e+02,9.484992027282714844e+00,-7.266727685928344727e-01,-1.109132170677185059e+00,2.550000000000000000e+02
-8.285946120868543403e+02,-8.209785499028412232e+02,-2.285137956397766175e+02,7.006930221992370207e+02,2.123874586529927910e+01,1.512423307596964150e+03,-2.973178772565415784e+02,-2.727787760719911603e+02,9.484992027282714844e+00,-7.266727685928344727e-01,-1.109132170677185059e+00,2.560000000000000000e+02
-8.467622941938643635e+02,-8.382159002336738922e+02,-2.311669809595714469e+02,7.138856962086229032e+02,2.058175226975436090e+01,1.544235969133365870e+03,-3.035450838056585781e+02,-2.741608342043300581e+02,9.484992027282714844e+00,-7.266727685928344727e-01,-1.109132170677185059e+00,2.570000000000000000e+02
-8.639619467867933054e+02,-8.547869517783574338e+02,-2.335347771830556667e+02,7.276386364389800292e+02,2.064691869999114715e+01,1.575526203487046587e+03,-3.095871006933066383e+02,-2.750374857580800381e+02,9.484992027282714844e+00,-7.266727685928344727e-01,-1.109132170677185059e+00,2.580000000000000000e+02
-8.796593828534546446e+02,-8.705785676796931511e+02,-2.361705529430182651e+02,7.424189639827618521e+02,2.128275524079435854e+01,1.606178726853613625e+03,-3.148584951372868090e+02,-2.769035734788421905e+02,9.484992027282714844e+00,-7.266727685928344727e-01,-1.109132170677185059e+00,2.590000000000000000e+02
-8.943613573626867037e+02,-8.858445647997264132e+02,-2.394871303652480492e+02,7.578496383423243969e+02,2.187605343544419156e+01,1.635787671989910450e+03,-3.197137398593004036e+02,-2.802822568702731587e+02,9.484992027282714844e+00,-7.266727685928344727e-01,-1.109132170677185059e+00,2.600000000000000000e+02
-9.090916567245717488e+02,-9.009917612498329618e+02,-2.432534582974631121e+02,7.732576077540434198e+02,2.208266736973200750e+01,1.664037931281603960e+03,-3.248178083375905771e+02,-2.844170375628837064e+02,9.484992027282714844e+00,-7.266727685928344727e-01,-1.109132170677185059e+00,2.610000000000000000e+02
-9.244614506746070219e+02,-9.160091699806757788e+02,-2.466139468330147793e+02,7.882661911262293870e+02,2.210555692725756671e+01,1.690977575877885101e+03,-3.299969915457686511e+02,-2.878326811700253529e+02,9.484992027282714844e+00,-7.266727685928344727e-01,-1.109132170677185059e+00,2.620000000000000000e+02
-9.402283705512713823e+02,-9.302357706299080746e+02,-2.487884619982796721e+02,8.029689178872704360e+02,2.235515290644616471e+01,1.717001246195177373e+03,-3.340254649605531085e+02,-2.894920412781348205e+02,9.484992027282714844e+00,-7.266727685928344727e-01,-1.109132170677185059e+00,2.630000000000000000e+02
-9.556842478342928189e+02,-9.429182379782396310e+02,-2.499228556287416723e+02,8.176359769726295781e+02,2.293013071529821900e+01,1.742573160893331078e+03,-3.358725139978714651e+02,-2.897765800027395926e+02,9.484992027282714844e+00,-7.266727685928344727e-01,-1.109132170677185059e+00,2.640000000000000000e+02
-9.703640286158456547e+02,-9.541373294318264016e+02,-2.512363129019640837e+02,8.322489047980652686e+02,2.343314756228755869e+01,1.767862477415206740e+03,-3.362456735396199292e+02,-2.904883077101590061e+02,9.484992027282714844e+00,-7.266727685928344727e-01,-1.109132170677185059e+00,2.650000000000000000e+02
-9.843216531658422355e+02,-9.651108280578300764e+02,-2.541562509780414985e+02,8.462891667824133037e+02,2.330979338799625111e+01,1.792575538141063589e+03,-3.376510163869988901e+02,-2.937039260954884412e+02,9.484992027282714844e+00,-7.266727685928344727e-01,-1.109132170677185059e+00,2.660000000000000000e+02
-9.977531796552584638e+02,-9.773652618341461675e+02,-2.590838125690934248e+02,8.590018217761935375e+02,2.239252629642214742e+01,1.816148945344479216e+03,-3.425266380144830691e+02,-3.002169364895789840e+02,9.484992027282714844e+00,-7.266727685928344727e-01,-1.109132170677185059e+00,2.670000000000000000e+02
-1.010486238146152118e+03,-9.914132417704199725e+02,-2.648856945806965086e+02,8.699856433987752098e+02,2.115967900279247260e+01,1.838202849011748185e+03,-3.510193625966971922e+02,-3.087636715615199137e+02,9.484992027282714844e+00,-7.266727685928344727e-01,-1.109132170677185059e+00,2.680000000000000000e+02
-1.021985006143205737e+03,-1.006181738857168966e+03,-2.696424001293717083e+02,8.796475896935553465e+02,2.043497750714413996e+01,1.858886709721356965e+03,-3.605251988676386645e+02,-3.167285352999469978e+02,9.484992027282714844e+00,-7.266727685928344727e-01,-1.109132170677185059e+00,2.690000000000000000e+02
-1.031927877417285345e+03,-1.019784306336336613e+03,-2.720800728188955873e+02,8.890556225096788694e+02,2.066160295475128805e+01,1.878742028208716874e+03,-3.675808952721208698e+02,-3.218897355139706633e+02,9.484992027282714844e+00,-7.266727685928344727e-01,-1.109132170677185059e+00,2.700000000000000000e+02
-1.040767672089304142e+03,-1.030972887424188229e+03,-2.725078170605079322e+02,8.992445535462538828e+02,2.141077580499586475e+01,1.898215682057654703e+03,-3.704915248153829452e+02,-3.239151184408478912e+02,9.484992027282714844e+00,-7.266727685928344727e-01,-1.109132170677185059e+00,2.710000000000000000e+02
-1.049649026757236697e+03,-1.039995039933975931e+03,-2.725359223067189305e+02,9.105106988811730844e+02,2.167790169685940782e+01,1.917333187681222626e+03,-3.704345455996422061e+02,-3.244917711491298178e+02,9.484992027282714844e+00,-7.266727685928344727e-01,-1.109132170677185059e+00,2.720000000000000000e+02
-1.059648744288590024e+03,-1.048194145758308878e+03,-2.738697650994654396e+02,9.222148768527204084e+02,2.072738938916336338e+01,1.935818104831165329e+03,-3.702594160396961342e+02,-3.260361839047100148e+02,9.484992027282714844e+00,-7.266727685928344727e-01,-1.109132170677185059e+00,2.730000000000000000e+02
-1.070953884589774589e+03,-1.056877305322466327e+03,-2.771632484255792406e+02,9.331878887353686878e+02,1.869275120992097072e+01,1.953471254486856196e+03,-3.722561220926882015e+02,-3.300173706502041568e+02,9.484992027282714844e+00,-7.266727685928344727e-01,-1.109132170677185059e+00,2.740000000000000000e+02
-1.082675341495733392e+03,-1.066528817457890000e+03,-2.817246464164422832e+02,9.423877089536836138e+02,1.639433662248939072e+01,1.970387911254683786e+03,-3.768582116298862275e+02,-3.361702516495379314e+02,9.484992027282714844e+00,-7.266727685928344727e-01,-1.109132170677185059e+00,2.750000000000000000e+02
-1.093446262648287757e+03,-1.076887086014808119e+03,-2.861163786477350186e+02,9.493726289456717495e+02,1.465335072756533918e+01,1.986838984570511457e+03,-3.830762159848086412e+02,-3.430637641656157939e+02,9.484992027282714844e+00,-7.266727685928344727e-01,-1.109132170677185059e+00,2.760000000000000000e+02
-1.102332565594404059e+03,-1.087474864097605405e+03,-2.890767305143040176e+02,9.543566280059312703e+02,1.384802275535730587e+01,2.003016174882292034e+03,-3.897696923636444808e+02,-3.493607996484838623e+02,9.484992027282714844e+00,-7.266727685928344727e-01,-1.109132170677185059e+00,2.770000000000000000e+02
-1.109374294746232408e+03,-1.097874934785073037e+03,-2.901481689375082169e+02,9.579134489654243225e+02,1.406220603098972788e+01,2.018912468401713340e+03,-3.963599201023239402e+02,-3.546450546857586232e+02,9.484992027282714844e+00,-7.266727685928344727e-01,-1.109132170677185059e+00,2.780000000000000000e+02
-1.115428992174449377e+03,-1.107576799513056812e+03,-2.897754207545767713e+02,9.605954707557975780e+02,1.546048744891231763e+01,2.034394073166282396e+03,-4.025153318078678240e+02,-3.592249471280506441e+02,9.484992027282714844e+00,-7.266727685928344727e-01,-1.109132170677185059e+00,2.790000000000000000e+02
-1.121540304097514763e+03,-1.115866485395116342e+03,-2.889793530124593417e+02,9.627216456008263776e+02,1.832986042759330303e+01,2.049320139143195775e+03,-4.075455866599359069e+02,-3.633269149974048560e+02,9.484992027282714844e+00,-7.266727685928344727e-01,-1.109132170677185059e+00,2.800000000000000000e+02
-1.128332696826463234e+03,-1.122193670854673655e+03,-2.888213291481938541e+02,9.644284780246907758e+02,2.271673129455484741e+01,2.063586298125215762e+03,-4.104496263244100192e+02,-3.665964274071557156e+02,9.523238182067871094e+00,-5.736890435218811035e-01,-1.032640218734741211e+00,2.810000000000000000e+02
-1.135779326072939057e+03,-1.126761227673121994e+03,-2.898347618352836434e+02,9.658657084022579511e+02,2.813501934960459039e+01,2.077116766960331006e+03,-4.106865504450101980e+02,-3.683703363805288973e+02,9.523238182067871094e+00,-5.736890435218811035e-01,-1.032640218734741211e+00,2.820000000000000000e+02
-1.143358152165188130e+03,-1.130639005940301104e+03,-2.916678817292909116e+02,9.672933178729417705e+02,3.374723635669670330e+01,2.089858473227508512e+03,-4.088666640964211183e+02,-3.683573651962738040e+02,9.523238182067871094e+00,-5.736890435218811035e-01,-1.032640218734741211e+00,2.830000000000000000e+02
-1.150414824392419177e+03,-1.135095930335414323e+03,-2.932168737443453210e+02,9.689622439357190160e+02,3.888807716218252608e+01,2.101786555956314260e+03,-4.065996547980344076e+02,-3.669881023272778293e+02,9.523238182067871094e+00,-5.736890435218811035e-01,-1.032640218734741211e+00,2.840000000000000000e+02
-1.156514039600825981e+03,-1.140661510538746370e+03,-2.933160996789051751e+02,9.709118204523401801e+02,4.343134011297206598e+01,2.112911349148644149e+03,-4.055640309731866182e+02,-3.651054427618960290e+02,9.523238182067871094e+00,-5.736890435218811035e-01,-1.032640218734741211e+00,2.850000000000000000e+02
-1.161635053501123821e+03,-1.146785849857461017e+03,-2.916052865559263410e+02,9.729412639997226506e+02,4.770827653561354964e+01,2.123309682367058485e+03,-4.065600494308746420e+02,-3.633624881634023041e+02,9.523238182067871094e+00,-5.736890435218811035e-01,-1.032640218734741211e+00,2.860000000000000000e+02
-1.166131112137803939e+03,-1.152411971369213461e+03,-2.889040568315981545e+02,9.748358337535319151e+02,5.216317817895560438e+01,2.133192837935210264e+03,-4.092434856942531951e+02,-3.619358603843966193e+02,9.523238182067871094e+00,-5.736890435218811035e-01,-1.032640218734741211e+00,2.870000000000000000e+02
-1.170449723522741579e+03,-1.156870201993470801e+03,-2.866832847794983081e+02,9.766106863364407218e+02,5.709679915150150009e+01,2.142919192462434694e+03,-4.125631686625051771e+02,-3.607225629494107579e+02,9.523238182067871094e+00,-5.736890435218811035e-01,-1.032640218734741211e+00,2.880000000000000000e+02
-1.174748664182263155e+03,-1.160239524570676849e+03,-2.859382732001138265e+02,9.784913923532872104e+02,6.263887554753887343e+01,2.152837635873652289e+03,-4.153842802407741601e+02,-3.596380389506944084e+02,9.523238182067871094e+00,-5.736890435218811035e-01,-1.032640218734741211e+00,2.890000000000000000e+02
-1.178676841342232365e+03,-1.162930526085288420e+03,-2.863671712096752344e+02,9.806532213205287007e+02,6.882133508076731232e+01,2.163011583979765874e+03,-4.168482560627548992e+02,-3.585994995763364841e+02,9.523238182067871094e+00,-5.736890435218811035e-01,-1.032640218734741211e+00,2.900000000000000000e+02
-1.181553876762958907e+03,-1.165055648119842772e+03,-2.865946494868587706e+02,9.830530651666040285e+02,7.560071416988057535e+01,2.173080006562438939e+03,-4.164558892272307276e+02,-3.572756947425725684e+02,9.523238182067871094e+00,-5.736890435218811035e-01,-1.032640218734741211e+00,2.910000000000000000e+02
-1.182889301704248965e+03,-1.166327951907715942e+03,-2.853225014322031257e+02,9.855961832166522072e+02,8.283710518767020403e+01,2.182466397463463181e+03,-4.141540609450464672e+02,-3.551040931067454949e+02,9.523238182067871094e+00,-5.736890435218811035e-01,-1.032640218734741211e+00,2.920000000000000000e+02
-1.182863920734020212e+03,-1.166579855489977490e+03,-2.824631926406307230e+02,9.884330800210600501e+02,9.029247225774884100e+01,2.190788168226568814e+03,-4.105377002431212077e+02,-3.518200093341577031e+02,9.523238182067871094e+00,-5.736890435218811035e-01,-1.032640218734741211e+00,2.930000000000000000e+02
-1.182335828133156156e+03,-1.166270485539336278e+03,-2.792807361990624031e+02,9.919605584333748993e+02,9.769085197847971358e+01,2.198087790337614479e+03,-4.068878831391505173e+02,-3.480441587518405413e+02,9.523238182067871094e+00,-5.736890435218811035e-01,-1.032640218734741211e+00,2.940000000000000000e+02
-1.182319734987847824e+03,-1.166337777238264152e+03,-2.774252229554504083e+02,9.964080518413152276e+02,1.048332177254264934e+02,2.204666411562029680e+03,-4.047242086371966252e+02,-3.451923881338702813e+02,9.523238182067871094e+00,-5.736890435218811035e-01,-1.032640218734741211e+00,2.950000000000000000e+02
-1.183362178114995004e+03,-1.167463034459669416e+03,-2.777099203775253500e+02,1.001419788233130930e+03,1.117377265305173069e+02,2.210726878457754083e+03,-4.049840515395187595e+02,-3.445310217943929274e+02,9.523238182067871094e+00,-5.736890435218811035e-01,-1.032640218734741211e+00,2.960000000000000000e+02
-1.185330143021009690e+03,-1.169470152796207913e+03,-2.796735976334605311e+02,1.006164559093319895e+03,1.187240293395818753e+02,2.216240024629886193e+03,-4.073965792455185237e+02,-3.461018256566385389e+02,9.523238182067871094e+00,-5.736890435218811035e-01,-1.032640218734741211e+00,2.970000000000000000e+02
-1.187725769751347343e+03,-1.171455401309302488e+03,-2.822106467317744318e+02,1.009979841658211626e+03,1.262770777686753263e+02,2.221160763593850788e+03,-4.105973840268200092e+02,-3.485320526862979023e+02,9.523238182067871094e+00,-5.736890435218811035e-01,-1.032640218734741211e+00,2.980000000000000000e+02
-1.190136786919656060e+03,-1.172532059024146747e+03,-2.845637111958835703e+02,1.012967816826114813e+03,1.346419817786174917e+02,2.225701627016532257e+03,-4.129644927863005250e+02,-3.500198255294471892e+02,9.523238182067871094e+00,-5.736890435218811035e-01,-1.032640218734741211e+00,2.990000000000000000e+02
-1.192362469964128650e+03,-1.172515005550886826e+03,-2.867534903946282157e+02,1.015934822144060490e+03,1.434124788071325156e+02,2.230292823682673315e+03,-4.135841338926045410e+02,-3.496945531159110487e+02,9.523238182067871094e+00,-5.736890435218811035e-01,-1.032640218734741211e+00,3.000000000000000000e+02
-1.194176361587609335e+03,-1.171949922419706127e+03,-2.891426753331465989e+02,1.019703964310238462e+03,1.515725770511353403e+02,2.235236901138619487e+03,-4.126379082878488589e+02,-3.481321350142359279e+02,9.523238182067871094e+00,-5.736890435218811035e-01,-1.032640218734741211e+00,3.010000000000000000e+02
-1.195142100260246252e+03,-1.171533925133717503e+03,-2.917271123075233845e+02,1.024430095192852605e+03,1.581512982005920094e+02,2.240423431069878006e+03,-4.110251005209602226e+02,-3.465876329812460881e+02,9.523238182067871094e+00,-5.736890435218811035e-01,-1.032640218734741211e+00,3.020000000000000000e+02
-1.194855072274901431e+03,-1.171501587177859619e+03,-2.939790006900680055e+02,1.029479302802317761e+03,1.630054744776924736e+02,2.245397574565477498e+03,-4.096545244579408518e+02,-3.457177713655421485e+02,9.523238182067871094e+00,-5.736890435218811035e-01,-1.032640218734741211e+00,3.030000000000000000e+02
-1.193468295394826328e+03,-1.171517808476823120e+03,-2.954309648062373981e+02,1.033866649492467332e+03,1.669729409220210528e+02,2.249696758015178602e+03,-4.089825942085885799e+02,-3.450306689554620334e+02,9.523238182067871094e+00,-5.736890435218811035e-01,-1.032640218734741211e+00,3.040000000000000000e+02
-1.191895280047468304e+03,-1.171099676579800871e+03,-2.963323236749545231e+02,1.036804626526525681e+03,1.711529018095509400e+02,2.253126514091136414e+03,-4.089792571302500619e+02,-3.435158155499002532e+02,9.523238182067871094e+00,-5.736890435218811035e-01,-1.032640218734741211e+00,3.050000000000000000e+02
-1.191289847601227166e+03,-1.170124775810027131e+03,-2.975894395112745769e+02,1.037992071776186549e+03,1.759403904552821132e+02,2.255767467828552526e+03,-4.092817860836055388e+02,-3.407189663240287700e+02,9.523238182067871094e+00,-5.736890435218811035e-01,-1.032640218734741211e+00,3.060000000000000000e+02
-1.192159070059065698e+03,-1.168995482739418549e+03,-2.999531945320309205e+02,1.037635523962993830e+03,1.807391312894250177e+02,2.257802145192790249e+03,-4.093052198296768438e+02,-3.371549101034313480e+02,9.523238182067871094e+00,-5.736890435218811035e-01,-1.032640218734741211e+00,3.070000000000000000e+02
-1.193896094910247029e+03,-1.168350276438465244e+03,-3.032134554746296544e+02,1.036347722005093146e+03,1.846194528814992282e+02,2.259353404240136115e+03,-4.083481228034765991e+02,-3.336565086955833976e+02,9.523238182067871094e+00,-5.736890435218811035e-01,-1.032640218734741211e+00,3.080000000000000000e+02
-1.195214707588390411e+03,-1.168601825690449004e+03,-3.062527650476631607e+02,1.034950900748906861e+03,1.872657052070062491e+02,2.260427766199029065e+03,-4.058798412075684610e+02,-3.304003932575441240e+02,9.523238182067871094e+00,-5.736890435218811035e-01,-1.032640218734741211e+00,3.090000000000000000e+02
-1.195160529696563344e+03,-1.169676614854283798e+03,-3.080105632389299899e+02,1.034127095459085012e+03,1.893051763096842706e+02,2.260934133863815987e+03,-4.019915512400332318e+02,-3.266983736232151614e+02,9.523238182067871094e+00,-5.736890435218811035e-01,-1.032640218734741211e+00,3.100000000000000000e+02
-1.193837125975005392e+03,-1.171117193973957910e+03,-3.084872570594263834e+02,1.034026043868213492e+03,1.917645746407990828e+02,2.260748515676603347e+03,-3.976181778054990446e+02,-3.218207218325891290e+02,9.523238182067871094e+00,-5.736890435218811035e-01,-1.032640218734741211e+00,3.110000000000000000e+02
-1.192242236662472806e+03,-1.172412930155200456e+03,-3.088281719611536573e+02,1.034152927032628213e+03,1.952359694446099638e+02,2.259833620648231772e+03,-3.941363707673842782e+02,-3.159957418953466686e+02,9.446745872497558594e+00,-7.266727685928344727e-01,-1.109132170677185059e+00,3.120000000000000000e+02
-1.191417262324763669e+03,-1.173277645852683463e+03,-3.103622107899823277e+02,1.033730491099204755e+03,1.994885400284327943e+02,2.258342094114037081e+03,-3.924777357926936929e+02,-3.105104955739020625e+02,9.446745872497558594e+00,-7.266727685928344727e-01,-1.109132170677185059e+00,3.130000000000000000e+02
-1.191670944717514658e+03,-1.173673141844727752e+03,-3.134569167525066860e+02,1.032318610906001140e+03,2.037434154735950642e+02,2.256576549137175789e+03,-3.924426521647110349e+02,-3.067200516546520248e+02,9.446745872497558594e+00,-7.266727685928344727e-01,-1.109132170677185059e+00,3.140000000000000000e+02
-1.192468433867889189e+03,-1.173615382355268594e+03,-3.172188657121424740e+02,1.030183838886668127e+03,2.072588550506482079e+02,2.254783687007823573e+03,-3.928504193989135729e+02,-3.048667802738975752e+02,9.446745872497558594e+00,-7.266727685928344727e-01,-1.109132170677185059e+00,3.150000000000000000e+02
-1.192912363738680142e+03,-1.173000252592155221e+03,-3.202684816127857630e+02,1.028090934630825814e+03,2.097705996035167573e+02,2.252957983754830821e+03,-3.924650929620263469e+02,-3.038318975820225205e+02,9.446745872497558594e+00,-7.266727685928344727e-01,-1.109132170677185059e+00,3.160000000000000000e+02
-1.192282447020522795e+03,-1.171634548086325367e+03,-3.218361214858248331e+02,1.026702159894438410e+03,2.115891082256206346e+02,2.250869036939629495e+03,-3.909237378642362728e+02,-3.020630791388464331e+02,9.446745872497558594e+00,-7.266727685928344727e-01,-1.109132170677185059e+00,3.170000000000000000e+02
-1.190245262442067542e+03,-1.169450492831339488e+03,-3.222138459520274409e+02,1.026100326803662256e+03,2.133659617960183823e+02,2.248286240881077902e+03,-3.888788429555345374e+02,-2.988304711550370030e+02,9.446745872497558594e+00,-7.266727685928344727e-01,-1.109132170677185059e+00,3.180000000000000000e+02
-1.186778394839775729e+03,-1.166674310199681941e+03,-3.222571846114276468e+02,1.025818887464321278e+03,2.156663143420392998e+02,2.245160695722526725e+03,-3.872594214171272142e+02,-2.946957247934039970e+02,9.446745872497558594e+00,-7.266727685928344727e-01,-1.109132170677185059e+00,3.190000000000000000e+02
-1.182085793830434568e+03,-1.163744657563807095e+03,-3.224996752996169107e+02,1.025307023400988783e+03,2.185774328928400791e+02,2.241578870542892673e+03,-3.863559437021783651e+02,-2.908538561259431390e+02,9.446745872497558594e+00,-7.266727685928344727e-01,-1.109132170677185059e+00,3.200000000000000000e+02
-1.176614105768291211e+03,-1.161000498304851362e+03,-3.226839466148137490e+02,1.024418346448435159e+03,2.216450177273632107e+02,2.237587262436490164e+03,-3.855635414688115361e+02,-2.880361929976171496e+02,9.446745872497558594e+00,-7.266727685928344727e-01,-1.109132170677185059e+00,3.210000000000000000e+02
-1.171011736624445803e+03,-1.158362822091214184e+03,-3.220372589374624113e+02,1.023543148901415861e+03,2.242738145344324039e+02,2.233159912999868538e+03,-3.839711290509283117e+02,-2.859449286143751578e+02,9.446745872497558594e+00,-7.266727685928344727e-01,-1.109132170677185059e+00,3.220000000000000000e+02
-1.165857697882621324e+03,-1.155281512696279606e+03,-3.199375531141581632e+02,1.023317579756042960e+03,2.262931895946394434e+02,2.228371598971437379e+03,-3.811932509816986112e+02,-2.836086245299574102e+02,9.446745872497558594e+00,-7.266727685928344727e-01,-1.109132170677185059e+00,3.230000000000000000e+02
-1.161282470128087425e+03,-1.151031951016110270e+03,-3.163868280079129818e+02,1.024162884368914774e+03,2.281337984220216413e+02,2.223535267982386358e+03,-3.776670116410768969e+02,-2.802534846831081268e+02,9.446745872497558594e+00,-7.266727685928344727e-01,-1.109132170677185059e+00,3.240000000000000000e+02
-1.156808292443595292e+03,-1.145196864487958919e+03,-3.119859813259404291e+02,1.025995104400061791e+03,2.303739527314221505e+02,2.219060848304201500e+03,-3.741766349671349872e+02,-2.759112407609890170e+02,9.446745872497558594e+00,-7.266727685928344727e-01,-1.109132170677185059e+00,3.250000000000000000e+02
-1.151633387085536015e+03,-1.138052655223732927e+03,-3.075358260705322664e+02,1.028281936621725890e+03,2.330759810880388159e+02,2.215114976397065220e+03,-3.710862354141106607e+02,-2.713211483856071027e+02,9.446745872497558594e+00,-7.266727685928344727e-01,-1.109132170677185059e+00,3.260000000000000000e+02
-1.145239617260576324e+03,-1.130629230017475038e+03,-3.036512926401424011e+02,1.030349079418165502e+03,2.356131875180598172e+02,2.211426865830061615e+03,-3.680407950686919776e+02,-2.673468070540619692e+02,9.446745872497558594e+00,-7.266727685928344727e-01,-1.109132170677185059e+00,3.270000000000000000e+02
-1.137889979780103431e+03,-1.124359260251574369e+03,-3.006426609206291687e+02,1.031676098121977930e+03,2.372172404141758761e+02,2.207456447241260321e+03,-3.644129918278877085e+02,-2.644370657263212934e+02,9.446745872497558594e+00,-7.266727685928344727e-01,-1.109132170677185059e+00,3.280000000000000000e+02
-1.130615497059442532e+03,-1.120413956953061643e+03,-2.986314656359679702e+02,1.031988485611845590e+03,2.377174538735472424e+02,2.202774521969686248e+03,-3.600369619879356833e+02,-2.624970070113608926e+02,9.446745872497558594e+00,-7.266727685928344727e-01,-1.109132170677185059e+00,3.290000000000000000e+02
-1.124640351368665961e+03,-1.119005208599590333e+03,-2.976738778219564665e+02,1.031188926943727893e+03,2.377275893346430848e+02,2.197310074523874391e+03,-3.554985753713801842e+02,-2.611174348506216347e+02,9.446745872497558594e+00,-7.266727685928344727e-01,-1.109132170677185059e+00,3.300000000000000000e+02
-1.120588136452412527e+03,-1.119069366448219625e+03,-2.976958565967474897e+02,1.029315074743579316e+03,2.381045659329993214e+02,2.191296027009328100e+03,-3.516665226174800409e+02,-2.598551486304824039e+02,9.446745872497558594e+00,-7.266727685928344727e-01,-1.109132170677185059e+00,3.310000000000000000e+02
-1.118017398917116452e+03,-1.118677764012724310e+03,-2.982975174478917779e+02,1.026606982318557584e+03,2.392436648141188016e+02,2.185041693941154790e+03,-3.489154744999486866e+02,-2.583700191451686123e+02,9.446745872497558594e+00,-7.266727685928344727e-01,-1.109132170677185059e+00,3.320000000000000000e+02
-1.115679455484983919e+03,-1.116121924612744806e+03,-2.987107530551652417e+02,1.023555411886364709e+03,2.408724734197758153e+02,2.178743547744697480e+03,-3.468274301968776854e+02,-2.564702369601595819e+02,9.484992027282714844e+00,-6.884268522262573242e-01,-9.943943619728088379e-01,3.330000000000000000e+02
-1.112393503712188021e+03,-1.111046629733616101e+03,-2.981329791631133048e+02,1.020774087692619560e+03,2.424513185292453272e+02,2.172423390608517366e+03,-3.446777482644242809e+02,-2.541660564306795322e+02,9.484992027282714844e+00,-6.884268522262573242e-01,-9.943943619728088379e-01,3.340000000000000000e+02
-1.107899785393135517e+03,-1.104735708131217280e+03,-2.962808928374399784e+02,1.018736594483610133e+03,2.437131764918904082e+02,2.165951149622413141e+03,-3.422023055150948494e+02,-2.516798551602137195e+02,9.484992027282714844e+00,-6.884268522262573242e-01,-9.943943619728088379e-01,3.350000000000000000e+02
-1.102943279637852356e+03,-1.099108233774776409e+03,-2.936623459804759477e+02,1.017618712209835394e+03,2.448452053445394085e+02,2.159124463120779183e+03,-3.398042357011154309e+02,-2.492617575588725458e+02,9.484992027282714844e+00,-6.884268522262573242e-01,-9.943943619728088379e-01,3.360000000000000000e+02
-1.098403893840679757e+03,-1.095019439555928329e+03,-2.911684393730120064e+02,1.017400553352526913e+03,2.462446270911786996e+02,2.151819928450678162e+03,-3.379027902920488486e+02,-2.468202453269698253e+02,9.484992027282714844e+00,-6.884268522262573242e-01,-9.943943619728088379e-01,3.370000000000000000e+02
-1.094167391532481133e+03,-1.091256427377024238e+03,-2.892241220404569049e+02,1.018072340713984431e+03,2.481361612657251499e+02,2.144139445857694682e+03,-3.360758935446059468e+02,-2.437235143887079403e+02,9.484992027282714844e+00,-6.884268522262573242e-01,-9.943943619728088379e-01,3.380000000000000000e+02
-1.088866758474713606e+03,-1.085331841205886803e+03,-2.873207249563291725e+02,1.019654508113767179e+03,2.503576720438732082e+02,2.136391480247654727e+03,-3.330205880881219400e+02,-2.391876083339631123e+02,9.484992027282714844e+00,-6.884268522262573242e-01,-9.943943619728088379e-01,3.390000000000000000e+02
-1.081000824462260880e+03,-1.075753685533363978e+03,-2.845594468738551086e+02,1.021985745835221906e+03,2.524297282046554756e+02,2.128846973820959647e+03,-3.276369001357776369e+02,-2.331704996229752851e+02,9.484992027282714844e+00,-6.884268522262573242e-01,-9.943943619728088379e-01,3.400000000000000000e+02
-1.070641186418541565e+03,-1.064007941416788753e+03,-2.808491694838800186e+02,1.024578840081326462e+03,2.538399551795707794e+02,2.121458033643913495e+03,-3.203700542311156596e+02,-2.270229935726371195e+02,9.484992027282714844e+00,-6.884268522262573242e-01,-9.943943619728088379e-01,3.410000000000000000e+02
-1.060123797307777750e+03,-1.054388385065076818e+03,-2.775669099959527557e+02,1.026836069322713456e+03,2.543664004064619348e+02,2.113830140979365751e+03,-3.134789959302644320e+02,-2.230798345603968755e+02,9.484992027282714844e+00,-6.884268522262573242e-01,-9.943943619728088379e-01,3.420000000000000000e+02
-1.052792266385858284e+03,-1.051378853160927520e+03,-2.768078583445685581e+02,1.028490210589520302e+03,2.542023216540992507e+02,2.105503308529386686e+03,-3.097353114144942765e+02,-2.232069761582599767e+02,9.484992027282714844e+00,-6.884268522262573242e-01,-9.943943619728088379e-01,3.430000000000000000e+02
-1.050600596851604223e+03,-1.056398470955700759e+03,-2.796840681661072949e+02,1.029799390824644433e+03,2.537486784292882476e+02,2.096281497572718763e+03,-3.105096878564390863e+02,-2.273906691365632469e+02,9.484992027282714844e+00,-6.884268522262573242e-01,-9.943943619728088379e-01,3.440000000000000000e+02
-1.052581833809019599e+03,-1.066485402874939155e+03,-2.852189633818699122e+02,1.031210116780061526e+03,2.532073777590474037e+02,2.086299725236053746e+03,-3.148461994298501168e+02,-2.336476149813580605e+02,9.484992027282714844e+00,-6.884268522262573242e-01,-9.943943619728088379e-01,3.450000000000000000e+02
-1.055583353232735817e+03,-1.076082342857526328e+03,-2.909724991142707040e+02,1.032778747212148573e+03,2.523598154782462188e+02,2.075819544246575333e+03,-3.202900260277983762e+02,-2.394291419618451755e+02,9.484992027282714844e+00,-6.884268522262573242e-01,-9.943943619728088379e-01,3.460000000000000000e+02
-1.056676747079759025e+03,-1.080588245558073368e+03,-2.949093944437870505e+02,1.033950602710294334e+03,2.508085472703733103e+02,2.065020797885787943e+03,-3.246696123324667269e+02,-2.432942378329543089e+02,9.484992027282714844e+00,-6.884268522262573242e-01,-9.943943619728088379e-01,3.470000000000000000e+02
-1.055133869263770066e+03,-1.078942789962826055e+03,-2.968029074559054834e+02,1.033962091042958491e+03,2.484682985048552837e+02,2.053994902043880757e+03,-3.272649870362381535e+02,-2.453726924271726375e+02,9.484992027282714844e+00,-6.884268522262573242e-01,-9.943943619728088379e-01,3.480000000000000000e+02
-1.052312351732026173e+03,-1.073431758168481565e+03,-2.979130562378044260e+02,1.032498380826008997e+03,2.457689123990767257e+02,2.042870774842500396e+03,-3.285158636425330769e+02,-2.463653630427423877e+02,9.484992027282714844e+00,-6.884268522262573242e-01,-9.943943619728088379e-01,3.490000000000000000e+02
-1.049792512148741025e+03,-1.067272343284113958e+03,-2.994105317634298444e+02,1.029986826869533616e+03,2.432772082891360697e+02,2.031848649535111690e+03,-3.288898933615430451e+02,-2.463402405659495571e+02,9.484992027282714844e+00,-6.884268522262573242e-01,-9.943943619728088379e-01,3.500000000000000000e+02
-1.047696340400795179e+03,-1.062220403656776398e+03,-3.011949651439067566e+02,1.027282724135891840e+03,2.410735482194413635e+02,2.021066159190188046e+03,-3.282341359726475503e+02,-2.447117779960668713e+02,9.484992027282714844e+00,-6.884268522262573242e-01,-9.943943619728088379e-01,3.510000000000000000e+02
-1.044774824710938447e+03,-1.058019737451894798e+03,-3.022257910354269370e+02,1.025080046311374190e+03,2.385643565065429357e+02,2.010470865668987699e+03,-3.262281504840104844e+02,-2.413808792637224769e+02,9.484992027282714844e+00,-6.884268522262573242e-01,-9.943943619728088379e-01,3.520000000000000000e+02
-1.039964480511680222e+03,-1.053613079340641207e+03,-3.018314262653252626e+02,1.023555930632541731e+03,2.349924307352869164e+02,1.999871189855463854e+03,-3.232542184033213744e+02,-2.376043402626088437e+02,9.484992027282714844e+00,-6.884268522262573242e-01,-9.943943619728088379e-01,3.530000000000000000e+02
-1.033659764369176173e+03,-1.048553376767160898e+03,-3.004726717763488750e+02,1.022435102796660885e+03,2.301880408331335275e+02,1.989124042475202259e+03,-3.205232622228452328e+02,-2.353508685101826359e+02,9.484992027282714844e+00,-6.884268522262573242e-01,-9.943943619728088379e-01,3.540000000000000000e+02
-1.027375565323582578e+03,-1.043268912844209353e+03,-2.991546574270555539e+02,1.021260928455622889e+03,2.248229364102944601e+02,1.978248315381105385e+03,-3.191488277311343609e+02,-2.355696886354495518e+02,9.484992027282714844e+00,-6.884268522262573242e-01,-9.943943619728088379e-01,3.550000000000000000e+02
-1.022231621248211241e+03,-1.038269183720519550e+03,-2.982376919580656249e+02,1.019608799386842293e+03,2.199274502658349775e+02,1.967346729556440550e+03,-3.190981917506392165e+02,-2.371526710501351545e+02,9.484992027282714844e+00,-6.884268522262573242e-01,-9.943943619728088379e-01,3.560000000000000000e+02
-1.017886153316422224e+03,-1.033430888080690920e+03,-2.970394024717104458e+02,1.017204147986323733e+03,2.161679448382633382e+02,1.956442595081081436e+03,-3.191696942000314721e+02,-2.378142577642181550e+02,9.484992027282714844e+00,-6.884268522262573242e-01,-9.943943619728088379e-01,3.570000000000000000e+02
-1.013015549421988339e+03,-1.028175654947364819e+03,-2.947089436412520627e+02,1.014018890060264312e+03,2.135160444880561954e+02,1.945406409041214374e+03,-3.181114435889255674e+02,-2.361764905515392456e+02,9.523238182067871094e+00,-7.266727685928344727e-01,-9.943943619728088379e-01,3.580000000000000000e+02
-1.006791561422987115e+03,-1.022224137984577851e+03,-2.914072940741016282e+02,1.010354411612780495e+03,2.114931094129478879e+02,1.934034605143378940e+03,-3.158000167089412571e+02,-2.330470601143678095e+02,9.523238182067871094e+00,-7.266727685928344727e-01,-9.943943619728088379e-01,3.590000000000000000e+02
-9.998167655220712504e+02,-1.015984596405418188e+03,-2.884746983715074293e+02,1.006786345405513657e+03,2.096430370404477799e+02,1.922188411026936592e+03,-3.133208201026716324e+02,-2.306173029612413075e+02,9.523238182067871094e+00,-7.266727685928344727e-01,-9.943943619728088379e-01,3.600000000000000000e+02
-9.935997083660987528e+02,-1.010127684783569293e+03,-2.873301349593823488e+02,1.003902681272540576e+03,2.077969741343954411e+02,1.909878210317610410e+03,-3.118935037424998882e+02,-2.303673867454715491e+02,9.523238182067871094e+00,-7.266727685928344727e-01,-9.943943619728088379e-01,3.610000000000000000e+02
-9.891225193068880799e+02,-1.004855156900365046e+03,-2.881427294834093118e+02,1.001981232190808441e+03,2.060192648116026248e+02,1.897266059418132500e+03,-3.117189168073157362e+02,-2.317081168381658927e+02,9.523238182067871094e+00,-7.266727685928344727e-01,-9.943943619728088379e-01,3.620000000000000000e+02
-9.859009684521262216e+02,-9.997033469916116246e+02,-2.895408139359628876e+02,1.000854654391393524e+03,2.044116809224697136e+02,1.884602715668823294e+03,-3.118370453065463153e+02,-2.325855933359739538e+02,9.523238182067871094e+00,-7.266727685928344727e-01,-9.943943619728088379e-01,3.630000000000000000e+02
-9.823735710154879825e+02,-9.940925417726830347e+02,-2.896049009485500392e+02,1.000075621854607107e+03,2.029874424342706334e+02,1.872127810088182741e+03,-3.110333433499104103e+02,-2.313493739975662038e+02,9.523238182067871094e+00,-7.266727685928344727e-01,-9.943943619728088379e-01,3.640000000000000000e+02
-9.771556301114125063e+02,-9.879956544825545279e+02,-2.872191911906872974e+02,9.992369942884538432e+02,2.016795265068685694e+02,1.859967015826627176e+03,-3.088316064213436221e+02,-2.280620092084188855e+02,9.523238182067871094e+00,-7.266727685928344727e-01,-9.943943619728088379e-01,3.650000000000000000e+02
-9.699849549096077226e+02,-9.819621811976013532e+02,-2.826790597133121992e+02,9.981917035051433231e+02,2.004230994452414052e+02,1.848075385972372260e+03,-3.056893156774037834e+02,-2.241646506681966002e+02,9.523238182067871094e+00,-7.266727685928344727e-01,-9.943943619728088379e-01,3.660000000000000000e+02
-9.616583404846686562e+02,-9.764538904654950784e+02,-2.772630899029250031e+02,9.970430940342166650e+02,1.992392930501491719e+02,1.836275669078028841e+03,-3.024086823472066499e+02,-2.210562828425302087e+02,9.523238182067871094e+00,-7.266727685928344727e-01,-9.943943619728088379e-01,3.670000000000000000e+02
-9.532549671678214054e+02,-9.711973478116588012e+02,-2.723246216926606849e+02,9.959718690799231808e+02,1.982298454140327522e+02,1.824365396321778917e+03,-2.994806351913696290e+02,-2.190074159579640991e+02,9.523238182067871094e+00,-7.266727685928344727e-01,-9.943943619728088379e-01,3.680000000000000000e+02
-9.454692615971831628e+02,-9.652679539002594993e+02,-2.686513891542385863e+02,9.950814636609679837e+02,1.974422931913613866e+02,1.812219223736963158e+03,-2.969317332957277813e+02,-2.172683751554728815e+02,9.523238182067871094e+00,-7.266727685928344727e-01,-9.943943619728088379e-01,3.690000000000000000e+02
-9.385453100895226726e+02,-9.579008668095257235e+02,-2.663781592055981946e+02,9.943830092064968085e+02,1.967014805944909313e+02,1.799833846117428948e+03,-2.945813351776425861e+02,-2.150013333441247596e+02,9.523238182067871094e+00,-7.266727685928344727e-01,-9.943943619728088379e-01,3.700000000000000000e+02
-9.325838172368589767e+02,-9.492911467296203227e+02,-2.652261630988259640e+02,9.938825579152698992e+02,1.956191526240982057e+02,1.787323780869900474e+03,-2.922523076490724634e+02,-2.120502461361141968e+02,9.523238182067871094e+00,-7.266727685928344727e-01,-9.943943619728088379e-01,3.710000000000000000e+02
-9.276850975387919789e+02,-9.406277574756340982e+02,-2.647467296895740674e+02,9.936387044045823131e+02,1.938767604324898457e+02,1.774887963148361450e+03,-2.897566532078076307e+02,-2.089614467451506243e+02,9.523238182067871094e+00,-7.266727685928344727e-01,-9.943943619728088379e-01,3.720000000000000000e+02
-9.237216309654540964e+02,-9.332908836162268926e+02,-2.644596609111333692e+02,9.936879640275792553e+02,1.915487002722375109e+02,1.762714693488229386e+03,-2.868893770140773540e+02,-2.064639813091648648e+02,9.523238182067871094e+00,-7.266727685928344727e-01,-9.943943619728088379e-01,3.730000000000000000e+02
-9.200546466880432490e+02,-9.278622909793127747e+02,-2.639469536875089943e+02,9.938948738230683375e+02,1.890923915967814537e+02,1.750831377867908941e+03,-2.836323039942781179e+02,-2.049799456421030754e+02,9.523238182067871094e+00,-7.266727685928344727e-01,-9.943943619728088379e-01,3.740000000000000000e+02
-9.156641747412436416e+02,-9.237446668392849460e+02,-2.629527730831337067e+02,9.938962004132931725e+02,1.869102083602101629e+02,1.739016523393564967e+03,-2.803796945896419857e+02,-2.045061172077107585e+02,9.523238182067871094e+00,-7.266727685928344727e-01,-9.943943619728088379e-01,3.750000000000000000e+02
-9.097821739562964467e+02,-9.196789241082674380e+02,-2.614947396986835884e+02,9.932331578108723988e+02,1.848773135490719142e+02,1.726906419662233930e+03,-2.778522566870988157e+02,-2.048018608978723023e+02,9.523238182067871094e+00,-7.266727685928344727e-01,-9.943943619728088379e-01,3.760000000000000000e+02
-9.025728172516082850e+02,-9.147227680043527016e+02,-2.599293889543071145e+02,9.915893742836224192e+02,1.823872719148885153e+02,1.714276464851554010e+03,-2.766619560125293447e+02,-2.056231619971990767e+02,9.523238182067871094e+00,-7.266727685928344727e-01,-9.943943619728088379e-01,3.770000000000000000e+02
-8.952334708150635834e+02,-9.089267545475465795e+02,-2.588918302543727350e+02,9.889329400111182622e+02,1.789780090067602032e+02,1.701238049985689941e+03,-2.769052700495935824e+02,-2.068209067683487774e+02,9.523238182067871094e+00,-7.266727685928344727e-01,-9.943943619728088379e-01,3.780000000000000000e+02
-8.893155056972739203e+02,-9.032201943655713876e+02,-2.590409810812370779e+02,9.854564012740584076e+02,1.749518466732974957e+02,1.688116067521588775e+03,-2.781639329033237118e+02,-2.082911333705324068e+02,9.523238182067871094e+00,-7.266727685928344727e-01,-9.943943619728088379e-01,3.790000000000000000e+02
-8.856958040180634271e+02,-8.986364827018956021e+02,-2.606328974237123930e+02,9.814310246054424169e+02,1.713250586307021877e+02,1.675115576256928762e+03,-2.798410339597264738e+02,-2.098476914876048340e+02,9.523238182067871094e+00,-7.266727685928344727e-01,-9.943943619728088379e-01,3.800000000000000000e+02
-8.839439726976208931e+02,-8.954850426788448203e+02,-2.631533625174270128e+02,9.771453466525217664e+02,1.690752971881338453e+02,1.662149179028427170e+03,-2.814185465247785487e+02,-2.111401575364382097e+02,9.523238182067871094e+00,-7.266727685928344727e-01,-9.943943619728088379e-01,3.810000000000000000e+02
-8.825580313889624904e+02,-8.930718950568330001e+02,-2.653682707471803042e+02,9.729308634305884880e+02,1.683671831063584250e+02,1.649049048268829210e+03,-2.824181775713557272e+02,-2.117330106141498618e+02,9.523238182067871094e+00,-7.266727685928344727e-01,-9.943943619728088379e-01,3.820000000000000000e+02
-8.798860259355190010e+02,-8.901384131608767802e+02,-2.659454541851339400e+02,9.690981522801589563e+02,1.684558490377794442e+02,1.635924941498379667e+03,-2.823121008204282134e+02,-2.113486624680581372e+02,9.523238182067871094e+00,-7.266727685928344727e-01,-9.943943619728088379e-01,3.830000000000000000e+02
-8.750718310700590337e+02,-8.856737245848144084e+02,-2.643326618577727913e+02,9.657166434182863668e+02,1.683092978956519801e+02,1.623212783455333010e+03,-2.807344792434653300e+02,-2.101045863825229389e+02,9.523238182067871094e+00,-7.266727685928344727e-01,-9.943943619728088379e-01,3.840000000000000000e+02
-8.683862250242191294e+02,-8.795202782561859749e+02,-2.611896218585750375e+02,9.624699812088388171e+02,1.673241419131854855e+02,1.611285773563757175e+03,-2.778829767805345909e+02,-2.084679023005323870e+02,9.446745872497558594e+00,-7.266727685928344727e-01,-9.943943619728088379e-01,3.850000000000000000e+02
-8.608200756445201023e+02,-8.723802042022464320e+02,-2.579300508511855696e+02,9.588833287072552594e+02,1.655065147824261658e+02,1.600033287856156676e+03,-2.745891447249796329e+02,-2.068851460557336850e+02,9.446745872497558594e+00,-7.266727685928344727e-01,-9.943943619728088379e-01,3.860000000000000000e+02
-8.533874554465253368e+02,-8.652982221161180405e+02,-2.556935911135224160e+02,9.548460198952470819e+02,1.630970205537637412e+02,1.588914852363221144e+03,-2.717718681405351617e+02,-2.054088177810044726e+02,9.446745872497558594e+00,-7.266727685928344727e-01,-9.943943619728088379e-01,3.870000000000000000e+02
-8.466889726455231084e+02,-8.590437002519377074e+02,-2.546258301143220706e+02,9.509055058210278730e+02,1.601700005650232015e+02,1.577475709843540244e+03,-2.697044731700907505e+02,-2.037304348929376374e+02,9.446745872497558594e+00,-7.266727685928344727e-01,-9.943943619728088379e-01,3.880000000000000000e+02
-8.409040674226177998e+02,-8.537918245817854768e+02,-2.540841687632314461e+02,9.478926601177590783e+02,1.566987997275382440e+02,1.565774151058920324e+03,-2.678619460765635267e+02,-2.016500098605038147e+02,9.446745872497558594e+00,-7.266727685928344727e-01,-9.943943619728088379e-01,3.890000000000000000e+02
-8.359790990744781993e+02,-8.492225127671572409e+02,-2.535042156693302786e+02,9.461038952243688982e+02,1.529982608186783182e+02,1.554238726875960310e+03,-2.655960412437584637e+02,-1.995194091364305677e+02,9.446745872497558594e+00,-7.266727685928344727e-01,-9.943943619728088379e-01,3.900000000000000000e+02
-8.316906888127771253e+02,-8.448420526779680131e+02,-2.529909165794360888e+02,9.448444988759947591e+02,1.499465539668731253e+02,1.543109659064578409e+03,-2.629667035959732857e+02,-1.981136244249312313e+02,9.446745872497558594e+00,-7.266727685928344727e-01,-9.943943619728088379e-01,3.910000000000000000e+02
-8.275292835084669605e+02,-8.402266476770246300e+02,-2.529778931395703694e+02,9.429049243942718022e+02,1.485057162837351825e+02,1.532096935120173839e+03,-2.607693042843961848e+02,-1.978954634283363703e+02,9.446745872497558594e+00,-7.266727685928344727e-01,-9.943943619728088379e-01,3.920000000000000000e+02
-8.226820049971288427e+02,-8.350709472810058287e+02,-2.533449494410492662e+02,9.396125863589650180e+02,1.487214149882101992e+02,1.520643518008877436e+03,-2.596150149623149446e+02,-1.983455496037190642e+02,9.446745872497558594e+00,-7.266727685928344727e-01,-9.943943619728088379e-01,3.930000000000000000e+02
-8.163591089387459760e+02,-8.291578337140642816e+02,-2.530311951506459991e+02,9.354473494965750433e+02,1.490487819188356298e+02,1.508509472643316258e+03,-2.590061602329315065e+02,-1.981162689296679673e+02,9.446745872497558594e+00,-7.266727685928344727e-01,-9.943943619728088379e-01,3.940000000000000000e+02
-8.083273472074417896e+02,-8.224111449240774618e+02,-2.507263721639442338e+02,9.315931173530098022e+02,1.468361788131487629e+02,1.496039517602781416e+03,-2.574888238683679447e+02,-1.960358913522454714e+02,9.446745872497558594e+00,-7.266727685928344727e-01,-9.943943619728088379e-01,3.950000000000000000e+02
-7.992059507091821615e+02,-8.150224067946605828e+02,-2.460875291443230708e+02,9.288549768706852774e+02,1.399464912815055868e+02,1.483836613255926750e+03,-2.539363728700509455e+02,-1.921319229623240972e+02,9.446745872497558594e+00,-7.266727685928344727e-01,-9.943943619728088379e-01,3.960000000000000000e+02
-7.902072938642359077e+02,-8.074633283596256206e+02,-2.402734114924753612e+02,9.270005890910542803e+02,1.284274006529476537e+02,1.472203307682634659e+03,-2.487999826987861525e+02,-1.877176185732466820e+02,9.446745872497558594e+00,-7.266727685928344727e-01,-9.943943619728088379e-01,3.970000000000000000e+02
-7.824410856260519722e+02,-8.002447476292411466e+02,-2.351700212987802843e+02,9.251253790911441683e+02,1.148439213303540782e+02,1.460920512448554291e+03,-2.440495080864054671e+02,-1.844015896966684522e+02,9.446745872497558594e+00,-7.266727685928344727e-01,-9.943943619728088379e-01,3.980000000000000000e+02
-7.762825115370501408e+02,-7.935698018275347749e+02,-2.319749553636029304e+02,9.225861672238788742e+02,1.028035260454066702e+02,1.449537307041584427e+03,-2.417039743284658471e+02,-1.829061466664913951e+02,9.446745872497558594e+00,-7.266727685928344727e-01,-9.943943619728088379e-01,3.990000000000000000e+02
-7.712424607602151809e+02,-7.872107147284689290e+02,-2.304364240177187639e+02,9.195267851008202342e+02,9.468755868791049579e+01,1.437816698699934932e+03,-2.421739550363615763e+02,-1.827359791393134856e+02,9.446745872497558594e+00,-7.266727685928344727e-01,-9.943943619728088379e-01,4.000000000000000000e+02
-7.663650111961719631e+02,-7.807824012034482166e+02,-2.293806388256693936e+02,9.165288363361778465e+02,9.032160445379395242e+01,1.425878146103007566e+03,-2.438590633844396507e+02,-1.828934517178199712e+02,9.446745872497558594e+00,-7.266727685928344727e-01,-9.943943619728088379e-01,4.010000000000000000e+02
-7.608096656210639139e+02,-7.742069749026804857e+02,-2.279030305928099551e+02,9.138605389379936241e+02,8.755497112345619826e+01,1.413953358159140407e+03,-2.443415644303468071e+02,-1.828509204832557771e+02,9.446745872497558594e+00,-7.266727685928344727e-01,-9.943943619728088379e-01,4.020000000000000000e+02
-7.542542570156085731e+02,-7.679252125534046627e+02,-2.260380868796278264e+02,9.111485929331238367e+02,8.412229486060550698e+01,1.402078258416087010e+03,-2.421607533275919195e+02,-1.828520369506386487e+02,9.446745872497558594e+00,-7.266727685928344727e-01,-9.943943619728088379e-01,4.030000000000000000e+02
-7.470013568573699558e+02,-7.626016672547075359e+02,-2.244079611608281084e+02,9.077699495168417343e+02,7.917935375033357559e+01,1.390058270170351534e+03,-2.377659485971926188e+02,-1.833992811708089903e+02,9.446745872497558594e+00,-7.266727685928344727e-01,-9.943943619728088379e-01,4.040000000000000000e+02
-7.398449609886852159e+02,-7.585444038602381625e+02,-2.234211632363167155e+02,9.035051481916580087e+02,7.341448221095197368e+01,1.377730488972168132e+03,-2.330338616624680981e+02,-1.846046917518210648e+02,9.446745872497558594e+00,-7.266727685928344727e-01,-9.943943619728088379e-01,4.050000000000000000e+02
-7.337508618019585356e+02,-7.553652687111275554e+02,-2.229424956258321799e+02,8.987757026165791103e+02,6.800870482007121609e+01,1.365222705034886530e+03,-2.299102775761587054e+02,-1.860929958641963822e+02,9.446745872497558594e+00,-7.266727685928344727e-01,-9.943943619728088379e-01,4.060000000000000000e+02
-7.293815466865728467e+02,-7.522086943465246804e+02,-2.226706397645202742e+02,8.942703683065046789e+02,6.359649312438887137e+01,1.352909781079119966e+03,-2.292827753859153290e+02,-1.874553526555755525e+02,9.446745872497558594e+00,-7.266727685928344727e-01,-9.943943619728088379e-01,4.070000000000000000e+02
-7.266300436731912669e+02,-7.483386001060216586e+02,-2.226173732983311311e+02,8.903669469493706856e+02,6.004213750609960698e+01,1.341067315667705770e+03,-2.307719660434245270e+02,-1.886333538394178504e+02,9.446745872497558594e+00,-7.266727685928344727e-01,-9.943943619728088379e-01,4.080000000000000000e+02
-7.244793471188002059e+02,-7.435496930483002416e+02,-2.230145440530386622e+02,8.868997879341159205e+02,5.690840359749927302e+01,1.329561825998881432e+03,-2.332620333458121422e+02,-1.897378761057282190e+02,9.446745872497558594e+00,-7.266727685928344727e-01,-9.943943619728088379e-01,4.090000000000000000e+02
-7.214256630124129970e+02,-7.380752698517660519e+02,-2.237272798014903401e+02,8.834400305014032710e+02,5.396241040144832368e+01,1.317932849163659739e+03,-2.355268675971742596e+02,-1.905281843223792748e+02,9.446745872497558594e+00,-7.266727685928344727e-01,-9.943943619728088379e-01,4.100000000000000000e+02
-7.163162709827527124e+02,-7.321687363100579660e+02,-2.239168165634032448e+02,8.797629638280459403e+02,5.131970159785305441e+01,1.305873859844761682e+03,-2.365185549438199359e+02,-1.902156861268886132e+02,9.446745872497558594e+00,-7.266727685928344727e-01,-9.943943619728088379e-01,4.110000000000000000e+02
-7.090427909302184162e+02,-7.258533271532839990e+02,-2.224594619442696057e+02,8.760381323513483949e+02,4.931897168211980897e+01,1.293686254577936779e+03,-2.354131850822921024e+02,-1.879345837547580231e+02,9.446745872497558594e+00,-7.266727685928344727e-01,-9.943943619728088379e-01,4.120000000000000000e+02
-7.005639390811286376e+02,-7.190937263953462661e+02,-2.188101358689941662e+02,8.725679895792673051e+02,4.834489301008125040e+01,1.282191326390106042e+03,-2.317799503537353303e+02,-1.835078075988753881e+02,9.446745872497558594e+00,-7.266727685928344727e-01,-9.943943619728088379e-01,4.130000000000000000e+02
-6.922504836847351726e+02,-7.121447393354048927e+02,-2.134941485101644503e+02,8.693514572387584849e+02,4.865231851389762596e+01,1.272057670855183460e+03,-2.259854347071325265e+02,-1.778100165187711355e+02,9.446745872497558594e+00,-7.266727685928344727e-01,-9.943943619728088379e-01,4.140000000000000000e+02
-6.850812483959052770e+02,-7.056058650002428294e+02,-2.077623046761004844e+02,8.659314142647044719e+02,5.015735193685577542e+01,1.263114097370504169e+03,-2.194710132913837697e+02,-1.723877025843012234e+02,9.446745872497558594e+00,-7.266727685928344727e-01,-9.943943619728088379e-01,4.150000000000000000e+02
-6.792465513165859647e+02,-6.999916969148048338e+02,-2.027395220273590439e+02,8.617402177060766917e+02,5.231636014590367267e+01,1.254343660640652161e+03,-2.143844453243066255e+02,-1.686233691241493489e+02,9.484992027282714844e+00,-6.884268522262573242e-01,-9.561483860015869141e-01,4.160000000000000000e+02
-6.742985541976793229e+02,-6.951634856897258032e+02,-1.988105831790203410e+02,8.566821386426354366e+02,5.431257465153157682e+01,1.244679571721968387e+03,-2.124794412049832317e+02,-1.670328680437110052e+02,9.484992027282714844e+00,-6.884268522262573242e-01,-9.561483860015869141e-01,4.170000000000000000e+02
-6.695573671832996752e+02,-6.902004382657096357e+02,-1.956799986657990758e+02,8.513934525565309741e+02,5.550636424752701714e+01,1.233913517181159477e+03,-2.139364411423371166e+02,-1.671038398424773277e+02,9.484992027282714844e+00,-6.884268522262573242e-01,-9.561483860015869141e-01,4.180000000000000000e+02
-6.644546352052930160e+02,-6.839661854773694358e+02,-1.929122704629185137e+02,8.468561745458673613e+02,5.580057338148526469e+01,1.222859981199932918e+03,-2.170612650596058302e+02,-1.676798805137673298e+02,9.484992027282714844e+00,-6.884268522262573242e-01,-9.561483860015869141e-01,4.190000000000000000e+02
-6.587439555363539512e+02,-6.760086895007198109e+02,-1.904061299559552936e+02,8.436376115341909099e+02,5.560410796713858872e+01,1.212609982434909398e+03,-2.192812835266449838e+02,-1.676116115916079252e+02,9.484992027282714844e+00,-6.884268522262573242e-01,-9.561483860015869141e-01,4.200000000000000000e+02
-6.526374781253559831e+02,-6.670656737381850689e+02,-1.884425875372844530e+02,8.414199089458015806e+02,5.545984542217865965e+01,1.203581586240099568e+03,-2.188188261968680308e+02,-1.663259717060366256e+02,9.484992027282714844e+00,-6.884268522262573242e-01,-9.561483860015869141e-01,4.210000000000000000e+02
-6.467882529255343798e+02,-6.586915047612533272e+02,-1.873644339314964782e+02,8.392552602498944907e+02,5.570339662694004801e+01,1.195241922157976660e+03,-2.157737697113761897e+02,-1.640411532915099997e+02,9.484992027282714844e+00,-6.884268522262573242e-01,-9.561483860015869141e-01,4.220000000000000000e+02
-6.419345949825410571e+02,-6.522116261094770380e+02,-1.871715623856407547e+02,8.363148416183867084e+02,5.639509192110563163e+01,1.186676781807897896e+03,-2.117561999188233131e+02,-1.615148760894253428e+02,9.484992027282714844e+00,-6.884268522262573242e-01,-9.561483860015869141e-01,4.230000000000000000e+02
-6.382659674221408750e+02,-6.477968247174699172e+02,-1.873298261092800203e+02,8.324553023776270493e+02,5.743030670775442559e+01,1.177374465109105586e+03,-2.084253138321578263e+02,-1.594995783036895318e+02,9.484992027282714844e+00,-6.884268522262573242e-01,-9.561483860015869141e-01,4.240000000000000000e+02
-6.350041444278976996e+02,-6.444139992036243711e+02,-1.869566745297688612e+02,8.281323493422250976e+02,5.861306589996638650e+01,1.167491057793113214e+03,-2.062487747420141204e+02,-1.583251903439825128e+02,9.484992027282714844e+00,-6.884268522262573242e-01,-9.561483860015869141e-01,4.250000000000000000e+02
-6.307322020862147838e+02,-6.407037325016203795e+02,-1.853160655230080920e+02,8.238417918079758238e+02,5.967440749193883676e+01,1.157492736263953702e+03,-2.045245854722074910e+02,-1.579232802522587917e+02,9.484992027282714844e+00,-6.884268522262573242e-01,-9.561483860015869141e-01,4.260000000000000000e+02
-6.244301419640269160e+02,-6.360554188488372347e+02,-1.823394010961169442e+02,8.196820766048394944e+02,6.040058288969885325e+01,1.147680683772317025e+03,-2.024999368286012214e+02,-1.581698274055452202e+02,9.484992027282714844e+00,-6.884268522262573242e-01,-9.561483860015869141e-01,4.270000000000000000e+02
-6.164286227437473826e+02,-6.309675067900093381e+02,-1.787663846882778671e+02,8.154071070512363804e+02,6.087382599152715557e+01,1.138066443598852857e+03,-2.003638385443400693e+02,-1.590680795812659198e+02,9.484992027282714844e+00,-6.884268522262573242e-01,-9.561483860015869141e-01,4.280000000000000000e+02
-6.083783665485661913e+02,-6.263721643627018238e+02,-1.756999398611155812e+02,8.107989199570292840e+02,6.156495987556809268e+01,1.128577416717087544e+03,-1.990420106331048373e+02,-1.604634668921394223e+02,9.484992027282714844e+00,-6.884268522262573242e-01,-9.561483860015869141e-01,4.290000000000000000e+02
-6.020957686163751532e+02,-6.225366191229550168e+02,-1.738096518946281321e+02,8.059221385035043568e+02,6.307394629691134469e+01,1.119249874750898016e+03,-1.989789711063758659e+02,-1.615713600257313374e+02,9.484992027282714844e+00,-6.884268522262573242e-01,-9.561483860015869141e-01,4.300000000000000000e+02
-5.981732702651970612e+02,-6.185603229285702582e+02,-1.727850380586751271e+02,8.010274358397491596e+02,6.566694588972131896e+01,1.110199148918562059e+03,-1.991804275570302707e+02,-1.609888345546592063e+02,9.484992027282714844e+00,-6.884268522262573242e-01,-9.561483860015869141e-01,4.310000000000000000e+02
-5.955230139653067454e+02,-6.129803863004544837e+02,-1.715294129223834716e+02,7.962814800912865394e+02,6.903178100316108612e+01,1.101499199235335254e+03,-1.976071649783557405e+02,-1.574886754205949728e+02,9.484992027282714844e+00,-6.884268522262573242e-01,-9.561483860015869141e-01,4.320000000000000000e+02
-5.922472651197895175e+02,-6.050193906459176105e+02,-1.689969127839062821e+02,7.916338140512507380e+02,7.248871603960924404e+01,1.093163770799617851e+03,-1.927213070794568921e+02,-1.510674117293624477e+02,9.484992027282714844e+00,-6.884268522262573242e-01,-9.561483860015869141e-01,4.330000000000000000e+02
-5.870939323055740715e+02,-5.954117628140679699e+02,-1.649951197983677957e+02,7.869375111212993943e+02,7.546756054861816665e+01,1.085220681898142175e+03,-1.848468814690045292e+02,-1.432934136481330825e+02,9.484992027282714844e+00,-6.884268522262573242e-01,-9.561483860015869141e-01,4.340000000000000000e+02
-5.802932024413726140e+02,-5.860830475305347136e+02,-1.602854906095931256e+02,7.821703726448222369e+02,7.784308751839944307e+01,1.077714217837576143e+03,-1.761187553208474128e+02,-1.364912148661305764e+02,9.484992027282714844e+00,-6.884268522262573242e-01,-9.561483860015869141e-01,4.350000000000000000e+02
-5.731681093784809491e+02,-5.789136583275048906e+02,-1.559277851078022650e+02,7.775464236000698293e+02,7.992077365995191940e+01,1.070583079067800099e+03,-1.690555664283197075e+02,-1.323186919285808472e+02,9.484992027282714844e+00,-6.884268522262573242e-01,-9.561483860015869141e-01,4.360000000000000000e+02
-5.669508903708897378e+02,-5.745359135049875476e+02,-1.524571382467870535e+02,7.734404657408686035e+02,8.218211874013104534e+01,1.063568005202750101e+03,-1.649764384631280336e+02,-1.308411723642593643e+02,9.484992027282714844e+00,-7.266727685928344727e-01,-9.943943619728088379e-01,4.370000000000000000e+02
-5.618195601103489025e+02,-5.720118754231070852e+02,-1.495851195382260812e+02,7.701696212792294318e+02,8.499242908722681022e+01,1.056297322567303127e+03,-1.634937464355757584e+02,-1.307653710574813886e+02,9.484992027282714844e+00,-7.266727685928344727e-01,-9.943943619728088379e-01,4.380000000000000000e+02
-5.568946552072998202e+02,-5.694955378781251056e+02,-1.466367192167449502e+02,7.677567406268008199e+02,8.838527382034499169e+01,1.048505868274445675e+03,-1.632696311281661110e+02,-1.305236527206043320e+02,9.484992027282714844e+00,-7.266727685928344727e-01,-9.943943619728088379e-01,4.390000000000000000e+02
-5.510925990366708902e+02,-5.653171086285929050e+02,-1.432952765972268026e+02,7.658263313411998752e+02,9.199589848239520506e+01,1.040193752619576117e+03,-1.631847908719068982e+02,-1.293089849380817213e+02,9.484992027282714844e+00,-7.266727685928344727e-01,-9.943943619728088379e-01,4.400000000000000000e+02
-5.440801759033042799e+02,-5.588099810925396014e+02,-1.399869393640401540e+02,7.637456415870674391e+02,9.522391938416967605e+01,1.031594633678841092e+03,-1.629182973515962658e+02,-1.273796349193858077e+02,9.484992027282714844e+00,-7.266727685928344727e-01,-9.943943619728088379e-01,4.410000000000000000e+02
-5.365709323724004207e+02,-5.505234065684730922e+02,-1.375728853014061315e+02,7.609750748430506064e+02,9.760809145881376025e+01,1.023006803954078350e+03,-1.626718567450279807e+02,-1.256521890276399063e+02,9.484992027282714844e+00,-7.266727685928344727e-01,-9.943943619728088379e-01,4.420000000000000000e+02
-5.297633960247958385e+02,-5.418411079372021959e+02,-1.366003908299026079e+02,7.573840903173932020e+02,9.917236936771860201e+01,1.014620731562636138e+03,-1.625483472814185006e+02,-1.250185234953023610e+02,9.484992027282714844e+00,-7.266727685928344727e-01,-9.943943619728088379e-01,4.430000000000000000e+02
-5.243987609135533603e+02,-5.342230327495826714e+02,-1.367298612899744512e+02,7.532543969583493890e+02,1.004109184972339790e+02,1.006445261110910906e+03,-1.622306719874131886e+02,-1.257892816585522269e+02,9.484992027282714844e+00,-7.266727685928344727e-01,-9.943943619728088379e-01,4.440000000000000000e+02
-5.201861709579475246e+02,-5.284078183585488659e+02,-1.368343814516479142e+02,7.489345494477493048e+02,1.018467002297848012e+02,9.983634971124238291e+02,-1.611747990641097203e+02,-1.274684487219433322e+02,9.484992027282714844e+00,-7.266727685928344727e-01,-9.943943619728088379e-01,4.450000000000000000e+02
-5.160456074422950223e+02,-5.240050951031730619e+02,-1.357536691995164801e+02,7.444427774585929001e+02,1.035332879554362080e+02,9.902748300460716564e+02,-1.590494634427304845e+02,-1.289242738110465325e+02,9.484992027282714844e+00,-7.266727685928344727e-01,-9.943943619728088379e-01,4.460000000000000000e+02
-5.109888335186728909e+02,-5.198157325349475286e+02,-1.331402984184760498e+02,7.394024876626863261e+02,1.049962024760825443e+02,9.822225084421934298e+02,-1.560420652315779080e+02,-1.289386099562752861e+02,9.484992027282714844e+00,-7.266727685928344727e-01,-9.943943619728088379e-01,4.470000000000000000e+02
-5.049269352420360519e+02,-5.147768904471827227e+02,-1.297100623891933537e+02,7.333856296542835480e+02,1.057012341984800514e+02,9.743760050350601887e+02,-1.528179658930612277e+02,-1.269043982246093947e+02,9.484992027282714844e+00,-7.266727685928344727e-01,-9.943943619728088379e-01,4.480000000000000000e+02
-4.987396865575419724e+02,-5.088846976790268855e+02,-1.266659777100280735e+02,7.263511841313074910e+02,1.056082447400376623e+02,9.668338856446007412e+02,-1.501596631784341298e+02,-1.232269307960259539e+02,9.484992027282714844e+00,-7.266727685928344727e-01,-9.943943619728088379e-01,4.490000000000000000e+02
-4.935398402386226735e+02,-5.032833074757450049e+02,-1.247391752708613240e+02,7.187945688096533559e+02,1.052897852205496747e+02,9.594245370792414178e+02,-1.484913598705088589e+02,-1.190673967354518936e+02,9.484992027282714844e+00,-7.266727685928344727e-01,-9.943943619728088379e-01,4.500000000000000000e+02
-4.897423049678045572e+02,-4.993059225340248304e+02,-1.236350495043720912e+02,7.114973604406131926e+02,1.055296288551398902e+02,9.517635509850606468e+02,-1.475639857351220599e+02,-1.155451246313718912e+02,9.484992027282714844e+00,-7.266727685928344727e-01,-9.943943619728088379e-01,4.510000000000000000e+02
-4.867188192636244821e+02,-4.971982779589002348e+02,-1.223646888464090807e+02,7.051102153242291024e+02,1.067849485251290389e+02,9.435953736227784248e+02,-1.465510799083149323e+02,-1.130271886139175876e+02,9.484992027282714844e+00,-7.266727685928344727e-01,-9.943943619728088379e-01,4.520000000000000000e+02
-4.833182288862490168e+02,-4.956558474705657318e+02,-1.201822610395047377e+02,6.998656281013118132e+02,1.089306643146610440e+02,9.350983939379211733e+02,-1.445827855696561528e+02,-1.111088882800454485e+02,9.484992027282714844e+00,-7.266727685928344727e-01,-9.943943619728088379e-01,4.530000000000000000e+02
-4.787973364624963324e+02,-4.926787439989698214e+02,-1.172984866721785693e+02,6.955409305003504414e+02,1.113910756145978667e+02,9.267870474064284281e+02,-1.413979723538182043e+02,-1.092714136832064469e+02,9.484992027282714844e+00,-7.266727685928344727e-01,-9.943943619728088379e-01,4.540000000000000000e+02
-4.733647146262755996e+02,-4.870908544446551787e+02,-1.147101767734370696e+02,6.916144519679073710e+02,1.134763480604815413e+02,9.190410205178395699e+02,-1.376149917195957642e+02,-1.075441880576017866e+02,9.484992027282714844e+00,-7.266727685928344727e-01,-9.943943619728088379e-01,4.550000000000000000e+02
-4.678975198990206081e+02,-4.794234424567293900e+02,-1.132667240409305123e+02,6.875138768621518466e+02,1.147071082062293499e+02,9.117344990325964318e+02,-1.343380041906625593e+02,-1.064670117120012947e+02,9.484992027282714844e+00,-7.266727685928344727e-01,-9.943943619728088379e-01,4.560000000000000000e+02
-4.631136379972454051e+02,-4.714103273724649625e+02,-1.127792261492950274e+02,6.828779112652355252e+02,1.150221990542468120e+02,9.044011467832133349e+02,-1.323265758135776196e+02,-1.063579650880424197e+02,9.484992027282714844e+00,-7.266727685928344727e-01,-9.943943619728088379e-01,4.570000000000000000e+02
-4.589208540151989837e+02,-4.645782721847217545e+02,-1.119500875340504535e+02,6.777142927873646840e+02,1.147876799095565730e+02,8.967953097743575199e+02,-1.313587031170645787e+02,-1.066314693017839090e+02,9.484992027282714844e+00,-7.266727685928344727e-01,-9.943943619728088379e-01,4.580000000000000000e+02
-4.544821137454846394e+02,-4.592057523023809154e+02,-1.092273865266793109e+02,6.723327016673583785e+02,1.145573668637916853e+02,8.892362061314697712e+02,-1.303095966561327259e+02,-1.059481489408594825e+02,9.484992027282714844e+00,-7.266727685928344727e-01,-9.943943619728088379e-01,4.590000000000000000e+02
-4.489280608934918746e+02,-4.545106876823042512e+02,-1.039372032308174312e+02,6.670591908014393994e+02,1.146906871098426564e+02,8.823193141919509799e+02,-1.279227061433971357e+02,-1.032160455830371575e+02,9.484992027282714844e+00,-7.266727685928344727e-01,-9.943943619728088379e-01,4.600000000000000000e+02
-4.421263953456696072e+02,-4.497313225502175555e+02,-9.683444447721512915e+01,6.619525020903865880e+02,1.151136675613834086e+02,8.762727566471003229e+02,-1.236999728201067228e+02,-9.861590119330185189e+01,9.484992027282714844e+00,-7.266727685928344727e-01,-9.943943619728088379e-01,4.610000000000000000e+02
-4.349101075010426030e+02,-4.449730323952430808e+02,-8.971419626165197769e+01,6.567754348381004093e+02,1.154362329933665023e+02,8.706297251699716071e+02,-1.182857108620928557e+02,-9.373535238333988673e+01,9.484992027282714844e+00,-7.649186849594116211e-01,-9.561483860015869141e-01,4.620000000000000000e+02
-4.286094586602698655e+02,-4.410054961932637525e+02,-8.441076963008254097e+01,6.512527542653097044e+02,1.153125468404250569e+02,8.645719760487681924e+02,-1.131024291487669871e+02,-9.060090135121117783e+01,9.484992027282714844e+00,-7.649186849594116211e-01,-9.561483860015869141e-01,4.630000000000000000e+02
-4.242366465920463270e+02,-4.382870021632434145e+02,-8.185635791013874041e+01,6.453690837671783811e+02,1.146929982679757813e+02,8.576004842377888053e+02,-1.095129126865858780e+02,-9.032194271658318030e+01,9.484992027282714844e+00,-7.649186849594116211e-01,-9.561483860015869141e-01,4.640000000000000000e+02
-4.218970671703177686e+02,-4.362691371750634062e+02,-8.171341792663770320e+01,6.394132805592034856e+02,1.137675261134445464e+02,8.498819238647338352e+02,-1.080587018101887224e+02,-9.237692237600458611e+01,9.484992027282714844e+00,-7.649186849594116211e-01,-9.561483860015869141e-01,4.650000000000000000e+02
-4.207962024620537704e+02,-4.337272461158031547e+02,-8.264700671364607842e+01,6.337370186392927280e+02,1.127649712598777114e+02,8.420067029664778602e+02,-1.082030786492459811e+02,-9.499892138852192147e+01,9.484992027282714844e+00,-7.649186849594116211e-01,-9.561483860015869141e-01,4.660000000000000000e+02
-4.197708123982934012e+02,-4.298261583643597987e+02,-8.298171132848983689e+01,6.284788255807752648e+02,1.118876037510081005e+02,8.344826221408548008e+02,-1.086785077541362625e+02,-9.630189040045752336e+01,9.484992027282714844e+00,-7.649186849594116211e-01,-9.561483860015869141e-01,4.670000000000000000e+02
-4.179233680610841475e+02,-4.249141696291781045e+02,-8.142450228906136545e+01,6.234896785198952784e+02,1.113818526242794178e+02,8.274360986479259736e+02,-1.082152373934218303e+02,-9.536095318674369992e+01,9.484992027282714844e+00,-7.649186849594116211e-01,-9.561483860015869141e-01,4.680000000000000000e+02
-4.149282694647135941e+02,-4.202940574351073337e+02,-7.758804798970777483e+01,6.184799865218064951e+02,1.114918857828133696e+02,8.206643560455704574e+02,-1.062380446875413327e+02,-9.264238827808276255e+01,9.484992027282714844e+00,-7.649186849594116211e-01,-9.561483860015869141e-01,4.690000000000000000e+02
-4.109037269253744853e+02,-4.171642979467187615e+02,-7.212446779631773097e+01,6.132184032308523456e+02,1.121897362049330695e+02,8.138392712671484333e+02,-1.031437816707693855e+02,-8.966137751249289067e+01,9.484992027282714844e+00,-7.649186849594116211e-01,-9.561483860015869141e-01,4.700000000000000000e+02
-4.061019301144765450e+02,-4.156601974079148931e+02,-6.636930967912030610e+01,6.076268892175185101e+02,1.129694408869572726e+02,8.066638385667320108e+02,-1.000057883111703632e+02,-8.810065143569568136e+01,9.484992027282714844e+00,-7.649186849594116211e-01,-9.561483860015869141e-01,4.710000000000000000e+02
-4.007625097395844023e+02,-4.147692401169583718e+02,-6.161879082306859345e+01,6.017726752441230929e+02,1.130909347392762356e+02,7.990002056927369267e+02,-9.788315353543475794e+01,-8.879477001992995611e+01,9.484992027282714844e+00,-7.649186849594116211e-01,-9.561483860015869141e-01,4.720000000000000000e+02
-3.952302126717922874e+02,-4.131081096367947794e+02,-5.842135539883520323e+01,5.958228600629790890e+02,1.121948821188852889e+02,7.910240381362491462e+02,-9.714644955093899625e+01,-9.106945391923500210e+01,9.484992027282714844e+00,-7.649186849594116211e-01,-9.561483860015869141e-01,4.730000000000000000e+02
-3.900950069604289183e+02,-4.098889981952638664e+02,-5.635130216604602538e+01,5.899877506640186766e+02,1.107222248621374092e+02,7.832916360127401276e+02,-9.723522983791008301e+01,-9.292949510262360491e+01,9.484992027282714844e+00,-7.649186849594116211e-01,-9.561483860015869141e-01,4.740000000000000000e+02
-3.860493803322265194e+02,-4.053805739011936566e+02,-5.444861900945443267e+01,5.844406353347840195e+02,1.096576269860415778e+02,7.765270801877613849e+02,-9.701936018616015645e+01,-9.224139368062333233e+01,9.484992027282714844e+00,-7.649186849594116211e-01,-9.561483860015869141e-01,4.750000000000000000e+02
-3.834494491193072463e+02,-4.006697985289360986e+02,-5.198927763849110306e+01,5.792338184709742563e+02,1.097725759101722360e+02,7.711595637123309643e+02,-9.556257588566495542e+01,-8.831442816940648299e+01,9.484992027282714844e+00,-7.649186849594116211e-01,-9.561483860015869141e-01,4.760000000000000000e+02
-3.819368215522415539e+02,-3.970154187825164627e+02,-4.896149553630516493e+01,5.742770562401146890e+02,1.110578798843380355e+02,7.669562863608925909e+02,-9.280656923096967148e+01,-8.270399872282882825e+01,9.484992027282714844e+00,-7.649186849594116211e-01,-9.561483860015869141e-01,4.770000000000000000e+02
-3.805134033072656621e+02,-3.951993609943037882e+02,-4.585408128542258055e+01,5.694004507389581704e+02,1.128181118430647984e+02,7.630955246823377820e+02,-8.968951829635443573e+01,-7.836654720056776569e+01,9.484992027282714844e+00,-7.649186849594116211e-01,-9.561483860015869141e-01,4.780000000000000000e+02
-3.781036765458591162e+02,-3.951342503287501131e+02,-4.299496792970762726e+01,5.644596577182528563e+02,1.142442605600590468e+02,7.586697095352983524e+02,-8.753520234716825144e+01,-7.754694001660664071e+01,9.484992027282714844e+00,-7.649186849594116211e-01,-9.561483860015869141e-01,4.790000000000000000e+02
-3.742096438942735404e+02,-3.958441839635102042e+02,-4.013141524066577404e+01,5.594040810064561811e+02,1.148838339610456387e+02,7.532274345862861082e+02,-8.708433307377981691e+01,-8.002161058712636077e+01,9.484992027282714844e+00,-7.649186849594116211e-01,-9.561483860015869141e-01,4.800000000000000000e+02
-3.691667186268957721e+02,-3.958371459253476132e+02,-3.670461456417024237e+01,5.542818462299346720e+02,1.146968066535600883e+02,7.469530267235713836e+02,-8.788119567279272815e+01,-8.324809885337776905e+01,9.484992027282714844e+00,-7.649186849594116211e-01,-9.561483860015869141e-01,4.810000000000000000e+02
-3.638546056571985901e+02,-3.937811794673743861e+02,-3.257851501646314318e+01,5.492069706013326140e+02,1.138774436201383651e+02,7.404207001112245052e+02,-8.856923338018009417e+01,-8.444129190541821117e+01,9.484992027282714844e+00,-7.649186849594116211e-01,-9.561483860015869141e-01,4.820000000000000000e+02
-3.591468403349022083e+02,-3.891728849323194481e+02,-2.848614601823328485e+01,5.443058383903789945e+02,1.127193942770072681e+02,7.341715948017263145e+02,-8.796035022929208935e+01,-8.286546001092892766e+01,9.484992027282714844e+00,-7.649186849594116211e-01,-9.561483860015869141e-01,4.830000000000000000e+02
-3.555045686851767641e+02,-3.825714202968590598e+02,-2.565487870431661577e+01,5.396643088047048877e+02,1.115763493835411282e+02,7.284428095134271643e+02,-8.601105672959783988e+01,-8.032319839874412537e+01,9.484992027282714844e+00,-7.649186849594116211e-01,-9.561483860015869141e-01,4.840000000000000000e+02
-3.528814975750697158e+02,-3.752068506979717313e+02,-2.483637024875724819e+01,5.353014943939870136e+02,1.107500188409289876e+02,7.231777360906435206e+02,-8.380913531120586413e+01,-7.940529958031083879e+01,9.484992027282714844e+00,-7.649186849594116211e-01,-9.561483860015869141e-01,4.850000000000000000e+02
-3.508023244256908129e+02,-3.682430158183642561e+02,-2.554034969358713170e+01,5.311950512934472499e+02,1.102640496549670388e+02,7.182153388103288307e+02,-8.249546435986121651e+01,-8.109691026692144078e+01,9.484992027282714844e+00,-7.649186849594116211e-01,-9.561483860015869141e-01,4.860000000000000000e+02
-3.484810396013813261e+02,-3.622589222230824362e+02,-2.614335562260134793e+01,5.273349156266021964e+02,1.097581280765934935e+02,7.134696947714073758e+02,-8.207720321553370013e+01,-8.389372359787171263e+01,9.484992027282714844e+00,-7.649186849594116211e-01,-9.561483860015869141e-01,4.870000000000000000e+02
-3.450337566398925446e+02,-3.572820488876723175e+02,-2.484231510185554725e+01,5.237286321498868347e+02,1.086951389470068534e+02,7.089629114027238757e+02,-8.129657744813744102e+01,-8.514216493006279052e+01,9.484992027282714844e+00,-7.649186849594116211e-01,-9.561483860015869141e-01,4.880000000000000000e+02
-3.399009128931168107e+02,-3.531958264756735844e+02,-2.076549588688999393e+01,5.203331703457606636e+02,1.067559925913838015e+02,7.047140561815522233e+02,-7.878904381614347585e+01,-8.328493439149792721e+01,9.446745872497558594e+00,-7.649186849594116211e-01,-1.070886254310607910e+00,4.890000000000000000e+02
-3.333435576520655559e+02,-3.500127551786631557e+02,-1.447510355672352489e+01,5.170112563978937033e+02,1.040687305289607139e+02,7.006100351381255678e+02,-7.450140671569670303e+01,-7.898773861174299782e+01,9.446745872497558594e+00,-7.649186849594116211e-01,-1.070886254310607910e+00,4.900000000000000000e+02
-3.265565697078843641e+02,-3.477103917706499487e+02,-7.560239435814537501e+00,5.136315962419816969e+02,1.010610939454149957e+02,6.964005096025430248e+02,-6.998033772606072489e+01,-7.430008816235795166e+01,9.446745872497558594e+00,-7.649186849594116211e-01,-1.070886254310607910e+00,4.910000000000000000e+02
-3.210439882982545896e+02,-3.458722285441126587e+02,-1.633783334898225803e+00,5.102811195264266644e+02,9.809605612033737998e+01,6.918526656482927137e+02,-6.713207531410466800e+01,-7.083645483365535256e+01,9.446745872497558594e+00,-7.649186849594116211e-01,-1.070886254310607910e+00,4.920000000000000000e+02
-3.175321624839352808e+02,-3.436586246144120196e+02,2.607714449639615850e+00,5.073578802352672028e+02,9.522038596921129283e+01,6.869341750254388899e+02,-6.652988797751368111e+01,-6.870152692381043380e+01,9.446745872497558594e+00,-7.649186849594116211e-01,-1.070886254310607910e+00,4.930000000000000000e+02
-3.152950522449662003e+02,-3.403153376322870827e+02,5.675307523481023964e+00,5.053524405944590399e+02,9.221770014230014567e+01,6.818573350372175810e+02,-6.683288384608727029e+01,-6.696039607351917766e+01,9.446745872497558594e+00,-7.649186849594116211e-01,-1.070886254310607910e+00,4.940000000000000000e+02
-3.126270808943877455e+02,-3.358335250333147997e+02,8.757810669116224744e+00,5.044249051991791930e+02,8.888043501953279701e+01,6.769540451480411321e+02,-6.587663850452213410e+01,-6.492919013664459271e+01,9.446745872497558594e+00,-7.649186849594116211e-01,-1.070886254310607910e+00,4.950000000000000000e+02
-3.082505901150609589e+02,-3.310996065635727064e+02,1.272776127268298296e+01,5.041426584288187769e+02,8.525651338903662690e+01,6.725002127896182174e+02,-6.247721623224970244e+01,-6.293844767594862333e+01,9.446745872497558594e+00,-7.649186849594116211e-01,-1.070886254310607910e+00,4.960000000000000000e+02
-3.024933450124856336e+02,-3.272549862708707451e+02,1.738345524391525032e+01,5.036549423949491029e+02,8.169151937521473883e+01,6.686258571725147704e+02,-5.737606126621153635e+01,-6.195043659852888140e+01,9.446745872497558594e+00,-7.649186849594116211e-01,-1.070886254310607910e+00,4.970000000000000000e+02
-2.971177653611076721e+02,-3.247341887273067869e+02,2.151927072653938922e+01,5.021672053060938197e+02,7.863116191376093411e+01,6.653103360247055207e+02,-5.261884822237277604e+01,-6.259998798720084778e+01,9.446745872497558594e+00,-7.649186849594116211e-01,-1.070886254310607910e+00,4.980000000000000000e+02
-2.938300211760412139e+02,-3.228145504377207544e+02,2.384498491442604973e+01,4.993135675890462153e+02,7.631100555608691138e+01,6.623808903917160933e+02,-5.004345477133495024e+01,-6.463567295595839823e+01,9.446745872497558594e+00,-7.649186849594116211e-01,-1.070886254310607910e+00,4.990000000000000000e+02
-2.927432854261105604e+02,-3.201336474708840569e+02,2.407711422046327243e+01,4.951850435096357614e+02,7.457948929343888267e+01,6.595091164429977653e+02,-5.014995697210883918e+01,-6.715128544225990481e+01,9.446745872497558594e+00,-7.649186849594116211e-01,-1.070886254310607910e+00,5.000000000000000000e+02
-2.922276925071556661e+02,-3.158008774920012911e+02,2.329501692646624633e+01,4.901404501742763387e+02,7.304244893905161007e+01,6.563035757960028604e+02,-5.207320438603687762e+01,-6.917295125512100640e+01,9.446745872497558594e+00,-7.649186849594116211e-01,-1.070886254310607910e+00,5.010000000000000000e+02
-2.903313751885034435e+02,-3.101623342542427508e+02,2.322825668988650705e+01,4.846751273803706681e+02,7.148018215617730675e+01,6.525415208367321611e+02,-5.433675765221437359e+01,-6.995890531679970081e+01,9.446745872497558594e+00,-7.649186849594116211e-01,-1.070886254310607910e+00,5.020000000000000000e+02
-2.864804103674615590e+02,-3.045444739615563776e+02,2.503775435050329179e+01,4.793902236945732511e+02,7.017485923297294903e+01,6.483766635057918393e+02,-5.560978376831633341e+01,-6.890780578552869429e+01,9.446745872497558594e+00,-7.649186849594116211e-01,-1.070886254310607910e+00,5.030000000000000000e+02
-2.818799810231441825e+02,-3.001753636774066081e+02,2.858287272371711651e+01,4.748620447612076987e+02,6.977404349775588344e+01,6.442862964180199015e+02,-5.507687665975720392e+01,-6.555716147392092807e+01,9.446745872497558594e+00,-7.649186849594116211e-01,-1.070886254310607910e+00,5.040000000000000000e+02
-2.782704077489823362e+02,-2.971991663179257444e+02,3.273382760621325360e+01,4.713073230247766787e+02,7.072989966073180312e+01,6.407252860476723981e+02,-5.256013907095234572e+01,-6.002122485361672943e+01,9.446745872497558594e+00,-7.649186849594116211e-01,-1.070886254310607910e+00,5.050000000000000000e+02
-2.762513413518398124e+02,-2.946260395372322591e+02,3.637231483740629301e+01,4.682882442642403475e+02,7.277913539540816146e+01,6.377664048582886380e+02,-4.860234312382533517e+01,-5.352096671950187101e+01,9.446745872497558594e+00,-7.649186849594116211e-01,-1.070886254310607910e+00,5.060000000000000000e+02
-2.747819342195909371e+02,-2.912607425359989293e+02,3.916702138391309518e+01,4.648532688532978909e+02,7.499849880371004929e+01,6.350706095101248820e+02,-4.440516239690126099e+01,-4.823623450343782793e+01,9.446745872497558594e+00,-7.649186849594116211e-01,-1.070886254310607910e+00,5.070000000000000000e+02
-2.723039941546576301e+02,-2.868261682532295822e+02,4.149896143968376805e+01,4.601616769765992103e+02,7.647278485881406596e+01,6.322025205382801687e+02,-4.138351304522814189e+01,-4.617872625547840926e+01,9.446745872497558594e+00,-7.649186849594116211e-01,-1.070886254310607910e+00,5.080000000000000000e+02
-2.683552260310640349e+02,-2.823179868906676688e+02,4.377286616572420996e+01,4.541454705007457733e+02,7.702805915515351387e+01,6.289844229638075603e+02,-4.040795408702780378e+01,-4.777712029509595482e+01,9.446745872497558594e+00,-7.649186849594116211e-01,-1.070886254310607910e+00,5.090000000000000000e+02
-2.640940023143828626e+02,-2.792893964017826534e+02,4.588333872718803264e+01,4.476396328328088998e+02,7.738236597012374318e+01,6.255752122741512267e+02,-4.125100888959991607e+01,-5.138008367806610011e+01,9.446745872497558594e+00,-7.649186849594116211e-01,-1.070886254310607910e+00,5.100000000000000000e+02
-2.612387246977186805e+02,-2.786518765005343425e+02,4.735653478037431796e+01,4.418258562246832071e+02,7.855799523110260907e+01,6.222637243610473661e+02,-4.274450072003190826e+01,-5.427307374375158133e+01,9.446745872497558594e+00,-7.649186849594116211e-01,-1.070886254310607910e+00,5.110000000000000000e+02
-2.604665517366457834e+02,-2.799418094956779441e+02,4.795648479742536097e+01,4.374106007047969342e+02,8.103083774663241456e+01,6.192292496577191514e+02,-4.357851191797777801e+01,-5.452285594418435721e+01,9.446745872497558594e+00,-7.649186849594116211e-01,-1.070886254310607910e+00,5.120000000000000000e+02
-2.607868193901629184e+02,-2.815898008259853214e+02,4.806677335646298843e+01,4.341575094978477409e+02,8.429190535523787275e+01,6.164679585907988439e+02,-4.312223080222065619e+01,-5.220063956405169847e+01,9.446745872497558594e+00,-7.649186849594116211e-01,-1.070886254310607910e+00,5.130000000000000000e+02
-2.604194163494234431e+02,-2.819436537985819768e+02,4.841264953496767021e+01,4.310909410219701385e+02,8.719069743413479046e+01,6.138676373624391545e+02,-4.166279624161336415e+01,-4.903929998727033990e+01,9.446745872497558594e+00,-7.649186849594116211e-01,-1.070886254310607910e+00,5.140000000000000000e+02
-2.583006478657113121e+02,-2.802646983666621736e+02,4.938066876338916700e+01,4.271824188505038364e+02,8.885276027662280285e+01,6.113035916527355766e+02,-3.998268487358632228e+01,-4.691628338899033679e+01,9.446745872497558594e+00,-7.649186849594116211e-01,-1.070886254310607910e+00,5.150000000000000000e+02
-2.548322215703433358e+02,-2.770295360293594058e+02,5.062206624347345496e+01,4.220370655156166322e+02,8.950507467038619325e+01,6.086930803334116717e+02,-3.874159355759798018e+01,-4.649521006370230225e+01,9.446745872497558594e+00,-7.649186849594116211e-01,-1.070886254310607910e+00,5.160000000000000000e+02
-2.512927569209213061e+02,-2.734439253374047212e+02,5.137664719223744214e+01,4.161605786053687552e+02,9.051427966744449805e+01,6.060456589050818366e+02,-3.815846543992483930e+01,-4.706273383045618175e+01,9.446745872497558594e+00,-7.649186849594116211e-01,-1.070886254310607910e+00,5.170000000000000000e+02
-2.485928067356654765e+02,-2.705988897263539457e+02,5.126116051395524664e+01,4.106636943923435865e+02,9.339991936470460132e+01,6.034973895926791556e+02,-3.809241737335560174e+01,-4.744054110577928896e+01,9.446745872497558594e+00,-7.649186849594116211e-01,-1.070886254310607910e+00,5.180000000000000000e+02
-2.465726199802943484e+02,-2.688583692091031025e+02,5.076044656005501565e+01,4.065906153897826698e+02,9.838682849463566527e+01,6.012485765761384755e+02,-3.825880057660037892e+01,-4.699078176681075547e+01,9.446745872497558594e+00,-7.649186849594116211e-01,-1.070886254310607910e+00,5.190000000000000000e+02
-2.443877936643957582e+02,-2.677943922826334529e+02,5.089852888147652266e+01,4.042898423975129845e+02,1.036176336523631107e+02,5.993925881888085314e+02,-3.833376085863346816e+01,-4.586366249882848933e+01,9.484992027282714844e+00,-8.031646609306335449e-01,-9.561483860015869141e-01,5.200000000000000000e+02
-2.414665737572943272e+02,-2.665818781583043346e+02,5.230275553302362823e+01,4.032391924468970501e+02,1.058598136942823658e+02,5.977757388033915049e+02,-3.797886091790928731e+01,-4.450347137543917597e+01,9.484992027282714844e+00,-8.031646609306335449e-01,-9.561483860015869141e-01,5.210000000000000000e+02
-2.380696012709383922e+02,-2.645210999931455262e+02,5.448241137670015632e+01,4.024558417791140528e+02,1.024415471195179634e+02,5.960610075059166775e+02,-3.694315982312900815e+01,-4.307627055147690953e+01,9.484992027282714844e+00,-8.031646609306335449e-01,-9.561483860015869141e-01,5.220000000000000000e+02
-2.349613597075669986e+02,-2.613591512418547609e+02,5.603424247190332608e+01,4.012008046935598031e+02,9.305119726377233746e+01,5.939788888580160346e+02,-3.523425534890748168e+01,-4.135354644440849370e+01,9.484992027282714844e+00,-8.031646609306335449e-01,-9.561483860015869141e-01,5.230000000000000000e+02
-2.325907037235126609e+02,-2.572908871603865464e+02,5.567556523504572397e+01,3.994534979149457286e+02,8.000555691351928544e+01,5.915439905028915746e+02,-3.315564791803126354e+01,-3.899004160262256846e+01,9.484992027282714844e+00,-8.031646609306335449e-01,-9.561483860015869141e-01,5.240000000000000000e+02
-2.306148549974002435e+02,-2.527596589276677150e+02,5.323436562508913994e+01,3.978150414808087589e+02,6.680094846073279768e+01,5.890397288858748652e+02,-3.107464641652359205e+01,-3.580626613326580809e+01,9.484992027282714844e+00,-8.031646609306335449e-01,-9.561483860015869141e-01,5.250000000000000000e+02
-2.282221037475012508e+02,-2.482697518965760537e+02,4.971016098597647215e+01,3.969489119383233628e+02,5.613302947198280890e+01,5.867921066655699178e+02,-2.909775773177443625e+01,-3.186780623502909293e+01,9.484992027282714844e+00,-8.031646609306335449e-01,-9.561483860015869141e-01,5.260000000000000000e+02
-2.249332348862440085e+02,-2.443093737084723216e+02,4.635597714142886616e+01,3.970337283027283775e+02,4.886196623478099355e+01,5.849432017677399926e+02,-2.697819533582469376e+01,-2.743457342317537950e+01,9.484992027282714844e+00,-8.031646609306335449e-01,-9.561483860015869141e-01,5.270000000000000000e+02
-2.211146670877351426e+02,-2.413167733629315990e+02,4.364894296281772768e+01,3.976440120965289680e+02,4.438058199446368235e+01,5.833774458039679303e+02,-2.438574859782420390e+01,-2.290786000854632221e+01,9.484992027282714844e+00,-8.031646609306335449e-01,-9.561483860015869141e-01,5.280000000000000000e+02
-2.177223042392788557e+02,-2.395791813485452622e+02,4.111170181194302131e+01,3.981107458583264815e+02,4.163896798931546073e+01,5.817905769915760175e+02,-2.128170020912693872e+01,-1.872769705643304405e+01,9.484992027282714844e+00,-8.031646609306335449e-01,-9.561483860015869141e-01,5.290000000000000000e+02
-2.155037192696613602e+02,-2.390621927583588331e+02,3.811231400085853238e+01,3.980540372559189564e+02,3.983861667712335475e+01,5.798212881955478224e+02,-1.800470835373880618e+01,-1.510310081272655225e+01,9.484992027282714844e+00,-8.031646609306335449e-01,-9.561483860015869141e-01,5.300000000000000000e+02
-2.143663980181354418e+02,-2.393147838983668407e+02,3.480309011816825659e+01,3.976867756563278817e+02,3.853700106054839125e+01,5.772087604082516918e+02,-1.496581213849367487e+01,-1.170190685449324519e+01,9.484992027282714844e+00,-8.031646609306335449e-01,-9.561483860015869141e-01,5.310000000000000000e+02
-2.134568238997676417e+02,-2.395970221421539463e+02,3.219605730859893811e+01,3.976682241226244514e+02,3.758481044054224185e+01,5.739569114493442612e+02,-1.226047326145317129e+01,-7.682917564511171804e+00,9.484992027282714844e+00,-8.031646609306335449e-01,-9.561483860015869141e-01,5.320000000000000000e+02
-2.118702657459261900e+02,-2.391882420371362059e+02,3.122829716484966411e+01,3.985934323449364456e+02,3.720183063712556759e+01,5.704031548443144857e+02,-9.621021050866147561e+00,-2.276481522268568369e+00,9.484992027282714844e+00,-8.031646609306335449e-01,-9.561483860015869141e-01,5.330000000000000000e+02
-2.093546824335890051e+02,-2.376380668227984643e+02,3.174941917503747391e+01,4.004851680909250717e+02,3.798416706705393153e+01,5.670820141703297850e+02,-6.757634874695213512e+00,4.455082280553142482e+00,9.484992027282714844e+00,-8.031646609306335449e-01,-9.561483860015869141e-01,5.340000000000000000e+02
-2.064142899895623486e+02,-2.347964349331991798e+02,3.248632392246372547e+01,4.027029155114614696e+02,4.050486826287487929e+01,5.644085734714099090e+02,-3.718727775913976075e+00,1.136776108568483323e+01,9.484992027282714844e+00,-8.031646609306335449e-01,-9.561483860015869141e-01,5.350000000000000000e+02
-2.037740425894153304e+02,-2.306977994925864550e+02,3.210299558723863811e+01,4.044260857158187719e+02,4.469716912327567115e+01,5.624137747010736348e+02,-8.878632665537224966e-01,1.686301886408591599e+01,9.484992027282714844e+00,-8.031646609306335449e-01,-9.561483860015869141e-01,5.360000000000000000e+02
-2.017335631312980695e+02,-2.255314229670966597e+02,3.038185872403028043e+01,4.053943381698863959e+02,4.967577048498060321e+01,5.607690194195365621e+02,1.370615881774483569e+00,1.998410105987477436e+01,9.484992027282714844e+00,-8.031646609306335449e-01,-9.561483860015869141e-01,5.370000000000000000e+02
-1.999910831950269312e+02,-2.197807546551766791e+02,2.839970611317767180e+01,4.062806639670307050e+02,5.432288073711970355e+01,5.590700086302422278e+02,3.023146358349549701e+00,2.109404142777702873e+01,9.484992027282714844e+00,-8.031646609306335449e-01,-9.561483860015869141e-01,5.380000000000000000e+02
-1.980276930806357996e+02,-2.143346969021749828e+02,2.754629348792241217e+01,4.082802547224200680e+02,5.815098558134195628e+01,5.571136175143674336e+02,4.311272488575013995e+00,2.156516026577583034e+01,9.484992027282714844e+00,-8.031646609306335449e-01,-9.561483860015869141e-01,5.390000000000000000e+02
-1.956274512816244169e+02,-2.102707564113607077e+02,2.834638387168843110e+01,4.121515018800928374e+02,6.158823577634575486e+01,5.549397160102453199e+02,5.427739209018000111e+00,2.275311178411175206e+01,9.484992027282714844e+00,-8.031646609306335449e-01,-9.561483860015869141e-01,5.400000000000000000e+02
-1.930323284053765747e+02,-2.082907118450393682e+02,3.019038548345270101e+01,4.174970035273036046e+02,6.539596409985642822e+01,5.526733108174521476e+02,6.335713311351355514e+00,2.511767658941016634e+01,9.446745872497558594e+00,-8.031646609306335449e-01,-9.179025292396545410e-01,5.410000000000000000e+02
-1.906391990359770716e+02,-2.082122076731520792e+02,3.210891056072523497e+01,4.229576160126689501e+02,6.985123294619006629e+01,5.503822297760088986e+02,6.964448491340590408e+00,2.814058299540556618e+01,9.446745872497558594e+00,-8.031646609306335449e-01,-9.179025292396545410e-01,5.420000000000000000e+02
-1.886031819916279346e+02,-2.090010077254401040e+02,3.369779270307117258e+01,4.272193301078259537e+02,7.457163530551224540e+01,5.480743432663221029e+02,7.558306125891249394e+00,3.093959927893047279e+01,9.446745872497558594e+00,-8.031646609306335449e-01,-9.179025292396545410e-01,5.430000000000000000e+02
-1.867508707906845302e+02,-2.093987981158516050e+02,3.526910847015096806e+01,4.300171634416910820e+02,7.917795309689972783e+01,5.457669691105038510e+02,8.734384147282980848e+00,3.296486113310947985e+01,9.446745872497558594e+00,-8.031646609306335449e-01,-9.179025292396545410e-01,5.440000000000000000e+02
-1.848349754669925460e+02,-2.086589722891494603e+02,3.720165031548367551e+01,4.323308336739792139e+02,8.409000116882816656e+01,5.435111696338062757e+02,1.107124390999615571e+01,3.425282097919171065e+01,9.446745872497558594e+00,-8.031646609306335449e-01,-9.179025292396545410e-01,5.450000000000000000e+02
-1.828023207397545775e+02,-2.067862248099727367e+02,3.930272686387252179e+01,4.356780699246846780e+02,9.056252761228824966e+01,5.413592089276062325e+02,1.454105106685983628e+01,3.520845874491806171e+01,9.446745872497558594e+00,-8.031646609306335449e-01,-9.179025292396545410e-01,5.460000000000000000e+02
-1.807797732254412040e+02,-2.041545955678366226e+02,4.089926665507118742e+01,4.411539266743584449e+02,9.977481657303542306e+01,5.393496124357479857e+02,1.832987968572888349e+01,3.624535250068583991e+01,9.446745872497558594e+00,-8.031646609306335449e-01,-9.179025292396545410e-01,5.470000000000000000e+02
-1.788505287547050102e+02,-2.009814165413572482e+02,4.150781288442794903e+01,4.489429404372895078e+02,1.116732240918954631e+02,5.375137180859783257e+02,2.128460880112288578e+01,3.755819308951959101e+01,9.446745872497558594e+00,-8.031646609306335449e-01,-9.179025292396545410e-01,5.480000000000000000e+02
-1.769464337051085749e+02,-1.972191788909749448e+02,4.129667061308464326e+01,4.584938008395292854e+02,1.245570021836447268e+02,5.358452819179292419e+02,2.267915025204911217e+01,3.907731061977301579e+01,9.446745872497558594e+00,-8.031646609306335449e-01,-9.179025292396545410e-01,5.490000000000000000e+02
-1.750115682360928986e+02,-1.929063286587152106e+02,4.085328441328510962e+01,4.689883014786355488e+02,1.358381227022800886e+02,5.342338876999965578e+02,2.270841949009354721e+01,4.055664559294018545e+01,9.446745872497558594e+00,-8.031646609306335449e-01,-9.179025292396545410e-01,5.500000000000000000e+02
-1.732099459523624319e+02,-1.884801915101597842e+02,4.058498921545833582e+01,4.796397663717361866e+02,1.434970532072729839e+02,5.324718266779746045e+02,2.233818542068183888e+01,4.177415847102747648e+01,9.446745872497558594e+00,-8.031646609306335449e-01,-9.179025292396545410e-01,5.510000000000000000e+02
-1.718369336081177607e+02,-1.845985176773210696e+02,4.046852241953365592e+01,4.897147100029178546e+02,1.472307712472938874e+02,5.304116641326727404e+02,2.264293281605387165e+01,4.279540534467105317e+01,9.446745872497558594e+00,-8.031646609306335449e-01,-9.179025292396545410e-01,5.520000000000000000e+02
-1.709375169982167790e+02,-1.815959088361796603e+02,4.038603476766456879e+01,4.985178594281205733e+02,1.484893094579656463e+02,5.281398227984136611e+02,2.411462588968970522e+01,4.408362349518847623e+01,9.446745872497558594e+00,-8.031646609306335449e-01,-9.179025292396545410e-01,5.530000000000000000e+02
-1.700375217849104956e+02,-1.791753751220021513e+02,4.054920294469957298e+01,5.055737980929407058e+02,1.494157646029780153e+02,5.259467336899833754e+02,2.641024039643889409e+01,4.620722171177658311e+01,9.446745872497558594e+00,-8.031646609306335449e-01,-9.179025292396545410e-01,5.540000000000000000e+02
-1.683935231361119804e+02,-1.767419787018880015e+02,4.138540646322871908e+01,5.109598895501694642e+02,1.514900476682996668e+02,5.240632628274761373e+02,2.865086327086646634e+01,4.921225333059828699e+01,9.446745872497558594e+00,-8.031646609306335449e-01,-9.179025292396545410e-01,5.550000000000000000e+02
-1.656583311155973206e+02,-1.740737596750177545e+02,4.292373958350890462e+01,5.154990876857300464e+02,1.548236409987512161e+02,5.224176536773156840e+02,3.001188612663281674e+01,5.219032705338577216e+01,9.446745872497558594e+00,-8.031646609306335449e-01,-9.179025292396545410e-01,5.560000000000000000e+02
-1.623424281567113212e+02,-1.715970972299674031e+02,4.440314112239229871e+01,5.205546799271942291e+02,1.584714585442197858e+02,5.206886001012971974e+02,3.021359206645956874e+01,5.363194639632638427e+01,9.446745872497558594e+00,-8.031646609306335449e-01,-9.179025292396545410e-01,5.570000000000000000e+02
-1.595400127537977824e+02,-1.698993498649197136e+02,4.467298877579651162e+01,5.274333299549543881e+02,1.612966673449700465e+02,5.186110502156006987e+02,2.963598173429272720e+01,5.253105880439215980e+01,9.446745872497558594e+00,-8.031646609306335449e-01,-9.179025292396545410e-01,5.580000000000000000e+02
-1.580677435589541346e+02,-1.689454973305382737e+02,4.312721796616551728e+01,5.367157802952133352e+02,1.626074670116868219e+02,5.162102828990937269e+02,2.904763226660088549e+01,4.937730799884502630e+01,9.446745872497558594e+00,-8.031646609306335449e-01,-9.179025292396545410e-01,5.590000000000000000e+02
-1.577561131683742133e+02,-1.678512717716148472e+02,4.030719785175006109e+01,5.479426951159293822e+02,1.622057271234261862e+02,5.137285043997289904e+02,2.915653316658608674e+01,4.607081926547016337e+01,9.446745872497558594e+00,-8.031646609306335449e-01,-9.179025292396545410e-01,5.600000000000000000e+02
-1.575378154792251735e+02,-1.655495117918799224e+02,3.759557808352656139e+01,5.598719775082608976e+02,1.601325830295754713e+02,5.113624536043353146e+02,3.025936832856859837e+01,4.466361552562193538e+01,9.446745872497558594e+00,-8.031646609306335449e-01,-9.179025292396545410e-01,5.610000000000000000e+02
-1.562462755878314056e+02,-1.617518904869793914e+02,3.630256041034226655e+01,5.711422300734266173e+02,1.565844684294024773e+02,5.091313662150932942e+02,3.219359320287367154e+01,4.593303540314263955e+01,9.446745872497558594e+00,-8.031646609306335449e-01,-9.179025292396545410e-01,5.620000000000000000e+02
-1.534103696797556040e+02,-1.572615768794512405e+02,3.696345525388642272e+01,5.809074858292005956e+02,1.520555889381830639e+02,5.069839739249255217e+02,3.459092609620529402e+01,4.903015156076435233e+01,9.446745872497558594e+00,-8.031646609306335449e-01,-9.179025292396545410e-01,5.630000000000000000e+02
-1.494063182270947436e+02,-1.533048661084339983e+02,3.930832665550224192e+01,5.890760127886242117e+02,1.473558090463193366e+02,5.049418646692793118e+02,3.722441149143560324e+01,5.245519063965730311e+01,9.446745872497558594e+00,-8.031646609306335449e-01,-9.179025292396545410e-01,5.640000000000000000e+02
-1.449804557742882025e+02,-1.504868174094208371e+02,4.265487242442577553e+01,5.961247368389304029e+02,1.432689555413380731e+02,5.030575512236682698e+02,4.017096193220640998e+01,5.536591772601423145e+01,9.446745872497558594e+00,-8.031646609306335449e-01,-9.179025292396545410e-01,5.650000000000000000e+02
-1.406997301801220601e+02,-1.483278317206386419e+02,4.622032794144070067e+01,6.027393089736578986e+02,1.400734185911169334e+02,5.012414450646319892e+02,4.363610210154001834e+01,5.797368182900572720e+01,9.446745872497558594e+00,-6.884268522262573242e-01,-9.179025292396545410e-01,5.660000000000000000e+02
-1.367929774955919129e+02,-1.457442522078508773e+02,4.921806076059328916e+01,6.095487776103582291e+02,1.374204543118139554e+02,4.992360866089074989e+02,4.757511008322035195e+01,6.078489191010339709e+01,9.446745872497558594e+00,-6.884268522262573242e-01,-9.179025292396545410e-01,5.670000000000000000e+02
-1.333495948665113247e+02,-1.419678978998927050e+02,5.100269819476852717e+01,6.170004902211403532e+02,1.347290816286295012e+02,4.968359511207454489e+02,5.145553722580734757e+01,6.364523753600406053e+01,9.446745872497558594e+00,-6.884268522262573242e-01,-9.179025292396545410e-01,5.680000000000000000e+02
-1.304948436862068775e+02,-1.370923062117271911e+02,5.142030830538533337e+01,6.252757112114340998e+02,1.317227951900276821e+02,4.941252722726349020e+02,5.444475331029570953e+01,6.568516955660197709e+01,9.446745872497558594e+00,-6.884268522262573242e-01,-9.179025292396545410e-01,5.690000000000000000e+02
-1.283090679914184875e+02,-1.318962166926103237e+02,5.106223105899516668e+01,6.342136745794887247e+02,1.286116585789131932e+02,4.914397217477890081e+02,5.595610081489758159e+01,6.622310267262582784e+01,9.446745872497558594e+00,-6.884268522262573242e-01,-9.179025292396545410e-01,5.700000000000000000e+02
-1.266408455253313150e+02,-1.272637012490831694e+02,5.098252866616894607e+01,6.433519953775285103e+02,1.258234927893499844e+02,4.890549771032965509e+02,5.612314620924735209e+01,6.561124472629308002e+01,9.446745872497558594e+00,-6.884268522262573242e-01,-9.179025292396545410e-01,5.710000000000000000e+02
-1.251164054373184626e+02,-1.237247867961268639e+02,5.192175763152590662e+01,6.521525773286193726e+02,1.236271435165399453e+02,4.869287630892213201e+02,5.575135389803290309e+01,6.504486633796113892e+01,9.446745872497558594e+00,-6.884268522262573242e-01,-9.179025292396545410e-01,5.720000000000000000e+02
-1.234118829272847506e+02,-1.213356664866478241e+02,5.370024016398929234e+01,6.602770156035185209e+02,1.219832986907858867e+02,4.847607798161552637e+02,5.570569037619134178e+01,6.546488165237860812e+01,9.446745872497558594e+00,-6.884268522262573242e-01,-9.179025292396545410e-01,5.730000000000000000e+02
-1.215175183586288767e+02,-1.197630048436822108e+02,5.541226879408350214e+01,6.676801191769409343e+02,1.206425372025660181e+02,4.822949143852601992e+02,5.623749015899556980e+01,6.666880703394417651e+01,9.446745872497558594e+00,-6.884268522262573242e-01,-9.179025292396545410e-01,5.740000000000000000e+02
-1.197018787797223922e+02,-1.184043661916821293e+02,5.628794803056371165e+01,6.744588472878749599e+02,1.192871309463043872e+02,4.795510553777567111e+02,5.688114178320938663e+01,6.756454721627596882e+01,9.446745872497558594e+00,-6.884268522262573242e-01,-9.179025292396545410e-01,5.750000000000000000e+02
-1.181912052528314234e+02,-1.165690764557348302e+02,5.640077326046230155e+01,6.806432324869383592e+02,1.176075181178930507e+02,4.767879416985379066e+02,5.707276866964093642e+01,6.733537341482951888e+01,9.446745872497558594e+00,-6.884268522262573242e-01,-9.179025292396545410e-01,5.760000000000000000e+02
-1.168693084789392742e+02,-1.137826216817447857e+02,5.654752494685271813e+01,6.861505446599476272e+02,1.153898212837011670e+02,4.742871514421931352e+02,5.693471244011561794e+01,6.635372028665733524e+01,9.446745872497558594e+00,-6.884268522262573242e-01,-9.179025292396545410e-01,5.770000000000000000e+02
-1.152863874804606894e+02,-1.100917254976866388e+02,5.745507326241386181e+01,6.909064728280573036e+02,1.126472336916267523e+02,4.721771506203585886e+02,5.743635035077204520e+01,6.591863303306854505e+01,9.446745872497558594e+00,-6.884268522262573242e-01,-9.179025292396545410e-01,5.780000000000000000e+02
-1.129804392592213844e+02,-1.061099610299552296e+02,5.911897157850216900e+01,6.949423095621314133e+02,1.096697354695752438e+02,4.704027280796217383e+02,5.966333836890771636e+01,6.704751891450723633e+01,9.446745872497558594e+00,-6.884268522262573242e-01,-9.179025292396545410e-01,5.790000000000000000e+02
-1.098431554477119789e+02,-1.026814380660416646e+02,6.088890319318488764e+01,6.983440132325922605e+02,1.068778937971801497e+02,4.687846895461334498e+02,6.376890324951455113e+01,6.947167372869262181e+01,9.446745872497558594e+00,-6.884268522262573242e-01,-9.179025292396545410e-01,5.800000000000000000e+02
-1.062330355016365502e+02,-1.003705699199945229e+02,6.214081651449851051e+01,7.011436245373624843e+02,1.045811510649073170e+02,4.670930129875923740e+02,6.856187664528624737e+01,7.179148422117032169e+01,9.446745872497558594e+00,-6.884268522262573242e-01,-9.179025292396545410e-01,5.810000000000000000e+02
-1.027342374886666221e+02,-9.914570108100087964e+01,6.284010396901976492e+01,7.033141206716900342e+02,1.028821013329361449e+02,4.651273189917264972e+02,7.218792621498323570e+01,7.266951983595754427e+01,9.446745872497558594e+00,-6.884268522262573242e-01,-9.179025292396545410e-01,5.820000000000000000e+02
-9.972173793449110235e+01,-9.844526043539553939e+01,6.351146687651817047e+01,7.048782522978435736e+02,1.017951542534647160e+02,4.628066888602406834e+02,7.343170809443836333e+01,7.201206477397317940e+01,9.446745872497558594e+00,-6.884268522262573242e-01,-9.179025292396545410e-01,5.830000000000000000e+02
-9.706201440815311798e+01,-9.753875603030792263e+01,6.474172043160979229e+01,7.059715772766721784e+02,1.013834881512520951e+02,4.602145336293833680e+02,7.260781240093092492e+01,7.111481887206718966e+01,9.446745872497558594e+00,-6.884268522262573242e-01,-9.179025292396545410e-01,5.840000000000000000e+02
-9.418728817129522213e+01,-9.591784036914395983e+01,6.673523587591625983e+01,7.067664274490089156e+02,1.016991242521471577e+02,4.575476401807900402e+02,7.134814573995572573e+01,7.167730744716027402e+01,9.446745872497558594e+00,-6.884268522262573242e-01,-9.179025292396545410e-01,5.850000000000000000e+02
-9.053569848170081968e+01,-9.353323666357937327e+01,6.925656783166050445e+01,7.073423055134844617e+02,1.025740881075107609e+02,4.549944191012546071e+02,7.148508372098694963e+01,7.453604958505638933e+01,9.446745872497558594e+00,-6.884268522262573242e-01,-9.179025292396545410e-01,5.860000000000000000e+02
-8.607497637440610561e+01,-9.083513121084251907e+01,7.184047881145124848e+01,7.076413517443797900e+02,1.035191601917613298e+02,4.526409551258548163e+02,7.386867117680776573e+01,7.910340421405089728e+01,9.446745872497558594e+00,-6.884268522262573242e-01,-9.179025292396545410e-01,5.870000000000000000e+02
-8.150579284935702162e+01,-8.858565323735456332e+01,7.399182453229332168e+01,7.075230801158468239e+02,1.039111948310601292e+02,4.504677439125953242e+02,7.790244869605885469e+01,8.384536781679889828e+01,9.446745872497558594e+00,-6.884268522262573242e-01,-9.179025292396545410e-01,5.880000000000000000e+02
-7.792083784315400408e+01,-8.745404625793162268e+01,7.527483430203938042e+01,7.068232298609873396e+02,1.033471956944267731e+02,4.484152088590199128e+02,8.200044405333028408e+01,8.730939356127055362e+01,9.446745872497558594e+00,-6.884268522262573242e-01,-9.179025292396545410e-01,5.890000000000000000e+02
-7.609783079629778513e+01,-8.755154644357389770e+01,7.539326785766024841e+01,7.053854637156764511e+02,1.018472573543986073e+02,4.464549388023806387e+02,8.456470495281610056e+01,8.890036028906251886e+01,9.446745872497558594e+00,-6.884268522262573242e-01,-9.179025292396545410e-01,5.900000000000000000e+02
-7.593361517205630662e+01,-8.822411907546847942e+01,7.433603187988774152e+01,7.031536197101304424e+02,9.976821380788896931e+01,4.446240804283224861e+02,8.487047259875180316e+01,8.896842229202593444e+01,9.446745872497558594e+00,-6.884268522262573242e-01,-9.179025292396545410e-01,5.910000000000000000e+02
-7.648149567903237767e+01,-8.835044766048304155e+01,7.247296257886409876e+01,7.003480107253708411e+02,9.753018801489088219e+01,4.430049469055666123e+02,8.342229724539356539e+01,8.837901551789764198e+01,9.446745872497558594e+00,-6.884268522262573242e-01,-9.179025292396545410e-01,5.920000000000000000e+02
-7.661098730695448467e+01,-8.703089395238202997e+01,7.042504891380303889e+01,6.975238758667182992e+02,9.534355413157754811e+01,4.416311140475518187e+02,8.165256117637181887e+01,8.800646375860742410e+01,9.446745872497558594e+00,-8.031646609306335449e-01,-8.796565532684326172e-01,5.930000000000000000e+02
-7.578913946227112319e+01,-8.418691922707148478e+01,6.872066650049964665e+01,6.952936465041057090e+02,9.308202167884883238e+01,4.403558849878027104e+02,8.114532684696314391e+01,8.842218590756601770e+01,9.446745872497558594e+00,-8.031646609306335449e-01,-8.796565532684326172e-01,5.940000000000000000e+02
-7.436675490462585003e+01,-8.058370885611293488e+01,6.749161697646923130e+01,6.938320018174272263e+02,9.037153586800559424e+01,4.388128156693710480e+02,8.280076836666194140e+01,8.976930904345135787e+01,9.446745872497558594e+00,-8.031646609306335449e-01,-8.796565532684326172e-01,5.950000000000000000e+02
-7.315794704950531013e+01,-7.725767449533668696e+01,6.645769140089760185e+01,6.926407679357434972e+02,8.689622216519637732e+01,4.365870722038962413e+02,8.640067066146366415e+01,9.174895095950705581e+01,9.446745872497558594e+00,-8.031646609306335449e-01,-8.796565532684326172e-01,5.960000000000000000e+02
-7.267176910495618358e+01,-7.481232994591482566e+01,6.522171216412607464e+01,6.909338224780440214e+02,8.277336427989212098e+01,4.335287751824216684e+02,9.081671160820042132e+01,9.377517004560286296e+01,9.446745872497558594e+00,-8.031646609306335449e-01,-8.796565532684326172e-01,5.970000000000000000e+02
-7.262991819293893059e+01,-7.312131537219465827e+01,6.365205241127114277e+01,6.883890085837410879e+02,7.868780662634526379e+01,4.299292440109711606e+02,9.471115891687441035e+01,9.537804526849140530e+01,9.446745872497558594e+00,-8.031646609306335449e-01,-8.796565532684326172e-01,5.980000000000000000e+02
-7.214433543122504489e+01,-7.159065381979962694e+01,6.208297624303668272e+01,6.855447848230687669e+02,7.557031208852276905e+01,4.263343032439006492e+02,9.728158293768137810e+01,9.668362599170359317e+01,9.446745872497558594e+00,-8.031646609306335449e-01,-8.796565532684326172e-01,5.990000000000000000e+02
-7.037534789577330230e+01,-6.965443534153382643e+01,6.121958919547250844e+01,6.833706415582419140e+02,7.398245910618425114e+01,4.231182348500151420e+02,9.861031600849310053e+01,9.854360662732506171e+01,9.446745872497558594e+00,-8.031646609306335449e-01,-8.796565532684326172e-01,6.000000000000000000e+02
-6.712658712988923071e+01,-6.707150380522216437e+01,6.182092512639792403e+01,6.823535989486335893e+02,7.371449638418562245e+01,4.202358453144843224e+02,9.949273943357184180e+01,1.020292783872137079e+02,9.446745872497558594e+00,-8.031646609306335449e-01,-8.796565532684326172e-01,6.010000000000000000e+02
-6.294788930759386858e+01,-6.389389799714626861e+01,6.432789237494580448e+01,6.819810505188579555e+02,7.399147224736952921e+01,4.174241806515783537e+02,1.009306506285138312e+02,1.075395903405660647e+02,9.446745872497558594e+00,-8.031646609306335449e-01,-8.796565532684326172e-01,6.020000000000000000e+02
-5.874385479804550414e+01,-6.032717381310067140e+01,6.859869420561517472e+01,6.811461073162572575e+02,7.411879918164777337e+01,4.146328929861774668e+02,1.035935697283021000e+02,1.142371830490737921e+02,9.446745872497558594e+00,-8.031646609306335449e-01,-8.796565532684326172e-01,6.030000000000000000e+02
-5.523981870417628670e+01,-5.670621627287982847e+01,7.388302499517158139e+01,6.790977604108920787e+02,7.397296770774119068e+01,4.121793301291618263e+02,1.074788991839304799e+02,1.203742662423792353e+02,9.446745872497558594e+00,-8.031646609306335449e-01,-8.796565532684326172e-01,6.040000000000000000e+02
-5.267834503567428328e+01,-5.356745826553378720e+01,7.910184807038967847e+01,6.760277218033152167e+02,7.391174545876128832e+01,4.104101507354353089e+02,1.118608863979206944e+02,1.243322146100763348e+02,9.446745872497558594e+00,-8.031646609306335449e-01,-8.796565532684326172e-01,6.050000000000000000e+02
-5.084033617490058532e+01,-5.157800771281472407e+01,8.336981544326772564e+01,6.727794172103021992e+02,7.428656148554000538e+01,4.092275725240760949e+02,1.155721901590841298e+02,1.255828043581168458e+02,9.446745872497558594e+00,-8.031646609306335449e-01,-8.796565532684326172e-01,6.060000000000000000e+02
-4.924746467922159354e+01,-5.118533939006010769e+01,8.647240717427121126e+01,6.700235154004913056e+02,7.510082139648147859e+01,4.080340842559817247e+02,1.175639771160713281e+02,1.248295014022151008e+02,9.446745872497558594e+00,-8.031646609306335449e-01,-8.796565532684326172e-01,6.070000000000000000e+02
-4.738199973829978262e+01,-5.218639339895162266e+01,8.894106683731661178e+01,6.676901505500427447e+02,7.610157283001171891e+01,4.062043322464887751e+02,1.175001843622594606e+02,1.233152819822862512e+02,9.446745872497558594e+00,-8.031646609306335449e-01,-8.796565532684326172e-01,6.080000000000000000e+02
-4.488442122136621037e+01,-5.362420854850279284e+01,9.159251660650625126e+01,6.651234771324816393e+02,7.709202917431684909e+01,4.036126184484019177e+02,1.159923247758633806e+02,1.219428829192547710e+02,9.446745872497558594e+00,-8.031646609306335449e-01,-8.796565532684326172e-01,6.090000000000000000e+02
-4.174570607851273962e+01,-5.423242119778296910e+01,9.484242646615166450e+01,6.617259385632496560e+02,7.806884052206441993e+01,4.006682873609097442e+02,1.142405241757696785e+02,1.209077760525906342e+02,9.446745872497558594e+00,-8.031646609306335449e-01,-8.796565532684326172e-01,6.100000000000000000e+02
-3.840251680427172687e+01,-5.317785495960197295e+01,9.838182221859824494e+01,6.574741670968214748e+02,7.909415138274925994e+01,3.978534356150048552e+02,1.133123461352042796e+02,1.200096980975940824e+02,9.446745872497558594e+00,-8.031646609306335449e-01,-8.796565532684326172e-01,6.110000000000000000e+02
-3.558680277661187574e+01,-5.055412421118307975e+01,1.015204161779329297e+02,6.529003527059685439e+02,8.014144552661309717e+01,3.952799336588941514e+02,1.136011717452456651e+02,1.191798593456151139e+02,9.446745872497558594e+00,-8.031646609306335449e-01,-8.796565532684326172e-01,6.120000000000000000e+02
-3.391160913647763664e+01,-4.722110993285241420e+01,1.038852194591745501e+02,6.486470982120081317e+02,8.110087451306753792e+01,3.927190100708539831e+02,1.148636640999684460e+02,1.186751669519835559e+02,9.446745872497558594e+00,-8.031646609306335449e-01,-8.796565532684326172e-01,6.130000000000000000e+02
-3.344179988676114590e+01,-4.412223557227480342e+01,1.057611930491402745e+02,6.450082218411698705e+02,8.184615393385320203e+01,3.899992468344717054e+02,1.166767928522422153e+02,1.188026960918650730e+02,9.446745872497558594e+00,-8.031646609306335449e-01,-8.796565532684326172e-01,6.140000000000000000e+02
-3.361476956106707803e+01,-4.164742149769153912e+01,1.076918941344119958e+02,6.417842485733999638e+02,8.218739140989782754e+01,3.872779397270642221e+02,1.187927035818283912e+02,1.195277427713190264e+02,9.446745872497558594e+00,-8.031646609306335449e-01,-8.796565532684326172e-01,6.150000000000000000e+02
