F3,F4,C3,C4,P3,P4,Cz,Pz,Accel_x,Accel_y,Accel_z,Sample
-6.912159733474254608e-11,-4.001776687800884247e-11,-5.820766091346740723e-11,-4.001776687800884247e-11,-6.548361852765083313e-11,-5.366018740460276604e-11,-4.001776687800884247e-11,-4.365574568510055542e-11,9.408499717712402344e+00,-8.414105772972106934e-01,0.000000000000000000e+00,2.260000000000000000e+02
-1.822452684622203378e+01,-8.274653969828250411e+00,-5.651323492365008860e+00,-7.863140576747355226e+00,1.065570870254305191e+00,-6.050488512420997722e+00,2.722778632038171054e+00,-2.329132014930019068e+01,9.408499717712402344e+00,-8.414105772972106934e-01,0.000000000000000000e+00,2.270000000000000000e+02
-3.616872281355335872e+01,-2.134173919020577159e+01,-1.558655810018353804e+01,-1.930133601121724496e+01,-8.404761451497506641e+00,-1.895045535662757175e+01,-5.335592694389561075e+00,-4.176577155144968856e+01,9.408499717712402344e+00,-8.414105772972106934e-01,0.000000000000000000e+00,2.280000000000000000e+02
-5.400288954760526394e+01,-3.984113360054925579e+01,-3.055873323083505966e+01,-3.543857218311131874e+01,-2.995477082238630828e+01,-4.011741190433440352e+01,-2.602387123342487030e+01,-5.496768792670718540e+01,9.561484336853027344e+00,-7.649186849594116211e-01,3.824593871831893921e-02,2.290000000000000000e+02
-7.234855738981605100e+01,-6.016862923294229404e+01,-4.766675406071317411e+01,-5.449819662837307988e+01,-5.581936607581155840e+01,-6.502071195014923433e+01,-5.176326292765952530e+01,-6.674473319728258502e+01,9.561484336853027344e+00,-7.649186849594116211e-01,3.824593871831893921e-02,2.300000000000000000e+02
-9.182566139617210865e+01,-7.830007154425175031e+01,-6.354482907068086206e+01,-7.353485659314992517e+01,-7.706759175694514852e+01,-8.767973952823740547e+01,-7.340673090011296154e+01,-8.111600846206238202e+01,9.561484336853027344e+00,-7.649186849594116211e-01,3.824593871831893921e-02,2.310000000000000000e+02
-1.125554945373314695e+02,-9.347777597478625466e+01,-7.747186824388882087e+01,-9.065421272406365460e+01,-9.168908574148190382e+01,-1.056138178731789594e+02,-8.832109422045232350e+01,-9.857652412241077400e+01,9.561484336853027344e+00,-7.649186849594116211e-01,3.824593871831893921e-02,2.320000000000000000e+02
-1.340431602844355439e+02,-1.081764165120657708e+02,-9.139777624915132037e+01,-1.058684304201833584e+02,-1.049422634202974223e+02,-1.208196539882655998e+02,-1.011193364490027307e+02,-1.165305236097101442e+02,9.561484336853027344e+00,-7.649186849594116211e-01,3.824593871831893921e-02,2.330000000000000000e+02
-1.554778764146094545e+02,-1.248482259692896150e+02,-1.072806119543156456e+02,-1.202476097908320298e+02,-1.227483828695767443e+02,-1.367014157071935188e+02,-1.174851859807686196e+02,-1.328284501911239204e+02,9.561484336853027344e+00,-7.649186849594116211e-01,3.824593871831893921e-02,2.340000000000000000e+02
-1.760876778705478500e+02,-1.431348869904632011e+02,-1.247457927334662600e+02,-1.345269092837461358e+02,-1.456252516853182897e+02,-1.546174544310706551e+02,-1.381648729076277959e+02,-1.481290001236020544e+02,9.561484336853027344e+00,-7.649186849594116211e-01,3.824593871831893921e-02,2.350000000000000000e+02
-1.952057483900662191e+02,-1.602911415009334632e+02,-1.413316996139510593e+02,-1.484582535999625179e+02,-1.689477552023909084e+02,-1.732482980047734600e+02,-1.589120885855481902e+02,-1.644877943845694972e+02,9.561484336853027344e+00,-7.649186849594116211e-01,3.824593871831893921e-02,2.360000000000000000e+02
-2.120879091968863577e+02,-1.739127137916570973e+02,-1.546507404337944536e+02,-1.611477349579308793e+02,-1.880693471988333840e+02,-1.905194421419264472e+02,-1.753111137693649653e+02,-1.820178529002732830e+02,9.561484336853027344e+00,-7.649186849594116211e-01,3.824593871831893921e-02,2.370000000000000000e+02
-2.258825025056248705e+02,-1.838631587302875232e+02,-1.640599215895508678e+02,-1.717289238902731086e+02,-2.022857271077964469e+02,-2.054357635766555177e+02,-1.867613900487394858e+02,-1.976510831752257218e+02,9.561484336853027344e+00,-7.649186849594116211e-01,3.824593871831893921e-02,2.380000000000000000e+02
-2.360335619978322939e+02,-1.916324998356053584e+02,-1.704708108946733773e+02,-1.797613954015614581e+02,-2.140645138486279393e+02,-2.181076259688952632e+02,-1.958935589820830501e+02,-2.076205770544329425e+02,9.561484336853027344e+00,-7.649186849594116211e-01,3.824593871831893921e-02,2.390000000000000000e+02
-2.428741175167861002e+02,-1.983428949138069584e+02,-1.751068555120345991e+02,-1.853138012908157179e+02,-2.255650296535350208e+02,-2.287189199228478174e+02,-2.050845814855319986e+02,-2.111374063311686768e+02,9.561484336853027344e+00,-7.649186849594116211e-01,3.824593871831893921e-02,2.400000000000000000e+02
-2.478094965355849126e+02,-2.038207637589484875e+02,-1.787876998643614570e+02,-1.889611137552465152e+02,-2.367359471429263067e+02,-2.371368313652737925e+02,-2.143178191651622910e+02,-2.114129101945627554e+02,9.561484336853027344e+00,-7.649186849594116211e-01,3.824593871831893921e-02,2.410000000000000000e+02
-2.526882687801171414e+02,-2.075188718215786139e+02,-1.821375811704756416e+02,-1.916745313082064968e+02,-2.464719758532100968e+02,-2.435418280236008286e+02,-2.222161264165933972e+02,-2.129402817931004392e+02,9.561484336853027344e+00,-7.649186849594116211e-01,3.824593871831893921e-02,2.420000000000000000e+02
-2.586806680533800318e+02,-2.098446002291502737e+02,-1.858062063845918601e+02,-1.944111078381902189e+02,-2.545447682393651121e+02,-2.488917027760899146e+02,-2.282381826358014223e+02,-2.177115693276291495e+02,9.561484336853027344e+00,-7.649186849594116211e-01,3.824593871831893921e-02,2.430000000000000000e+02
-2.655420388590009679e+02,-2.121809214048926151e+02,-1.900108897010395594e+02,-1.975214447998910146e+02,-2.617478442322744741e+02,-2.542767881520867377e+02,-2.332526330660093663e+02,-2.239070831056014867e+02,9.561484336853027344e+00,-7.649186849594116211e-01,3.824593871831893921e-02,2.440000000000000000e+02
-2.719501541362797070e+02,-2.156291232496105295e+02,-1.939700674554305806e+02,-2.005321353805611579e+02,-2.685125110751368993e+02,-2.598184223867247056e+02,-2.382131395137494110e+02,-2.280334220640852436e+02,9.561484336853027344e+00,-7.649186849594116211e-01,3.824593871831893921e-02,2.450000000000000000e+02
-2.767578054571113171e+02,-2.200237634365894337e+02,-1.962877548033447965e+02,-2.027172137757538621e+02,-2.742247742974668654e+02,-2.645465107928812358e+02,-2.429863784888793816e+02,-2.283043938134942437e+02,9.561484336853027344e+00,-7.649186849594116211e-01,3.824593871831893921e-02,2.460000000000000000e+02
-2.801927795732444793e+02,-2.243866890096192037e+02,-1.963365901767547257e+02,-2.041131770999973014e+02,-2.783225032793397986e+02,-2.676454262088846008e+02,-2.468869769864868431e+02,-2.262772427015961512e+02,9.561484336853027344e+00,-7.649186849594116211e-01,3.824593871831893921e-02,2.470000000000000000e+02
-2.839980089405944454e+02,-2.283038839945338623e+02,-1.953496444391348632e+02,-2.060317072037460093e+02,-2.817419034818985892e+02,-2.698128542962967913e+02,-2.501330077890543180e+02,-2.256677340351025123e+02,9.561484336853027344e+00,-7.649186849594116211e-01,3.824593871831893921e-02,2.480000000000000000e+02
-2.903379813104834284e+02,-2.327039618273656743e+02,-1.959567363654814471e+02,-2.104383804915132714e+02,-2.867246170657181210e+02,-2.732066826605705501e+02,-2.543160070870208074e+02,-2.296930546083217450e+02,9.561484336853027344e+00,-7.649186849594116211e-01,3.824593871831893921e-02,2.490000000000000000e+02
-3.003142569433525750e+02,-2.392317098905191415e+02,-2.003983516577436603e+02,-2.186148737833877931e+02,-2.950096810547574933e+02,-2.799075654163334548e+02,-2.612417989616506020e+02,-2.391563288827596807e+02,9.561484336853027344e+00,-7.649186849594116211e-01,3.824593871831893921e-02,2.500000000000000000e+02
-3.132280545573398740e+02,-2.488745447803194111e+02,-2.089658051827236704e+02,-2.302267916203422828e+02,-3.063729321053433523e+02,-2.903337841897064209e+02,-2.713985318176473811e+02,-2.524378394481159376e+02,9.561484336853027344e+00,-7.649186849594116211e-01,3.824593871831893921e-02,2.510000000000000000e+02
-3.271321437108208556e+02,-2.611398794045353497e+02,-2.200163969415234533e+02,-2.435990125302764682e+02,-3.190957923133555596e+02,-3.030629487498963499e+02,-2.836517404215164788e+02,-2.669581305259939654e+02,9.561484336853027344e+00,-7.649186849594116211e-01,3.824593871831893921e-02,2.520000000000000000e+02
-3.402225111120233123e+02,-2.744327853353961473e+02,-2.314239776968597653e+02,-2.569508192621760827e+02,-3.317764198086979377e+02,-3.161164576868113727e+02,-2.963202371807437885e+02,-2.808591683731460762e+02,9.561484336853027344e+00,-7.649186849594116211e-01,3.824593871831893921e-02,2.530000000000000000e+02
-3.520251304968155637e+02,-2.871858356995921895e+02,-2.420978483769349623e+02,-2.695630446599129755e+02,-3.445514761172034923e+02,-3.284748912699615175e+02,-3.084290545469521021e+02,-2.938502736067348451e+02,9.446745872497558594e+00,-9.179025292396545410e-01,-3.824593871831893921e-02,2.540000000000000000e+02
-3.635606285365774966e+02,-2.988079784641004153e+02,-2.523792945560262524e+02,-2.820286529698541926e+02,-3.586321247890227824e+02,-3.405961262271921441e+02,-3.200522157208733915e+02,-3.069164046978439728e+02,9.446745872497558594e+00,-9.179025292396545410e-01,-3.824593871831893921e-02,2.550000000000000000e+02
-3.764456219736857747e+02,-3.098546834621765811e+02,-2.632686224896438034e+02,-2.955420710564530964e+02,-3.748595688680034073e+02,-3.537211603977812047e+02,-3.317651272037546732e+02,-3.212546405496168518e+02,9.446745872497558594e+00,-9.179025292396545410e-01,-3.824593871831893921e-02,2.560000000000000000e+02
-3.916022125870399577e+02,-3.214433171255800517e+02,-2.753380056930582214e+02,-3.108566188239142321e+02,-3.927711622571359840e+02,-3.686873550965465256e+02,-3.439780501831673973e+02,-3.371372240290752416e+02,9.446745872497558594e+00,-9.179025292396545410e-01,-3.824593871831893921e-02,2.570000000000000000e+02
-4.084285466303067551e+02,-3.343187179704300434e+02,-2.881608333871517971e+02,-3.275920891282271441e+02,-4.108295866518692492e+02,-3.851094453373953002e+02,-3.566518196654224084e+02,-3.533665042905749942e+02,9.446745872497558594e+00,-9.179025292396545410e-01,-3.824593871831893921e-02,2.580000000000000000e+02
-4.249778666083525422e+02,-3.481321293766177405e+02,-3.005160018956407839e+02,-3.442325062192703626e+02,-4.273189244644836435e+02,-4.013886705123777574e+02,-3.693376046659022904e+02,-3.676958140563010602e+02,9.446745872497558594e+00,-9.179025292396545410e-01,-3.824593871831893921e-02,2.590000000000000000e+02
-4.391054382913639529e+02,-3.614931275783624187e+02,-3.111486805044623907e+02,-3.588271263921305945e+02,-4.411689859628550039e+02,-4.155342414089009253e+02,-3.813624662367337805e+02,-3.781240418542115549e+02,9.446745872497558594e+00,-9.179025292396545410e-01,-3.824593871831893921e-02,2.600000000000000000e+02
-4.499293900936108912e+02,-3.729503680726215862e+02,-3.196605560825023531e+02,-3.701247359380531634e+02,-4.524337198600414922e+02,-4.263971152150124908e+02,-3.921873589258811990e+02,-3.844074879153190523e+02,9.446745872497558594e+00,-9.179025292396545410e-01,-3.824593871831893921e-02,2.610000000000000000e+02
-4.586519533034834240e+02,-3.823196467848765678e+02,-3.270251072135897630e+02,-3.785568030104445825e+02,-4.624450206868687019e+02,-4.346272654076733488e+02,-4.019341303712835725e+02,-3.887810100866245193e+02,9.446745872497558594e+00,-9.179025292396545410e-01,-3.824593871831893921e-02,2.620000000000000000e+02
-4.679975952319741737e+02,-3.912053932057633574e+02,-3.352300877782763564e+02,-3.862936792237151167e+02,-4.734086226967069706e+02,-4.425791166356548274e+02,-4.116558225303042491e+02,-3.950529845120408936e+02,9.446745872497558594e+00,-9.179025292396545410e-01,-3.824593871831893921e-02,2.630000000000000000e+02
-4.802992828468295556e+02,-4.018694140326733759e+02,-3.458990694562430690e+02,-3.959174933512003918e+02,-4.871560880109018399e+02,-4.528524508237123882e+02,-4.227720024045702303e+02,-4.061394855769754031e+02,9.446745872497558594e+00,-9.179025292396545410e-01,-3.824593871831893921e-02,2.640000000000000000e+02
-4.953984430951140894e+02,-4.149982103120569263e+02,-3.586309551682898018e+02,-4.083033497821761557e+02,-5.035149521865255338e+02,-4.662054256093178992e+02,-4.357626576508182552e+02,-4.214719927855794595e+02,9.446745872497558594e+00,-9.179025292396545410e-01,-3.824593871831893921e-02,2.650000000000000000e+02
-5.099940336083950569e+02,-4.281913575044677600e+02,-3.704113139246028368e+02,-4.212746304226711800e+02,-5.195751356867285722e+02,-4.803746724277220892e+02,-4.491293562280434344e+02,-4.363458665823736737e+02,9.446745872497558594e+00,-9.179025292396545410e-01,-3.824593871831893921e-02,2.660000000000000000e+02
-5.192839534122949772e+02,-4.368212160843706897e+02,-3.769951353845253834e+02,-4.304427650526758953e+02,-5.309321476252248431e+02,-4.910166446640255344e+02,-4.597772787046988014e+02,-4.443201879780172021e+02,9.446745872497558594e+00,-9.179025292396545410e-01,-3.824593871831893921e-02,2.670000000000000000e+02
-5.200326666054093039e+02,-4.370555451083967000e+02,-3.756252993088851326e+02,-4.320379237212282533e+02,-5.344296610236001470e+02,-4.944272138863784676e+02,-4.648668707038141292e+02,-4.414674222518151510e+02,9.446745872497558594e+00,-9.179025292396545410e-01,-3.824593871831893921e-02,2.680000000000000000e+02
-5.128356516378489687e+02,-4.287803881474355876e+02,-3.670593997385108196e+02,-4.256835751183762113e+02,-5.303731525904504451e+02,-4.901135208361069999e+02,-4.637606550840391719e+02,-4.293653324467672974e+02,9.446745872497558594e+00,-9.179025292396545410e-01,-3.824593871831893921e-02,2.690000000000000000e+02
-5.017322944849129271e+02,-4.159456526305743864e+02,-3.551439836538484087e+02,-4.148029672817328901e+02,-5.223271815983966917e+02,-4.811815267818637949e+02,-4.584383968086358436e+02,-4.142508771293905738e+02,9.446745872497558594e+00,-9.179025292396545410e-01,-3.824593871831893921e-02,2.700000000000000000e+02
-4.913820418873060589e+02,-4.038979281506387906e+02,-3.441366392345803433e+02,-4.041781445081346646e+02,-5.145672682931253803e+02,-4.721607028308226290e+02,-4.520253228432920878e+02,-4.026741937684546428e+02,9.446745872497558594e+00,-9.179025292396545410e-01,-3.824593871831893921e-02,2.710000000000000000e+02
-4.840884958374645066e+02,-3.958388675684782356e+02,-3.359581125999166034e+02,-3.966335830703824286e+02,-5.092497894643856853e+02,-4.659621370517384094e+02,-4.466861133165061801e+02,-3.970423449279519446e+02,9.446745872497558594e+00,-9.179025292396545410e-01,-3.824593871831893921e-02,2.720000000000000000e+02
-4.791000813948840005e+02,-3.912847018204888627e+02,-3.296634689092766166e+02,-3.916237067004603887e+02,-5.055678218940079205e+02,-4.623669053852054276e+02,-4.426034041721695758e+02,-3.947409685182869907e+02,9.446745872497558594e+00,-9.179025292396545410e-01,-3.824593871831893921e-02,2.730000000000000000e+02
-4.745020048632713952e+02,-3.875667478170787490e+02,-3.233579357763092048e+02,-3.867341903927053863e+02,-5.013959513883091859e+02,-4.591052167439133882e+02,-4.387150155167109915e+02,-3.913602566785393719e+02,9.446745872497558594e+00,-9.179025292396545410e-01,-3.824593871831893921e-02,2.740000000000000000e+02
-4.696386735563919501e+02,-3.827213885378941995e+02,-3.165254666189744057e+02,-3.804454988827783382e+02,-4.957538870512589710e+02,-4.543617923220690500e+02,-4.342782501993278856e+02,-3.848987588733334633e+02,9.446745872497558594e+00,-9.179025292396545410e-01,-3.824593871831893921e-02,2.750000000000000000e+02
-4.656735201458059237e+02,-3.770561676699867348e+02,-3.104710635676556194e+02,-3.734982914075535518e+02,-4.897979610923548535e+02,-4.484111951033501100e+02,-4.296787550646236014e+02,-3.771167399454343467e+02,9.446745872497558594e+00,-9.179025292396545410e-01,-3.824593871831893921e-02,2.760000000000000000e+02
-4.639106998246106741e+02,-3.722028546774015467e+02,-3.065847929497635960e+02,-3.677728565086044910e+02,-4.855634748934467098e+02,-4.430584087371762507e+02,-4.258139622556250288e+02,-3.711420626686776814e+02,9.446745872497558594e+00,-9.179025292396545410e-01,-3.824593871831893921e-02,2.770000000000000000e+02
-4.638671846131037455e+02,-3.689794638067605774e+02,-3.044240510265785815e+02,-3.641341577479893203e+02,-4.838543500902951564e+02,-4.397010539728621552e+02,-4.228763917369064984e+02,-3.681091452501791537e+02,9.446745872497558594e+00,-9.179025292396545410e-01,-3.824593871831893921e-02,2.780000000000000000e+02
-4.633387333555365331e+02,-3.664100353250082662e+02,-3.018336848329558961e+02,-3.616216043548538437e+02,-4.834428172303191786e+02,-4.380681405601549159e+02,-4.199766836099433931e+02,-3.663364157502496710e+02,9.446745872497558594e+00,-9.179025292396545410e-01,-3.824593871831893921e-02,2.790000000000000000e+02
-4.605451642410625936e+02,-3.628555917720877915e+02,-2.971493467421919377e+02,-3.587587553057505829e+02,-4.823953346899065764e+02,-4.368409540795742032e+02,-4.161173673823291210e+02,-3.636838967735529877e+02,9.446745872497558594e+00,-9.179025292396545410e-01,-3.824593871831893921e-02,2.800000000000000000e+02
-4.561380225972379776e+02,-3.579511026327129457e+02,-2.912306544262505668e+02,-3.554275257220263029e+02,-4.801854958415510737e+02,-4.353721960829780073e+02,-4.115253978935552368e+02,-3.603579463539817880e+02,9.484992027282714844e+00,-8.031646609306335449e-01,0.000000000000000000e+00,2.810000000000000000e+02
-4.528801310676831235e+02,-3.532862201790278505e+02,-2.870991412266403131e+02,-3.531942874831931931e+02,-4.784315180475036868e+02,-4.345931832171067981e+02,-4.078737074914811274e+02,-3.590411648085037086e+02,9.484992027282714844e+00,-8.031646609306335449e-01,0.000000000000000000e+00,2.820000000000000000e+02
-4.531915311453776667e+02,-3.511511049153809836e+02,-2.873478920944089623e+02,-3.537020423399962965e+02,-4.794469160192979871e+02,-4.360953030021692030e+02,-4.070056533661017966e+02,-3.621532523298606066e+02,9.484992027282714844e+00,-8.031646609306335449e-01,0.000000000000000000e+00,2.830000000000000000e+02
-4.569573322699025084e+02,-3.526377802499193876e+02,-2.917920955766799125e+02,-3.568314381508228053e+02,-4.839758818303689623e+02,-4.403081265219702800e+02,-4.093211905563421169e+02,-3.690835122887942816e+02,9.484992027282714844e+00,-8.031646609306335449e-01,0.000000000000000000e+00,2.840000000000000000e+02
-4.617482447120687539e+02,-3.569212083069414803e+02,-2.976390570301427942e+02,-3.605576257637706021e+02,-4.903192349288065088e+02,-4.456707854807777949e+02,-4.133878710278136168e+02,-3.762497465118758555e+02,9.484992027282714844e+00,-8.031646609306335449e-01,0.000000000000000000e+00,2.850000000000000000e+02
-4.651509148242741958e+02,-3.621988286233149665e+02,-3.019458369499434411e+02,-3.626431543793703440e+02,-4.956917664138964028e+02,-4.497096152639460342e+02,-4.171503621023034611e+02,-3.799478574102772654e+02,9.484992027282714844e+00,-8.031646609306335449e-01,0.000000000000000000e+00,2.860000000000000000e+02
-4.668142755784006113e+02,-3.671334441777746633e+02,-3.039231402242485274e+02,-3.624607802106904728e+02,-4.984899782775610220e+02,-4.510188311719648482e+02,-4.195465023098231541e+02,-3.792306542695791904e+02,9.484992027282714844e+00,-8.031646609306335449e-01,0.000000000000000000e+00,2.870000000000000000e+02
-4.683068917447299100e+02,-3.714363548002297648e+02,-3.049765451047710485e+02,-3.612926518184103770e+02,-4.993807233850438934e+02,-4.503066824347115471e+02,-4.210343280463425799e+02,-3.762815550886086839e+02,9.484992027282714844e+00,-8.031646609306335449e-01,0.000000000000000000e+00,2.880000000000000000e+02
-4.712516086930813231e+02,-3.754152703491321859e+02,-3.068132485707169508e+02,-3.611142030438626307e+02,-5.004042797829324627e+02,-4.496714043989671836e+02,-4.227506747352711045e+02,-3.743457970019015306e+02,9.484992027282714844e+00,-8.031646609306335449e-01,0.000000000000000000e+00,2.890000000000000000e+02
-4.758790540061323782e+02,-3.793902271868171852e+02,-3.098324128597218987e+02,-3.632456490092574768e+02,-5.032220910371679565e+02,-4.509714726293784111e+02,-4.254038529654425815e+02,-3.754453545057903057e+02,9.484992027282714844e+00,-8.031646609306335449e-01,0.000000000000000000e+00,2.900000000000000000e+02
-4.813614671598618315e+02,-3.836595416085749548e+02,-3.133566437860077372e+02,-3.679437745973217488e+02,-5.081801295590745440e+02,-4.547715223386330194e+02,-4.290238848790741599e+02,-3.797210729653895669e+02,9.484992027282714844e+00,-8.031646609306335449e-01,0.000000000000000000e+00,2.910000000000000000e+02
-4.871517519999516139e+02,-3.886891592940309010e+02,-3.170234355528122023e+02,-3.747098644455816725e+02,-5.146990984586070681e+02,-4.604689660543896821e+02,-4.335064006170524635e+02,-3.862312451846354406e+02,9.484992027282714844e+00,-8.031646609306335449e-01,0.000000000000000000e+00,2.920000000000000000e+02
-4.935269543381123754e+02,-3.948107287115124677e+02,-3.214169746659143811e+02,-3.824938292014222725e+02,-5.220807470518682294e+02,-4.670057752523539989e+02,-4.389642311928553227e+02,-3.937825284896815106e+02,9.484992027282714844e+00,-8.031646609306335449e-01,0.000000000000000000e+00,2.930000000000000000e+02
-5.006860544494779219e+02,-4.015094397374458026e+02,-3.271108864968354624e+02,-3.896528173788235563e+02,-5.297031668378244831e+02,-4.733332462198346207e+02,-4.453108831445036344e+02,-4.010248444985537049e+02,9.484992027282714844e+00,-8.031646609306335449e-01,0.000000000000000000e+00,2.940000000000000000e+02
-5.076845170292640432e+02,-4.072957955068877141e+02,-3.333856415463302483e+02,-3.943722556422205798e+02,-5.367199297941065197e+02,-4.785608684585171204e+02,-4.517001676401039276e+02,-4.064566828558914722e+02,9.484992027282714844e+00,-8.031646609306335449e-01,0.000000000000000000e+00,2.950000000000000000e+02
-5.128874319671615467e+02,-4.108466042057716550e+02,-3.384826257578910713e+02,-3.959554942137734770e+02,-5.421877838602426891e+02,-4.822962528457463804e+02,-4.568708990638774026e+02,-4.092438142254936224e+02,9.484992027282714844e+00,-8.031646609306335449e-01,0.000000000000000000e+00,2.960000000000000000e+02
-5.159300731485110418e+02,-4.127045110833336707e+02,-3.415852459912099448e+02,-3.961182358931625913e+02,-5.460091038685056901e+02,-4.853129207452270748e+02,-4.604553544588610521e+02,-4.105063350684376360e+02,9.484992027282714844e+00,-8.031646609306335449e-01,0.000000000000000000e+00,2.970000000000000000e+02
-5.192164114756535582e+02,-4.158179298032122233e+02,-3.445619430724646008e+02,-3.987424246693907435e+02,-5.497964528614011215e+02,-4.898296882298145647e+02,-4.639853451973040137e+02,-4.135606250917053899e+02,9.484992027282714844e+00,-8.031646609306335449e-01,0.000000000000000000e+00,2.980000000000000000e+02
-5.270242147372474619e+02,-4.239486120537449096e+02,-3.513531606535807441e+02,-4.076202071420436255e+02,-5.564184175786058404e+02,-4.986131279520834596e+02,-4.703010849801254949e+02,-4.221700367743778770e+02,9.484992027282714844e+00,-8.031646609306335449e-01,0.000000000000000000e+00,2.990000000000000000e+02
-5.424436989120470116e+02,-4.389401409426831151e+02,-3.650533069110234123e+02,-4.236789163955906474e+02,-5.681342077584031358e+02,-5.131481871107400821e+02,-4.815412113457047099e+02,-4.377787465519522243e+02,9.484992027282714844e+00,-8.031646609306335449e-01,0.000000000000000000e+00,3.000000000000000000e+02
-5.645562381135957821e+02,-4.590525503018678251e+02,-3.850647915044557976e+02,-4.439589995389818569e+02,-5.847000936023783879e+02,-5.322153844028405274e+02,-4.973548483831844464e+02,-4.579671355927590639e+02,9.484992027282714844e+00,-8.031646609306335449e-01,0.000000000000000000e+00,3.010000000000000000e+02
-5.882955175364015759e+02,-4.797739565345800656e+02,-4.068467040361028921e+02,-4.632961309023428953e+02,-6.031017916596020996e+02,-5.521533084990012412e+02,-5.148980934838170924e+02,-4.775784731617265493e+02,9.484992027282714844e+00,-8.031646609306335449e-01,0.000000000000000000e+00,3.020000000000000000e+02
-6.072760733018855035e+02,-4.964620367308370419e+02,-4.245927487897969286e+02,-4.774105191165539281e+02,-6.192518452703264984e+02,-5.687897541704942341e+02,-5.306047927935055668e+02,-4.917724476586720357e+02,9.484992027282714844e+00,-8.031646609306335449e-01,0.000000000000000000e+00,3.030000000000000000e+02
-6.175257285759928436e+02,-5.068047500083310979e+02,-4.347464722329277151e+02,-4.850611837025238628e+02,-6.303755182676545701e+02,-5.796853773025385408e+02,-5.422456847999885667e+02,-4.987157006893444304e+02,9.484992027282714844e+00,-8.031646609306335449e-01,0.000000000000000000e+00,3.040000000000000000e+02
-6.194898330054281814e+02,-5.115088910377850198e+02,-4.377564250871724880e+02,-4.879282426377770321e+02,-6.363555864682898573e+02,-5.851454562748654098e+02,-5.497635754276218449e+02,-5.000688395121741223e+02,9.484992027282714844e+00,-8.031646609306335449e-01,0.000000000000000000e+00,3.050000000000000000e+02
-6.171555289154449611e+02,-5.131816966115569585e+02,-4.371062109655184713e+02,-4.888120068742105673e+02,-6.392700314407786664e+02,-5.874982001515534193e+02,-5.545992964259180553e+02,-4.992891163647396411e+02,9.484992027282714844e+00,-8.031646609306335449e-01,0.000000000000000000e+00,3.060000000000000000e+02
-6.152428090267274001e+02,-5.145478998096531313e+02,-4.367434061774357588e+02,-4.897843978400956075e+02,-6.417301815787496935e+02,-5.893894771497798502e+02,-5.583900696900493585e+02,-4.992920746145044859e+02,9.484992027282714844e+00,-8.031646609306335449e-01,0.000000000000000000e+00,3.070000000000000000e+02
-6.164560189016756340e+02,-5.171063978280209312e+02,-4.388217430505628158e+02,-4.914156164811606118e+02,-6.452617205245124978e+02,-5.922831106167687949e+02,-5.620346144068662397e+02,-5.010392613439295815e+02,9.484992027282714844e+00,-8.031646609306335449e-01,0.000000000000000000e+00,3.080000000000000000e+02
-6.203639417416505921e+02,-5.206441806548084514e+02,-4.429484490559125334e+02,-4.930532516880302865e+02,-6.496356766657647768e+02,-5.959287010472536394e+02,-5.654711976240794229e+02,-5.035431155253840529e+02,9.484992027282714844e+00,-8.031646609306335449e-01,0.000000000000000000e+00,3.090000000000000000e+02
-6.242256559285772255e+02,-5.235355907906957782e+02,-4.468901596957632592e+02,-4.935152929387558061e+02,-6.532923703156548072e+02,-5.988334702444609547e+02,-5.679536272182610901e+02,-5.047981628037334758e+02,9.484992027282714844e+00,-8.031646609306335449e-01,0.000000000000000000e+00,3.100000000000000000e+02
-6.249420519390413347e+02,-5.236435399653362310e+02,-4.479787340379789384e+02,-4.917163555652895752e+02,-6.543835309855405740e+02,-5.992760708608375353e+02,-5.685309030111452557e+02,-5.029062982836679794e+02,9.484992027282714844e+00,-8.031646609306335449e-01,0.000000000000000000e+00,3.110000000000000000e+02
-6.208562838755293569e+02,-5.195255057820891125e+02,-4.444446013357717220e+02,-4.870814046086039752e+02,-6.517599034283957735e+02,-5.962500416704418740e+02,-5.665525944086261916e+02,-4.969025687827603974e+02,9.484992027282714844e+00,-8.796565532684326172e-01,3.824593871831893921e-02,3.120000000000000000e+02
-6.124085288211426814e+02,-5.113261580182258399e+02,-4.361770481271347535e+02,-4.796784762924742154e+02,-6.453988606072772427e+02,-5.898458698889626248e+02,-5.620090973930570044e+02,-4.870601474346651685e+02,9.484992027282714844e+00,-8.796565532684326172e-01,3.824593871831893921e-02,3.130000000000000000e+02
-6.015089286862967128e+02,-5.007467777957084536e+02,-4.247355262111935872e+02,-4.700645830224161728e+02,-6.362098184440862951e+02,-5.809882071443349787e+02,-5.555131307366571036e+02,-4.747038156404203733e+02,9.484992027282714844e+00,-8.796565532684326172e-01,3.824593871831893921e-02,3.140000000000000000e+02
-5.903589924358263943e+02,-4.901087797984032477e+02,-4.127378531839283937e+02,-4.590635629925701551e+02,-6.255877173101584958e+02,-5.709073331077836428e+02,-5.479669483985823035e+02,-4.617588020475077428e+02,9.484992027282714844e+00,-8.796565532684326172e-01,3.824593871831893921e-02,3.150000000000000000e+02
-5.806401042538848287e+02,-4.812600444950107885e+02,-4.029295263918077126e+02,-4.477704413647887236e+02,-6.150945076427924505e+02,-5.608352308939483919e+02,-5.402227777287907884e+02,-4.502837012086122854e+02,9.484992027282714844e+00,-8.796565532684326172e-01,3.824593871831893921e-02,3.160000000000000000e+02
-5.733863863800094123e+02,-4.751362552330913331e+02,-3.972763655439473496e+02,-4.377404789493597264e+02,-6.062851829089992179e+02,-5.520441737573411274e+02,-5.330131378146802490e+02,-4.420547608948643301e+02,9.484992027282714844e+00,-8.796565532684326172e-01,3.824593871831893921e-02,3.170000000000000000e+02
-5.690580491213046344e+02,-4.720159163331886134e+02,-3.962979255573767432e+02,-4.308182046421657674e+02,-6.003485427894355553e+02,-5.458151850002282117e+02,-5.270296989475903047e+02,-4.380286447767758773e+02,9.484992027282714844e+00,-8.796565532684326172e-01,3.824593871831893921e-02,3.180000000000000000e+02
-5.672346468993422377e+02,-4.717528808562174731e+02,-3.987550463340086822e+02,-4.281350547993954478e+02,-5.974110532622370329e+02,-5.428673602397980176e+02,-5.227509588602658823e+02,-4.376001621821854428e+02,9.484992027282714844e+00,-8.796565532684326172e-01,3.824593871831893921e-02,3.190000000000000000e+02
-5.661209255987536153e+02,-4.734434382502204244e+02,-4.018622516371405027e+02,-4.287366288606176568e+02,-5.959718518336954958e+02,-5.424456630337776915e+02,-5.199113919897897631e+02,-4.381480776788948788e+02,9.484992027282714844e+00,-8.796565532684326172e-01,3.824593871831893921e-02,3.200000000000000000e+02
-5.627729111049554831e+02,-4.749693026518676788e+02,-4.022197807884599570e+02,-4.292157983882066219e+02,-5.932514601210489218e+02,-5.420146969472401679e+02,-5.171238197799805221e+02,-4.357365354907499295e+02,9.484992027282714844e+00,-8.796565532684326172e-01,3.824593871831893921e-02,3.210000000000000000e+02
-5.546184952041621727e+02,-4.734260529466758385e+02,-3.973663858202378378e+02,-4.253627167958964037e+02,-5.866896865698495276e+02,-5.383648374778188099e+02,-5.123449310610124030e+02,-4.272410095864958066e+02,9.484992027282714844e+00,-8.796565532684326172e-01,3.824593871831893921e-02,3.220000000000000000e+02
-5.414882440147255238e+02,-4.667023354775635653e+02,-3.872436074760341853e+02,-4.150668032995084786e+02,-5.757242704079236546e+02,-5.297187428473800992e+02,-5.041871037226474073e+02,-4.127317888854863099e+02,9.484992027282714844e+00,-8.796565532684326172e-01,3.824593871831893921e-02,3.230000000000000000e+02
-5.263295595787064940e+02,-4.550814461974566711e+02,-3.744999297433843140e+02,-4.001398641583276685e+02,-5.624124510169333462e+02,-5.172182470659505498e+02,-4.931179115933933303e+02,-3.960591679585648990e+02,9.484992027282714844e+00,-8.796565532684326172e-01,3.824593871831893921e-02,3.240000000000000000e+02
-5.134923850547654638e+02,-4.412714615523109956e+02,-3.630867815924092383e+02,-3.852055723447836044e+02,-5.501817256706175385e+02,-5.043327744058448161e+02,-4.813973885353698279e+02,-3.825759043544156839e+02,9.484992027282714844e+00,-8.796565532684326172e-01,3.824593871831893921e-02,3.250000000000000000e+02
-5.056107743606510212e+02,-4.285079732584815702e+02,-3.558572953857860739e+02,-3.742804941780449894e+02,-5.415227173086826724e+02,-4.943997398769079155e+02,-4.715742180869009417e+02,-3.753900970016098881e+02,9.484992027282714844e+00,-8.796565532684326172e-01,3.824593871831893921e-02,3.260000000000000000e+02
-5.016544496003491531e+02,-4.182488173565035368e+02,-3.528432089456113658e+02,-3.678851718473997607e+02,-5.364066526003027775e+02,-4.882346465674893352e+02,-4.646964373694727328e+02,-3.731516594182423887e+02,9.484992027282714844e+00,-8.796565532684326172e-01,3.824593871831893921e-02,3.270000000000000000e+02
-4.979225642084265360e+02,-4.095035202601123956e+02,-3.515052701164670452e+02,-3.631600562282006308e+02,-5.326250101688924588e+02,-4.838016470489676522e+02,-4.597204368695873882e+02,-3.713248067567994894e+02,9.484992027282714844e+00,-8.796565532684326172e-01,3.824593871831893921e-02,3.280000000000000000e+02
-4.911668296416888779e+02,-4.003583014525295880e+02,-3.487192038060213690e+02,-3.567465996645336190e+02,-5.276483757254221700e+02,-4.781769992298073362e+02,-4.545785281591658986e+02,-3.659054048934915500e+02,9.484992027282714844e+00,-8.796565532684326172e-01,3.824593871831893921e-02,3.290000000000000000e+02
-4.810704943792339350e+02,-3.901393468712979598e+02,-3.428513196729326751e+02,-3.476726392826262781e+02,-5.203933280572400690e+02,-4.700035092290942202e+02,-4.478960521520451721e+02,-3.563241503527456189e+02,9.484992027282714844e+00,-8.796565532684326172e-01,3.824593871831893921e-02,3.300000000000000000e+02
-4.699667960034175849e+02,-3.800923862770930555e+02,-3.343349141605067416e+02,-3.376590980232789434e+02,-5.115232562459566452e+02,-4.602771847694635312e+02,-4.398335720814478691e+02,-3.451123497303967724e+02,9.484992027282714844e+00,-8.796565532684326172e-01,3.824593871831893921e-02,3.310000000000000000e+02
-4.603590144546374177e+02,-3.720115583054682702e+02,-3.246144837515589643e+02,-3.289266887601867779e+02,-5.023232125476187662e+02,-4.509786165632569919e+02,-4.314675194725889469e+02,-3.350232649077646556e+02,9.484992027282714844e+00,-8.796565532684326172e-01,3.824593871831893921e-02,3.320000000000000000e+02
-4.528203589343398789e+02,-3.663443042993847030e+02,-3.147802957269847184e+02,-3.219828799194129942e+02,-4.934196023930717274e+02,-4.430876595876769670e+02,-4.235339008369899148e+02,-3.266202850836112361e+02,9.484992027282714844e+00,-8.414105772972106934e-01,0.000000000000000000e+00,3.330000000000000000e+02
-4.462421598002167684e+02,-3.617843793766083991e+02,-3.052712689354564191e+02,-3.156276686972645962e+02,-4.845910136326526754e+02,-4.359703909535745083e+02,-4.158852703684915468e+02,-3.186061922963393727e+02,9.484992027282714844e+00,-8.414105772972106934e-01,0.000000000000000000e+00,3.340000000000000000e+02
-4.398384284252210819e+02,-3.567449991388455146e+02,-2.966701478255871507e+02,-3.088986880049301362e+02,-4.757113499442643842e+02,-4.285984295302504279e+02,-4.081441627559428298e+02,-3.101825952812987452e+02,9.484992027282714844e+00,-8.414105772972106934e-01,0.000000000000000000e+00,3.350000000000000000e+02
-4.345060641097518896e+02,-3.511079940462649347e+02,-2.903195556503840749e+02,-3.026162769800070009e+02,-4.676734996442345391e+02,-4.211468781198431088e+02,-4.006871604112109253e+02,-3.026501571204399852e+02,9.484992027282714844e+00,-8.414105772972106934e-01,0.000000000000000000e+00,3.360000000000000000e+02
-4.319407007935643605e+02,-3.463675677390117471e+02,-2.876478426846033472e+02,-2.987153768945876209e+02,-4.621253411238928948e+02,-4.151669823625269373e+02,-3.947149067603129424e+02,-2.983925833301028092e+02,9.484992027282714844e+00,-8.414105772972106934e-01,0.000000000000000000e+00,3.370000000000000000e+02
-4.324057027990240272e+02,-3.439700205271914797e+02,-2.885685524682192522e+02,-2.980212555150528146e+02,-4.600187485319848975e+02,-4.120532250485221084e+02,-3.911560651537657805e+02,-2.982420138711936488e+02,9.484992027282714844e+00,-8.414105772972106934e-01,0.000000000000000000e+00,3.380000000000000000e+02
-4.336472705432282737e+02,-3.435839560451303782e+02,-2.906337095898458642e+02,-2.988859507257925543e+02,-4.602975842395865129e+02,-4.113671074460746695e+02,-3.895104100703625818e+02,-3.000381395985239124e+02,9.484992027282714844e+00,-8.414105772972106934e-01,0.000000000000000000e+00,3.390000000000000000e+02
-4.324099793417104252e+02,-3.431491734216548934e+02,-2.902526076944091642e+02,-2.982810001372293982e+02,-4.601694529492103811e+02,-4.108301523509164781e+02,-3.879751684446015361e+02,-3.000746887589649532e+02,9.484992027282714844e+00,-8.414105772972106934e-01,0.000000000000000000e+00,3.400000000000000000e+02
-4.273663361728216614e+02,-3.407424460314941825e+02,-2.853963265140138219e+02,-2.944367171594573733e+02,-4.570608672214091257e+02,-4.081832221497475075e+02,-3.849688258990856866e+02,-2.962541301036512778e+02,9.484992027282714844e+00,-8.414105772972106934e-01,0.000000000000000000e+00,3.410000000000000000e+02
-4.207059114805130093e+02,-3.364405909137815911e+02,-2.775849007776871531e+02,-2.885138961567906222e+02,-4.507430034228738123e+02,-4.032413360999537417e+02,-3.806757383570618458e+02,-2.900423173694807701e+02,9.484992027282714844e+00,-8.414105772972106934e-01,0.000000000000000000e+00,3.420000000000000000e+02
-4.167251794484238872e+02,-3.323539623678233852e+02,-2.712433518454607793e+02,-2.837275532658829889e+02,-4.437573162200886827e+02,-3.982084222068211830e+02,-3.770521691971979408e+02,-2.854088697370818863e+02,9.484992027282714844e+00,-8.414105772972106934e-01,0.000000000000000000e+00,3.430000000000000000e+02
-4.184838057400002072e+02,-3.308332786202059310e+02,-2.706473941766139433e+02,-2.827914042862532824e+02,-4.396398974592899549e+02,-3.959350896676417051e+02,-3.761569437814517869e+02,-2.857169785579040422e+02,9.484992027282714844e+00,-8.414105772972106934e-01,0.000000000000000000e+00,3.440000000000000000e+02
-4.253846937014217815e+02,-3.326138893468954620e+02,-2.768173343101133241e+02,-2.860442230654875289e+02,-4.403685172530555292e+02,-3.977162833814993519e+02,-3.783325639570722387e+02,-2.913103017072173770e+02,9.484992027282714844e+00,-8.414105772972106934e-01,0.000000000000000000e+00,3.450000000000000000e+02
-4.337604384352591751e+02,-3.366203080718761953e+02,-2.868863891274658044e+02,-2.917755041018701831e+02,-4.451451538912333490e+02,-4.025732462014977955e+02,-3.819604345802205216e+02,-2.997678110321711529e+02,9.484992027282714844e+00,-8.414105772972106934e-01,0.000000000000000000e+00,3.460000000000000000e+02
-4.399188268187641597e+02,-3.414368247748258227e+02,-2.964426781929702202e+02,-2.981025333567895359e+02,-4.514299200670213850e+02,-4.084876600127630581e+02,-3.850217055524897205e+02,-3.083054184384920973e+02,9.484992027282714844e+00,-8.414105772972106934e-01,0.000000000000000000e+00,3.470000000000000000e+02
-4.430354666905590193e+02,-3.468208408911386869e+02,-3.028692514262672830e+02,-3.044483895407815339e+02,-4.571490457905565563e+02,-4.142424298072920692e+02,-3.869617244967939769e+02,-3.160020433509401983e+02,9.484992027282714844e+00,-8.414105772972106934e-01,0.000000000000000000e+00,3.480000000000000000e+02
-4.455607248792041446e+02,-3.537593054890854773e+02,-3.069781304154660120e+02,-3.114066228668945655e+02,-4.621063504109174573e+02,-4.201485494734305348e+02,-3.891263617122297092e+02,-3.239812222061349303e+02,9.484992027282714844e+00,-8.414105772972106934e-01,0.000000000000000000e+00,3.490000000000000000e+02
-4.510455292651520267e+02,-3.632045694037885823e+02,-3.118449920594280229e+02,-3.196017456037963029e+02,-4.675965361568451044e+02,-4.272493646646897787e+02,-3.934964866135776447e+02,-3.337914830129025177e+02,9.484992027282714844e+00,-8.414105772972106934e-01,0.000000000000000000e+00,3.500000000000000000e+02
-4.614850435649275369e+02,-3.750465218656580078e+02,-3.202314997087222537e+02,-3.291079453948707396e+02,-4.750063575136681493e+02,-4.361642138185285376e+02,-4.010991495154453332e+02,-3.459263957882843670e+02,9.484992027282714844e+00,-8.414105772972106934e-01,0.000000000000000000e+00,3.510000000000000000e+02
-4.764138974089328258e+02,-3.885146155882900416e+02,-3.329506493856854377e+02,-3.400786550475615968e+02,-4.849371917399604399e+02,-4.468827843820992030e+02,-4.116203935014873423e+02,-3.599634469325038708e+02,9.484992027282714844e+00,-8.414105772972106934e-01,0.000000000000000000e+00,3.520000000000000000e+02
-4.941402098217062075e+02,-4.034969009341431274e+02,-3.492703704532659685e+02,-3.536159893813247663e+02,-4.974980184847788678e+02,-4.595476167061227670e+02,-4.243548266304613890e+02,-3.758801328481890778e+02,9.484992027282714844e+00,-8.414105772972106934e-01,0.000000000000000000e+00,3.530000000000000000e+02
-5.134851248936680577e+02,-4.210653285739310832e+02,-3.683152451401811049e+02,-3.714002824751812568e+02,-5.129616103451407980e+02,-4.750010206678838358e+02,-4.392173208672296596e+02,-3.946883482229686706e+02,9.484992027282714844e+00,-8.414105772972106934e-01,0.000000000000000000e+00,3.540000000000000000e+02
-5.340756046530714229e+02,-4.421661810995781252e+02,-3.895544743460804966e+02,-3.938275885343368827e+02,-5.315557980427537359e+02,-4.940138629684885245e+02,-4.565465807736453598e+02,-4.171343347373504002e+02,9.484992027282714844e+00,-8.414105772972106934e-01,0.000000000000000000e+00,3.550000000000000000e+02
-5.549210693934471692e+02,-4.654314107908765550e+02,-4.117233637906851982e+02,-4.181899287545863899e+02,-5.522478093537993118e+02,-5.155974790976267741e+02,-4.757965994416782678e+02,-4.414278464164144680e+02,9.484992027282714844e+00,-8.414105772972106934e-01,0.000000000000000000e+00,3.560000000000000000e+02
-5.729900294433118688e+02,-4.863597940564327473e+02,-4.315474827939451643e+02,-4.389080390079382141e+02,-5.718006018309291676e+02,-5.360975853752808007e+02,-4.945306880912069118e+02,-4.624739103186749389e+02,9.484992027282714844e+00,-8.414105772972106934e-01,0.000000000000000000e+00,3.570000000000000000e+02
-5.837645929072504032e+02,-4.992380641027730803e+02,-4.442378107478700713e+02,-4.502799469294726578e+02,-5.855453110554433351e+02,-5.504221109661594937e+02,-5.090143199579624707e+02,-4.741406659230570995e+02,9.484992027282714844e+00,-8.796565532684326172e-01,0.000000000000000000e+00,3.580000000000000000e+02
-5.839275456388562588e+02,-5.007428658748044654e+02,-4.461327759353309830e+02,-4.499542727173311505e+02,-5.898711697945619790e+02,-5.549214144911504718e+02,-5.162514619669650529e+02,-4.733033102089261774e+02,9.484992027282714844e+00,-8.796565532684326172e-01,0.000000000000000000e+00,3.590000000000000000e+02
-5.740603372431933167e+02,-4.923790877654396354e+02,-4.375051319024988743e+02,-4.404294213422034545e+02,-5.846549152876846165e+02,-5.497800067585766328e+02,-5.158871976483324033e+02,-4.623418355577147167e+02,9.484992027282714844e+00,-8.796565532684326172e-01,0.000000000000000000e+00,3.600000000000000000e+02
-5.588019543857540157e+02,-4.795832300394940830e+02,-4.228982966913999917e+02,-4.272985939435255887e+02,-5.735364372041466368e+02,-5.389176771549261957e+02,-5.103606680951331782e+02,-4.476907333064307295e+02,9.484992027282714844e+00,-8.796565532684326172e-01,0.000000000000000000e+00,3.610000000000000000e+02
-5.439703589836570927e+02,-4.680330635213874757e+02,-4.082981350409031620e+02,-4.155598573958424140e+02,-5.615625796135108203e+02,-5.273645895924224760e+02,-5.031211332923862756e+02,-4.353563840817460004e+02,9.484992027282714844e+00,-8.796565532684326172e-01,0.000000000000000000e+00,3.620000000000000000e+02
-5.328543562350661205e+02,-4.600730593920051206e+02,-3.972714103327962221e+02,-4.068236021542950311e+02,-5.519233862588761212e+02,-5.181247649822207677e+02,-4.963338545834033084e+02,-4.270317362630812568e+02,9.484992027282714844e+00,-8.796565532684326172e-01,0.000000000000000000e+00,3.630000000000000000e+02
-5.246763589699074828e+02,-4.540147753394646770e+02,-3.892070305409440607e+02,-3.993681122641189631e+02,-5.443186157334830568e+02,-5.108898630226115074e+02,-4.898737368338024680e+02,-4.199320468483801960e+02,9.484992027282714844e+00,-8.796565532684326172e-01,0.000000000000000000e+00,3.640000000000000000e+02
-5.163222523920849198e+02,-4.465635721886616238e+02,-3.809617343864166514e+02,-3.905640197260303239e+02,-5.361198594781018301e+02,-5.033349501858554049e+02,-4.822543258037112537e+02,-4.101744752969445926e+02,9.484992027282714844e+00,-8.796565532684326172e-01,0.000000000000000000e+00,3.650000000000000000e+02
-5.055931408699269696e+02,-4.360236310862903792e+02,-3.702087179124424665e+02,-3.793745115237825303e+02,-5.251283304283972484e+02,-4.935931598273527925e+02,-4.724853710211616544e+02,-3.965020738934833844e+02,9.484992027282714844e+00,-8.796565532684326172e-01,0.000000000000000000e+00,3.660000000000000000e+02
-4.931101506867728403e+02,-4.235727397493159287e+02,-3.574943226190416681e+02,-3.669880105553218073e+02,-5.115410520861246368e+02,-4.818095094270868231e+02,-4.612003233752743654e+02,-3.812107756524608249e+02,9.484992027282714844e+00,-8.796565532684326172e-01,0.000000000000000000e+00,3.670000000000000000e+02
-4.814917286278907795e+02,-4.119220535859292340e+02,-3.454863286169043022e+02,-3.555402375314176879e+02,-4.976748183246349981e+02,-4.697908262302780713e+02,-4.502058749176151196e+02,-3.679737392315817033e+02,9.484992027282714844e+00,-8.796565532684326172e-01,0.000000000000000000e+00,3.680000000000000000e+02
-4.729688808931284711e+02,-4.030219279180304284e+02,-3.365561347921770903e+02,-3.464697774316016421e+02,-4.860743871257418505e+02,-4.595099201753755551e+02,-4.410825008861636434e+02,-3.589974118731031467e+02,9.484992027282714844e+00,-8.796565532684326172e-01,0.000000000000000000e+00,3.690000000000000000e+02
-4.677457713413165266e+02,-3.969676447893377826e+02,-3.310986447595951176e+02,-3.399441750428252362e+02,-4.778707874626916237e+02,-4.519354070828794647e+02,-4.342114430139465640e+02,-3.540509729152154250e+02,9.484992027282714844e+00,-8.796565532684326172e-01,0.000000000000000000e+00,3.700000000000000000e+02
-4.642762576224575923e+02,-3.926842179767128300e+02,-3.278163672230809880e+02,-3.353755912488322792e+02,-4.726019125009479467e+02,-4.469043312304870597e+02,-4.289615507362148037e+02,-3.516363927910215352e+02,9.484992027282714844e+00,-8.796565532684326172e-01,0.000000000000000000e+00,3.710000000000000000e+02
-4.607140880613571881e+02,-3.891902425052909393e+02,-3.251283490383603976e+02,-3.320338590652750099e+02,-4.691294029415096247e+02,-4.436182100938760868e+02,-4.245647558130563084e+02,-3.505316208934739279e+02,9.484992027282714844e+00,-8.796565532684326172e-01,0.000000000000000000e+00,3.720000000000000000e+02
-4.560666543603866785e+02,-3.860647336156123401e+02,-3.221454070227325701e+02,-3.291226756082494376e+02,-4.664663438243653673e+02,-4.410471705014870167e+02,-4.206949038649122485e+02,-3.501409962525249284e+02,9.484992027282714844e+00,-8.796565532684326172e-01,0.000000000000000000e+00,3.730000000000000000e+02
-4.503992436884867629e+02,-3.830468753654199645e+02,-3.186587496647838407e+02,-3.257211285412033703e+02,-4.639228360265999527e+02,-4.381394340842712154e+02,-4.173400724573129992e+02,-3.498644673144633543e+02,9.484992027282714844e+00,-8.796565532684326172e-01,0.000000000000000000e+00,3.740000000000000000e+02
-4.445031931971726635e+02,-3.797626975529874471e+02,-3.148134227561426997e+02,-3.212621608298939009e+02,-4.609822514311608757e+02,-4.342101847105268462e+02,-4.144208202071729374e+02,-3.488165599584415304e+02,9.484992027282714844e+00,-8.796565532684326172e-01,0.000000000000000000e+00,3.750000000000000000e+02
-4.395649409640597014e+02,-3.761676375844474478e+02,-3.111274225437543919e+02,-3.163428340697566910e+02,-4.574705923659473683e+02,-4.295182964747027654e+02,-4.117543998837604704e+02,-3.464904874618978283e+02,9.484992027282714844e+00,-8.796565532684326172e-01,0.000000000000000000e+00,3.760000000000000000e+02
-4.367389281811531418e+02,-3.730429289477400516e+02,-3.085425940706641086e+02,-3.127676311593022547e+02,-4.538240996955973969e+02,-4.253579821722005363e+02,-4.093229930465079178e+02,-3.434502147008975044e+02,9.484992027282714844e+00,-8.796565532684326172e-01,0.000000000000000000e+00,3.770000000000000000e+02
-4.363510175940931504e+02,-3.715196159694990001e+02,-3.078115010786474386e+02,-3.121763250004678412e+02,-4.508054448427474199e+02,-4.231027854207238761e+02,-4.073001647229925766e+02,-3.408761368421502311e+02,9.484992027282714844e+00,-8.796565532684326172e-01,0.000000000000000000e+00,3.780000000000000000e+02
-4.371662394492409476e+02,-3.717586939922587135e+02,-3.084308861597100986e+02,-3.142146414480712338e+02,-4.486371481604576275e+02,-4.227685104787294676e+02,-4.056365743299477344e+02,-3.391877489374493280e+02,9.484992027282714844e+00,-8.796565532684326172e-01,0.000000000000000000e+00,3.790000000000000000e+02
-4.367623097013488405e+02,-3.722408247755000730e+02,-3.084084037188581533e+02,-3.161897362276342847e+02,-4.464854471744392868e+02,-4.225608080380154661e+02,-4.037394619442679868e+02,-3.373547200314305883e+02,9.484992027282714844e+00,-8.796565532684326172e-01,0.000000000000000000e+00,3.800000000000000000e+02
-4.333710621497099282e+02,-3.708775196687906828e+02,-3.057487380492725606e+02,-3.150894056355919020e+02,-4.431837573671286918e+02,-4.202727326109818478e+02,-4.008959318631036695e+02,-3.340407949480427305e+02,9.484992027282714844e+00,-8.796565532684326172e-01,0.000000000000000000e+00,3.810000000000000000e+02
-4.278812293244525335e+02,-3.672590238784883923e+02,-3.006821459573425273e+02,-3.104667168723022996e+02,-4.387608292256152254e+02,-4.155471696187287307e+02,-3.972428363573399110e+02,-3.296433623521785421e+02,9.484992027282714844e+00,-8.796565532684326172e-01,0.000000000000000000e+00,3.820000000000000000e+02
-4.239170690667012877e+02,-3.637941376480539475e+02,-2.963556076263712384e+02,-3.054413322940326907e+02,-4.351514666350842617e+02,-4.108175099202846923e+02,-3.942201043301556638e+02,-3.269222391637496230e+02,9.484992027282714844e+00,-8.796565532684326172e-01,0.000000000000000000e+00,3.830000000000000000e+02
-4.252711980679423505e+02,-3.641926415416777445e+02,-2.967222274590485540e+02,-3.044770948239204245e+02,-4.349541161573006320e+02,-4.096547305116782809e+02,-3.937058824932985317e+02,-3.289860624363871011e+02,9.484992027282714844e+00,-8.796565532684326172e-01,0.000000000000000000e+00,3.840000000000000000e+02
-4.324949000566002724e+02,-3.702372081185083061e+02,-3.030456984441429995e+02,-3.095560327600576329e+02,-4.390106965410302564e+02,-4.136490467055391491e+02,-3.963327506456842002e+02,-3.360839842589434738e+02,9.484992027282714844e+00,-8.414105772972106934e-01,-3.824593871831893921e-02,3.850000000000000000e+02
-4.416530217846639061e+02,-3.796648036807468998e+02,-3.121270132948823175e+02,-3.180640845980270797e+02,-4.450035616112736534e+02,-4.205470316975922742e+02,-4.004979106790735841e+02,-3.442446865063500354e+02,9.484992027282714844e+00,-8.414105772972106934e-01,-3.824593871831893921e-02,3.860000000000000000e+02
-4.466281286505059143e+02,-3.872011378166230315e+02,-3.181041173054873070e+02,-3.243368452446823085e+02,-4.485622730548006984e+02,-4.254283125696074421e+02,-4.031264160468688260e+02,-3.474288751135463826e+02,9.484992027282714844e+00,-8.414105772972106934e-01,-3.824593871831893921e-02,3.870000000000000000e+02
-4.432672057392171610e+02,-3.880290029409767385e+02,-3.165030064882707848e+02,-3.236239078818214239e+02,-4.461377511419420898e+02,-4.240584752115228184e+02,-4.016755929263858889e+02,-3.417180231255340459e+02,9.484992027282714844e+00,-8.414105772972106934e-01,-3.824593871831893921e-02,3.880000000000000000e+02
-4.320135887951441873e+02,-3.808553587275933978e+02,-3.071905847224224999e+02,-3.151870613813556474e+02,-4.373003894842493082e+02,-4.156692163290590543e+02,-3.957409795168061919e+02,-3.280896157493807550e+02,9.484992027282714844e+00,-8.414105772972106934e-01,-3.824593871831893921e-02,3.890000000000000000e+02
-4.170402595955706602e+02,-3.682457784223925046e+02,-2.939217215194285018e+02,-3.022111442535772312e+02,-4.246908793055235947e+02,-4.030433732178591981e+02,-3.870319419378431576e+02,-3.115093888391734254e+02,9.484992027282714844e+00,-8.414105772972106934e-01,-3.824593871831893921e-02,3.900000000000000000e+02
-4.029384512162525880e+02,-3.543616374939884963e+02,-2.812093652263858985e+02,-2.890525519110226469e+02,-4.119171011038122288e+02,-3.901652060083640663e+02,-3.779380384507069266e+02,-2.972419997750191669e+02,9.484992027282714844e+00,-8.414105772972106934e-01,-3.824593871831893921e-02,3.910000000000000000e+02
-3.918546824307741190e+02,-3.422327792946437057e+02,-2.713412810153454302e+02,-2.783694019270240005e+02,-4.012509538453657569e+02,-3.795633221511086504e+02,-3.699763428490086881e+02,-2.874646016450735715e+02,9.484992027282714844e+00,-8.414105772972106934e-01,-3.824593871831893921e-02,3.920000000000000000e+02
-3.831028762839218871e+02,-3.325776564790118073e+02,-2.637524688522209999e+02,-2.702438235604529382e+02,-3.927664420380010597e+02,-3.713064312822500597e+02,-3.632186914057861031e+02,-2.806856239285280026e+02,9.484992027282714844e+00,-8.414105772972106934e-01,-3.824593871831893921e-02,3.930000000000000000e+02
-3.748918994500627377e+02,-3.245012979768320065e+02,-2.566212400097838326e+02,-2.633552289537799425e+02,-3.851344093319924013e+02,-3.639426500602523902e+02,-3.568156636204491861e+02,-2.739193547093464076e+02,9.484992027282714844e+00,-8.414105772972106934e-01,-3.824593871831893921e-02,3.940000000000000000e+02
-3.662149535674773233e+02,-3.169220114860365811e+02,-2.488103643165222820e+02,-2.566521152312095637e+02,-3.770618483683736031e+02,-3.561619984614858367e+02,-3.499445750602055796e+02,-2.654272298544342448e+02,9.484992027282714844e+00,-8.414105772972106934e-01,-3.824593871831893921e-02,3.950000000000000000e+02
-3.574045493782252834e+02,-3.094834484138636981e+02,-2.405427839903920813e+02,-2.500912287505350378e+02,-3.682466086169245045e+02,-3.477964630128401495e+02,-3.424565344944676326e+02,-2.558541642676850643e+02,9.484992027282714844e+00,-8.414105772972106934e-01,-3.824593871831893921e-02,3.960000000000000000e+02
-3.494449612111425267e+02,-3.025986328074598077e+02,-2.327725915241796883e+02,-2.442649145827697339e+02,-3.594150005793273976e+02,-3.396977891320507297e+02,-3.349457019583892361e+02,-2.473038465636595902e+02,9.484992027282714844e+00,-8.414105772972106934e-01,-3.824593871831893921e-02,3.970000000000000000e+02
-3.431047152691614883e+02,-2.969990130881093364e+02,-2.262820947493669337e+02,-2.396778408229088200e+02,-3.516886067142852426e+02,-3.329329017795141681e+02,-3.283490133739294379e+02,-2.415240360839970890e+02,9.484992027282714844e+00,-8.414105772972106934e-01,-3.824593871831893921e-02,3.980000000000000000e+02
-3.386373860087103367e+02,-2.932105703196995137e+02,-2.213489367665008558e+02,-2.363690347045769613e+02,-3.458260986843417868e+02,-3.280011166595213581e+02,-3.233669567894783086e+02,-2.387105031204018815e+02,9.484992027282714844e+00,-8.414105772972106934e-01,-3.824593871831893921e-02,3.990000000000000000e+02
-3.359262367823068871e+02,-2.911423290620464286e+02,-2.179474808599559310e+02,-2.339693042652431814e+02,-3.418198918833529660e+02,-3.245296700600069926e+02,-3.200403585641697646e+02,-2.376083696749180945e+02,9.484992027282714844e+00,-8.414105772972106934e-01,-3.824593871831893921e-02,4.000000000000000000e+02
-3.346066373483265579e+02,-2.899380039464639367e+02,-2.159619127060152550e+02,-2.319279315200717519e+02,-3.390582443688913372e+02,-3.215515735338610739e+02,-3.177634957957241113e+02,-2.365591300520857203e+02,9.484992027282714844e+00,-8.414105772972106934e-01,-3.824593871831893921e-02,4.010000000000000000e+02
-3.340491298115568952e+02,-2.883107885037992446e+02,-2.151256714358771660e+02,-2.297215525485123635e+02,-3.368744573038547969e+02,-3.181724902463884064e+02,-3.157487912235008025e+02,-2.346051934170704953e+02,9.484992027282714844e+00,-8.414105772972106934e-01,-3.824593871831893921e-02,4.020000000000000000e+02
-3.334889627939905949e+02,-2.853475964946012482e+02,-2.148921903338425636e+02,-2.270562090665202959e+02,-3.350049245755676566e+02,-3.142135957938537558e+02,-3.135787083317409270e+02,-2.319211311059179934e+02,9.484992027282714844e+00,-8.414105772972106934e-01,-3.824593871831893921e-02,4.030000000000000000e+02
-3.324600629885117087e+02,-2.812895443871063890e+02,-2.145684133189483873e+02,-2.240602772380752867e+02,-3.335704596554187447e+02,-3.103921846779030602e+02,-3.113778608643503958e+02,-2.294194170346029296e+02,9.484992027282714844e+00,-8.414105772972106934e-01,-3.824593871831893921e-02,4.040000000000000000e+02
-3.312064547868080808e+02,-2.775879540046846614e+02,-2.137041688568463087e+02,-2.213217990108162212e+02,-3.326509259879014735e+02,-3.078625614230602423e+02,-3.094723992636447747e+02,-2.279199786799567846e+02,9.484992027282714844e+00,-8.414105772972106934e-01,-3.824593871831893921e-02,4.050000000000000000e+02
-3.306250717177870229e+02,-2.760051350824132896e+02,-2.124264626102756210e+02,-2.196476820849939031e+02,-3.319555553066584253e+02,-3.074123037218228092e+02,-3.079228740273638323e+02,-2.275616888164477132e+02,9.484992027282714844e+00,-8.414105772972106934e-01,-3.824593871831893921e-02,4.060000000000000000e+02
-3.316633386796086143e+02,-2.773606527478195858e+02,-2.114190810325517305e+02,-2.196360516621464285e+02,-3.310126172800614768e+02,-3.089168496346931079e+02,-3.064559601312421364e+02,-2.278940314637711708e+02,9.484992027282714844e+00,-8.414105772972106934e-01,-3.824593871831893921e-02,4.070000000000000000e+02
-3.345707436333666465e+02,-2.808863806235833636e+02,-2.114970467404521060e+02,-2.212919262133148095e+02,-3.296923508541904084e+02,-3.114490112012781537e+02,-3.048575675572647015e+02,-2.284583582223833673e+02,9.484992027282714844e+00,-8.414105772972106934e-01,-3.824593871831893921e-02,4.080000000000000000e+02
-3.385501431014640730e+02,-2.846685011406407284e+02,-2.130085719248477290e+02,-2.238751334355354174e+02,-3.284263308956326455e+02,-3.138714864020287223e+02,-3.033312492865770764e+02,-2.291973574358460155e+02,9.484992027282714844e+00,-8.414105772972106934e-01,-3.824593871831893921e-02,4.090000000000000000e+02
-3.420580988898291253e+02,-2.867902223565076838e+02,-2.154634381819200826e+02,-2.260780020433664959e+02,-3.277695175720921270e+02,-3.153838274000765978e+02,-3.023316628517368372e+02,-2.302649621685211514e+02,9.484992027282714844e+00,-8.414105772972106934e-01,-3.824593871831893921e-02,4.100000000000000000e+02
-3.435677006236676334e+02,-2.863219857239907924e+02,-2.176905581469220579e+02,-2.265295124528493034e+02,-3.276918565444871092e+02,-3.156619924315548360e+02,-3.019716052265566759e+02,-2.315005620476390504e+02,9.484992027282714844e+00,-8.414105772972106934e-01,-3.824593871831893921e-02,4.110000000000000000e+02
-3.423828281894345764e+02,-2.835945580608747605e+02,-2.185283423549049076e+02,-2.245182231688349930e+02,-3.273892233836577361e+02,-3.147067485196932921e+02,-3.016697891541398349e+02,-2.322858010051322708e+02,9.484992027282714844e+00,-8.414105772972106934e-01,-3.824593871831893921e-02,4.120000000000000000e+02
-3.390450457149365775e+02,-2.798016404433092248e+02,-2.176319076701076938e+02,-2.205834301343925290e+02,-3.259310276921837612e+02,-3.127442903289663718e+02,-3.005469304575713068e+02,-2.320929789223487205e+02,9.484992027282714844e+00,-8.414105772972106934e-01,-3.824593871831893921e-02,4.130000000000000000e+02
-3.350604324307214483e+02,-2.763463957406145255e+02,-2.157709730947472053e+02,-2.164774555473118198e+02,-3.231769682627043494e+02,-3.102970011970000996e+02,-2.983126822861222536e+02,-2.311860205951813896e+02,9.484992027282714844e+00,-8.414105772972106934e-01,-3.824593871831893921e-02,4.140000000000000000e+02
-3.320474615458781500e+02,-2.742955162790333361e+02,-2.143143428545592997e+02,-2.142794594902036351e+02,-3.200616653497668267e+02,-3.081941491173984105e+02,-2.957931458659195414e+02,-2.306431911571821729e+02,9.484992027282714844e+00,-8.414105772972106934e-01,-3.824593871831893921e-02,4.150000000000000000e+02
-3.308024429270478777e+02,-2.740511887737209236e+02,-2.142396177386440286e+02,-2.150904144932349027e+02,-3.179241025652036114e+02,-3.072593600326094929e+02,-2.944813504274566185e+02,-2.315078664806792403e+02,9.370253562927246094e+00,-8.414105772972106934e-01,0.000000000000000000e+00,4.160000000000000000e+02
-3.309486757282757026e+02,-2.752691565017610174e+02,-2.154745219048058971e+02,-2.182517546282019794e+02,-3.174847158868533370e+02,-3.077915321854072772e+02,-2.953889859559426441e+02,-2.338490106498045407e+02,9.370253562927246094e+00,-8.414105772972106934e-01,0.000000000000000000e+00,4.170000000000000000e+02
-3.314728736824417865e+02,-2.770854677856864328e+02,-2.171448133457686254e+02,-2.218019573750370910e+02,-3.183940106892187032e+02,-3.093034085288063579e+02,-2.981819157854688456e+02,-2.367063453044399921e+02,9.370253562927246094e+00,-8.414105772972106934e-01,0.000000000000000000e+00,4.180000000000000000e+02
-3.317150451023130699e+02,-2.786393483272856884e+02,-2.184852430186897436e+02,-2.239226295065384420e+02,-3.197039280986364247e+02,-3.108543621110670756e+02,-3.013902033055546781e+02,-2.390074466008559284e+02,9.370253562927246094e+00,-8.414105772972106934e-01,0.000000000000000000e+00,4.190000000000000000e+02
-3.319320823621117142e+02,-2.796294845138568235e+02,-2.195380993360508910e+02,-2.242369401605562871e+02,-3.207476358063240696e+02,-3.117780391507039894e+02,-3.035370706025705658e+02,-2.405422284024855344e+02,9.370253562927246094e+00,-8.414105772972106934e-01,0.000000000000000000e+00,4.200000000000000000e+02
-3.328829367237601673e+02,-2.804899672182662016e+02,-2.209577373767449444e+02,-2.239087303754911318e+02,-3.215871818577224985e+02,-3.121953874916662244e+02,-3.042121586761054459e+02,-2.420328519308704927e+02,9.370253562927246094e+00,-8.414105772972106934e-01,0.000000000000000000e+00,4.210000000000000000e+02
-3.348184542358280851e+02,-2.819955316725797729e+02,-2.231282896298166634e+02,-2.245242137126886064e+02,-3.226902538195040506e+02,-3.128619118980732310e+02,-3.041875611816317360e+02,-2.442861602666898762e+02,9.370253562927246094e+00,-8.414105772972106934e-01,0.000000000000000000e+00,4.220000000000000000e+02
-3.369110893819272405e+02,-2.845804295091395488e+02,-2.255291983810659531e+02,-2.267738120429473838e+02,-3.242654582957929961e+02,-3.144884533892163745e+02,-3.045526513603217609e+02,-2.473480363835158187e+02,9.370253562927246094e+00,-8.414105772972106934e-01,0.000000000000000000e+00,4.230000000000000000e+02
-3.378188381348968505e+02,-2.879372291166484956e+02,-2.270751775065600668e+02,-2.300511538699647645e+02,-3.259524919445011619e+02,-3.171444025286245960e+02,-3.057159484483809138e+02,-2.504884955978584458e+02,9.370253562927246094e+00,-8.414105772972106934e-01,0.000000000000000000e+00,4.240000000000000000e+02
-3.369814571711247027e+02,-2.912562462924388456e+02,-2.271943612488353210e+02,-2.331838664332135522e+02,-3.271511135554956127e+02,-3.202461397199726889e+02,-3.071817583361362267e+02,-2.529311729287894650e+02,9.370253562927246094e+00,-8.414105772972106934e-01,0.000000000000000000e+00,4.250000000000000000e+02
-3.354445501715269984e+02,-2.939038132051987304e+02,-2.266337531418810158e+02,-2.355108812074727211e+02,-3.276388957131921416e+02,-3.230850021106675740e+02,-3.082250302894744891e+02,-2.545482544775818496e+02,9.370253562927246094e+00,-8.414105772972106934e-01,0.000000000000000000e+00,4.260000000000000000e+02
-3.352958440926636285e+02,-2.959243447125347757e+02,-2.271417977914156836e+02,-2.373077427247767446e+02,-3.278621028254078738e+02,-3.253674168032230227e+02,-3.087219428525058902e+02,-2.558752878691554997e+02,9.370253562927246094e+00,-8.414105772972106934e-01,0.000000000000000000e+00,4.270000000000000000e+02
-3.379730856201792903e+02,-2.978676698103720355e+02,-2.301419998120732089e+02,-2.392312471012362494e+02,-3.285820841795507476e+02,-3.272522746766808268e+02,-3.092703164777731217e+02,-2.574941784323523279e+02,9.370253562927246094e+00,-8.414105772972106934e-01,0.000000000000000000e+00,4.280000000000000000e+02
-3.427498565523928846e+02,-3.000270664218760430e+02,-2.353955752356143876e+02,-2.413353843160207362e+02,-3.301174878250117217e+02,-3.288514112265247604e+02,-3.104522015191182618e+02,-2.593168750181785072e+02,9.370253562927246094e+00,-8.414105772972106934e-01,0.000000000000000000e+00,4.290000000000000000e+02
-3.466842753278476721e+02,-3.017479336640076326e+02,-2.406979345076699701e+02,-2.425416058761966269e+02,-3.317555823741195127e+02,-3.296558215694508363e+02,-3.119344328553916057e+02,-2.602825187004214058e+02,9.370253562927246094e+00,-8.414105772972106934e-01,0.000000000000000000e+00,4.300000000000000000e+02
-3.462822258556498127e+02,-3.015360590153472913e+02,-2.429315025242583488e+02,-2.410916186596066382e+02,-3.318324959994229175e+02,-3.284909267444527359e+02,-3.123047737370984578e+02,-2.587211929314503323e+02,9.370253562927246094e+00,-8.414105772972106934e-01,0.000000000000000000e+00,4.310000000000000000e+02
-3.397604711599879010e+02,-2.980237813834241933e+02,-2.397990917920913034e+02,-2.357123666457130184e+02,-3.285233700940707422e+02,-3.241626247895087545e+02,-3.098882031449224996e+02,-2.532528171813280551e+02,9.370253562927246094e+00,-8.414105772972106934e-01,0.000000000000000000e+00,4.320000000000000000e+02
-3.282327621892518437e+02,-2.910329085910479989e+02,-2.310887648336208713e+02,-2.266339383456750056e+02,-3.208853388089228247e+02,-3.163538511392985129e+02,-3.039057484357790599e+02,-2.437729303610474290e+02,9.370253562927246094e+00,-8.414105772972106934e-01,0.000000000000000000e+00,4.330000000000000000e+02
-3.149234699998264659e+02,-2.817965562754550319e+02,-2.186934333173412597e+02,-2.156617276135839347e+02,-3.095090756592830985e+02,-3.060734677804512103e+02,-2.950553490590568799e+02,-2.318840127337366539e+02,9.370253562927246094e+00,-8.414105772972106934e-01,0.000000000000000000e+00,4.340000000000000000e+02
-3.030088741935510370e+02,-2.721010339244323859e+02,-2.054846186391439460e+02,-2.051790827649242601e+02,-2.963570495802132427e+02,-2.952562578225697507e+02,-2.851098891962683410e+02,-2.203048364507985752e+02,9.370253562927246094e+00,-8.414105772972106934e-01,0.000000000000000000e+00,4.350000000000000000e+02
-2.937567580277579964e+02,-2.630980756778303657e+02,-1.938728527024372852e+02,-1.967969459096777882e+02,-2.838626327882730038e+02,-2.857617383330584744e+02,-2.759150393095155778e+02,-2.114697565188057524e+02,9.370253562927246094e+00,-8.414105772972106934e-01,0.000000000000000000e+00,4.360000000000000000e+02
-2.863668670934430338e+02,-2.548668216124365244e+02,-1.849839612407929508e+02,-1.906791143680161440e+02,-2.738379758528103594e+02,-2.784874151007802539e+02,-2.685435730078934284e+02,-2.062681908894844582e+02,9.446745872497558594e+00,-8.031646609306335449e-01,3.824593871831893921e-02,4.370000000000000000e+02
-2.794894607790874943e+02,-2.470926388115208283e+02,-1.788395362437327094e+02,-1.860547932654840224e+02,-2.668761542727825145e+02,-2.732260028086743660e+02,-2.631056138182279938e+02,-2.039341387467300137e+02,9.446745872497558594e+00,-8.031646609306335449e-01,3.824593871831893921e-02,4.380000000000000000e+02
-2.729455747382285153e+02,-2.400920893922536834e+02,-1.751321379411726866e+02,-1.823869626351486204e+02,-2.625662525082866523e+02,-2.692752194575277827e+02,-2.591441561123310748e+02,-2.031417732480663290e+02,9.446745872497558594e+00,-8.031646609306335449e-01,3.824593871831893921e-02,4.390000000000000000e+02
-2.680189779901031670e+02,-2.350028415002359452e+02,-1.737625402487144584e+02,-1.800295822470770872e+02,-2.602004942371399920e+02,-2.661870451314157435e+02,-2.561434815801740115e+02,-2.032285421311064511e+02,9.446745872497558594e+00,-8.031646609306335449e-01,3.824593871831893921e-02,4.400000000000000000e+02
-2.660642710555487156e+02,-2.327817823290795332e+02,-1.746549946733484830e+02,-1.796884913561714257e+02,-2.592831085194948173e+02,-2.639696594871384150e+02,-2.537434070088584122e+02,-2.043522046784742088e+02,9.446745872497558594e+00,-8.031646609306335449e-01,3.824593871831893921e-02,4.410000000000000000e+02
-2.668435709288200997e+02,-2.329737257716706154e+02,-1.771725324266822099e+02,-1.812414519841977381e+02,-2.594434724576631197e+02,-2.626453521965499931e+02,-2.516377248304679597e+02,-2.065587164602957273e+02,9.446745872497558594e+00,-8.031646609306335449e-01,3.824593871831893921e-02,4.420000000000000000e+02
-2.683328653423122887e+02,-2.336252160861590710e+02,-1.799286033502337432e+02,-1.832507263406012044e+02,-2.600378150139677018e+02,-2.617394928361850361e+02,-2.494465143784941574e+02,-2.089598639438038390e+02,9.446745872497558594e+00,-8.031646609306335449e-01,3.824593871831893921e-02,4.430000000000000000e+02
-2.683329313566666769e+02,-2.326846731048158290e+02,-1.814444647914012876e+02,-1.839268563551072475e+02,-2.601189816466148841e+02,-2.603771765005612906e+02,-2.468450109198315658e+02,-2.101529563412732386e+02,9.446745872497558594e+00,-8.031646609306335449e-01,3.824593871831893921e-02,4.440000000000000000e+02
-2.663849101388686904e+02,-2.296926702010568988e+02,-1.811834992214280646e+02,-1.827909806423781447e+02,-2.590456182643324610e+02,-2.580145581146975928e+02,-2.439123003301988319e+02,-2.095950296444530068e+02,9.446745872497558594e+00,-8.031646609306335449e-01,3.824593871831893921e-02,4.450000000000000000e+02
-2.641095137042193528e+02,-2.261396120973931829e+02,-1.799661258831056330e+02,-1.813716073965115356e+02,-2.571787831832116353e+02,-2.550888170667763006e+02,-2.413252827550354596e+02,-2.084376577308712513e+02,9.446745872497558594e+00,-8.031646609306335449e-01,3.824593871831893921e-02,4.460000000000000000e+02
-2.635863399420522910e+02,-2.240712662819776142e+02,-1.792346659803049533e+02,-1.820299984128703272e+02,-2.557851695670710797e+02,-2.528208101450354661e+02,-2.400411665657247795e+02,-2.086984846428990750e+02,9.446745872497558594e+00,-8.031646609306335449e-01,3.824593871831893921e-02,4.470000000000000000e+02
-2.652946645295751296e+02,-2.242067087692410041e+02,-1.797146345544661017e+02,-1.858076427950882135e+02,-2.559405103127605798e+02,-2.521749706630030232e+02,-2.405403313215756498e+02,-2.113391290223717078e+02,9.446745872497558594e+00,-8.031646609306335449e-01,3.824593871831893921e-02,4.480000000000000000e+02
-2.675630208625298110e+02,-2.253190960269616880e+02,-1.806667346370009000e+02,-1.912614171334853381e+02,-2.573382728109118034e+02,-2.528752846919119293e+02,-2.422137722777961244e+02,-2.150732339495775705e+02,9.446745872497558594e+00,-8.031646609306335449e-01,3.824593871831893921e-02,4.490000000000000000e+02
-2.680232473546757319e+02,-2.254216516575834248e+02,-1.804775123734507360e+02,-1.954708643394217233e+02,-2.582524184472526940e+02,-2.534627972295756990e+02,-2.435310157208109558e+02,-2.172058479222284859e+02,9.446745872497558594e+00,-8.031646609306335449e-01,3.824593871831893921e-02,4.500000000000000000e+02
-2.657294503883765628e+02,-2.236512590035292760e+02,-1.781783366473277965e+02,-1.964533661907128135e+02,-2.569668451054999423e+02,-2.525002912023492172e+02,-2.430642065767319764e+02,-2.159520039230105795e+02,9.446745872497558594e+00,-8.031646609306335449e-01,3.824593871831893921e-02,4.510000000000000000e+02
-2.620922154829434021e+02,-2.211629629071264844e+02,-1.746199920802050656e+02,-1.949133463295456750e+02,-2.535328508722814149e+02,-2.499493407784611918e+02,-2.406512684165691098e+02,-2.122470308578924687e+02,9.446745872497558594e+00,-8.031646609306335449e-01,3.824593871831893921e-02,4.520000000000000000e+02
-2.599399573375912951e+02,-2.203078480128833689e+02,-1.722676369355438055e+02,-1.938206304604648267e+02,-2.502069900394235447e+02,-2.474854651085634032e+02,-2.377162403931179142e+02,-2.094068176928969933e+02,9.446745872497558594e+00,-8.031646609306335449e-01,3.824593871831893921e-02,4.530000000000000000e+02
-2.615807480663308979e+02,-2.228465404611135909e+02,-1.736699329900811790e+02,-1.961605952014640479e+02,-2.499815445953399831e+02,-2.473560809712598711e+02,-2.363540922698616669e+02,-2.107749908169391801e+02,9.446745872497558594e+00,-8.031646609306335449e-01,3.824593871831893921e-02,4.540000000000000000e+02
-2.672767870021295948e+02,-2.285635957259212319e+02,-1.796345895436149931e+02,-2.026451834491899717e+02,-2.542949600904430554e+02,-2.506052184322907124e+02,-2.377739308044292557e+02,-2.171370993169432495e+02,9.446745872497558594e+00,-8.031646609306335449e-01,3.824593871831893921e-02,4.550000000000000000e+02
-2.749838791160641449e+02,-2.351618584483344421e+02,-1.883769999034905140e+02,-2.110927469183377525e+02,-2.617739302880131618e+02,-2.560489606243941125e+02,-2.412783984258549026e+02,-2.258810102472457402e+02,9.446745872497558594e+00,-8.031646609306335449e-01,3.824593871831893921e-02,4.560000000000000000e+02
-2.813301282484176227e+02,-2.394045955205783685e+02,-1.962764907422952092e+02,-2.178238287359845344e+02,-2.690149343228658836e+02,-2.608333775581677401e+02,-2.446140000206632976e+02,-2.325664428646259694e+02,9.446745872497558594e+00,-8.031646609306335449e-01,3.824593871831893921e-02,4.570000000000000000e+02
-2.832570259798490042e+02,-2.388284132640280859e+02,-1.998311698446898390e+02,-2.199875193492146082e+02,-2.727587886183591763e+02,-2.622053625811313395e+02,-2.454726406495033189e+02,-2.338019706103691533e+02,9.446745872497558594e+00,-8.031646609306335449e-01,3.824593871831893921e-02,4.580000000000000000e+02
-2.795381687964477351e+02,-2.331223768245906740e+02,-1.975987726969751748e+02,-2.172215347005853801e+02,-2.717799106349102658e+02,-2.592093970008827455e+02,-2.430303069386759489e+02,-2.293597689551079384e+02,9.446745872497558594e+00,-8.031646609306335449e-01,3.824593871831893921e-02,4.590000000000000000e+02
-2.713429962436093774e+02,-2.243334492283802319e+02,-1.908177017890034222e+02,-2.115906835113460147e+02,-2.671635604672173940e+02,-2.530650578670738469e+02,-2.383517373631029841e+02,-2.219730832260920579e+02,9.446745872497558594e+00,-8.031646609306335449e-01,3.824593871831893921e-02,4.600000000000000000e+02
-2.613684912218850513e+02,-2.155722734489618233e+02,-1.822526336885402998e+02,-2.059286503540990907e+02,-2.610008585484588366e+02,-2.459849397059460898e+02,-2.333620714481535288e+02,-2.150035588638882018e+02,9.446745872497558594e+00,-8.031646609306335449e-01,3.824593871831893921e-02,4.610000000000000000e+02
-2.520239936336499795e+02,-2.089344263510924975e+02,-1.741637880046491773e+02,-2.018332645168884483e+02,-2.547495307172457615e+02,-2.394399890655763556e+02,-2.292592342954148990e+02,-2.098833996743699117e+02,9.523238182067871094e+00,-8.796565532684326172e-01,3.824593871831893921e-02,4.620000000000000000e+02
-2.440678352710665422e+02,-2.042138253681068818e+02,-1.670674133214747599e+02,-1.988484498817756503e+02,-2.486073224239712545e+02,-2.333441168641779768e+02,-2.257126284744158511e+02,-2.054842532786594802e+02,9.523238182067871094e+00,-8.796565532684326172e-01,3.824593871831893921e-02,4.630000000000000000e+02
-2.369457647989690940e+02,-1.996531136908406552e+02,-1.603653587752296517e+02,-1.955150997256589562e+02,-2.422864313003442476e+02,-2.268674357098234395e+02,-2.215636761838504754e+02,-1.999736913634321809e+02,9.523238182067871094e+00,-8.796565532684326172e-01,3.824593871831893921e-02,4.640000000000000000e+02
-2.305593450413803112e+02,-1.942853452263234431e+02,-1.541979354414361296e+02,-1.914197786722779711e+02,-2.363250296255491776e+02,-2.201142200897611474e+02,-2.164291969236969635e+02,-1.934473624473648670e+02,9.523238182067871094e+00,-8.796565532684326172e-01,3.824593871831893921e-02,4.650000000000000000e+02
-2.265895214459701492e+02,-1.896995599817992115e+02,-1.505374803218535362e+02,-1.883218929591146207e+02,-2.325364417722780672e+02,-2.149655200379315829e+02,-2.116828397370491075e+02,-1.887238057289516746e+02,9.523238182067871094e+00,-8.796565532684326172e-01,3.824593871831893921e-02,4.660000000000000000e+02
-2.276932756623773457e+02,-1.892431072911304000e+02,-1.520907041956418198e+02,-1.890777844956462559e+02,-2.329386767911960305e+02,-2.140113483007562536e+02,-2.097336241755292576e+02,-1.892716505209734805e+02,9.523238182067871094e+00,-8.796565532684326172e-01,3.824593871831893921e-02,4.670000000000000000e+02
-2.350443243285976678e+02,-1.950685457624899755e+02,-1.597992742757578526e+02,-1.951379213500408696e+02,-2.380059597506624414e+02,-2.183421677703704518e+02,-2.120966732730762487e+02,-1.960745367725148753e+02,9.523238182067871094e+00,-8.796565532684326172e-01,3.824593871831893921e-02,4.680000000000000000e+02
-2.467261761421705160e+02,-2.058246480410994081e+02,-1.714746042015954117e+02,-2.050187469926922859e+02,-2.459824082752829781e+02,-2.263324596414986445e+02,-2.180603496286139489e+02,-2.065476393363012448e+02,9.523238182067871094e+00,-8.796565532684326172e-01,3.824593871831893921e-02,4.690000000000000000e+02
-2.589833732984789094e+02,-2.175290073578482861e+02,-1.833191822454782596e+02,-2.154905689552210788e+02,-2.542252383450195339e+02,-2.348809765423789031e+02,-2.253678248071819326e+02,-2.168539973196545816e+02,9.523238182067871094e+00,-8.796565532684326172e-01,3.824593871831893921e-02,4.700000000000000000e+02
-2.694748453480008266e+02,-2.271085876200968414e+02,-1.932283931916883830e+02,-2.246058938309447512e+02,-2.615800665333681536e+02,-2.422235708586549663e+02,-2.324158402116272555e+02,-2.255862901938749019e+02,9.523238182067871094e+00,-8.796565532684326172e-01,3.824593871831893921e-02,4.710000000000000000e+02
-2.793032157225952687e+02,-2.351922609139855922e+02,-2.026405761546172926e+02,-2.335958397282695387e+02,-2.694952333019787147e+02,-2.496260060618596981e+02,-2.398204770783040658e+02,-2.351097411806081254e+02,9.523238182067871094e+00,-8.796565532684326172e-01,3.824593871831893921e-02,4.720000000000000000e+02
-2.914554813295267195e+02,-2.451472561827122263e+02,-2.147605669006843527e+02,-2.454196766141451462e+02,-2.804619291988519763e+02,-2.599956795156185763e+02,-2.496000914236683457e+02,-2.488572987585100691e+02,9.523238182067871094e+00,-8.796565532684326172e-01,3.824593871831893921e-02,4.730000000000000000e+02
-3.068407069537065581e+02,-2.590018881527682879e+02,-2.305177926435972040e+02,-2.610054874665866009e+02,-2.949244916647999162e+02,-2.743693479290486721e+02,-2.625345299721197989e+02,-2.668662417921643737e+02,9.523238182067871094e+00,-8.796565532684326172e-01,3.824593871831893921e-02,4.740000000000000000e+02
-3.218261363440851710e+02,-2.742099473217019749e+02,-2.461882019490233233e+02,-2.768170683524524520e+02,-3.095902198144308386e+02,-2.895731289123914394e+02,-2.762553858685660089e+02,-2.839218258368830448e+02,9.523238182067871094e+00,-8.796565532684326172e-01,3.824593871831893921e-02,4.750000000000000000e+02
-3.300727439593795225e+02,-2.846828727940478529e+02,-2.553605392595377452e+02,-2.865122817117196519e+02,-3.190751351351050289e+02,-2.996102010136182798e+02,-2.861718325041920252e+02,-2.925481477833229746e+02,9.523238182067871094e+00,-8.796565532684326172e-01,3.824593871831893921e-02,4.760000000000000000e+02
-3.273716657060444959e+02,-2.854549923017816582e+02,-2.538183294457016927e+02,-2.856412762629079225e+02,-3.197438644344802015e+02,-2.999475143013619345e+02,-2.886834809813494758e+02,-2.885640889425233127e+02,9.523238182067871094e+00,-8.796565532684326172e-01,3.824593871831893921e-02,4.770000000000000000e+02
-3.151369017841343521e+02,-2.767271388302865489e+02,-2.429476511486689105e+02,-2.752440747438545259e+02,-3.123783124170852261e+02,-2.910111619699375751e+02,-2.838457882348457133e+02,-2.743344032659247205e+02,9.523238182067871094e+00,-8.796565532684326172e-01,3.824593871831893921e-02,4.780000000000000000e+02
-2.993199393502859493e+02,-2.635366663311883713e+02,-2.285087366760242276e+02,-2.610059983333944729e+02,-3.012729241643828573e+02,-2.777470222758263390e+02,-2.750647917442011021e+02,-2.568134651545728957e+02,9.523238182067871094e+00,-8.796565532684326172e-01,3.824593871831893921e-02,4.790000000000000000e+02
-2.857660034001298754e+02,-2.514524624644102460e+02,-2.159361730944294777e+02,-2.486888374848701915e+02,-2.906549852236159950e+02,-2.656502268583703881e+02,-2.661611422188275355e+02,-2.421883685574925948e+02,9.523238182067871094e+00,-8.796565532684326172e-01,3.824593871831893921e-02,4.800000000000000000e+02
-2.761719081182186528e+02,-2.423100110103544012e+02,-2.064521533044392072e+02,-2.399104517264916012e+02,-2.816930471807143022e+02,-2.567858329050377506e+02,-2.585143751368150333e+02,-2.318275001419897308e+02,9.523238182067871094e+00,-8.796565532684326172e-01,3.824593871831893921e-02,4.810000000000000000e+02
-2.679639402901941594e+02,-2.336731380816859200e+02,-1.972710552712924255e+02,-2.318470962353205778e+02,-2.725741403874826574e+02,-2.491200693147791299e+02,-2.507242152757507938e+02,-2.227380835427907186e+02,9.523238182067871094e+00,-8.796565532684326172e-01,3.824593871831893921e-02,4.820000000000000000e+02
-2.576012574143733218e+02,-2.219846284284728881e+02,-1.851742343712010097e+02,-2.206650731982615525e+02,-2.610910058017975643e+02,-2.392827555955432217e+02,-2.407123844073157670e+02,-2.114455899959928047e+02,9.523238182067871094e+00,-8.796565532684326172e-01,3.824593871831893921e-02,4.830000000000000000e+02
-2.438929276328303786e+02,-2.060773643231907499e+02,-1.697584233641978244e+02,-2.052098972882247381e+02,-2.469905746011038445e+02,-2.258864407831531480e+02,-2.279961169855348544e+02,-1.973344170889106408e+02,9.523238182067871094e+00,-8.796565532684326172e-01,3.824593871831893921e-02,4.840000000000000000e+02
-2.285311082840871677e+02,-1.879390636764030660e+02,-1.535044280266590704e+02,-1.877395950142295078e+02,-2.320308426601811789e+02,-2.104815505282174399e+02,-2.140809195414010446e+02,-1.826257108690092537e+02,9.523238182067871094e+00,-8.796565532684326172e-01,3.824593871831893921e-02,4.850000000000000000e+02
-2.140678486351325773e+02,-1.706527649012082293e+02,-1.392122006686101940e+02,-1.716354376381366365e+02,-2.182110843420134643e+02,-1.958278516193738596e+02,-2.009995099321677117e+02,-1.697608367905754676e+02,9.523238182067871094e+00,-8.796565532684326172e-01,3.824593871831893921e-02,4.860000000000000000e+02
-2.018129268767725080e+02,-1.560031232636279128e+02,-1.277452784616702957e+02,-1.587427880757679759e+02,-2.062747469720623030e+02,-1.836159132304780996e+02,-1.897364096792496184e+02,-1.592645428900282241e+02,9.523238182067871094e+00,-8.796565532684326172e-01,3.824593871831893921e-02,4.870000000000000000e+02
-1.916069003525335575e+02,-1.439827343224936840e+02,-1.182022984346958765e+02,-1.487640613940357071e+02,-1.958649602704263089e+02,-1.737909461280380583e+02,-1.800266436953406810e+02,-1.501119688704798136e+02,9.523238182067871094e+00,-8.796565532684326172e-01,3.824593871831893921e-02,4.880000000000000000e+02
-1.831049850157478431e+02,-1.340826327805156097e+02,-1.098147584179862406e+02,-1.406429881909793949e+02,-1.867201761910421283e+02,-1.656050470643788231e+02,-1.713688079615762945e+02,-1.416536583493573289e+02,9.484992027282714844e+00,-9.179025292396545410e-01,0.000000000000000000e+00,4.890000000000000000e+02
-1.767472011962820488e+02,-1.264949705391225052e+02,-1.031885722934298428e+02,-1.339699366867857862e+02,-1.793146512116791200e+02,-1.587978691724299551e+02,-1.638962112298470402e+02,-1.346115280070107474e+02,9.484992027282714844e+00,-9.179025292396545410e-01,0.000000000000000000e+00,4.900000000000000000e+02
-1.732923255397995490e+02,-1.218622917177908676e+02,-9.952914284698204028e+01,-1.289254931057898830e+02,-1.742318782079069024e+02,-1.535680126775350800e+02,-1.581394274157355540e+02,-1.300017220941804226e+02,9.484992027282714844e+00,-9.179025292396545410e-01,0.000000000000000000e+00,4.910000000000000000e+02
-1.725673452044200076e+02,-1.200482197158974031e+02,-9.882500188472090485e+01,-1.252083634916378969e+02,-1.710846975949073112e+02,-1.496228227208148382e+02,-1.540572340538099070e+02,-1.273215943895263536e+02,9.484992027282714844e+00,-9.179025292396545410e-01,0.000000000000000000e+00,4.920000000000000000e+02
-1.729523625243764400e+02,-1.194983110618334194e+02,-9.909661378771488671e+01,-1.215354903717842490e+02,-1.683082106277124694e+02,-1.456868113446216739e+02,-1.505262226977511091e+02,-1.242553493808841267e+02,9.484992027282714844e+00,-9.179025292396545410e-01,0.000000000000000000e+00,4.930000000000000000e+02
-1.722926559546676799e+02,-1.180757877217847636e+02,-9.767730670794412617e+01,-1.165231218581072881e+02,-1.642076786453114892e+02,-1.402992623696009105e+02,-1.459914340656614513e+02,-1.185332769404005830e+02,9.484992027282714844e+00,-9.179025292396545410e-01,0.000000000000000000e+00,4.940000000000000000e+02
-1.694412537865914601e+02,-1.146565631029216092e+02,-9.337182441245374775e+01,-1.100785934822398531e+02,-1.583307924312739488e+02,-1.332243996682882425e+02,-1.397721250492154468e+02,-1.102141007489067306e+02,9.484992027282714844e+00,-9.179025292396545410e-01,0.000000000000000000e+00,4.950000000000000000e+02
-1.650531437441709386e+02,-1.099927731396496711e+02,-8.746138817593566728e+01,-1.037824723594704892e+02,-1.518973821366776065e+02,-1.260203675449190541e+02,-1.328191554353370520e+02,-1.020838428870200687e+02,9.484992027282714844e+00,-9.179025292396545410e-01,0.000000000000000000e+00,4.960000000000000000e+02
-1.610083539482272954e+02,-1.060912719096877481e+02,-8.265641100845357414e+01,-9.976735001007341452e+01,-1.469014644232040609e+02,-1.210757596650084906e+02,-1.271753456724782154e+02,-9.764289032478984609e+01,9.484992027282714844e+00,-9.179025292396545410e-01,0.000000000000000000e+00,4.970000000000000000e+02
-1.590770008855377000e+02,-1.047440025105337327e+02,-8.099936428949399669e+01,-9.914878475456362139e+01,-1.446762754481976572e+02,-1.199196614803187231e+02,-1.245475325670927305e+02,-9.847386841524485135e+01,9.484992027282714844e+00,-9.179025292396545410e-01,0.000000000000000000e+00,4.980000000000000000e+02
-1.599442264746720639e+02,-1.064888893805348289e+02,-8.256622596696468008e+01,-1.014431202471129154e+02,-1.451018405104200610e+02,-1.222734935606206363e+02,-1.251629252580912635e+02,-1.032841053818763157e+02,9.484992027282714844e+00,-9.179025292396545410e-01,0.000000000000000000e+00,4.990000000000000000e+02
-1.632092537844338267e+02,-1.107017367695038388e+02,-8.593202699338280581e+01,-1.053608502879443449e+02,-1.470158277499174346e+02,-1.265800704744235645e+02,-1.278210156525477714e+02,-1.092941022857776261e+02,9.484992027282714844e+00,-9.179025292396545410e-01,0.000000000000000000e+00,5.000000000000000000e+02
-1.680984926749790702e+02,-1.164475259993398595e+02,-8.975174493446627366e+01,-1.100535470630450163e+02,-1.493733903304178057e+02,-1.313924627787550889e+02,-1.310204307959742209e+02,-1.145652152593868323e+02,9.484992027282714844e+00,-9.179025292396545410e-01,0.000000000000000000e+00,5.010000000000000000e+02
-1.741304449989567047e+02,-1.231772542376797901e+02,-9.393158306318275663e+01,-1.156111351651858286e+02,-1.521374269576938332e+02,-1.363323076786490446e+02,-1.341396793049696043e+02,-1.192270955542867341e+02,9.484992027282714844e+00,-9.179025292396545410e-01,0.000000000000000000e+00,5.020000000000000000e+02
-1.812003015457641482e+02,-1.307283718232863521e+02,-9.942341094334233276e+01,-1.224999766283597751e+02,-1.561844253358627839e+02,-1.419036097380540014e+02,-1.376913490604700883e+02,-1.247978299411211083e+02,9.484992027282714844e+00,-9.179025292396545410e-01,0.000000000000000000e+00,5.030000000000000000e+02
-1.891377683006722350e+02,-1.388646639198403818e+02,-1.069834610078173682e+02,-1.306841509056159794e+02,-1.623560470812611811e+02,-1.485790172190331759e+02,-1.425442965744025514e+02,-1.325035820930098680e+02,9.484992027282714844e+00,-9.179025292396545410e-01,0.000000000000000000e+00,5.040000000000000000e+02
-1.972545401137072076e+02,-1.469829129964707590e+02,-1.161026120893448024e+02,-1.393366199915180914e+02,-1.704822001972348744e+02,-1.561314951482675610e+02,-1.489036268225630693e+02,-1.421396171260829533e+02,9.484992027282714844e+00,-9.179025292396545410e-01,0.000000000000000000e+00,5.050000000000000000e+02
-2.043969353176379968e+02,-1.543261909991307164e+02,-1.250710146294384799e+02,-1.473263791114786159e+02,-1.792128707012443556e+02,-1.637602445081022324e+02,-1.559668498948431079e+02,-1.522653953281305235e+02,9.484992027282714844e+00,-9.179025292396545410e-01,0.000000000000000000e+00,5.060000000000000000e+02
-2.095553051896841907e+02,-1.604763602709643351e+02,-1.321031792485700578e+02,-1.539145414385475306e+02,-1.868176361374875114e+02,-1.707123024640707172e+02,-1.624735905961184130e+02,-1.612842598601677651e+02,9.484992027282714844e+00,-9.179025292396545410e-01,0.000000000000000000e+00,5.070000000000000000e+02
-2.125629094788440341e+02,-1.656248160003017347e+02,-1.365561385325350443e+02,-1.590198836073253688e+02,-1.923118065667731855e+02,-1.767045301661638632e+02,-1.675588341935163044e+02,-1.683649618910300774e+02,9.484992027282714844e+00,-9.179025292396545410e-01,0.000000000000000000e+00,5.080000000000000000e+02
-2.142518735629539037e+02,-1.703682738773945289e+02,-1.392432759568347365e+02,-1.629609077861915409e+02,-1.960066150390896667e+02,-1.818147632968579330e+02,-1.711655946629412597e+02,-1.735450446025837152e+02,9.484992027282714844e+00,-9.179025292396545410e-01,0.000000000000000000e+00,5.090000000000000000e+02
-2.158572990262478299e+02,-1.752326355121984420e+02,-1.416564125229419346e+02,-1.660720256169528284e+02,-1.990745008452730076e+02,-1.861139777683329157e+02,-1.738052046118812939e+02,-1.771916743921153170e+02,9.484992027282714844e+00,-9.179025292396545410e-01,0.000000000000000000e+00,5.100000000000000000e+02
-2.181151204937876855e+02,-1.803150405628409771e+02,-1.448036256163633482e+02,-1.685434897026637771e+02,-2.025163272732115729e+02,-1.894779313134617666e+02,-1.760383743727398667e+02,-1.794470709689428531e+02,9.484992027282714844e+00,-9.179025292396545410e-01,0.000000000000000000e+00,5.110000000000000000e+02
-2.207906349199880083e+02,-1.852483277765446132e+02,-1.486041468941728851e+02,-1.704487882775758578e+02,-2.063630360152587286e+02,-1.916935070893221393e+02,-1.781482340493022889e+02,-1.801168878465902594e+02,9.484992027282714844e+00,-9.179025292396545410e-01,0.000000000000000000e+00,5.120000000000000000e+02
-2.230034939064901209e+02,-1.893915024818092547e+02,-1.522071425411182020e+02,-1.717175044126472017e+02,-2.097021912705675959e+02,-1.926086862118479530e+02,-1.801145558826426623e+02,-1.789670503782697608e+02,9.484992027282714844e+00,-9.179025292396545410e-01,0.000000000000000000e+00,5.130000000000000000e+02
-2.240128124052343992e+02,-1.920713106845949767e+02,-1.548072081054820046e+02,-1.720248301518440712e+02,-2.114369100495154044e+02,-1.921299778201341155e+02,-1.817051824137852805e+02,-1.760781012620946058e+02,9.484992027282714844e+00,-9.179025292396545410e-01,0.000000000000000000e+00,5.140000000000000000e+02
-2.237679572279675995e+02,-1.928433981233435475e+02,-1.562242191054170348e+02,-1.708863109976674082e+02,-2.111668756645926806e+02,-1.902255590823029934e+02,-1.825774837666449457e+02,-1.720184910616904403e+02,9.484992027282714844e+00,-9.179025292396545410e-01,0.000000000000000000e+00,5.150000000000000000e+02
-2.227924521517663266e+02,-1.917769497790195032e+02,-1.568464182080128921e+02,-1.681119335398747694e+02,-2.095204514242119558e+02,-1.871243889298762042e+02,-1.824513006325419155e+02,-1.677700725573475324e+02,9.484992027282714844e+00,-9.179025292396545410e-01,0.000000000000000000e+00,5.160000000000000000e+02
-2.216110072314629633e+02,-1.896018162305601891e+02,-1.571367595885307082e+02,-1.642823441211592126e+02,-2.076942471478839707e+02,-1.835602543917939329e+02,-1.813540106484153966e+02,-1.644375510910217599e+02,9.484992027282714844e+00,-9.179025292396545410e-01,0.000000000000000000e+00,5.170000000000000000e+02
-2.203278244990210624e+02,-1.874670994235268608e+02,-1.572353214529900924e+02,-1.606792825420886857e+02,-2.065691136382712330e+02,-1.806530266552365447e+02,-1.797232978088393338e+02,-1.628166953018288723e+02,9.484992027282714844e+00,-9.179025292396545410e-01,0.000000000000000000e+00,5.180000000000000000e+02
-2.186940355118576917e+02,-1.862645407143879765e+02,-1.569715896290415458e+02,-1.584904491761136569e+02,-2.060921746052788421e+02,-1.792584146766042750e+02,-1.781382548803037480e+02,-1.629417084501540103e+02,9.484992027282714844e+00,-9.179025292396545410e-01,0.000000000000000000e+00,5.190000000000000000e+02
-2.164155867245033278e+02,-1.858867909127732219e+02,-1.561054174183954046e+02,-1.578236796506383826e+02,-2.053773553019761948e+02,-1.792116273538667883e+02,-1.767826548458060643e+02,-1.638324652052692727e+02,9.484992027282714844e+00,-8.414105772972106934e-01,0.000000000000000000e+00,5.200000000000000000e+02
-2.132419537773818092e+02,-1.850266694354410220e+02,-1.544072277926115930e+02,-1.573830139141643940e+02,-2.033699721001007674e+02,-1.791748286121826368e+02,-1.751040134536067399e+02,-1.637022046340536008e+02,9.484992027282714844e+00,-8.414105772972106934e-01,0.000000000000000000e+00,5.210000000000000000e+02
-2.087722501457756152e+02,-1.818612820749328876e+02,-1.514997448493568299e+02,-1.552080524330465323e+02,-1.994890863726022872e+02,-1.773791998609169696e+02,-1.720874660500298887e+02,-1.606996755560769543e+02,9.484992027282714844e+00,-8.414105772972106934e-01,0.000000000000000000e+00,5.220000000000000000e+02
-2.023848418862271501e+02,-1.752714341677572065e+02,-1.467842052324131146e+02,-1.499785985859048196e+02,-1.937575458593423718e+02,-1.727466495798187225e+02,-1.670334203271722799e+02,-1.538663238429164721e+02,9.484992027282714844e+00,-8.414105772972106934e-01,0.000000000000000000e+00,5.230000000000000000e+02
-1.936350187360158088e+02,-1.657266266120527689e+02,-1.397690902992621886e+02,-1.418834033939888286e+02,-1.864670318892472096e+02,-1.654997763506967203e+02,-1.602133110217803278e+02,-1.437101759079278054e+02,9.484992027282714844e+00,-8.414105772972106934e-01,0.000000000000000000e+00,5.240000000000000000e+02
-1.828988550151682375e+02,-1.551285075606888313e+02,-1.306704589283428959e+02,-1.324246392613813441e+02,-1.778784422895487296e+02,-1.568323677619775935e+02,-1.528345569860921387e+02,-1.319888675279735253e+02,9.484992027282714844e+00,-8.414105772972106934e-01,0.000000000000000000e+00,5.250000000000000000e+02
-1.716115369359881697e+02,-1.456794280370168053e+02,-1.207229823069565100e+02,-1.234196956520795538e+02,-1.683415301111949702e+02,-1.480516675769313224e+02,-1.463204515590250594e+02,-1.208454285493421594e+02,9.484992027282714844e+00,-8.414105772972106934e-01,0.000000000000000000e+00,5.260000000000000000e+02
-1.616925198018027459e+02,-1.385942617568855439e+02,-1.117511075586608058e+02,-1.160264569600924460e+02,-1.586540891903500778e+02,-1.399705510058404343e+02,-1.414670345364716013e+02,-1.118816109604058511e+02,9.484992027282714844e+00,-8.414105772972106934e-01,0.000000000000000000e+00,5.270000000000000000e+02
-1.544868224483464019e+02,-1.335683253171823708e+02,-1.051671739600863020e+02,-1.104161454024626892e+02,-1.500892895604479236e+02,-1.329184216815683612e+02,-1.380812967783767817e+02,-1.056920921840819574e+02,9.484992027282714844e+00,-8.414105772972106934e-01,0.000000000000000000e+00,5.280000000000000000e+02
-1.500570050557898867e+02,-1.293232712359385914e+02,-1.011471763998292772e+02,-1.060808811418978621e+02,-1.437950831689759070e+02,-1.270580884146820608e+02,-1.352745175350728459e+02,-1.019436787692457074e+02,9.484992027282714844e+00,-8.414105772972106934e-01,0.000000000000000000e+00,5.290000000000000000e+02
-1.473920410258144784e+02,-1.247497007439703793e+02,-9.868424509074611706e+01,-1.023587367707993963e+02,-1.399918278826344249e+02,-1.225148274824041437e+02,-1.321088099936623621e+02,-9.976971707602115202e+01,9.484992027282714844e+00,-8.414105772972106934e-01,0.000000000000000000e+00,5.300000000000000000e+02
-1.453000357422565685e+02,-1.197735290897585401e+02,-9.650458582385090267e+01,-9.883174496080209792e+01,-1.377530747604564567e+02,-1.192219104760956725e+02,-1.281561977375586139e+02,-9.823119222815353169e+01,9.484992027282714844e+00,-8.414105772972106934e-01,0.000000000000000000e+00,5.310000000000000000e+02
-1.432134382360923155e+02,-1.153659730701353965e+02,-9.410416434000126173e+01,-9.552949718001900692e+01,-1.357140695873285949e+02,-1.168297242885482774e+02,-1.237167361565675492e+02,-9.674008464512689898e+01,9.484992027282714844e+00,-8.414105772972106934e-01,0.000000000000000000e+00,5.320000000000000000e+02
-1.413376056216029610e+02,-1.128146301993426732e+02,-9.208595962915023847e+01,-9.297719259685823090e+01,-1.331862599533578759e+02,-1.149726581681538846e+02,-1.196847362275093474e+02,-9.537552280015825090e+01,9.484992027282714844e+00,-8.414105772972106934e-01,0.000000000000000000e+00,5.330000000000000000e+02
-1.402421018816535252e+02,-1.128986918947507547e+02,-9.161223339162552293e+01,-9.203404806108346747e+01,-1.307359943022997868e+02,-1.137141001650006729e+02,-1.171701101229773485e+02,-9.490035711771224669e+01,9.484992027282714844e+00,-8.414105772972106934e-01,0.000000000000000000e+00,5.340000000000000000e+02
-1.404070081056725030e+02,-1.155660082311972019e+02,-9.349910812152074868e+01,-9.344760802800374222e+01,-1.297241743141526058e+02,-1.136627501456400751e+02,-1.170030027205175429e+02,-9.630401116079337953e+01,9.484992027282714844e+00,-8.414105772972106934e-01,0.000000000000000000e+00,5.350000000000000000e+02
-1.420285202800337174e+02,-1.201580237504786055e+02,-9.762599121219318477e+01,-9.725957843644255263e+01,-1.311638732416504354e+02,-1.154809049292753116e+02,-1.192656190483667160e+02,-9.999738644570470569e+01,9.484992027282714844e+00,-8.414105772972106934e-01,0.000000000000000000e+00,5.360000000000000000e+02
-1.450054501955241903e+02,-1.257967952258309197e+02,-1.029725924057706834e+02,-1.024904711391054661e+02,-1.348209163321143933e+02,-1.191320008741213314e+02,-1.231014251260103265e+02,-1.052270947802198862e+02,9.484992027282714844e+00,-8.414105772972106934e-01,0.000000000000000000e+00,5.370000000000000000e+02
-1.489088687585290245e+02,-1.315646693746180063e+02,-1.081111246986502010e+02,-1.074651512691898461e+02,-1.392502188111807300e+02,-1.235575416941878757e+02,-1.270230228513728434e+02,-1.102831209792602749e+02,9.484992027282714844e+00,-8.414105772972106934e-01,0.000000000000000000e+00,5.380000000000000000e+02
-1.529265623202263669e+02,-1.364612825325370977e+02,-1.117548633888759468e+02,-1.106323518695908206e+02,-1.426596026793981764e+02,-1.271268749109549390e+02,-1.296458057054042001e+02,-1.134123524702185932e+02,9.484992027282714844e+00,-8.414105772972106934e-01,0.000000000000000000e+00,5.390000000000000000e+02
-1.560351925526720152e+02,-1.394821869753182000e+02,-1.131608001131380661e+02,-1.113174498200701237e+02,-1.439269331046998559e+02,-1.285550474758033488e+02,-1.304393565713262433e+02,-1.137843181760304105e+02,9.484992027282714844e+00,-8.414105772972106934e-01,0.000000000000000000e+00,5.400000000000000000e+02
-1.575210974304882257e+02,-1.400653164644713797e+02,-1.123852507635915572e+02,-1.099163321156665916e+02,-1.431048715680180976e+02,-1.276137602493854502e+02,-1.299737653645752289e+02,-1.118452172105194222e+02,9.523238182067871094e+00,-8.414105772972106934e-01,0.000000000000000000e+00,5.410000000000000000e+02
-1.575266166434303159e+02,-1.386549422308758039e+02,-1.103554385022703173e+02,-1.075188878059316266e+02,-1.412105671445524422e+02,-1.251776041399834867e+02,-1.294408820853695943e+02,-1.089306409498817629e+02,9.523238182067871094e+00,-8.414105772972106934e-01,0.000000000000000000e+00,5.420000000000000000e+02
-1.570704883776511451e+02,-1.367556687465748837e+02,-1.085940201480043470e+02,-1.053248227085978215e+02,-1.395502902581420130e+02,-1.226682771773021159e+02,-1.297684925638168352e+02,-1.065245210000812222e+02,9.523238182067871094e+00,-8.414105772972106934e-01,0.000000000000000000e+00,5.430000000000000000e+02
-1.573526076664020366e+02,-1.361337362105391549e+02,-1.085238090318002833e+02,-1.042149265549123811e+02,-1.390318243044766859e+02,-1.213395471390940656e+02,-1.309958327526492212e+02,-1.056376496329708061e+02,9.523238182067871094e+00,-8.414105772972106934e-01,0.000000000000000000e+00,5.440000000000000000e+02
-1.588237018534828167e+02,-1.376029463718687111e+02,-1.106384279691210395e+02,-1.045410134062681209e+02,-1.398120696586611302e+02,-1.217898265708336112e+02,-1.323773962000468600e+02,-1.064877965703039990e+02,9.523238182067871094e+00,-8.414105772972106934e-01,0.000000000000000000e+00,5.450000000000000000e+02
-1.608052379039227162e+02,-1.403696085491519625e+02,-1.141074114107941568e+02,-1.060276487488863495e+02,-1.413694567870397805e+02,-1.238180725478650857e+02,-1.330729605231908863e+02,-1.084551769645395325e+02,9.523238182067871094e+00,-8.414105772972106934e-01,0.000000000000000000e+00,5.460000000000000000e+02
-1.620278557640040162e+02,-1.425991410901733616e+02,-1.172181040648301860e+02,-1.078059613605719278e+02,-1.428757915661799416e+02,-1.265568250731230364e+02,-1.327976332843982163e+02,-1.103345356731642823e+02,9.523238182067871094e+00,-8.414105772972106934e-01,0.000000000000000000e+00,5.470000000000000000e+02
-1.616849809874784114e+02,-1.428620709754404743e+02,-1.184900215396000931e+02,-1.087606637679264168e+02,-1.436710748720988704e+02,-1.288307733259644010e+02,-1.319211522896712268e+02,-1.109621316392112931e+02,9.523238182067871094e+00,-8.414105772972106934e-01,0.000000000000000000e+00,5.480000000000000000e+02
-1.601207223143856027e+02,-1.412956992076506140e+02,-1.177145524548495814e+02,-1.081921769788732490e+02,-1.436319762549646839e+02,-1.297086775891775687e+02,-1.310648527296707471e+02,-1.099972319826429157e+02,9.523238182067871094e+00,-8.414105772972106934e-01,0.000000000000000000e+00,5.490000000000000000e+02
-1.585479595596025320e+02,-1.394624279292929714e+02,-1.161080098087386432e+02,-1.063640502749713050e+02,-1.432367075042875513e+02,-1.290220938038028180e+02,-1.306488154290964303e+02,-1.082531694679883003e+02,9.523238182067871094e+00,-8.414105772972106934e-01,0.000000000000000000e+00,5.500000000000000000e+02
-1.580151350657270086e+02,-1.389861495871468833e+02,-1.153852710757364548e+02,-1.043811828208590669e+02,-1.432295865202568166e+02,-1.274657060702138551e+02,-1.307452540394406242e+02,-1.071188499649360892e+02,9.523238182067871094e+00,-8.414105772972106934e-01,0.000000000000000000e+00,5.510000000000000000e+02
-1.585015139591905609e+02,-1.401563582819326257e+02,-1.164266677348314261e+02,-1.033512717436515231e+02,-1.440370147909725347e+02,-1.260942613593897477e+02,-1.311938772916337257e+02,-1.073956605070461592e+02,9.523238182067871094e+00,-8.414105772972106934e-01,0.000000000000000000e+00,5.520000000000000000e+02
-1.589295373529248536e+02,-1.417424543203242138e+02,-1.185957697604080749e+02,-1.034937968722224468e+02,-1.453496182413291535e+02,-1.255417689158548455e+02,-1.317277502606921189e+02,-1.085788417406338340e+02,9.523238182067871094e+00,-8.414105772972106934e-01,0.000000000000000000e+00,5.530000000000000000e+02
-1.580964184068789109e+02,-1.421823757257579928e+02,-1.202798010243814133e+02,-1.040247864910543285e+02,-1.462658899872658367e+02,-1.256246525015085354e+02,-1.320171926937746321e+02,-1.093491292156286363e+02,9.523238182067871094e+00,-8.414105772972106934e-01,0.000000000000000000e+00,5.540000000000000000e+02
-1.557469378636033071e+02,-1.410594189661314886e+02,-1.202261583055851588e+02,-1.039780144271453537e+02,-1.459866444873250657e+02,-1.257154118352846126e+02,-1.317766648768256346e+02,-1.089071867553848278e+02,9.523238182067871094e+00,-8.414105772972106934e-01,0.000000000000000000e+00,5.550000000000000000e+02
-1.528419743622225724e+02,-1.394846897073857690e+02,-1.185204198706478564e+02,-1.031514482129641692e+02,-1.444889824227375357e+02,-1.255103945436121649e+02,-1.309845484079905873e+02,-1.078129071002595083e+02,9.523238182067871094e+00,-8.414105772972106934e-01,0.000000000000000000e+00,5.560000000000000000e+02
-1.507809924266439339e+02,-1.390321898673400938e+02,-1.163815163154567927e+02,-1.022111917203301346e+02,-1.425305838218228018e+02,-1.253797929921911418e+02,-1.299961544263933320e+02,-1.074075979468834703e+02,9.523238182067871094e+00,-8.414105772972106934e-01,0.000000000000000000e+00,5.570000000000000000e+02
-1.502571662753762212e+02,-1.402290914424420407e+02,-1.150261533617604073e+02,-1.018421444856303424e+02,-1.409285978781144877e+02,-1.258841541643832898e+02,-1.293037096298703545e+02,-1.083346237318764906e+02,9.523238182067871094e+00,-8.414105772972106934e-01,0.000000000000000000e+00,5.580000000000000000e+02
-1.507128872182411214e+02,-1.420057341984283994e+02,-1.146671764932052611e+02,-1.018241697357734665e+02,-1.397859347087050992e+02,-1.269327659792052145e+02,-1.290535012897307752e+02,-1.096435239284855925e+02,9.523238182067871094e+00,-8.414105772972106934e-01,0.000000000000000000e+00,5.590000000000000000e+02
-1.507872144501252478e+02,-1.425838558888699481e+02,-1.144905784212814979e+02,-1.010161370664291098e+02,-1.384186004785915429e+02,-1.274949708207186632e+02,-1.287853031352042308e+02,-1.094216505046242673e+02,9.523238182067871094e+00,-8.414105772972106934e-01,0.000000000000000000e+00,5.600000000000000000e+02
-1.492471138243718087e+02,-1.409066712459862174e+02,-1.134346767823581104e+02,-9.828857611957846530e+01,-1.360175597303514223e+02,-1.262468664255375188e+02,-1.277021969299748889e+02,-1.063371203870592581e+02,9.523238182067871094e+00,-8.414105772972106934e-01,0.000000000000000000e+00,5.610000000000000000e+02
-1.456065415867369666e+02,-1.372987857708176307e+02,-1.109234748014159777e+02,-9.350867692988595081e+01,-1.323351554094151652e+02,-1.226013139822098310e+02,-1.252628100018882833e+02,-1.006179054782851381e+02,9.523238182067871094e+00,-8.414105772972106934e-01,0.000000000000000000e+00,5.620000000000000000e+02
-1.401380570904293563e+02,-1.329187198795016229e+02,-1.069897069915059546e+02,-8.769485573670499434e+01,-1.277472799235601997e+02,-1.172062946752866992e+02,-1.215719449069183611e+02,-9.369124400967120891e+01,9.523238182067871094e+00,-8.414105772972106934e-01,0.000000000000000000e+00,5.630000000000000000e+02
-1.336065266648502075e+02,-1.287445652095257174e+02,-1.019975463458758895e+02,-8.231640898261321126e+01,-1.227863630505889887e+02,-1.115345734806196560e+02,-1.172710546443031490e+02,-8.708396512955550861e+01,9.523238182067871094e+00,-8.414105772972106934e-01,0.000000000000000000e+00,5.640000000000000000e+02
-1.271280438538688031e+02,-1.251161527927934003e+02,-9.653696464386848675e+01,-7.847095616071692348e+01,-1.178195469346610480e+02,-1.070276071743573993e+02,-1.131452449831867852e+02,-8.178461377247731434e+01,9.523238182067871094e+00,-8.414105772972106934e-01,0.000000000000000000e+00,5.650000000000000000e+02
-1.220518745058125205e+02,-1.220355009564382271e+02,-9.157280736122720555e+01,-7.655926759161593509e+01,-1.132278141432161647e+02,-1.044956394165528764e+02,-1.098387517207356723e+02,-7.842696876202353451e+01,9.484992027282714844e+00,-8.414105772972106934e-01,0.000000000000000000e+00,5.660000000000000000e+02
-1.194407762622831797e+02,-1.195227245601345203e+02,-8.828957743209684850e+01,-7.636040109603436576e+01,-1.096365117576660850e+02,-1.039820459924849274e+02,-1.077563658246417617e+02,-7.749743095465873921e+01,9.484992027282714844e+00,-8.414105772972106934e-01,0.000000000000000000e+00,5.670000000000000000e+02
-1.192495286871480857e+02,-1.174758982873081550e+02,-8.733128718281477632e+01,-7.713325719113345258e+01,-1.076214119510459568e+02,-1.048578242022449558e+02,-1.069664045747613272e+02,-7.891179625407312415e+01,9.484992027282714844e+00,-8.414105772972106934e-01,0.000000000000000000e+00,5.680000000000000000e+02
-1.200804077854882053e+02,-1.154246515676231866e+02,-8.810020324249671830e+01,-7.778750221682275878e+01,-1.071067730257254880e+02,-1.060389064367227547e+02,-1.071148736028790154e+02,-8.149956575157830230e+01,9.484992027282714844e+00,-8.414105772972106934e-01,0.000000000000000000e+00,5.690000000000000000e+02
-1.202419014579445502e+02,-1.129491972839468872e+02,-8.913543048164683569e+01,-7.748358108176125825e+01,-1.073298101541295182e+02,-1.065187408403617155e+02,-1.076277829664777528e+02,-8.352297206210459990e+01,9.484992027282714844e+00,-8.414105772972106934e-01,0.000000000000000000e+00,5.700000000000000000e+02
-1.195108013849530835e+02,-1.106681668964538403e+02,-8.958630598179297522e+01,-7.652879100417976588e+01,-1.077360835314029828e+02,-1.061780755178988329e+02,-1.082847268679488479e+02,-8.429991122201499820e+01,9.484992027282714844e+00,-8.414105772972106934e-01,0.000000000000000000e+00,5.710000000000000000e+02
-1.197395151424643700e+02,-1.105074956396147172e+02,-9.028987234812848328e+01,-7.657881737025491020e+01,-1.088588280366202525e+02,-1.061500169857336004e+02,-1.096058203327975207e+02,-8.525315558759211854e+01,9.484992027282714844e+00,-8.414105772972106934e-01,0.000000000000000000e+00,5.720000000000000000e+02
-1.230400891355511703e+02,-1.141512872620442067e+02,-9.286899638145041536e+01,-7.926865386950885295e+01,-1.118023915214707813e+02,-1.079105799909666530e+02,-1.123083905920539110e+02,-8.861587405465070333e+01,9.484992027282714844e+00,-8.414105772972106934e-01,0.000000000000000000e+00,5.730000000000000000e+02
-1.286569319629779784e+02,-1.204495438082321925e+02,-9.718374461940766196e+01,-8.388435167862371600e+01,-1.163006537790624861e+02,-1.113347596589992463e+02,-1.159164081143971998e+02,-9.427921108158079733e+01,9.484992027282714844e+00,-8.414105772972106934e-01,0.000000000000000000e+00,5.740000000000000000e+02
-1.315794623853780649e+02,-1.243081048808207925e+02,-9.961388672051180038e+01,-8.622988167175935814e+01,-1.192221104540803935e+02,-1.133825846550953429e+02,-1.177925648522268602e+02,-9.779901971361505275e+01,9.484992027282714844e+00,-8.414105772972106934e-01,0.000000000000000000e+00,5.750000000000000000e+02
-1.250606542014884326e+02,-1.189855798422959197e+02,-9.450810920882395294e+01,-8.047371477332671930e+01,-1.155933955809050531e+02,-1.091626365531847114e+02,-1.139863959730446368e+02,-9.232332493401008833e+01,9.484992027282714844e+00,-8.414105772972106934e-01,0.000000000000000000e+00,5.760000000000000000e+02
-1.057183027567261888e+02,-1.007498762728382644e+02,-7.830514946148832678e+01,-6.322937644283410918e+01,-1.019965842587680527e+02,-9.521051092050038278e+01,-1.017866232977812615e+02,-7.372353012697749364e+01,9.484992027282714844e+00,-8.414105772972106934e-01,0.000000000000000000e+00,5.770000000000000000e+02
-7.698286664372244559e+01,-7.222854663086218352e+01,-5.292252645180451509e+01,-3.667519355710646778e+01,-7.960382231181210955e+01,-7.251507806419795088e+01,-8.204070633961964631e+01,-4.469112797309389862e+01,9.484992027282714844e+00,-8.414105772972106934e-01,0.000000000000000000e+00,5.780000000000000000e+02
-4.748752691351182875e+01,-4.133565672523491230e+01,-2.512408776635857066e+01,-7.779754743392913952e+00,-5.395521989770168148e+01,-4.652178448171616765e+01,-5.910016984688445518e+01,-1.377625325799454004e+01,9.484992027282714844e+00,-8.414105772972106934e-01,0.000000000000000000e+00,5.790000000000000000e+02
-2.534171508749386703e+01,-1.633278327956395515e+01,-2.073169462904843385e+00,1.606947897129430203e+01,-3.139893179866157880e+01,-2.379840344928015838e+01,-3.819050393519319186e+01,1.026555285978975007e+01,9.484992027282714844e+00,-8.414105772972106934e-01,0.000000000000000000e+00,5.800000000000000000e+02
-1.300354848378083261e+01,-9.743211294189677574e-01,1.318922605881380150e+01,3.150522002477919159e+01,-1.517770012222354126e+01,-8.033477467739430722e+00,-2.231322890361661848e+01,2.409393519690638641e+01,9.484992027282714844e+00,-8.414105772972106934e-01,0.000000000000000000e+00,5.810000000000000000e+02
-6.948742002710787347e+00,6.491737305152128101e+00,2.257588927991855599e+01,4.012824192129664880e+01,-4.379672164182920824e+00,1.386421758637879975e+00,-1.115974210428430524e+01,3.066336184552346822e+01,9.484992027282714844e+00,-8.414105772972106934e-01,0.000000000000000000e+00,5.820000000000000000e+02
-1.940396964773754007e+00,1.028232973475678591e+01,2.983248908911809849e+01,4.566303102997153474e+01,3.818322667055326747e+00,7.413364613223166089e+00,-2.611828150656947400e+00,3.512294740763718437e+01,9.484992027282714844e+00,-8.414105772972106934e-01,0.000000000000000000e+00,5.830000000000000000e+02
4.381063270539016230e+00,1.328952394119005476e+01,3.680699188286234858e+01,5.039763654247508384e+01,1.116864566578260565e+01,1.226048909693599853e+01,4.901214756984700216e+00,4.004685677792622300e+01,9.484992027282714844e+00,-8.414105772972106934e-01,0.000000000000000000e+00,5.840000000000000000e+02
1.061853609077661531e+01,1.587819782560291060e+01,4.256497267105623905e+01,5.416629893346362223e+01,1.742073129943673848e+01,1.615592327636295522e+01,1.138674252129567321e+01,4.437025672921663499e+01,9.484992027282714844e+00,-8.414105772972106934e-01,0.000000000000000000e+00,5.850000000000000000e+02
1.443114880147004442e+01,1.749125690598884830e+01,4.553576956973302003e+01,5.613691979358191020e+01,2.171079261550221418e+01,1.858592658888301230e+01,1.613625516980391694e+01,4.618848010054352926e+01,9.484992027282714844e+00,-8.414105772972106934e-01,0.000000000000000000e+00,5.860000000000000000e+02
1.544591167846010649e+01,1.845429851750850503e+01,4.580176984773424920e+01,5.676623159265000140e+01,2.415735007654257060e+01,2.000883185150087229e+01,1.904900610032200348e+01,4.566360118125703593e+01,9.484992027282714844e+00,-8.414105772972106934e-01,0.000000000000000000e+00,5.870000000000000000e+02
1.517376605439130799e+01,1.971046473970454826e+01,4.493749879549432080e+01,5.752298566915851552e+01,2.574002476874738932e+01,2.179996933956499561e+01,2.086402315086161252e+01,4.472918791119991511e+01,9.484992027282714844e+00,-8.414105772972106934e-01,0.000000000000000000e+00,5.880000000000000000e+02
1.449938151653077512e+01,2.101339872846983781e+01,4.383564404292701511e+01,5.882630268080356473e+01,2.679159155013257987e+01,2.446228077407067758e+01,2.219597186161990976e+01,4.427349143084029492e+01,9.484992027282714844e+00,-8.414105772972106934e-01,0.000000000000000000e+00,5.890000000000000000e+02
1.208703268076897075e+01,2.013900753798043297e+01,4.132372466508786601e+01,5.886975954230547359e+01,2.613559352895026677e+01,2.634162115448998520e+01,2.268293621304474073e+01,4.246586783552993438e+01,9.484992027282714844e+00,-8.414105772972106934e-01,0.000000000000000000e+00,5.900000000000000000e+02
5.869968720939141349e+00,1.461832956506077608e+01,3.545530374891495740e+01,5.509510252748077619e+01,2.216210287370995502e+01,2.470516546734143049e+01,2.136104422982680262e+01,3.655360870462027378e+01,9.484992027282714844e+00,-8.414105772972106934e-01,0.000000000000000000e+00,5.910000000000000000e+02
-3.868133389221839025e+00,4.566157492359707248e+00,2.625875614680262515e+01,4.707216535571933491e+01,1.488970940775107010e+01,1.846456779787331470e+01,1.793918213378856308e+01,2.641166084208271059e+01,9.484992027282714844e+00,-8.414105772972106934e-01,0.000000000000000000e+00,5.920000000000000000e+02
-1.330715433846853557e+01,-6.327290786019148072e+00,1.693137649654272536e+01,3.779040207688012742e+01,6.833065299357258482e+00,9.870392278749932302e+00,1.360450982828115229e+01,1.594541005134669831e+01,9.484992027282714844e+00,-8.414105772972106934e-01,0.000000000000000000e+00,5.930000000000000000e+02
-1.745212659207754768e+01,-1.295167559601031826e+01,1.193507575437797641e+01,3.181829255928460043e+01,1.606148136819683714e+00,3.309947409430606058e+00,1.044445987276776577e+01,1.054668874010894797e+01,9.484992027282714844e+00,-8.414105772972106934e-01,0.000000000000000000e+00,5.940000000000000000e+02
-1.401145962323789718e+01,-1.234076416065363446e+01,1.360560474607700598e+01,3.190540853741549654e+01,1.426035908851190470e+00,2.124766166169138160e+00,9.987986691892729141e+00,1.287057368770001631e+01,9.484992027282714844e+00,-8.414105772972106934e-01,0.000000000000000000e+00,5.950000000000000000e+02
-5.169732886291967588e+00,-5.565026320371543989e+00,2.040281088304982404e+01,3.712146584670699667e+01,5.715617772366385907e+00,6.264770278936339309e+00,1.220988946468423819e+01,2.088618497957395448e+01,9.484992027282714844e+00,-8.414105772972106934e-01,0.000000000000000000e+00,5.960000000000000000e+02
4.250831246086818282e+00,3.462585079123527976e+00,2.827236632068706967e+01,4.401002414643517113e+01,1.184949699136632262e+01,1.271516497501943377e+01,1.578928038333833683e+01,2.976883038418418437e+01,9.484992027282714844e+00,-8.414105772972106934e-01,0.000000000000000000e+00,5.970000000000000000e+02
1.022666110914178716e+01,1.080894745240766497e+01,3.357027379708233639e+01,4.929137316126252699e+01,1.705460126702018897e+01,1.796880803854583064e+01,1.914539835296091042e+01,3.545203101925835654e+01,9.484992027282714844e+00,-8.414105772972106934e-01,0.000000000000000000e+00,5.980000000000000000e+02
1.135590309256258479e+01,1.436833946817023389e+01,3.477942177429576986e+01,5.147892661026526184e+01,1.965462529725846252e+01,2.011125557526247576e+01,2.115875241351750446e+01,3.649220956447970821e+01,9.484992027282714844e+00,-8.414105772972106934e-01,0.000000000000000000e+00,5.990000000000000000e+02
7.915873133511922788e+00,1.356420286346292414e+01,3.184943479636058328e+01,5.031102743770134111e+01,1.887055944343592273e+01,1.888579350025975145e+01,2.104169833347987151e+01,3.312124953475176881e+01,9.484992027282714844e+00,-8.414105772972106934e-01,0.000000000000000000e+00,6.000000000000000000e+02
-1.184780297480756417e-01,7.975110346147630480e+00,2.450877635931465193e+01,4.525780121530078759e+01,1.396123361711943289e+01,1.429266092382385978e+01,1.782404192958711064e+01,2.528972861271358852e+01,9.484992027282714844e+00,-8.414105772972106934e-01,0.000000000000000000e+00,6.010000000000000000e+02
-1.366037857477203943e+01,-3.271558816717515583e+00,1.170480069276527502e+01,3.506743228210325469e+01,3.991025033144978806e+00,5.572324340395425679e+00,1.029554026719415560e+01,1.208386588241774007e+01,9.484992027282714844e+00,-8.414105772972106934e-01,0.000000000000000000e+00,6.020000000000000000e+02
-3.315593240547241294e+01,-2.069769175936562533e+01,-7.190807755949208513e+00,1.886796913212310756e+01,-1.141640737950365292e+01,-8.307130675515509211e+00,-2.336344718522013864e+00,-7.041699594115925720e+00,9.484992027282714844e+00,-8.414105772972106934e-01,0.000000000000000000e+00,6.030000000000000000e+02
-5.696673061802721350e+01,-4.326304764854830864e+01,-3.080238783705499372e+01,-2.462649926526864874e+00,-3.119335667101040599e+01,-2.728945808979187859e+01,-1.964571126556256786e+01,-3.081851105391251622e+01,9.484992027282714844e+00,-8.414105772972106934e-01,0.000000000000000000e+00,6.040000000000000000e+02
-8.138635453829556354e+01,-6.810223210717958864e+01,-5.558659974864349351e+01,-2.616091030879579193e+01,-5.282746356631832896e+01,-4.946180740257477737e+01,-3.979337820105138235e+01,-5.611622733765398152e+01,9.484992027282714844e+00,-8.414105772972106934e-01,0.000000000000000000e+00,6.050000000000000000e+02
-1.023913939155136177e+02,-9.151322184319906228e+01,-7.739328944182852865e+01,-4.878540605130729091e+01,-7.333039331529289484e+01,-7.161265051514783408e+01,-6.010304548300337046e+01,-7.924576607370909187e+01,9.484992027282714844e+00,-8.414105772972106934e-01,0.000000000000000000e+00,6.060000000000000000e+02
-1.175738221867613902e+02,-1.103908710513933329e+02,-9.343460977776703658e+01,-6.761353104625231936e+01,-9.035503241722108214e+01,-9.058192077358398819e+01,-7.795266228865875746e+01,-9.736117513453064021e+01,9.484992027282714844e+00,-8.414105772972106934e-01,0.000000000000000000e+00,6.070000000000000000e+02
-1.267746797819781932e+02,-1.231794491741475213e+02,-1.031782086686107505e+02,-8.121818792634803685e+01,-1.027052992207027273e+02,-1.043970011755736778e+02,-9.146902663079163176e+01,-1.090716973124835931e+02,9.484992027282714844e+00,-8.414105772972106934e-01,0.000000000000000000e+00,6.080000000000000000e+02
-1.313733396158968389e+02,-1.300787696154220612e+02,-1.078807756551686907e+02,-8.932828778796829283e+01,-1.102652643655455904e+02,-1.127149668017809745e+02,-9.990321172127733007e+01,-1.144610495312917919e+02,9.484992027282714844e+00,-8.414105772972106934e-01,0.000000000000000000e+00,6.090000000000000000e+02
-1.333032950959750451e+02,-1.327701229277336097e+02,-1.096220205724130210e+02,-9.271862235869775759e+01,-1.138639896659879014e+02,-1.167361693172933883e+02,-1.038188567391334800e+02,-1.150866457993906806e+02,9.484992027282714844e+00,-8.414105772972106934e-01,0.000000000000000000e+00,6.100000000000000000e+02
-1.346167183333200228e+02,-1.338776252381831000e+02,-1.106900215793502866e+02,-9.338371363641999778e+01,-1.152935616133618169e+02,-1.188412113768681593e+02,-1.050675860713854490e+02,-1.139246225873794174e+02,9.484992027282714844e+00,-8.414105772972106934e-01,0.000000000000000000e+00,6.110000000000000000e+02
-1.374677942136004276e+02,-1.361896965462565277e+02,-1.133715608523998526e+02,-9.444294660475497949e+01,-1.171237774277142307e+02,-1.219242045981591218e+02,-1.063282789473996672e+02,-1.147149719574008486e+02,9.484992027282714844e+00,-8.414105772972106934e-01,0.000000000000000000e+00,6.120000000000000000e+02
-1.439299120132818643e+02,-1.418178430931293406e+02,-1.197007021379358775e+02,-9.922844304555110284e+01,-1.219629327268048655e+02,-1.284353470132627990e+02,-1.101905956385162426e+02,-1.206283591863393667e+02,9.484992027282714844e+00,-8.414105772972106934e-01,0.000000000000000000e+00,6.130000000000000000e+02
