F3,F4,C3,C4,P3,P4,Cz,Pz,Accel_x,Accel_y,Accel_z,Sample
-7.185008144006133080e-11,-3.819877747446298599e-11,-4.274625098332762718e-11,-3.092281986027956009e-11,-5.093170329928398132e-11,-5.820766091346740723e-11,-6.548361852765083313e-11,-3.910827217623591423e-11,9.484992027282714844e+00,-8.796565532684326172e-01,0.000000000000000000e+00,2.010000000000000000e+02
-1.928935460938464530e+01,-2.171823937799945270e+01,-1.388181565127342765e+01,-1.558254635132743715e+01,-2.905259618988202419e+01,-2.459559049041490653e+01,-2.166085133412525465e+01,-1.889249108187141246e+01,9.484992027282714844e+00,-8.796565532684326172e-01,0.000000000000000000e+00,2.020000000000000000e+02
-3.597518921803930425e+01,-3.940590541565325111e+01,-2.490811977512385056e+01,-2.954417526273118710e+01,-5.136832632093046414e+01,-4.607077833810762968e+01,-3.800787139630756428e+01,-3.452928372473706986e+01,9.484992027282714844e+00,-8.796565532684326172e-01,0.000000000000000000e+00,2.030000000000000000e+02
-4.975412550445616944e+01,-5.170625189760312423e+01,-3.267409707578099187e+01,-4.119739422265047324e+01,-6.569339397935345914e+01,-6.359337348368080711e+01,-4.826096440408764465e+01,-4.604325432252608152e+01,9.484992027282714844e+00,-8.796565532684326172e-01,0.000000000000000000e+00,2.040000000000000000e+02
-6.281846641152060329e+01,-6.050662666426660508e+01,-3.941460508872387436e+01,-5.099372006657358725e+01,-7.660036993868470745e+01,-7.876313110508999671e+01,-5.643333966435693583e+01,-5.519954253404921474e+01,9.484992027282714844e+00,-8.796565532684326172e-01,0.000000000000000000e+00,2.050000000000000000e+02
-7.773482263491223421e+01,-6.908628718372119693e+01,-4.778509051210130565e+01,-5.986632618268777151e+01,-8.965709522880115401e+01,-9.359288942304010561e+01,-6.730349613594171387e+01,-6.434369953624354821e+01,9.484992027282714844e+00,-8.796565532684326172e-01,0.000000000000000000e+00,2.060000000000000000e+02
-9.493096290365519963e+01,-7.953583990836750672e+01,-5.835086484132534679e+01,-6.831475250120092824e+01,-1.063492257185907874e+02,-1.084092502766443431e+02,-8.218230508931173972e+01,-7.406602730932809209e+01,9.484992027282714844e+00,-8.796565532684326172e-01,0.000000000000000000e+00,2.070000000000000000e+02
-1.121459564405940910e+02,-9.160261390541882065e+01,-6.914293709880621464e+01,-7.608031568188653182e+01,-1.235210615084433812e+02,-1.217216098532308024e+02,-9.840007983257328306e+01,-8.286403387328937242e+01,9.523238182067871094e+00,-8.796565532684326172e-01,3.824593871831893921e-02,2.080000000000000000e+02
-1.264498717488413604e+02,-1.037083555496874396e+02,-7.766120276466699579e+01,-8.276002414947743091e+01,-1.373048028192652055e+02,-1.320904064010355796e+02,-1.124983877731629036e+02,-8.915263226823208242e+01,9.523238182067871094e+00,-8.796565532684326172e-01,3.824593871831893921e-02,2.090000000000000000e+02
-1.370505232487375906e+02,-1.149722313437919183e+02,-8.340621807440766133e+01,-8.883335110766256548e+01,-1.472399767215893007e+02,-1.401230932616699647e+02,-1.236331839021559063e+02,-9.369288751175554353e+01,9.523238182067871094e+00,-8.796565532684326172e-01,3.824593871831893921e-02,2.100000000000000000e+02
-1.462943697594055266e+02,-1.263183400018006068e+02,-8.855483158813331102e+01,-9.606770562163819704e+01,-1.566355220732284579e+02,-1.486832009472391292e+02,-1.340078611695080326e+02,-9.996986084743093670e+01,9.523238182067871094e+00,-8.796565532684326172e-01,3.824593871831893921e-02,2.110000000000000000e+02
-1.578477617019389072e+02,-1.397185933824916901e+02,-9.614733935083586402e+01,-1.066589139616417015e+02,-1.693017895736393257e+02,-1.610755547232165554e+02,-1.464194112219884119e+02,-1.118214374460067120e+02,9.523238182067871094e+00,-8.796565532684326172e-01,3.824593871831893921e-02,2.120000000000000000e+02
-1.736650116938508290e+02,-1.563626939162272720e+02,-1.074827049716250258e+02,-1.215983667616510502e+02,-1.861765181898281298e+02,-1.787206451866568386e+02,-1.616575822053273441e+02,-1.302059902153096118e+02,9.523238182067871094e+00,-8.796565532684326172e-01,3.824593871831893921e-02,2.130000000000000000e+02
-1.924702648851607591e+02,-1.754324591498534573e+02,-1.210966191503102891e+02,-1.395862843758150120e+02,-2.049089546878276451e+02,-2.001159817913958250e+02,-1.780995012121356922e+02,-1.519358483341075043e+02,9.523238182067871094e+00,-8.796565532684326172e-01,3.824593871831893921e-02,2.140000000000000000e+02
-2.110657595143038634e+02,-1.945372953424266598e+02,-1.341649560658370319e+02,-1.575480162349358579e+02,-2.222809221779307336e+02,-2.217667967450634023e+02,-1.934076062028452725e+02,-1.716326266410733297e+02,9.523238182067871094e+00,-8.796565532684326172e-01,3.824593871831893921e-02,2.150000000000000000e+02
-2.271335475961568591e+02,-2.113730350687033024e+02,-1.449480114941097781e+02,-1.725269341252051163e+02,-2.368683870763361483e+02,-2.403267002026377668e+02,-2.064597475989339728e+02,-1.854249400509561383e+02,9.523238182067871094e+00,-8.796565532684326172e-01,3.824593871831893921e-02,2.160000000000000000e+02
-2.409481619164871518e+02,-2.252036728431662596e+02,-1.540883815064835289e+02,-1.835394244966423685e+02,-2.497179771877817984e+02,-2.545064340484359491e+02,-2.179387751400145135e+02,-1.934706750685627412e+02,9.523238182067871094e+00,-8.796565532684326172e-01,3.824593871831893921e-02,2.170000000000000000e+02
-2.546828831268385329e+02,-2.370811847330496676e+02,-1.638097767305653178e+02,-1.919881970976953198e+02,-2.630161725486168507e+02,-2.656369723861607781e+02,-2.295325101218859345e+02,-1.994595236084733187e+02,9.523238182067871094e+00,-8.796565532684326172e-01,3.824593871831893921e-02,2.180000000000000000e+02
-2.703047366562614116e+02,-2.488646213865890786e+02,-1.759757959670832861e+02,-2.004077684423828032e+02,-2.783160564956169765e+02,-2.766545844777410821e+02,-2.427163232045195400e+02,-2.077223257829837166e+02,9.523238182067871094e+00,-8.796565532684326172e-01,3.824593871831893921e-02,2.190000000000000000e+02
-2.881296025012161408e+02,-2.619654269336756442e+02,-1.907716644434831323e+02,-2.106417652458508201e+02,-2.957287714723952377e+02,-2.901994286284379996e+02,-2.579754771826383148e+02,-2.203262762058438966e+02,9.523238182067871094e+00,-8.796565532684326172e-01,3.824593871831893921e-02,2.200000000000000000e+02
-3.070809120070325662e+02,-2.767068237577823311e+02,-2.068936124079482397e+02,-2.228634291130019847e+02,-3.142788230219684920e+02,-3.070361712271978831e+02,-2.747007265409429237e+02,-2.362167164531192611e+02,9.523238182067871094e+00,-8.796565532684326172e-01,3.824593871831893921e-02,2.210000000000000000e+02
-3.258961590184644592e+02,-2.924701391908884034e+02,-2.226785062716462562e+02,-2.359754253725764102e+02,-3.327294040585929906e+02,-3.257886389852037610e+02,-2.915951768200538936e+02,-2.526034033936211927e+02,9.523238182067871094e+00,-8.796565532684326172e-01,3.824593871831893921e-02,2.220000000000000000e+02
-3.439047693419984171e+02,-3.082096275977692130e+02,-2.370400860457912131e+02,-2.487533724805230122e+02,-3.501929587825452472e+02,-3.441067983681696205e+02,-3.073345449584830931e+02,-2.671500096235436104e+02,9.523238182067871094e+00,-8.796565532684326172e-01,3.824593871831893921e-02,2.230000000000000000e+02
-3.609282019911561292e+02,-3.229321386808992429e+02,-2.496849803844634152e+02,-2.606858404919412351e+02,-3.663270316065918450e+02,-3.603747361148616619e+02,-3.212034458052175978e+02,-2.793003191431639607e+02,9.523238182067871094e+00,-8.796565532684326172e-01,3.824593871831893921e-02,2.240000000000000000e+02
-3.769216764460884406e+02,-3.360514532853353558e+02,-2.609027137510902321e+02,-2.719937082983979053e+02,-3.812454166395136781e+02,-3.746916748699140953e+02,-3.333848085273712059e+02,-2.900843463558580879e+02,9.523238182067871094e+00,-8.796565532684326172e-01,3.824593871831893921e-02,2.250000000000000000e+02
-3.919500490935465677e+02,-3.476308298452745476e+02,-2.713453336246766412e+02,-2.831104833208996752e+02,-3.953132711071975791e+02,-3.884549290548093268e+02,-3.447266111759017804e+02,-3.009449065208482352e+02,9.523238182067871094e+00,-8.796565532684326172e-01,3.824593871831893921e-02,2.260000000000000000e+02
-4.062920671011097511e+02,-3.583580141777824792e+02,-2.817740878422805508e+02,-2.942076900982951884e+02,-4.089140060906674989e+02,-4.029963460741046219e+02,-3.561398936960649735e+02,-3.126086421400345898e+02,9.523238182067871094e+00,-8.796565532684326172e-01,3.824593871831893921e-02,2.270000000000000000e+02
-4.201476148702909086e+02,-3.690576593153891736e+02,-2.925507824414248716e+02,-3.050506271159765674e+02,-4.222279327716587431e+02,-4.184211951723636957e+02,-3.680161187822641295e+02,-3.246916757669850995e+02,9.523238182067871094e+00,-8.796565532684326172e-01,3.824593871831893921e-02,2.280000000000000000e+02
-4.330647511523961839e+02,-3.799349337986341197e+02,-3.030964278224628288e+02,-3.151000395078849579e+02,-4.351083251087620738e+02,-4.335314870715383222e+02,-3.800009682065910965e+02,-3.361022131692193398e+02,9.523238182067871094e+00,-8.796565532684326172e-01,3.824593871831893921e-02,2.290000000000000000e+02
-4.439316506952914096e+02,-3.902032800397100800e+02,-3.119953607419060972e+02,-3.237020084632572434e+02,-4.471636583816325583e+02,-4.467766274428131510e+02,-3.912136314178460452e+02,-3.458336146212832318e+02,9.523238182067871094e+00,-8.796565532684326172e-01,3.824593871831893921e-02,2.300000000000000000e+02
-4.519673862917857150e+02,-3.986134349519529678e+02,-3.180351654966902970e+02,-3.303339384844089182e+02,-4.580423572629952105e+02,-4.573820604666798317e+02,-4.007625078147948443e+02,-3.535900925113910489e+02,9.523238182067871094e+00,-8.796565532684326172e-01,3.824593871831893921e-02,2.310000000000000000e+02
-4.578610230830972796e+02,-4.045782966873812256e+02,-3.214245375757632246e+02,-3.348893075925293488e+02,-4.677112093208334045e+02,-4.657701899131625396e+02,-4.082803216913589495e+02,-3.598312677200010512e+02,9.523238182067871094e+00,-8.796565532684326172e-01,3.824593871831893921e-02,2.320000000000000000e+02
-4.636446052730566407e+02,-4.088384060273638170e+02,-3.239098449036450802e+02,-3.378053796547360434e+02,-4.764302223111790227e+02,-4.730166592156892875e+02,-4.141628885465606800e+02,-3.652063111130642028e+02,9.637976646423339844e+00,-8.031646609306335449e-01,0.000000000000000000e+00,2.330000000000000000e+02
-4.710326720652487893e+02,-4.129270247413946890e+02,-3.274089527084474867e+02,-3.398461851700353691e+02,-4.843865501149657575e+02,-4.798836583847632937e+02,-4.193326434662476458e+02,-3.698537773348871269e+02,9.637976646423339844e+00,-8.031646609306335449e-01,0.000000000000000000e+00,2.340000000000000000e+02
-4.797384048081739820e+02,-4.178650471123446550e+02,-3.323290059018931970e+02,-3.416469043762085676e+02,-4.913511861340002724e+02,-4.862756688859581118e+02,-4.246570702356584661e+02,-3.732349831385263315e+02,9.637976646423339844e+00,-8.031646609306335449e-01,0.000000000000000000e+00,2.350000000000000000e+02
-4.876004588558489559e+02,-4.233474759763721522e+02,-3.372404811366454851e+02,-3.434041571012080567e+02,-4.968026329490130593e+02,-4.915406364335658509e+02,-4.304374076754102134e+02,-3.747325952800251798e+02,9.637976646423339844e+00,-8.031646609306335449e-01,0.000000000000000000e+00,2.360000000000000000e+02
-4.926223213624029995e+02,-4.282558380343352837e+02,-3.403323203904278671e+02,-3.450133169423411346e+02,-5.005173762503150101e+02,-4.953019969057595517e+02,-4.363787201498626018e+02,-3.745032150773095054e+02,9.637976646423339844e+00,-8.031646609306335449e-01,0.000000000000000000e+00,2.370000000000000000e+02
-4.949358845728470442e+02,-4.319470119717507259e+02,-3.412208989461173587e+02,-3.464899344049208594e+02,-5.030295352448783888e+02,-4.980500204479621971e+02,-4.420246904242085293e+02,-3.737131427282538425e+02,9.637976646423339844e+00,-8.031646609306335449e-01,0.000000000000000000e+00,2.380000000000000000e+02
-4.966105762816382594e+02,-4.349133933252946917e+02,-3.412285856204871379e+02,-3.481684528153550673e+02,-5.053343545147295117e+02,-5.009278056715052116e+02,-4.471737055050316485e+02,-3.737529773079668303e+02,9.637976646423339844e+00,-8.031646609306335449e-01,0.000000000000000000e+00,2.390000000000000000e+02
-4.994372262628312455e+02,-4.380961022537371718e+02,-3.418352620932141690e+02,-3.503979701115144962e+02,-5.079749398673425276e+02,-5.048748368085780385e+02,-4.518424407237162086e+02,-3.750429270340678158e+02,9.637976646423339844e+00,-8.031646609306335449e-01,0.000000000000000000e+00,2.400000000000000000e+02
-5.030484102757595792e+02,-4.416686627222829884e+02,-3.430206606777242087e+02,-3.530772160614233144e+02,-5.104740166209921881e+02,-5.099168944127923169e+02,-4.559092104993897010e+02,-3.766545228080876768e+02,9.637976646423339844e+00,-8.031646609306335449e-01,0.000000000000000000e+00,2.410000000000000000e+02
-5.054592517720175238e+02,-4.447448962613489130e+02,-3.433869310422669514e+02,-3.556211767352947390e+02,-5.118886978693017227e+02,-5.152784394456484733e+02,-4.589774024840053244e+02,-3.773018508021427806e+02,9.637976646423339844e+00,-8.031646609306335449e-01,0.000000000000000000e+00,2.420000000000000000e+02
-5.055820839872399119e+02,-4.464716740973053675e+02,-3.420534702885065599e+02,-3.575202296494358052e+02,-5.121222961352650600e+02,-5.202168484178473591e+02,-4.607764778247747017e+02,-3.769071213808015273e+02,9.637976646423339844e+00,-8.031646609306335449e-01,0.000000000000000000e+00,2.430000000000000000e+02
-5.050889215947140656e+02,-4.473821584453387459e+02,-3.403256000863038935e+02,-3.589745805383017796e+02,-5.126855835713245142e+02,-5.247817042541478258e+02,-4.617640115995809538e+02,-3.772151746669410386e+02,9.637976646423339844e+00,-8.031646609306335449e-01,0.000000000000000000e+00,2.440000000000000000e+02
-5.075363708003733336e+02,-4.494538138048940255e+02,-3.412113054712690428e+02,-3.609094007575445175e+02,-5.159533639461342318e+02,-5.297747783519585028e+02,-4.632328246590409435e+02,-3.806487360014480146e+02,9.637976646423339844e+00,-8.031646609306335449e-01,0.000000000000000000e+00,2.450000000000000000e+02
-5.154446653673276160e+02,-4.545921218936409787e+02,-3.470340338210280606e+02,-3.642698982899019029e+02,-5.233971905454186526e+02,-5.359563485317503364e+02,-4.666280815846616861e+02,-3.882550018089827972e+02,9.637976646423339844e+00,-8.031646609306335449e-01,0.000000000000000000e+00,2.460000000000000000e+02
-5.281122978196535769e+02,-4.629248734868426709e+02,-3.573684912461399108e+02,-3.692287917760913842e+02,-5.343546650521652737e+02,-5.432736392120082201e+02,-4.725813477983087978e+02,-3.985776871375933297e+02,9.637976646423339844e+00,-8.031646609306335449e-01,0.000000000000000000e+00,2.470000000000000000e+02
-5.422068630624003163e+02,-4.725576313145709264e+02,-3.692663089200082140e+02,-3.750443762152954150e+02,-5.464713183309249871e+02,-5.508590254698597164e+02,-4.805044228653737264e+02,-4.085675910792133436e+02,9.637976646423339844e+00,-8.031646609306335449e-01,0.000000000000000000e+00,2.480000000000000000e+02
-5.544592390427524151e+02,-4.810376841902864271e+02,-3.795315473339705932e+02,-3.806816345738252494e+02,-5.573768231959870718e+02,-5.577765063137285324e+02,-4.890739714766014004e+02,-4.158252117933498084e+02,9.637976646423339844e+00,-8.031646609306335449e-01,0.000000000000000000e+00,2.490000000000000000e+02
-5.639007552871385087e+02,-4.871533327738311527e+02,-3.869150477979260359e+02,-3.855878009074549482e+02,-5.660923567545351034e+02,-5.637930750065052052e+02,-4.971494847830131221e+02,-4.202410941804341746e+02,9.637976646423339844e+00,-8.031646609306335449e-01,0.000000000000000000e+00,2.500000000000000000e+02
-5.718023170008027591e+02,-4.914996906648136701e+02,-3.923880790087755486e+02,-3.899433551493775667e+02,-5.731256005517402627e+02,-5.694789217685147378e+02,-5.043670721966059318e+02,-4.236881201451542438e+02,9.637976646423339844e+00,-8.031646609306335449e-01,0.000000000000000000e+00,2.510000000000000000e+02
-5.798065961511347268e+02,-4.955209163197805537e+02,-3.976113045205088383e+02,-3.942821188336884006e+02,-5.795058152630249424e+02,-5.755971541481021632e+02,-5.110275830016157670e+02,-4.281985366443345811e+02,9.637976646423339844e+00,-8.031646609306335449e-01,0.000000000000000000e+00,2.520000000000000000e+02
-5.882413901057925614e+02,-5.000949152178259283e+02,-4.032592471733400998e+02,-3.989390171025981999e+02,-5.858159326194781897e+02,-5.823635186757369411e+02,-5.175150487580690424e+02,-4.342940489653165059e+02,9.637976646423339844e+00,-8.031646609306335449e-01,0.000000000000000000e+00,2.530000000000000000e+02
-5.959940787154714599e+02,-5.048872471843060339e+02,-4.086213815658265958e+02,-4.038003041409886009e+02,-5.919186757470379234e+02,-5.891858376359200520e+02,-5.237634614374014745e+02,-4.407859001990086654e+02,9.637976646423339844e+00,-8.031646609306335449e-01,0.000000000000000000e+00,2.540000000000000000e+02
-6.016155700016124683e+02,-5.087961722940844993e+02,-4.124637200275960822e+02,-4.084453791107516736e+02,-5.972622918148954341e+02,-5.950357451815971217e+02,-5.291497575588391555e+02,-4.459306587785513329e+02,9.637976646423339844e+00,-8.031646609306335449e-01,0.000000000000000000e+00,2.550000000000000000e+02
-6.044342467003025376e+02,-5.109040425597097510e+02,-4.141234495807661915e+02,-4.124753891692157595e+02,-6.013339942621823866e+02,-5.991572256938711689e+02,-5.328808585231004145e+02,-4.488069230092742146e+02,9.637976646423339844e+00,-8.031646609306335449e-01,0.000000000000000000e+00,2.560000000000000000e+02
-6.049505226982696513e+02,-5.112059241186527743e+02,-4.140086207595945780e+02,-4.158398667459223361e+02,-6.040609383492223969e+02,-6.016711935946318590e+02,-5.346578047139992123e+02,-4.499486880438689695e+02,9.637976646423339844e+00,-8.031646609306335449e-01,0.000000000000000000e+00,2.570000000000000000e+02
-6.046897659386793293e+02,-5.108103629174599973e+02,-4.134832656707344540e+02,-4.190844203322669728e+02,-6.061507961284000885e+02,-6.037432170782312824e+02,-5.352248514578272989e+02,-4.510963890440480100e+02,9.637976646423339844e+00,-8.031646609306335449e-01,0.000000000000000000e+00,2.580000000000000000e+02
-6.058206249406362076e+02,-5.115846084916163363e+02,-4.144263186729981499e+02,-4.233406331683534063e+02,-6.091350242039079603e+02,-6.071323875034645425e+02,-5.363392540708946399e+02,-4.543955497500537604e+02,9.637976646423339844e+00,-8.031646609306335449e-01,0.000000000000000000e+00,2.590000000000000000e+02
-6.104155657655348932e+02,-5.152876530671794626e+02,-4.185207890306483023e+02,-4.298269493379571031e+02,-6.147405898128349691e+02,-6.132060387640203771e+02,-5.399499164211065363e+02,-4.613325320452388496e+02,9.446745872497558594e+00,-8.796565532684326172e-01,0.000000000000000000e+00,2.600000000000000000e+02
-6.192357255841318420e+02,-5.224563647521488292e+02,-4.262680641722258770e+02,-4.389247907910312279e+02,-6.236897200644093573e+02,-6.218875183613758963e+02,-5.469397075893557485e+02,-4.716710963051359613e+02,9.446745872497558594e+00,-8.796565532684326172e-01,0.000000000000000000e+00,2.610000000000000000e+02
-6.306492656967520816e+02,-5.316784735425544568e+02,-4.361656355423942841e+02,-4.494244622938865632e+02,-6.347583378052258922e+02,-6.312502724707910602e+02,-5.562636237907286159e+02,-4.829573845658571827e+02,9.446745872497558594e+00,-8.796565532684326172e-01,0.000000000000000000e+00,2.620000000000000000e+02
-6.408619397411098362e+02,-5.400123452415414249e+02,-4.449237414832559807e+02,-4.587680888011134357e+02,-6.450885174382824516e+02,-6.383009619395479604e+02,-5.652531290193487621e+02,-4.913351340509909733e+02,9.446745872497558594e+00,-8.796565532684326172e-01,0.000000000000000000e+00,2.630000000000000000e+02
-6.459805347784231344e+02,-5.446658340309073765e+02,-4.491586629691503845e+02,-4.645196294225382871e+02,-6.518611326349125648e+02,-6.407448250870947959e+02,-5.711174211162850725e+02,-4.937434852754284975e+02,9.446745872497558594e+00,-8.796565532684326172e-01,0.000000000000000000e+00,2.640000000000000000e+02
-6.447836270781835992e+02,-5.449328482284038273e+02,-4.477353987740671641e+02,-4.662027000088137925e+02,-6.542231028780917086e+02,-6.386816688385238194e+02,-5.727536339364750120e+02,-4.902757479756591579e+02,9.446745872497558594e+00,-8.796565532684326172e-01,0.000000000000000000e+00,2.650000000000000000e+02
-6.400496200585151882e+02,-5.429013864897076473e+02,-4.430276629791734422e+02,-4.660762674157994638e+02,-6.540112390607324642e+02,-6.349858677859410818e+02,-5.716339696554282455e+02,-4.848211563304447509e+02,9.446745872497558594e+00,-8.796565532684326172e-01,0.000000000000000000e+00,2.660000000000000000e+02
-6.371286245103316332e+02,-5.422389463880241465e+02,-4.398716693711270977e+02,-4.680377751182498969e+02,-6.546975247669997771e+02,-6.338994291994816876e+02,-5.710775986156945692e+02,-4.830871099214702440e+02,9.446745872497558594e+00,-8.796565532684326172e-01,0.000000000000000000e+00,2.670000000000000000e+02
-6.405776695781204353e+02,-5.458649844194785601e+02,-4.426903750448249184e+02,-4.752702453076837514e+02,-6.593352041408127207e+02,-6.386289452479948068e+02,-5.743047544994726650e+02,-4.891416983576343114e+02,9.446745872497558594e+00,-8.796565532684326172e-01,0.000000000000000000e+00,2.680000000000000000e+02
-6.512854514454762693e+02,-5.542230411376859820e+02,-4.527536133177860052e+02,-4.882712132350684442e+02,-6.689303659950361407e+02,-6.495025007660901792e+02,-5.825118766954479952e+02,-5.029293217890864298e+02,9.446745872497558594e+00,-8.796565532684326172e-01,0.000000000000000000e+00,2.690000000000000000e+02
-6.661698685638834831e+02,-5.653482615710559003e+02,-4.675124311818125307e+02,-5.046346094003818052e+02,-6.821938216414563385e+02,-6.639010914473656157e+02,-5.942287510579283207e+02,-5.205524006726803918e+02,9.446745872497558594e+00,-8.796565532684326172e-01,0.000000000000000000e+00,2.700000000000000000e+02
-6.805891160725682312e+02,-5.765276400506603522e+02,-4.824590547927974171e+02,-5.206693156036520804e+02,-6.966188013437486006e+02,-6.779736160233213695e+02,-6.064104707117039652e+02,-5.370009184255219452e+02,9.446745872497558594e+00,-8.796565532684326172e-01,0.000000000000000000e+00,2.710000000000000000e+02
-6.916954593193546543e+02,-5.862763266536946958e+02,-4.942166207778610669e+02,-5.337235756672675961e+02,-7.101012941326011969e+02,-6.890029358844690250e+02,-6.165649126840478402e+02,-5.493178266399095264e+02,9.446745872497558594e+00,-8.796565532684326172e-01,0.000000000000000000e+00,2.720000000000000000e+02
-7.004330396542862900e+02,-5.953326774855238455e+02,-5.027934960117127616e+02,-5.437692595901229424e+02,-7.221818758694950020e+02,-6.969579349154921601e+02,-6.244993487334497786e+02,-5.581297090025475427e+02,9.446745872497558594e+00,-8.796565532684326172e-01,0.000000000000000000e+00,2.730000000000000000e+02
-7.108697718976568467e+02,-6.061435102256531309e+02,-5.115304867762024514e+02,-5.533613990877049673e+02,-7.342552551562844201e+02,-7.043538831229542438e+02,-6.324663691843527431e+02,-5.668195249090772450e+02,9.446745872497558594e+00,-8.796565532684326172e-01,0.000000000000000000e+00,2.740000000000000000e+02
-7.272258935769347090e+02,-6.211571272672290434e+02,-5.247200363303929862e+02,-5.660109311864288202e+02,-7.485743006678338816e+02,-7.145647383080038253e+02,-6.435350993098736581e+02,-5.790976581400168470e+02,9.446745872497558594e+00,-8.796565532684326172e-01,0.000000000000000000e+00,2.750000000000000000e+02
-7.503513303271876111e+02,-6.407780372793138213e+02,-5.442894172195137799e+02,-5.837732463536286787e+02,-7.664610233443838752e+02,-7.295463253071745839e+02,-6.592407161408452794e+02,-5.964018506463864924e+02,9.446745872497558594e+00,-8.796565532684326172e-01,0.000000000000000000e+00,2.760000000000000000e+02
-7.758687147680353746e+02,-6.620731810407872899e+02,-5.675798666128002878e+02,-6.052990782476356344e+02,-7.866893798395919930e+02,-7.481853423879525735e+02,-6.780746315329031404e+02,-6.164340976168776933e+02,9.446745872497558594e+00,-8.796565532684326172e-01,0.000000000000000000e+00,2.770000000000000000e+02
-7.954723165440432240e+02,-6.791919965276340463e+02,-5.877964635801647546e+02,-6.255842528346247491e+02,-8.051868012882946459e+02,-7.662118192572146427e+02,-6.958263898262484872e+02,-6.336249479392729427e+02,9.446745872497558594e+00,-8.796565532684326172e-01,0.000000000000000000e+00,2.780000000000000000e+02
-8.010465081692187823e+02,-6.857289817946714265e+02,-5.971956544796324806e+02,-6.379453434109419732e+02,-8.165888139710656333e+02,-7.778821298592678204e+02,-7.075519638078865228e+02,-6.415336667848547449e+02,9.446745872497558594e+00,-8.796565532684326172e-01,0.000000000000000000e+00,2.790000000000000000e+02
-7.892723491491773302e+02,-6.780162167165626670e+02,-5.912681083541310727e+02,-6.374135108857810792e+02,-8.169457912990328623e+02,-7.787043116337504216e+02,-7.099176422657963030e+02,-6.361270334090758070e+02,9.446745872497558594e+00,-8.796565532684326172e-01,0.000000000000000000e+00,2.800000000000000000e+02
-7.636886438319456829e+02,-6.573395183258046472e+02,-5.713030819500937696e+02,-6.235549522354381224e+02,-8.059148594203431912e+02,-7.677646475743717929e+02,-7.025688903041032063e+02,-6.180920009465403382e+02,9.446745872497558594e+00,-8.796565532684326172e-01,0.000000000000000000e+00,2.810000000000000000e+02
-7.326382400397416177e+02,-6.294345403177405842e+02,-5.435892852393785688e+02,-6.007746318317038003e+02,-7.869195028211481713e+02,-7.482352674149558425e+02,-6.879106765727678976e+02,-5.926107231800166346e+02,9.446745872497558594e+00,-8.796565532684326172e-01,0.000000000000000000e+00,2.820000000000000000e+02
-7.044399265488518722e+02,-6.014081282115787417e+02,-5.157722684259513244e+02,-5.757494930687450960e+02,-7.651301537065393177e+02,-7.256331327269439271e+02,-6.696985064111406700e+02,-5.665720848709617030e+02,9.446745872497558594e+00,-8.796565532684326172e-01,0.000000000000000000e+00,2.830000000000000000e+02
-6.832147624178713841e+02,-5.781360332148198040e+02,-4.929009873544256948e+02,-5.537470709073545549e+02,-7.446992121450298328e+02,-7.048814272472634457e+02,-6.514181223095642963e+02,-5.450473857348971478e+02,9.446745872497558594e+00,-8.796565532684326172e-01,0.000000000000000000e+00,2.840000000000000000e+02
-6.681752692430233083e+02,-5.605689733564454400e+02,-4.758048862927163327e+02,-5.364293833669146352e+02,-7.271890932919366151e+02,-6.881149126673689125e+02,-6.353046372106416584e+02,-5.294053908713873398e+02,9.446745872497558594e+00,-8.796565532684326172e-01,0.000000000000000000e+00,2.850000000000000000e+02
-6.562857551044073716e+02,-5.467775536434783135e+02,-4.624767247349230956e+02,-5.224604188046963600e+02,-7.120737737937929523e+02,-6.746034652285148923e+02,-6.222412516148897339e+02,-5.180547647481737386e+02,9.446745872497558594e+00,-8.796565532684326172e-01,0.000000000000000000e+00,2.860000000000000000e+02
-6.455324494583084061e+02,-5.343950596900074288e+02,-4.507771418902967753e+02,-5.099092958382958045e+02,-6.984644033170202420e+02,-6.624987205235902366e+02,-6.121607355026145569e+02,-5.086961734316329284e+02,9.446745872497558594e+00,-8.796565532684326172e-01,0.000000000000000000e+00,2.870000000000000000e+02
-6.359694485879119839e+02,-5.222977258148523561e+02,-4.400468211723142531e+02,-4.981165136702475138e+02,-6.863340252347456953e+02,-6.507115001418815154e+02,-6.044068569292708162e+02,-4.999800734553529651e+02,9.446745872497558594e+00,-8.796565532684326172e-01,0.000000000000000000e+00,2.880000000000000000e+02
-6.281791422121876849e+02,-5.104906189954479032e+02,-4.306129342370884387e+02,-4.875421343621553092e+02,-6.762204481485603083e+02,-6.393573387697431372e+02,-5.978348973122065217e+02,-4.914426974802812538e+02,9.446745872497558594e+00,-8.796565532684326172e-01,0.000000000000000000e+00,2.890000000000000000e+02
-6.213185132817397971e+02,-4.990107893650873621e+02,-4.223009678040732524e+02,-4.782687545648191190e+02,-6.679999611856264892e+02,-6.287578213198769390e+02,-5.909123645077129368e+02,-4.824695583196449888e+02,9.446745872497558594e+00,-8.796565532684326172e-01,0.000000000000000000e+00,2.900000000000000000e+02
-6.130868063471667710e+02,-4.873665643809456469e+02,-4.138309166082054844e+02,-4.690989396552673725e+02,-6.602541935135021731e+02,-6.184072767011439282e+02,-5.821968495551077467e+02,-4.718945181052307021e+02,9.484992027282714844e+00,-8.414105772972106934e-01,0.000000000000000000e+00,2.910000000000000000e+02
-6.017354629907438266e+02,-4.750787631722989204e+02,-4.038041748014850327e+02,-4.583887653573653438e+02,-6.510859494177883562e+02,-6.071954599144667100e+02,-5.711313232510156013e+02,-4.589164214454270336e+02,9.484992027282714844e+00,-8.414105772972106934e-01,0.000000000000000000e+00,2.920000000000000000e+02
-5.880000014625984477e+02,-4.625195106806240801e+02,-3.921905983187319293e+02,-4.458010831357408961e+02,-6.396978966045954849e+02,-5.946935889547451097e+02,-5.585649742794132635e+02,-4.443578230853770492e+02,9.484992027282714844e+00,-8.414105772972106934e-01,0.000000000000000000e+00,2.930000000000000000e+02
-5.748780071736794071e+02,-4.509324295272781455e+02,-3.806751756595857614e+02,-4.330708075470429321e+02,-6.272032392782243733e+02,-5.820416044125323651e+02,-5.463862820223333756e+02,-4.307270534610997288e+02,9.484992027282714844e+00,-8.414105772972106934e-01,0.000000000000000000e+00,2.940000000000000000e+02
-5.653234669045494911e+02,-4.414853646569147259e+02,-3.713898377298994546e+02,-4.227951178741199101e+02,-6.158320488879230652e+02,-5.713066060239854096e+02,-5.363313265156566558e+02,-4.206564371994346629e+02,9.484992027282714844e+00,-8.414105772972106934e-01,0.000000000000000000e+00,2.950000000000000000e+02
-5.599745469272733089e+02,-4.342873889400120788e+02,-3.652059184201207245e+02,-4.162466011866764575e+02,-6.072515266683968775e+02,-5.637827379478227385e+02,-5.288380264246262641e+02,-4.149600610510852903e+02,9.484992027282714844e+00,-8.414105772972106934e-01,0.000000000000000000e+00,2.960000000000000000e+02
-5.569638203453203005e+02,-4.283452385245197434e+02,-3.611931768195705672e+02,-4.122606173186894125e+02,-6.015116215656086069e+02,-5.588727494832110096e+02,-5.228993268873933857e+02,-4.120668749294869144e+02,9.484992027282714844e+00,-8.414105772972106934e-01,0.000000000000000000e+00,2.970000000000000000e+02
-5.537989340374136873e+02,-4.224550807201552516e+02,-3.576549832651926408e+02,-4.082802724595545669e+02,-5.974288290754606123e+02,-5.546588171490200239e+02,-5.170294802260498273e+02,-4.093482066858153416e+02,9.484992027282714844e+00,-8.414105772972106934e-01,0.000000000000000000e+00,2.980000000000000000e+02
-5.494581538135789742e+02,-4.161658881753641595e+02,-3.536737566054976583e+02,-4.026505223728674991e+02,-5.938342786265064888e+02,-5.496178483012596416e+02,-5.104992471416773583e+02,-4.051654429652745080e+02,9.484992027282714844e+00,-8.414105772972106934e-01,0.000000000000000000e+00,2.990000000000000000e+02
-5.448792387892381157e+02,-4.100148012830989046e+02,-3.497267241085106662e+02,-3.960821646521342245e+02,-5.904129100542743345e+02,-5.438166416828348702e+02,-5.037920386283228709e+02,-3.998403304764135555e+02,9.484992027282714844e+00,-8.414105772972106934e-01,0.000000000000000000e+00,3.000000000000000000e+02
-5.417286183119374527e+02,-4.050132315401853020e+02,-3.469651246655903947e+02,-3.909965012071524484e+02,-5.875054196983894599e+02,-5.385196938544611385e+02,-4.980070551626074007e+02,-3.948709553629135485e+02,9.484992027282714844e+00,-8.414105772972106934e-01,0.000000000000000000e+00,3.010000000000000000e+02
-5.408929254326675391e+02,-4.019701999307088727e+02,-3.460459450138572493e+02,-3.894060021268406899e+02,-5.853696341502844689e+02,-5.347722467745134054e+02,-4.938990926033077358e+02,-3.913942691698902649e+02,9.484992027282714844e+00,-8.414105772972106934e-01,0.000000000000000000e+00,3.020000000000000000e+02
-5.420522471913279787e+02,-4.011497543463241868e+02,-3.466468823577147305e+02,-3.912087601188732719e+02,-5.838058925237703534e+02,-5.324260595812623933e+02,-4.914459476373843358e+02,-3.893929285712969204e+02,9.484992027282714844e+00,-8.414105772972106934e-01,0.000000000000000000e+00,3.030000000000000000e+02
-5.443679788015169834e+02,-4.022741295541558770e+02,-3.479606447867980705e+02,-3.942971389272843794e+02,-5.824606786734991601e+02,-5.304723925776613669e+02,-4.901800751527486568e+02,-3.881969877854903075e+02,9.484992027282714844e+00,-8.414105772972106934e-01,0.000000000000000000e+00,3.040000000000000000e+02
-5.472566494590549837e+02,-4.046534099999457794e+02,-3.494791055561016719e+02,-3.962539842186158694e+02,-5.813082258775027640e+02,-5.281826805783379086e+02,-4.897786178483598860e+02,-3.874820891643252025e+02,9.484992027282714844e+00,-8.414105772972106934e-01,0.000000000000000000e+00,3.050000000000000000e+02
-5.504148081406849542e+02,-4.073362385348806356e+02,-3.512141217478352360e+02,-3.961168949800559176e+02,-5.806702244356831670e+02,-5.258328810980519847e+02,-4.902649461922322303e+02,-3.875760357854274503e+02,9.484992027282714844e+00,-8.414105772972106934e-01,0.000000000000000000e+00,3.060000000000000000e+02
-5.533138847118857484e+02,-4.093482371435084133e+02,-3.532112636409273705e+02,-3.948055645494368946e+02,-5.807141267769256956e+02,-5.243569471920000069e+02,-4.916731368414215240e+02,-3.888118890272846215e+02,9.484992027282714844e+00,-8.414105772972106934e-01,0.000000000000000000e+00,3.070000000000000000e+02
-5.549920426825393633e+02,-4.100144746443102122e+02,-3.549632232823536242e+02,-3.940486435078913701e+02,-5.809805062769669348e+02,-5.243877826242983247e+02,-4.935977263060270843e+02,-3.907495153970110664e+02,9.484992027282714844e+00,-8.414105772972106934e-01,0.000000000000000000e+00,3.080000000000000000e+02
-5.544900036069086582e+02,-4.091536169336978332e+02,-3.553675955668664983e+02,-3.948198408904586927e+02,-5.804462419796930135e+02,-5.256128869113415476e+02,-4.951004412891529682e+02,-3.921632768439781103e+02,9.484992027282714844e+00,-8.414105772972106934e-01,0.000000000000000000e+00,3.090000000000000000e+02
-5.514277839985057881e+02,-4.069520246889622399e+02,-3.532767527448720557e+02,-3.965030790466911981e+02,-5.780879177001124845e+02,-5.268935688291887800e+02,-4.950740389645296773e+02,-3.917926382469640885e+02,9.484992027282714844e+00,-8.414105772972106934e-01,0.000000000000000000e+00,3.100000000000000000e+02
-5.460697998013158667e+02,-4.036443744664412634e+02,-3.481600448046540350e+02,-3.972776202164839106e+02,-5.734599292323073314e+02,-5.268604602609931362e+02,-4.927698340990843917e+02,-3.890501224886945693e+02,9.484992027282714844e+00,-8.414105772972106934e-01,0.000000000000000000e+00,3.110000000000000000e+02
-5.388653419177877595e+02,-3.993276365716078544e+02,-3.403750822789961603e+02,-3.952723708199719113e+02,-5.668333892432086714e+02,-5.244464505965393073e+02,-4.881046199581800238e+02,-3.840462026138432066e+02,9.484992027282714844e+00,-8.414105772972106934e-01,0.000000000000000000e+00,3.120000000000000000e+02
-5.301071038886063889e+02,-3.940807953341710572e+02,-3.309635391976891015e+02,-3.896147278903906681e+02,-5.589047108824937595e+02,-5.191586975866272269e+02,-4.815972852293914457e+02,-3.771470618057049933e+02,9.484992027282714844e+00,-8.414105772972106934e-01,0.000000000000000000e+00,3.130000000000000000e+02
-5.201924423328862304e+02,-3.882021551113321607e+02,-3.212415717922879708e+02,-3.807774426416451661e+02,-5.504252376681380383e+02,-5.112239399722600410e+02,-4.740541980142145349e+02,-3.687618795671664884e+02,9.484992027282714844e+00,-8.414105772972106934e-01,0.000000000000000000e+00,3.140000000000000000e+02
-5.101185345113150902e+02,-3.822085017027237086e+02,-3.124451755359641538e+02,-3.701855946444359233e+02,-5.420474943665319643e+02,-5.016531780054289129e+02,-4.662446292647605333e+02,-3.595883786821501644e+02,9.484992027282714844e+00,-8.414105772972106934e-01,0.000000000000000000e+00,3.150000000000000000e+02
-5.014099435388056918e+02,-3.765225145258452244e+02,-3.054856833720144778e+02,-3.594662776078270099e+02,-5.343724365981895517e+02,-4.920085954329754259e+02,-4.587385534664441593e+02,-3.507927405044022180e+02,9.484992027282714844e+00,-8.414105772972106934e-01,0.000000000000000000e+00,3.160000000000000000e+02
-4.952066572963452700e+02,-3.711305268336008112e+02,-3.007147502586874452e+02,-3.497709121156879633e+02,-5.279183084590137014e+02,-4.836970339353727013e+02,-4.518795864241974414e+02,-3.435357086825285933e+02,9.484992027282714844e+00,-8.414105772972106934e-01,0.000000000000000000e+00,3.170000000000000000e+02
-4.912967771854691819e+02,-3.656077417905818265e+02,-2.977569685383227807e+02,-3.414908235976655533e+02,-5.228815112947032731e+02,-4.771634424094779661e+02,-4.457959838486567605e+02,-3.381207190370173521e+02,9.484992027282714844e+00,-8.414105772972106934e-01,0.000000000000000000e+00,3.180000000000000000e+02
-4.881882829598536091e+02,-3.595819063738929344e+02,-2.956271337683281217e+02,-3.344761638018549093e+02,-5.189017365987618859e+02,-4.717229214786813145e+02,-4.404085621711096792e+02,-3.337403370401019629e+02,9.484992027282714844e+00,-8.414105772972106934e-01,0.000000000000000000e+00,3.190000000000000000e+02
-4.843837143193941301e+02,-3.532831716709909529e+02,-2.932592462037421228e+02,-3.286117612714432994e+02,-5.152228923365266837e+02,-4.663912773936543772e+02,-4.355161281870758785e+02,-3.293785921067752724e+02,9.484992027282714844e+00,-8.414105772972106934e-01,0.000000000000000000e+00,3.200000000000000000e+02
-4.797898538615742723e+02,-3.477135647648050281e+02,-2.902485709946447514e+02,-3.243558504351447027e+02,-5.113505525798059352e+02,-4.611385425846154931e+02,-4.310497484424340655e+02,-3.251798229979034431e+02,9.484992027282714844e+00,-8.414105772972106934e-01,0.000000000000000000e+00,3.210000000000000000e+02
-4.759299962547107725e+02,-3.442260989833798135e+02,-2.872958072886056016e+02,-3.227504625317826594e+02,-5.077211648635875463e+02,-4.573737650738105458e+02,-4.273651235815186737e+02,-3.228597081418570838e+02,9.484992027282714844e+00,-8.414105772972106934e-01,0.000000000000000000e+00,3.220000000000000000e+02
-4.747273792324125452e+02,-3.437582849274438104e+02,-2.859436471506517137e+02,-3.247354540975468353e+02,-5.056820403962772161e+02,-4.569917746296258656e+02,-4.252616626067755305e+02,-3.244877345852580675e+02,9.484992027282714844e+00,-8.414105772972106934e-01,0.000000000000000000e+00,3.230000000000000000e+02
-4.770222706111616162e+02,-3.462543285783757483e+02,-2.876942297474304269e+02,-3.302287385766912848e+02,-5.066014628368429840e+02,-4.606638933197973529e+02,-4.255585285119594801e+02,-3.306293637463464847e+02,9.484992027282714844e+00,-8.414105772972106934e-01,0.000000000000000000e+00,3.240000000000000000e+02
-4.821607820803351387e+02,-3.507012139468345708e+02,-2.930689447504726104e+02,-3.378115624427854868e+02,-5.107719294711032489e+02,-4.669434320117356947e+02,-4.284686981867265558e+02,-3.396263076303868047e+02,9.484992027282714844e+00,-8.414105772972106934e-01,0.000000000000000000e+00,3.250000000000000000e+02
-4.888090746550086578e+02,-3.557539990617741523e+02,-3.011872743476546930e+02,-3.454499863422836370e+02,-5.170566535896249434e+02,-4.731492016542529200e+02,-4.332755346231037947e+02,-3.487348239997533028e+02,9.484992027282714844e+00,-8.414105772972106934e-01,0.000000000000000000e+00,3.260000000000000000e+02
-4.959619768807956461e+02,-3.604956690276081872e+02,-3.100897554325724741e+02,-3.517778902242540653e+02,-5.235996806906118763e+02,-4.773501416437579792e+02,-4.386330039384118891e+02,-3.560658816119439507e+02,9.484992027282714844e+00,-8.414105772972106934e-01,0.000000000000000000e+00,3.270000000000000000e+02
-5.031017522434976854e+02,-3.647634940357264668e+02,-3.175763154082126221e+02,-3.568552177694876946e+02,-5.289313926867997679e+02,-4.796746258902641102e+02,-4.432806025003346804e+02,-3.615263391185058026e+02,9.484992027282714844e+00,-8.414105772972106934e-01,0.000000000000000000e+00,3.280000000000000000e+02
-5.096108493499544920e+02,-3.688437701868141971e+02,-3.221214778094533813e+02,-3.616865613602185476e+02,-5.324909325781069356e+02,-4.817513081973610269e+02,-4.466098539291581346e+02,-3.660366435168251655e+02,9.484992027282714844e+00,-8.414105772972106934e-01,0.000000000000000000e+00,3.290000000000000000e+02
-5.144963608841130736e+02,-3.729095512907665579e+02,-3.235136032400283739e+02,-3.669568693806372721e+02,-5.343191634934953527e+02,-4.848911838980823177e+02,-4.487288663406386604e+02,-3.700874792823660755e+02,9.484992027282714844e+00,-8.414105772972106934e-01,0.000000000000000000e+00,3.300000000000000000e+02
-5.170826301023254246e+02,-3.768038153770128247e+02,-3.229810168236616619e+02,-3.722505653340273284e+02,-5.345923692048945668e+02,-4.888464892607313459e+02,-4.501641426859044941e+02,-3.732714416594844806e+02,9.484992027282714844e+00,-8.414105772972106934e-01,0.000000000000000000e+00,3.310000000000000000e+02
-5.180010575169450249e+02,-3.803599594060676736e+02,-3.226498772312077108e+02,-3.765396061231491558e+02,-5.336678259913211377e+02,-4.923148295446171687e+02,-4.515397475989026361e+02,-3.751760961247214254e+02,9.484992027282714844e+00,-8.414105772972106934e-01,0.000000000000000000e+00,3.320000000000000000e+02
-5.191176189795899063e+02,-3.838025871508166347e+02,-3.243747387889095535e+02,-3.793564376618102187e+02,-5.324152678117570758e+02,-4.944700237643623950e+02,-4.533621958793404474e+02,-3.763476823218536538e+02,9.484992027282714844e+00,-8.414105772972106934e-01,0.000000000000000000e+00,3.330000000000000000e+02
-5.219563280568210075e+02,-3.875603151394583961e+02,-3.284256293197238392e+02,-3.812527737274314177e+02,-5.319819949218232296e+02,-4.957004295196203429e+02,-4.557654129150514564e+02,-3.778823211361893755e+02,9.484992027282714844e+00,-8.414105772972106934e-01,0.000000000000000000e+00,3.340000000000000000e+02
-5.258750176560394038e+02,-3.914431034620780565e+02,-3.329368891002420696e+02,-3.828754285932553785e+02,-5.327440677648751262e+02,-4.966691290773740093e+02,-4.582001407277273302e+02,-3.798583690833979745e+02,9.484992027282714844e+00,-8.414105772972106934e-01,0.000000000000000000e+00,3.350000000000000000e+02
-5.279143778912458629e+02,-3.940282154405132360e+02,-3.348254625030306215e+02,-3.836229220673250211e+02,-5.334485926430008931e+02,-4.968131250246269701e+02,-4.594292414980031936e+02,-3.804497046802795239e+02,9.484992027282714844e+00,-8.414105772972106934e-01,0.000000000000000000e+00,3.360000000000000000e+02
-5.249323243755409294e+02,-3.932052971921830249e+02,-3.318958340328117629e+02,-3.815782188826347010e+02,-5.318539378277348533e+02,-4.942323641013354063e+02,-4.581720411580682821e+02,-3.772158592685370877e+02,9.484992027282714844e+00,-8.796565532684326172e-01,0.000000000000000000e+00,3.370000000000000000e+02
-5.163938301227348120e+02,-3.878044526094022331e+02,-3.246888792670479233e+02,-3.752112540942698615e+02,-5.267805736171026183e+02,-4.875157325264208339e+02,-4.541114814336283416e+02,-3.697506587119746655e+02,9.484992027282714844e+00,-8.796565532684326172e-01,0.000000000000000000e+00,3.380000000000000000e+02
-5.052743962153391521e+02,-3.789823556659498536e+02,-3.164693159620926508e+02,-3.653494332917507563e+02,-5.197290668725784144e+02,-4.777954352922065482e+02,-4.483711414991748825e+02,-3.610351811517234637e+02,9.484992027282714844e+00,-8.796565532684326172e-01,0.000000000000000000e+00,3.390000000000000000e+02
-4.960475476755601676e+02,-3.699329563090889224e+02,-3.110687733437223415e+02,-3.552806245817557738e+02,-5.141889602028186346e+02,-4.687102609631572250e+02,-4.428477641840597698e+02,-3.556667419402518817e+02,9.484992027282714844e+00,-8.796565532684326172e-01,0.000000000000000000e+00,3.400000000000000000e+02
-4.913680759519878620e+02,-3.638712263090206989e+02,-3.101469488496097711e+02,-3.485053896406287777e+02,-5.128488418940532938e+02,-4.638692384351641067e+02,-4.388385711324797285e+02,-3.561402241567592455e+02,9.484992027282714844e+00,-8.796565532684326172e-01,0.000000000000000000e+00,3.410000000000000000e+02
-4.903590455632289604e+02,-3.618927274748831451e+02,-3.121371134992461975e+02,-3.460644580219211548e+02,-5.151644683072845510e+02,-4.639859988600773022e+02,-4.362005219595937433e+02,-3.605942943327545436e+02,9.484992027282714844e+00,-8.796565532684326172e-01,0.000000000000000000e+00,3.420000000000000000e+02
-4.899740076490052161e+02,-3.625679859201821955e+02,-3.138208231433022775e+02,-3.459967684460516466e+02,-5.176959644890562231e+02,-4.664111332377849521e+02,-4.338695754798623057e+02,-3.643661071964659186e+02,9.484992027282714844e+00,-8.796565532684326172e-01,0.000000000000000000e+00,3.430000000000000000e+02
-4.880489226055033214e+02,-3.635817881040277371e+02,-3.131599394464036550e+02,-3.454957453402762440e+02,-5.170507518442145738e+02,-4.675713308180065724e+02,-4.312226422406533857e+02,-3.641024953453049875e+02,9.484992027282714844e+00,-8.796565532684326172e-01,0.000000000000000000e+00,3.440000000000000000e+02
-4.851195931012675828e+02,-3.638207830931519311e+02,-3.108500098909291864e+02,-3.436432398472841214e+02,-5.127086468319050709e+02,-4.660027233009577685e+02,-4.288796638745384371e+02,-3.605725063793620393e+02,9.484992027282714844e+00,-8.796565532684326172e-01,0.000000000000000000e+00,3.450000000000000000e+02
-4.834066586810412218e+02,-3.639970955801147738e+02,-3.092810880882282163e+02,-3.420470234072905669e+02,-5.071178731515633444e+02,-4.631462899631471828e+02,-4.281197070869261552e+02,-3.575368654001788400e+02,9.484992027282714844e+00,-8.796565532684326172e-01,0.000000000000000000e+00,3.460000000000000000e+02
-4.842258871291633113e+02,-3.654645385362117622e+02,-3.100804992321748159e+02,-3.429123198779127506e+02,-5.031667689295904893e+02,-4.614015514056964093e+02,-4.295430841828106168e+02,-3.579555290866851465e+02,9.484992027282714844e+00,-8.796565532684326172e-01,0.000000000000000000e+00,3.470000000000000000e+02
-4.865736736401197504e+02,-3.686854678130204093e+02,-3.127180792828839913e+02,-3.467088428397690905e+02,-5.016858298539223142e+02,-4.616522258211564349e+02,-4.324217231431466644e+02,-3.614153281421728252e+02,9.484992027282714844e+00,-8.796565532684326172e-01,0.000000000000000000e+00,3.480000000000000000e+02
-4.883097588872235519e+02,-3.729617445726431697e+02,-3.154765542878676570e+02,-3.518814688949273659e+02,-5.014135849784911443e+02,-4.628158435163456943e+02,-4.354325252925586938e+02,-3.652693906691399661e+02,9.484992027282714844e+00,-8.796565532684326172e-01,0.000000000000000000e+00,3.490000000000000000e+02
-4.885850980642135255e+02,-3.774894654816763477e+02,-3.176198441156846002e+02,-3.567149009692249138e+02,-5.011682301435380396e+02,-4.636480710780369918e+02,-4.379798819277425537e+02,-3.680004261086414772e+02,9.484992027282714844e+00,-8.796565532684326172e-01,0.000000000000000000e+00,3.500000000000000000e+02
-4.887940396787255395e+02,-3.822552264933709694e+02,-3.203056682484741486e+02,-3.610619684127466371e+02,-5.016299091466005393e+02,-4.645522453269500147e+02,-4.406362233781283066e+02,-3.709442977630418454e+02,9.484992027282714844e+00,-8.796565532684326172e-01,0.000000000000000000e+00,3.510000000000000000e+02
-4.908628189611968082e+02,-3.875373339989862416e+02,-3.250911745246610280e+02,-3.658566048775680883e+02,-5.046054929271904257e+02,-4.671688274999630721e+02,-4.441334176244031369e+02,-3.763365126677006174e+02,9.484992027282714844e+00,-8.796565532684326172e-01,0.000000000000000000e+00,3.520000000000000000e+02
-4.945578941476410364e+02,-3.925464716525757467e+02,-3.314878451806052908e+02,-3.709401789224605182e+02,-5.104360195167789698e+02,-4.720312876009052161e+02,-4.479066913648382524e+02,-3.837356507896639641e+02,9.484992027282714844e+00,-8.796565532684326172e-01,0.000000000000000000e+00,3.530000000000000000e+02
-4.966916580829825989e+02,-3.949715749193160264e+02,-3.362021370430448997e+02,-3.737941187239113106e+02,-5.163165588359865978e+02,-4.768389489386270270e+02,-4.497641276074484722e+02,-3.888339460366826188e+02,9.484992027282714844e+00,-8.796565532684326172e-01,0.000000000000000000e+00,3.540000000000000000e+02
-4.933102090544138036e+02,-3.924034439805893726e+02,-3.351512119460701342e+02,-3.709631332981341529e+02,-5.175487537621474985e+02,-4.774614164389529378e+02,-4.472236171422209736e+02,-3.863339767297633216e+02,9.484992027282714844e+00,-8.796565532684326172e-01,0.000000000000000000e+00,3.550000000000000000e+02
-4.829365155756751165e+02,-3.845065777725037606e+02,-3.265696709761430157e+02,-3.610329471119032405e+02,-5.108587989661182291e+02,-4.710502050918628356e+02,-4.394111704698582344e+02,-3.743551150066073205e+02,9.484992027282714844e+00,-8.796565532684326172e-01,0.000000000000000000e+00,3.560000000000000000e+02
-4.678100867939747332e+02,-3.737084700651184903e+02,-3.123389901146506418e+02,-3.461608418984052378e+02,-4.968036680847801563e+02,-4.583896033129442458e+02,-4.277897527326499585e+02,-3.561497579883649678e+02,9.484992027282714844e+00,-8.796565532684326172e-01,0.000000000000000000e+00,3.570000000000000000e+02
-4.519827480126464252e+02,-3.634527612988565579e+02,-2.963585345548540317e+02,-3.304849931673986703e+02,-4.791432225928426760e+02,-4.432619488047434970e+02,-4.150535402811597123e+02,-3.375537552228113327e+02,9.484992027282714844e+00,-8.796565532684326172e-01,0.000000000000000000e+00,3.580000000000000000e+02
-4.381515082926223386e+02,-3.555100215925516522e+02,-2.816048933676097477e+02,-3.169011233074702432e+02,-4.619088511187053427e+02,-4.294454495244617647e+02,-4.032109413516745917e+02,-3.227162827075565019e+02,9.484992027282714844e+00,-8.796565532684326172e-01,0.000000000000000000e+00,3.590000000000000000e+02
-4.261692052237563075e+02,-3.488701471739791486e+02,-2.686305575032392881e+02,-3.053004353367045951e+02,-4.469165222371348136e+02,-4.181290766083657218e+02,-3.925642095068303661e+02,-3.120107319742728578e+02,9.484992027282714844e+00,-8.796565532684326172e-01,0.000000000000000000e+00,3.600000000000000000e+02
-4.143268480245521914e+02,-3.412118155438338363e+02,-2.565844997384881481e+02,-2.937664558635274261e+02,-4.337279417628999454e+02,-4.079097676943772512e+02,-3.823266258749579265e+02,-3.034814845026223793e+02,9.484992027282714844e+00,-8.796565532684326172e-01,0.000000000000000000e+00,3.610000000000000000e+02
-4.017837716215324235e+02,-3.314054872135644700e+02,-2.452512947520178841e+02,-2.811841589455139001e+02,-4.215146297858109392e+02,-3.969319185319691314e+02,-3.720237276925913648e+02,-2.956620068333857034e+02,9.484992027282714844e+00,-8.796565532684326172e-01,0.000000000000000000e+00,3.620000000000000000e+02
-3.896446883779963173e+02,-3.205901995885973292e+02,-2.357716648354492008e+02,-2.684453373495638289e+02,-4.105802531335134518e+02,-3.848305865754691695e+02,-3.621892602340269605e+02,-2.887113147992913582e+02,9.484992027282714844e+00,-8.796565532684326172e-01,0.000000000000000000e+00,3.630000000000000000e+02
-3.798420934372986721e+02,-3.109482299903702369e+02,-2.293810444452940374e+02,-2.572171424604250660e+02,-4.020250547455698324e+02,-3.727362546887363806e+02,-3.537445903816696955e+02,-2.831651594087636568e+02,9.523238182067871094e+00,-8.796565532684326172e-01,3.824593871831893921e-02,3.640000000000000000e+02
-3.732727334465998865e+02,-3.036753225192412629e+02,-2.257746843244201500e+02,-2.479798361039626116e+02,-3.962421750078003697e+02,-3.618220508449282988e+02,-3.468976558279416622e+02,-2.783305388325638887e+02,9.523238182067871094e+00,-8.796565532684326172e-01,3.824593871831893921e-02,3.650000000000000000e+02
-3.691433155502202226e+02,-2.982843740528862782e+02,-2.230800987868758511e+02,-2.396986452738899516e+02,-3.921397262251334723e+02,-3.522612921651705165e+02,-3.408500239084653458e+02,-2.724992158029563143e+02,9.523238182067871094e+00,-8.796565532684326172e-01,3.824593871831893921e-02,3.660000000000000000e+02
-3.659713137440498940e+02,-2.937309949644014750e+02,-2.195884931071616393e+02,-2.314923306752530152e+02,-3.880293185760569941e+02,-3.436939548285056389e+02,-3.346726284969772678e+02,-2.648590801716213718e+02,9.523238182067871094e+00,-8.796565532684326172e-01,3.824593871831893921e-02,3.670000000000000000e+02
-3.629654279788355780e+02,-2.898685628907967384e+02,-2.154310992332211754e+02,-2.243140164578433087e+02,-3.832160315455021191e+02,-3.364396062962227916e+02,-3.284314051037868012e+02,-2.569172228948009433e+02,9.523238182067871094e+00,-8.796565532684326172e-01,3.824593871831893921e-02,3.680000000000000000e+02
-3.604080962642074155e+02,-2.875812489293593899e+02,-2.124319840011553424e+02,-2.205923634856274020e+02,-3.785806008804170233e+02,-3.318606679680199250e+02,-3.233637044842378145e+02,-2.517090873701727105e+02,9.523238182067871094e+00,-8.796565532684326172e-01,3.824593871831893921e-02,3.690000000000000000e+02
-3.589977475240414151e+02,-2.876259893350414814e+02,-2.123342522878708678e+02,-2.220454510459453559e+02,-3.756195198115638050e+02,-3.313167613729697223e+02,-3.209127907539927946e+02,-2.514327508522362677e+02,9.523238182067871094e+00,-8.796565532684326172e-01,3.824593871831893921e-02,3.700000000000000000e+02
-3.592147304359523332e+02,-2.897283655357892940e+02,-2.153178963614561781e+02,-2.279608854219798104e+02,-3.750912596595103423e+02,-3.348079783858163410e+02,-3.216038710749096481e+02,-2.558146395877433861e+02,9.523238182067871094e+00,-8.796565532684326172e-01,3.824593871831893921e-02,3.710000000000000000e+02
-3.614340777404363507e+02,-2.930635306777330698e+02,-2.202935287648376743e+02,-2.357711978779107085e+02,-3.766851387404408342e+02,-3.407768705140229031e+02,-3.248108204580671554e+02,-2.627026433059947976e+02,9.523238182067871094e+00,-8.796565532684326172e-01,3.824593871831893921e-02,3.720000000000000000e+02
-3.663206200543666000e+02,-2.974864054615095483e+02,-2.264489282912904855e+02,-2.433043215008476636e+02,-3.798499093848156463e+02,-3.472860146033253841e+02,-3.294552952026901949e+02,-2.701053147010966313e+02,9.523238182067871094e+00,-8.796565532684326172e-01,3.824593871831893921e-02,3.730000000000000000e+02
-3.745988347555560267e+02,-3.039043521782022026e+02,-2.342108029621895184e+02,-2.503693234212635161e+02,-3.846247941930218985e+02,-3.533779707581204548e+02,-3.347714318075752544e+02,-2.776307293258896607e+02,9.523238182067871094e+00,-8.796565532684326172e-01,3.824593871831893921e-02,3.740000000000000000e+02
-3.860961926545016922e+02,-3.131438402435921944e+02,-2.444996600169711201e+02,-2.581132968311430886e+02,-3.914325182324319030e+02,-3.593299731091499325e+02,-3.404065122446656915e+02,-2.860880983385861782e+02,9.523238182067871094e+00,-8.796565532684326172e-01,3.824593871831893921e-02,3.750000000000000000e+02
-3.990294620886754728e+02,-3.244619926872562701e+02,-2.570956096957072532e+02,-2.669986458217088057e+02,-4.001123262961300497e+02,-3.657413169136070792e+02,-3.460339626364584547e+02,-2.959504591450775024e+02,9.523238182067871094e+00,-8.796565532684326172e-01,3.824593871831893921e-02,3.760000000000000000e+02
-4.105427427121237542e+02,-3.354353477776867294e+02,-2.699640770451869685e+02,-2.757050543853774798e+02,-4.094108076389240978e+02,-3.725987026153441093e+02,-3.512053255532443927e+02,-3.064319445810410798e+02,9.523238182067871094e+00,-8.796565532684326172e-01,3.824593871831893921e-02,3.770000000000000000e+02
-4.183365929253970990e+02,-3.436049547381880984e+02,-2.804199071376986012e+02,-2.822197752395954922e+02,-4.176511074640782226e+02,-3.793450800116831942e+02,-3.557474020005079183e+02,-3.160889285334199030e+02,9.523238182067871094e+00,-8.796565532684326172e-01,3.824593871831893921e-02,3.780000000000000000e+02
-4.221190040442766076e+02,-3.484286577249945367e+02,-2.871230653355416962e+02,-2.860281447499335172e+02,-4.239794415423509690e+02,-3.857807327363598233e+02,-3.601995842637561509e+02,-3.242149009908464450e+02,9.523238182067871094e+00,-8.796565532684326172e-01,3.824593871831893921e-02,3.790000000000000000e+02
-4.237049825574010811e+02,-3.517240393037986905e+02,-2.910736817863876240e+02,-2.890914700889456981e+02,-4.289433833826524278e+02,-3.926737357784686537e+02,-3.656057166908099134e+02,-3.314998304550506418e+02,9.523238182067871094e+00,-8.796565532684326172e-01,3.824593871831893921e-02,3.800000000000000000e+02
-4.257670981251951616e+02,-3.562507649056710761e+02,-2.947535979946665066e+02,-2.944801407016605026e+02,-4.338535209550902891e+02,-4.012628250016682614e+02,-3.726694607928966434e+02,-3.392507114685188299e+02,9.523238182067871094e+00,-8.796565532684326172e-01,3.824593871831893921e-02,3.810000000000000000e+02
-4.303220382702857023e+02,-3.637924642330526694e+02,-3.003035519566171843e+02,-3.038601757865205855e+02,-4.396162681360510760e+02,-4.120391679732076682e+02,-3.810534324382372233e+02,-3.480064951763388308e+02,9.523238182067871094e+00,-8.796565532684326172e-01,3.824593871831893921e-02,3.820000000000000000e+02
-4.379825773072816446e+02,-3.743315873587134774e+02,-3.083359932177836527e+02,-3.161375174234847236e+02,-4.461633752828456636e+02,-4.239995744485268006e+02,-3.895610168430243903e+02,-3.569790713503357438e+02,9.523238182067871094e+00,-8.796565532684326172e-01,3.824593871831893921e-02,3.830000000000000000e+02
-4.481104080606276057e+02,-3.866138686027973108e+02,-3.181145625800372727e+02,-3.284050249102992893e+02,-4.528587295126405934e+02,-4.351289010448115278e+02,-3.970678343798726928e+02,-3.648451489345445680e+02,9.523238182067871094e+00,-8.796565532684326172e-01,3.824593871831893921e-02,3.840000000000000000e+02
-4.593141439787680156e+02,-3.991447145347478909e+02,-3.285085600932902707e+02,-3.382034685266257839e+02,-4.592831931061753039e+02,-4.437413395786268211e+02,-4.033414608065595530e+02,-3.710392182200127991e+02,9.523238182067871094e+00,-8.796565532684326172e-01,3.824593871831893921e-02,3.850000000000000000e+02
-4.698429076791053376e+02,-4.106621725487732419e+02,-3.386314939843575758e+02,-3.450362709579621878e+02,-4.655369744305805852e+02,-4.495210423422583972e+02,-4.090179480892575157e+02,-3.761896768735657588e+02,9.523238182067871094e+00,-8.796565532684326172e-01,3.824593871831893921e-02,3.860000000000000000e+02
-4.779206977040707898e+02,-4.200671129395307162e+02,-3.477177871447627240e+02,-3.499554018431078930e+02,-4.717972158364445932e+02,-4.533811477931660647e+02,-4.147889142172812171e+02,-3.812129301299573854e+02,9.523238182067871094e+00,-8.796565532684326172e-01,3.824593871831893921e-02,3.870000000000000000e+02
-4.822161944244201095e+02,-4.264118580223353092e+02,-3.547302813542260083e+02,-3.538929492866132023e+02,-4.776438801609799611e+02,-4.563421151615748386e+02,-4.205444262003579752e+02,-3.859538260464564701e+02,9.523238182067871094e+00,-8.796565532684326172e-01,3.824593871831893921e-02,3.880000000000000000e+02
-4.823427221918932446e+02,-4.292349735314558075e+02,-3.584202495367244410e+02,-3.564620724557728408e+02,-4.818671856339692567e+02,-4.584838603166392659e+02,-4.251933282316249461e+02,-3.887973396207994483e+02,9.523238182067871094e+00,-8.796565532684326172e-01,3.824593871831893921e-02,3.890000000000000000e+02
-4.789898749540675453e+02,-4.288599349539440482e+02,-3.579962673450784223e+02,-3.563257383099430626e+02,-4.830410041161494519e+02,-4.589231652972741813e+02,-4.273073351928128432e+02,-3.878021872873432585e+02,9.523238182067871094e+00,-8.796565532684326172e-01,3.824593871831893921e-02,3.900000000000000000e+02
-4.735079709092369740e+02,-4.261968871254803162e+02,-3.538497067774198968e+02,-3.526827048131854099e+02,-4.804786770246662400e+02,-4.568117982387170741e+02,-4.261269389156273064e+02,-3.824454302425760943e+02,9.523238182067871094e+00,-8.796565532684326172e-01,3.824593871831893921e-02,3.910000000000000000e+02
-4.672707371453959695e+02,-4.221783840358355064e+02,-3.476412288983283361e+02,-3.464180760061822184e+02,-4.748395051057671026e+02,-4.524178133644320496e+02,-4.222251882151867903e+02,-3.744172922369541539e+02,9.523238182067871094e+00,-8.796565532684326172e-01,3.824593871831893921e-02,3.920000000000000000e+02
-4.613259326356455858e+02,-4.174462600589583872e+02,-3.415807440358894382e+02,-3.398562243547498838e+02,-4.678951387741956296e+02,-4.472837218332788325e+02,-4.173674405962774472e+02,-3.667253210680482880e+02,9.523238182067871094e+00,-8.796565532684326172e-01,3.824593871831893921e-02,3.930000000000000000e+02
-4.564913353491033376e+02,-4.126114449265103303e+02,-3.373880505692286533e+02,-3.353549048753279749e+02,-4.615896061391954390e+02,-4.432945745354445535e+02,-4.136244560854497649e+02,-3.618621013774529729e+02,9.523238182067871094e+00,-8.796565532684326172e-01,3.824593871831893921e-02,3.940000000000000000e+02
-4.535639940356818443e+02,-4.086892108281381297e+02,-3.356692211795329968e+02,-3.339654482573364476e+02,-4.570926688009840291e+02,-4.414866472101657564e+02,-4.123060074411646383e+02,-3.605551967768997201e+02,9.446745872497558594e+00,-8.414105772972106934e-01,7.649187743663787842e-02,3.950000000000000000e+02
-4.532128933315818813e+02,-4.070036766337543668e+02,-3.360725488521013631e+02,-3.351907714816863972e+02,-4.545516709580060706e+02,-4.416166639692733042e+02,-4.134317647795855919e+02,-3.619701055888258452e+02,9.446745872497558594e+00,-8.414105772972106934e-01,7.649187743663787842e-02,3.960000000000000000e+02
-4.555371068676581672e+02,-4.083933495567775935e+02,-3.379371734512321837e+02,-3.377920597342103974e+02,-4.536064780892579620e+02,-4.427260530632688642e+02,-4.160375139404000038e+02,-3.648440188450510959e+02,9.446745872497558594e+00,-8.414105772972106934e-01,7.649187743663787842e-02,3.970000000000000000e+02
-4.597422079098873837e+02,-4.124045042611826375e+02,-3.408183920288549871e+02,-3.407413697851509369e+02,-4.540202799779995075e+02,-4.439985842773858167e+02,-4.189692411155465379e+02,-3.683073912049967475e+02,9.446745872497558594e+00,-8.414105772972106934e-01,7.649187743663787842e-02,3.980000000000000000e+02
-4.644031192276133879e+02,-4.173628126069600057e+02,-3.445100273244613618e+02,-3.435383153667755778e+02,-4.557394051484588999e+02,-4.450797594788550668e+02,-4.214937911705155784e+02,-3.717805012661731325e+02,9.446745872497558594e+00,-8.414105772972106934e-01,7.649187743663787842e-02,3.990000000000000000e+02
-4.682531965122238944e+02,-4.214640849895849897e+02,-3.487323742255828165e+02,-3.459424982517898570e+02,-4.584208225329880406e+02,-4.457750058389224250e+02,-4.233583165535869739e+02,-3.744962524971112998e+02,9.446745872497558594e+00,-8.414105772972106934e-01,7.649187743663787842e-02,4.000000000000000000e+02
-4.709168044888854183e+02,-4.240365002462056054e+02,-3.529887003693975203e+02,-3.477671282790438454e+02,-4.611779345698432735e+02,-4.457904555886207163e+02,-4.245416297321876300e+02,-3.756046035084391406e+02,9.446745872497558594e+00,-8.414105772972106934e-01,7.649187743663787842e-02,4.010000000000000000e+02
-4.729906986161272471e+02,-4.258835659271339864e+02,-3.568460722966533467e+02,-3.491079575389712772e+02,-4.631152500293574121e+02,-4.450402474676398015e+02,-4.251579982217222096e+02,-3.750088782567584076e+02,9.446745872497558594e+00,-8.414105772972106934e-01,7.649187743663787842e-02,4.020000000000000000e+02
-4.753637698175091373e+02,-4.283603269208401798e+02,-3.603126070672828973e+02,-3.506289391376694766e+02,-4.642299791575646850e+02,-4.441978090947463897e+02,-4.255978386316187425e+02,-3.739785139143912147e+02,9.446745872497558594e+00,-8.414105772972106934e-01,7.649187743663787842e-02,4.030000000000000000e+02
-4.782928942072417158e+02,-4.319449600405357614e+02,-3.637598890510462297e+02,-3.532556133082296128e+02,-4.655909453770823347e+02,-4.446290384245198766e+02,-4.265059390003107183e+02,-3.745287733141149147e+02,9.446745872497558594e+00,-8.414105772972106934e-01,7.649187743663787842e-02,4.040000000000000000e+02
-4.809627452998392982e+02,-4.355376841965271524e+02,-3.672795923919345569e+02,-3.572463601103511337e+02,-4.682849175197193290e+02,-4.473780616234498666e+02,-4.282979678774659078e+02,-3.777480967949513797e+02,9.446745872497558594e+00,-8.414105772972106934e-01,7.649187743663787842e-02,4.050000000000000000e+02
-4.819334888111334294e+02,-4.371563817919945905e+02,-3.701145534919969577e+02,-3.615183911084266128e+02,-4.720136287409945908e+02,-4.520334938406558649e+02,-4.305648836346190365e+02,-3.825762299175821681e+02,9.446745872497558594e+00,-8.414105772972106934e-01,7.649187743663787842e-02,4.060000000000000000e+02
-4.802695274944510402e+02,-4.355582360331552536e+02,-3.709914599667729362e+02,-3.641765746606395169e+02,-4.749047493029474936e+02,-4.567313725569410963e+02,-4.321194285667197619e+02,-3.864505518864548321e+02,9.446745872497558594e+00,-8.414105772972106934e-01,7.649187743663787842e-02,4.070000000000000000e+02
-4.766074994843720560e+02,-4.315049634731578863e+02,-3.694030622314189714e+02,-3.641140848462846407e+02,-4.750936674383892750e+02,-4.595973642011340417e+02,-4.319615805662301682e+02,-3.875570706520463773e+02,9.446745872497558594e+00,-8.414105772972106934e-01,7.649187743663787842e-02,4.080000000000000000e+02
-4.733452758673322478e+02,-4.276092621985892492e+02,-3.668019951124642830e+02,-3.623377119986396337e+02,-4.727936971748822543e+02,-4.604620816195301813e+02,-4.304355048350794277e+02,-3.867538331173188908e+02,9.446745872497558594e+00,-8.414105772972106934e-01,7.649187743663787842e-02,4.090000000000000000e+02
-4.735892296228016676e+02,-4.267838851579331276e+02,-3.663879860550155172e+02,-3.616343114275773587e+02,-4.708202116948909861e+02,-4.612295826698054952e+02,-4.294316409737466529e+02,-3.872750491924748530e+02,9.446745872497558594e+00,-8.414105772972106934e-01,7.649187743663787842e-02,4.100000000000000000e+02
-4.793094557295780760e+02,-4.303929157410302651e+02,-3.712041820427832590e+02,-3.646001106240366880e+02,-4.727816993062751862e+02,-4.644261244442541283e+02,-4.312225150495737580e+02,-3.922549019403406874e+02,9.446745872497558594e+00,-8.414105772972106934e-01,7.649187743663787842e-02,4.110000000000000000e+02
-4.898228965791254268e+02,-4.374313124324387445e+02,-3.818084490148646637e+02,-3.716040598758631859e+02,-4.803081991600110996e+02,-4.711248425591384148e+02,-4.367819954855922333e+02,-4.021343616164244850e+02,9.446745872497558594e+00,-8.414105772972106934e-01,7.649187743663787842e-02,4.120000000000000000e+02
-5.016673192058826771e+02,-4.452306542888786680e+02,-3.953730616425050357e+02,-3.803819323119223554e+02,-4.916256750956445103e+02,-4.799887598458140019e+02,-4.449649223545279710e+02,-4.141157825694097028e+02,9.446745872497558594e+00,-8.414105772972106934e-01,7.649187743663787842e-02,4.130000000000000000e+02
-5.100797702404663596e+02,-4.510005022713517064e+02,-4.070225138097944182e+02,-3.875048940521917302e+02,-5.025733423056626634e+02,-4.880932228822143770e+02,-4.531389118606248303e+02,-4.239468265743412303e+02,9.446745872497558594e+00,-8.414105772972106934e-01,7.649187743663787842e-02,4.140000000000000000e+02
-5.112250869683571182e+02,-4.529977246574435412e+02,-4.124368154406874964e+02,-3.903581267369961552e+02,-5.090541097177997472e+02,-4.926275060172861231e+02,-4.586137908184982734e+02,-4.283077529041847811e+02,9.446745872497558594e+00,-8.414105772972106934e-01,7.649187743663787842e-02,4.150000000000000000e+02
-5.038384339654776340e+02,-4.506474304830126130e+02,-4.098220953261386512e+02,-3.880260483600279713e+02,-5.089029400156059637e+02,-4.920360014823249912e+02,-4.597001132330237851e+02,-4.258756242166898573e+02,9.446745872497558594e+00,-8.031646609306335449e-01,3.824593871831893921e-02,4.160000000000000000e+02
-4.894056594687790493e+02,-4.439479808209516705e+02,-4.000505253395886029e+02,-3.807358639384481194e+02,-5.020383305160562486e+02,-4.859894762962494497e+02,-4.558292041747909025e+02,-4.167439255472279456e+02,9.446745872497558594e+00,-8.031646609306335449e-01,3.824593871831893921e-02,4.170000000000000000e+02
-4.710251734577643674e+02,-4.330242703376175086e+02,-3.853516579366628321e+02,-3.689088248438690698e+02,-4.894504466418557058e+02,-4.747756583565119399e+02,-4.471533129079939499e+02,-4.014770515502948456e+02,9.446745872497558594e+00,-8.031646609306335449e-01,3.824593871831893921e-02,4.180000000000000000e+02
-4.518601672824247544e+02,-4.183078556964387644e+02,-3.679218807811687384e+02,-3.529833646130844045e+02,-4.723500508316910782e+02,-4.590207954354800677e+02,-4.343464373164806602e+02,-3.810580994726160498e+02,9.446745872497558594e+00,-8.031646609306335449e-01,3.824593871831893921e-02,4.190000000000000000e+02
-4.340633551555054055e+02,-4.009846880112481813e+02,-3.494253133454485578e+02,-3.340359964384549585e+02,-4.521425071353633030e+02,-4.399409486798990656e+02,-4.187675260235373571e+02,-3.575258567171481445e+02,9.446745872497558594e+00,-8.031646609306335449e-01,3.824593871831893921e-02,4.200000000000000000e+02
-4.184655754368748148e+02,-3.829562793831860290e+02,-3.312169559714459410e+02,-3.141627145055099390e+02,-4.307331791226388304e+02,-4.195096357740058011e+02,-4.024651490390483559e+02,-3.340238915143879694e+02,9.446745872497558594e+00,-8.031646609306335449e-01,3.824593871831893921e-02,4.210000000000000000e+02
-4.047989562099762679e+02,-3.660379993335402560e+02,-3.144808641287254432e+02,-2.958010449326661728e+02,-4.103166175383385053e+02,-3.999592941422993135e+02,-3.875235471078885894e+02,-3.135875974470313849e+02,9.446745872497558594e+00,-8.031646609306335449e-01,3.824593871831893921e-02,4.220000000000000000e+02
-3.921527215889620948e+02,-3.509858465591569257e+02,-2.999022354100322900e+02,-2.804048832185203537e+02,-3.925358343090856579e+02,-3.828169492792249002e+02,-3.750040463726932103e+02,-2.975370578170018234e+02,9.446745872497558594e+00,-8.031646609306335449e-01,3.824593871831893921e-02,4.230000000000000000e+02
-3.795192237920816751e+02,-3.372363216577830372e+02,-2.872967497222593920e+02,-2.677013983834615374e+02,-3.777416861478250212e+02,-3.682824775597032385e+02,-3.643470761252074226e+02,-2.850109827404564840e+02,9.446745872497558594e+00,-8.031646609306335449e-01,3.824593871831893921e-02,4.240000000000000000e+02
-3.663286605899338610e+02,-3.236487730637632012e+02,-2.757898869830280546e+02,-2.562820379977067660e+02,-3.650908817091626588e+02,-3.555212224911770136e+02,-3.538709644778195980e+02,-2.741280163478229497e+02,9.446745872497558594e+00,-8.031646609306335449e-01,3.824593871831893921e-02,4.250000000000000000e+02
-3.527361686305800959e+02,-3.096064994397675036e+02,-2.645221181082829389e+02,-2.449714143456985767e+02,-3.533933605658326087e+02,-3.435917403512376040e+02,-3.420880098480261040e+02,-2.636241238002453429e+02,9.446745872497558594e+00,-8.031646609306335449e-01,3.824593871831893921e-02,4.260000000000000000e+02
-3.394215867497293857e+02,-2.955063194889658007e+02,-2.532024241563422038e+02,-2.336982011731474813e+02,-3.418870254390981245e+02,-3.321651774115052831e+02,-3.287977429434572514e+02,-2.534126373593630888e+02,9.446745872497558594e+00,-8.031646609306335449e-01,3.824593871831893921e-02,4.270000000000000000e+02
-3.270108512541646633e+02,-2.822694621053265109e+02,-2.419789568271576172e+02,-2.231583584407503622e+02,-3.302922181323383484e+02,-3.214571886514627295e+02,-3.150995247878076952e+02,-2.437486072335586869e+02,9.446745872497558594e+00,-8.031646609306335449e-01,3.824593871831893921e-02,4.280000000000000000e+02
-3.155986884677913622e+02,-2.704257094503961980e+02,-2.308778173402063203e+02,-2.137865315447004377e+02,-3.183385191487709562e+02,-3.115907132472757439e+02,-3.023915142564555936e+02,-2.341835664831910435e+02,9.446745872497558594e+00,-8.031646609306335449e-01,3.824593871831893921e-02,4.290000000000000000e+02
-3.048255461415546961e+02,-2.597052599276844376e+02,-2.196080259487127933e+02,-2.051913929574100166e+02,-3.055658689000756567e+02,-3.021685508782156830e+02,-2.913055558178753017e+02,-2.236529461208654084e+02,9.446745872497558594e+00,-8.031646609306335449e-01,3.824593871831893921e-02,4.300000000000000000e+02
-2.944364522560163095e+02,-2.495125043661707878e+02,-2.081040240037991680e+02,-1.966301808580597026e+02,-2.918428520788324931e+02,-2.925785426970232947e+02,-2.814969818372551345e+02,-2.116913726484972358e+02,9.446745872497558594e+00,-8.031646609306335449e-01,3.824593871831893921e-02,4.310000000000000000e+02
-2.847232785387448075e+02,-2.397330062245273439e+02,-1.972165925728841103e+02,-1.879460328369248145e+02,-2.780868367834959827e+02,-2.827327592166311661e+02,-2.723272962781288697e+02,-1.994231504152403431e+02,9.446745872497558594e+00,-8.031646609306335449e-01,3.824593871831893921e-02,4.320000000000000000e+02
-2.763830128810841416e+02,-2.310127825206213856e+02,-1.886305673343140370e+02,-1.799498423381082830e+02,-2.662582686536047731e+02,-2.734713410190347531e+02,-2.636748769002301742e+02,-1.891720387687380480e+02,9.446745872497558594e+00,-8.031646609306335449e-01,3.824593871831893921e-02,4.330000000000000000e+02
-2.699680094911318520e+02,-2.242291203694912838e+02,-1.838287769192431824e+02,-1.738462878946679666e+02,-2.583239522502585714e+02,-2.661613456983163815e+02,-2.560997554295927330e+02,-1.829582300957024472e+02,9.446745872497558594e+00,-8.031646609306335449e-01,3.824593871831893921e-02,4.340000000000000000e+02
-2.655147352340663929e+02,-2.196752291673260515e+02,-1.829458711883271462e+02,-1.702648785411051904e+02,-2.549469132045860533e+02,-2.617714050565227808e+02,-2.503080155790844401e+02,-1.812081098795913476e+02,9.446745872497558594e+00,-8.031646609306335449e-01,3.824593871831893921e-02,4.350000000000000000e+02
-2.627069395237861045e+02,-2.167671863964374097e+02,-1.845944576749334374e+02,-1.688150335253349112e+02,-2.550520896889606774e+02,-2.601931263539231622e+02,-2.465358420845614091e+02,-1.827123039006810359e+02,9.446745872497558594e+00,-8.031646609306335449e-01,3.824593871831893921e-02,4.360000000000000000e+02
-2.613567692025962970e+02,-2.145967769293445144e+02,-1.868923685648926494e+02,-1.685500142110645356e+02,-2.566735996043121304e+02,-2.603794304020116215e+02,-2.444531975210165911e+02,-1.856771104613471834e+02,9.446745872497558594e+00,-8.031646609306335449e-01,3.824593871831893921e-02,4.370000000000000000e+02
-2.616802750285412458e+02,-2.128693658778402096e+02,-1.888132417947861086e+02,-1.688732229557163009e+02,-2.583382671407616726e+02,-2.611675929422826812e+02,-2.435990907436012094e+02,-1.888530206553907647e+02,9.446745872497558594e+00,-8.031646609306335449e-01,3.824593871831893921e-02,4.380000000000000000e+02
-2.641115179499299757e+02,-2.123972523747759169e+02,-1.907218928925553882e+02,-1.700772839738137918e+02,-2.598131416280748454e+02,-2.620949284623675339e+02,-2.438431183512643656e+02,-1.919442467517242221e+02,9.446745872497558594e+00,-8.031646609306335449e-01,3.824593871831893921e-02,4.390000000000000000e+02
-2.688765292359350951e+02,-2.146684630750528413e+02,-1.937602942530152177e+02,-1.730834997303700220e+02,-2.617386903405567864e+02,-2.635804113830113238e+02,-2.454295039968483252e+02,-1.952907677007067377e+02,9.446745872497558594e+00,-8.031646609306335449e-01,3.824593871831893921e-02,4.400000000000000000e+02
-2.757246568136308724e+02,-2.207599784378421646e+02,-1.987783621883818341e+02,-1.786349249710920049e+02,-2.647377308029872438e+02,-2.664210135125481429e+02,-2.486356566131389627e+02,-1.993529092782441694e+02,9.561484336853027344e+00,-8.031646609306335449e-01,3.824593871831893921e-02,4.410000000000000000e+02
-2.839704374525906587e+02,-2.303877401501051736e+02,-2.057597071808938836e+02,-1.865951868346680840e+02,-2.689160647556282129e+02,-2.710920423010779814e+02,-2.534134399858289726e+02,-2.044233945935991414e+02,9.561484336853027344e+00,-8.031646609306335449e-01,3.824593871831893921e-02,4.420000000000000000e+02
-2.927078930346817742e+02,-2.418103861405711541e+02,-2.140580283950796456e+02,-1.958746154591051436e+02,-2.740523389907120873e+02,-2.774049902684746485e+02,-2.593081143962672286e+02,-2.105808342437217107e+02,9.561484336853027344e+00,-8.031646609306335449e-01,3.824593871831893921e-02,4.430000000000000000e+02
-3.010268665750813852e+02,-2.526681591418848711e+02,-2.229617198916100733e+02,-2.049825925394252408e+02,-2.799861799532277473e+02,-2.846788476461038044e+02,-2.656377949092366180e+02,-2.177147474452583538e+02,9.561484336853027344e+00,-8.031646609306335449e-01,3.824593871831893921e-02,4.440000000000000000e+02
-3.082374238223153498e+02,-2.611947779373901994e+02,-2.319720021117391298e+02,-2.127915032763985437e+02,-2.866574009986325109e+02,-2.921825365809554569e+02,-2.717763380140672780e+02,-2.255843931398037512e+02,9.561484336853027344e+00,-8.031646609306335449e-01,3.824593871831893921e-02,4.450000000000000000e+02
-3.141573328572687842e+02,-2.670154857637546684e+02,-2.407083011966433332e+02,-2.190289361790323710e+02,-2.938547485944204709e+02,-2.994998469713796112e+02,-2.774352765593889671e+02,-2.339718324966618184e+02,9.561484336853027344e+00,-8.031646609306335449e-01,3.824593871831893921e-02,4.460000000000000000e+02
-3.192970099780734472e+02,-2.710775104861677391e+02,-2.487938137368082607e+02,-2.242500161224340900e+02,-3.011438716338534505e+02,-3.066303098610042071e+02,-2.828504257912313733e+02,-2.428792614383842192e+02,9.561484336853027344e+00,-8.031646609306335449e-01,3.824593871831893921e-02,4.470000000000000000e+02
-3.246838756904114689e+02,-2.749105532622600094e+02,-2.560302505263043713e+02,-2.294197731646827378e+02,-3.082149703985865017e+02,-3.138765750524826217e+02,-2.887303868257772592e+02,-2.525699122870528299e+02,9.561484336853027344e+00,-8.031646609306335449e-01,3.824593871831893921e-02,4.480000000000000000e+02
-3.312883119516220631e+02,-2.798148713606901765e+02,-2.626898813724462798e+02,-2.354124162544746923e+02,-3.152605506711224734e+02,-3.216143144103180020e+02,-2.958401508348010793e+02,-2.632742171257973496e+02,9.561484336853027344e+00,-8.031646609306335449e-01,3.824593871831893921e-02,4.490000000000000000e+02
-3.393999135593030587e+02,-2.864575342310461110e+02,-2.694789452176448776e+02,-2.426736864005085863e+02,-3.228219504965550186e+02,-3.300060278465816737e+02,-3.043680519336094221e+02,-2.746840497412370041e+02,9.561484336853027344e+00,-8.031646609306335449e-01,3.824593871831893921e-02,4.500000000000000000e+02
-3.483994931470917891e+02,-2.948721985107640648e+02,-2.769877043019855591e+02,-2.510942647228912392e+02,-3.310846515153170913e+02,-3.387316770144798284e+02,-3.135370412284974009e+02,-2.856389978863612669e+02,9.561484336853027344e+00,-8.031646609306335449e-01,3.824593871831893921e-02,4.510000000000000000e+02
-3.570696245386247938e+02,-3.045274094851838527e+02,-2.849928457432683899e+02,-2.600248705201265693e+02,-3.392682611547768374e+02,-3.468932079419937509e+02,-3.218591166975929809e+02,-2.943962054387495755e+02,9.561484336853027344e+00,-8.031646609306335449e-01,3.824593871831893921e-02,4.520000000000000000e+02
-3.642471659378202276e+02,-3.143348945351472139e+02,-2.923356366865418750e+02,-2.684844617085707341e+02,-3.458638902064308240e+02,-3.533394974341335910e+02,-3.279901995352111044e+02,-2.995844587347539800e+02,9.561484336853027344e+00,-8.031646609306335449e-01,3.824593871831893921e-02,4.530000000000000000e+02
-3.694860849004126067e+02,-3.228755765819953467e+02,-2.977655762239508022e+02,-2.756935332207187912e+02,-3.497753508722707920e+02,-3.574624394198749542e+02,-3.316344912500594546e+02,-3.014219041046653729e+02,9.561484336853027344e+00,-8.031646609306335449e-01,3.824593871831893921e-02,4.540000000000000000e+02
-3.734150392095259576e+02,-3.290971632329358272e+02,-3.012435481047216399e+02,-2.817882885398933013e+02,-3.515085982746377340e+02,-3.600177164526153319e+02,-3.338510466208031175e+02,-3.022876466160105338e+02,9.561484336853027344e+00,-8.031646609306335449e-01,3.824593871831893921e-02,4.550000000000000000e+02
-3.775350969612800327e+02,-3.331294402777209598e+02,-3.045172942728927410e+02,-2.880986233200792412e+02,-3.532902138134813868e+02,-3.631633971234109595e+02,-3.365152589259691922e+02,-3.058283918155659649e+02,9.561484336853027344e+00,-8.031646609306335449e-01,3.824593871831893921e-02,4.560000000000000000e+02
-3.833670580232501379e+02,-3.363857834851876305e+02,-3.101319385301180773e+02,-2.964005544520196054e+02,-3.577407101150138260e+02,-3.692553760351649998e+02,-3.412534523632029959e+02,-3.147431644320008672e+02,9.561484336853027344e+00,-8.031646609306335449e-01,3.824593871831893921e-02,4.570000000000000000e+02
-3.912346507333697900e+02,-3.405138248643202132e+02,-3.193294130633803434e+02,-3.073433469773144679e+02,-3.659293172025263630e+02,-3.789760899949592385e+02,-3.484955533450122402e+02,-3.286082352968155647e+02,9.561484336853027344e+00,-8.031646609306335449e-01,3.824593871831893921e-02,4.580000000000000000e+02
-3.995250405797978601e+02,-3.458766129343017610e+02,-3.305066926899310147e+02,-3.192430709571744956e+02,-3.763056423326302138e+02,-3.902392804976848311e+02,-3.572044319162014290e+02,-3.435336855969246699e+02,9.561484336853027344e+00,-8.031646609306335449e-01,3.824593871831893921e-02,4.590000000000000000e+02
-4.053341093187318620e+02,-3.509804290896845487e+02,-3.398157628936357924e+02,-3.285713055051182891e+02,-3.855251438569482616e+02,-3.990698408390107943e+02,-3.654652303931579809e+02,-3.543556967317251747e+02,9.561484336853027344e+00,-8.031646609306335449e-01,3.824593871831893921e-02,4.600000000000000000e+02
-4.064560366756818439e+02,-3.536115320691312718e+02,-3.438047836585396908e+02,-3.322106073354561886e+02,-3.907179576661555984e+02,-4.021604362745181334e+02,-3.715939037229645692e+02,-3.579992776496401348e+02,9.561484336853027344e+00,-8.031646609306335449e-01,3.824593871831893921e-02,4.610000000000000000e+02
-4.032776115219908206e+02,-3.527966922158418583e+02,-3.420334400139920490e+02,-3.298267781405108963e+02,-3.914448004321475310e+02,-3.991915492465946045e+02,-3.750216067201424721e+02,-3.553875247469293299e+02,9.561484336853027344e+00,-8.031646609306335449e-01,3.824593871831893921e-02,4.620000000000000000e+02
-3.987251030511422414e+02,-3.497067859397964185e+02,-3.372780679564448292e+02,-3.242460791569128560e+02,-3.896692377331016814e+02,-3.929121691918280703e+02,-3.762828321812294234e+02,-3.502236738490905736e+02,9.561484336853027344e+00,-8.031646609306335449e-01,3.824593871831893921e-02,4.630000000000000000e+02
-3.958595454343223992e+02,-3.465145543697124140e+02,-3.329358259028699649e+02,-3.192911821615839472e+02,-3.877119708055438423e+02,-3.867821520927573147e+02,-3.760887919137530844e+02,-3.456351453718004905e+02,9.561484336853027344e+00,-8.031646609306335449e-01,3.824593871831893921e-02,4.640000000000000000e+02
-3.950277993150707516e+02,-3.442772109129447244e+02,-3.299028439804419577e+02,-3.168757119902126078e+02,-3.860314153357742271e+02,-3.822088250696808700e+02,-3.743237192254198362e+02,-3.416796772477505328e+02,9.561484336853027344e+00,-8.031646609306335449e-01,3.824593871831893921e-02,4.650000000000000000e+02
-3.933888826376462475e+02,-3.420654904775835803e+02,-3.259671627954771793e+02,-3.160156126496702882e+02,-3.829984311851196708e+02,-3.779323820028921546e+02,-3.700569859763770637e+02,-3.360776235552748403e+02,9.561484336853027344e+00,-8.031646609306335449e-01,3.824593871831893921e-02,4.660000000000000000e+02
-3.876975693956765099e+02,-3.383576809199084892e+02,-3.185095693832327015e+02,-3.146604262157754874e+02,-3.770049527619116816e+02,-3.721185089387793141e+02,-3.627921235290214099e+02,-3.274936180176337075e+02,9.561484336853027344e+00,-8.031646609306335449e-01,3.824593871831893921e-02,4.670000000000000000e+02
-3.779340495767114589e+02,-3.332267460982308194e+02,-3.079521700945083467e+02,-3.124094678942079781e+02,-3.688373061620916360e+02,-3.649889931042939679e+02,-3.538100596541439700e+02,-3.179987686341512472e+02,9.446745872497558594e+00,-8.796565532684326172e-01,0.000000000000000000e+00,4.680000000000000000e+02
-3.680295286057257726e+02,-3.287412966420093881e+02,-2.982990837930769885e+02,-3.111374358452401339e+02,-3.616993131062804423e+02,-3.591142673054462193e+02,-3.459978033498709920e+02,-3.118596825846777847e+02,9.446745872497558594e+00,-8.796565532684326172e-01,0.000000000000000000e+00,4.690000000000000000e+02
-3.623461882416906974e+02,-3.266706162369513322e+02,-2.936848730086596788e+02,-3.125736113653797474e+02,-3.584050966264890121e+02,-3.567031074740534677e+02,-3.417757645280426004e+02,-3.112939380737627744e+02,9.446745872497558594e+00,-8.796565532684326172e-01,0.000000000000000000e+00,4.700000000000000000e+02
-3.607981912735293690e+02,-3.255179910924582600e+02,-2.938392365862056295e+02,-3.151107528642072566e+02,-3.581563948164737212e+02,-3.563641728079007862e+02,-3.406630978645250707e+02,-3.130658023820825520e+02,9.446745872497558594e+00,-8.796565532684326172e-01,0.000000000000000000e+00,4.710000000000000000e+02
-3.574681322341388068e+02,-3.201378500160016074e+02,-2.929431878423656599e+02,-3.133849843904670252e+02,-3.561356543985043572e+02,-3.527744297979795647e+02,-3.388034943801294503e+02,-3.096151175645400144e+02,9.446745872497558594e+00,-8.796565532684326172e-01,0.000000000000000000e+00,4.720000000000000000e+02
-3.448198405671387263e+02,-3.051122337857906359e+02,-2.835960198127869489e+02,-3.018510467422029251e+02,-3.468140172145507449e+02,-3.402618594411626418e+02,-3.313620010824356541e+02,-2.945330005476421320e+02,9.446745872497558594e+00,-8.796565532684326172e-01,0.000000000000000000e+00,4.730000000000000000e+02
-3.203198365475093397e+02,-2.794133679150841090e+02,-2.628512505567454127e+02,-2.796520554859308731e+02,-3.283930083729342186e+02,-3.175569053513836479e+02,-3.161317650582369652e+02,-2.680152593893361654e+02,9.446745872497558594e+00,-8.796565532684326172e-01,0.000000000000000000e+00,4.740000000000000000e+02
-2.895365913946695855e+02,-2.482507766617581524e+02,-2.350557383288612527e+02,-2.523969163855781517e+02,-3.045420692728944232e+02,-2.895463409191518167e+02,-2.953900908511016041e+02,-2.374790593266131964e+02,9.446745872497558594e+00,-8.796565532684326172e-01,0.000000000000000000e+00,4.750000000000000000e+02
-2.625021343068003716e+02,-2.201246645516306444e+02,-2.088147588006913793e+02,-2.288254782690999036e+02,-2.818411334909144443e+02,-2.642320260749330600e+02,-2.743546249584384213e+02,-2.124739179988023352e+02,9.446745872497558594e+00,-8.796565532684326172e-01,0.000000000000000000e+00,4.760000000000000000e+02
-2.461211495687346087e+02,-2.012171901121261612e+02,-1.905473759746931819e+02,-2.147877172027594952e+02,-2.650415997822997269e+02,-2.471969751501676456e+02,-2.574395910514693924e+02,-1.979351863455826788e+02,9.446745872497558594e+00,-8.796565532684326172e-01,0.000000000000000000e+00,4.770000000000000000e+02
-2.391470970124707378e+02,-1.916060315533744642e+02,-1.801015214786523302e+02,-2.094322118667145105e+02,-2.540638975406454847e+02,-2.380448537301981560e+02,-2.453666509632128054e+02,-1.912681981001341569e+02,9.446745872497558594e+00,-8.796565532684326172e-01,0.000000000000000000e+00,4.780000000000000000e+02
-2.340273649501775139e+02,-1.861959350319001487e+02,-1.719791938861137623e+02,-2.066345498158613623e+02,-2.449795855319297289e+02,-2.315320528392863935e+02,-2.353621111536878061e+02,-1.853978795936333199e+02,9.446745872497558594e+00,-8.796565532684326172e-01,0.000000000000000000e+00,4.790000000000000000e+02
-2.237631773042304530e+02,-1.792217465136002374e+02,-1.607174141669445362e+02,-2.002013853797549245e+02,-2.337716393465022406e+02,-2.221290769628534463e+02,-2.239968897922085489e+02,-1.748420856932609695e+02,9.446745872497558594e+00,-8.796565532684326172e-01,0.000000000000000000e+00,4.800000000000000000e+02
-2.076601044250997461e+02,-1.684170077118546374e+02,-1.455809201271824804e+02,-1.883994721131355163e+02,-2.195962131004449134e+02,-2.081265684079985476e+02,-2.101244264130185684e+02,-1.596761459984028306e+02,9.446745872497558594e+00,-8.796565532684326172e-01,0.000000000000000000e+00,4.810000000000000000e+02
-1.912382767449980179e+02,-1.557469829732282847e+02,-1.307936499320541088e+02,-1.744073999703601601e+02,-2.051434514496949646e+02,-1.922586387851837912e+02,-1.956014507133575080e+02,-1.446283626003769314e+02,9.446745872497558594e+00,-8.796565532684326172e-01,0.000000000000000000e+00,4.820000000000000000e+02
-1.810632672884120495e+02,-1.448705127141444109e+02,-1.217182550539025669e+02,-1.630845444427822315e+02,-1.943605843149925931e+02,-1.790267442525628780e+02,-1.835979499140319717e+02,-1.349092983540687953e+02,9.446745872497558594e+00,-8.796565532684326172e-01,0.000000000000000000e+00,4.830000000000000000e+02
-1.795079697060015747e+02,-1.380557755495126173e+02,-1.206739898516290168e+02,-1.573337120788660002e+02,-1.897179250244229252e+02,-1.714103351635874048e+02,-1.762360473234424489e+02,-1.326574617031023990e+02,9.446745872497558594e+00,-8.796565532684326172e-01,0.000000000000000000e+00,4.840000000000000000e+02
-1.837294418843643484e+02,-1.350623686665663286e+02,-1.257154850914290023e+02,-1.569072613019843629e+02,-1.909815796810383972e+02,-1.694735668127906933e+02,-1.734612921006365696e+02,-1.364183189661895597e+02,9.446745872497558594e+00,-8.796565532684326172e-01,0.000000000000000000e+00,4.850000000000000000e+02
-1.887928894842011687e+02,-1.342177491599249493e+02,-1.326263363313962600e+02,-1.597605945740428410e+02,-1.958352112291092340e+02,-1.712347944136715228e+02,-1.736349518294174459e+02,-1.429814457086674793e+02,9.446745872497558594e+00,-8.796565532684326172e-01,0.000000000000000000e+00,4.860000000000000000e+02
-1.914669897438477051e+02,-1.340779113283713286e+02,-1.378614447094576576e+02,-1.639836098385469541e+02,-2.013828608347774889e+02,-1.743985973214936394e+02,-1.749076682739088824e+02,-1.494006861014713365e+02,9.446745872497558594e+00,-8.796565532684326172e-01,0.000000000000000000e+00,4.870000000000000000e+02
-1.916559382386558354e+02,-1.342337740439290883e+02,-1.402328241541078739e+02,-1.686634883537502105e+02,-2.055200204690108876e+02,-1.775296258043116495e+02,-1.762116315163376044e+02,-1.539867752927426636e+02,9.446745872497558594e+00,-8.796565532684326172e-01,0.000000000000000000e+00,4.880000000000000000e+02
-1.914234087339601729e+02,-1.352129803195614386e+02,-1.409158974663898221e+02,-1.737616803636457803e+02,-2.078080311220973044e+02,-1.804166140316305587e+02,-1.775144956429297736e+02,-1.566972945620375413e+02,9.446745872497558594e+00,-8.796565532684326172e-01,0.000000000000000000e+00,4.890000000000000000e+02
-1.934863460680230673e+02,-1.381982674826634820e+02,-1.425832471555451093e+02,-1.799527992586932896e+02,-2.097667107504719297e+02,-1.840636017367540944e+02,-1.796584114208797018e+02,-1.594210554255261059e+02,9.446745872497558594e+00,-8.796565532684326172e-01,0.000000000000000000e+00,4.900000000000000000e+02
-2.003433713087039223e+02,-1.447915198326730888e+02,-1.482389105360265376e+02,-1.886182480713098926e+02,-2.142910480163229749e+02,-1.903701053606646383e+02,-1.840106718716181149e+02,-1.655427273235798111e+02,9.446745872497558594e+00,-8.796565532684326172e-01,0.000000000000000000e+00,4.910000000000000000e+02
-2.134732942939065197e+02,-1.562697523141198985e+02,-1.596646863336450224e+02,-2.011864456674607027e+02,-2.239280779318188479e+02,-2.010477790397853823e+02,-1.917222677118020329e+02,-1.778744069155362695e+02,9.446745872497558594e+00,-8.796565532684326172e-01,0.000000000000000000e+00,4.920000000000000000e+02
-2.318683255407078150e+02,-1.720895581556683283e+02,-1.756726724208474479e+02,-2.174133854777878696e+02,-2.385896354262587238e+02,-2.158105878662121313e+02,-2.025292514540610682e+02,-1.956109609447498769e+02,9.446745872497558594e+00,-8.796565532684326172e-01,0.000000000000000000e+00,4.930000000000000000e+02
-2.508162234314686430e+02,-1.886512968370345789e+02,-1.913931286703881369e+02,-2.338138671834074103e+02,-2.543068330029791468e+02,-2.310785456848643662e+02,-2.138160417377869180e+02,-2.129051741956010346e+02,9.446745872497558594e+00,-8.796565532684326172e-01,0.000000000000000000e+00,4.940000000000000000e+02
-2.629951371979107080e+02,-1.999989817939383556e+02,-2.000178063726293658e+02,-2.443016823436229288e+02,-2.645863931801281979e+02,-2.408823633465647163e+02,-2.211491451161521127e+02,-2.213439779988530063e+02,9.446745872497558594e+00,-8.796565532684326172e-01,0.000000000000000000e+00,4.950000000000000000e+02
-2.624939638462483344e+02,-2.009286429867952393e+02,-1.967564381562411882e+02,-2.436169536470297317e+02,-2.641933310566341788e+02,-2.402197518095238138e+02,-2.206667331702587944e+02,-2.154895867810031405e+02,9.446745872497558594e+00,-8.796565532684326172e-01,0.000000000000000000e+00,4.960000000000000000e+02
-2.492935551227692486e+02,-1.906680455994862768e+02,-1.824602259330126799e+02,-2.313583186375235528e+02,-2.529351267984034166e+02,-2.287581938605023879e+02,-2.119527185621195713e+02,-1.974204782546555634e+02,9.446745872497558594e+00,-8.796565532684326172e-01,0.000000000000000000e+00,4.970000000000000000e+02
-2.303632792911400884e+02,-1.742051002409513103e+02,-1.639009150426538781e+02,-2.132376087734496650e+02,-2.364508556406269690e+02,-2.118593425010092233e+02,-1.990633693125882928e+02,-1.762863952727389005e+02,9.446745872497558594e+00,-8.796565532684326172e-01,0.000000000000000000e+00,4.980000000000000000e+02
-2.157989023181887660e+02,-1.598085587054983989e+02,-1.499985415492690208e+02,-1.980656077159167126e+02,-2.230179848476570896e+02,-1.976693430726857059e+02,-1.884658721468158546e+02,-1.627263867103438315e+02,9.408499717712402344e+00,-7.649186849594116211e-01,0.000000000000000000e+00,4.990000000000000000e+02
-2.125203765550809294e+02,-1.542143645850105713e+02,-1.465046100848039714e+02,-1.924230340823257848e+02,-2.184845990992332645e+02,-1.921551013782222981e+02,-1.850895803800367503e+02,-1.621862093962147355e+02,9.408499717712402344e+00,-7.649186849594116211e-01,0.000000000000000000e+00,5.000000000000000000e+02
-2.201574892806204389e+02,-1.587749539730466495e+02,-1.528702753734760336e+02,-1.968670489648575312e+02,-2.229421306909089253e+02,-1.956595338592626376e+02,-1.893291655879784230e+02,-1.719839081733030071e+02,9.408499717712402344e+00,-7.649186849594116211e-01,0.000000000000000000e+00,5.010000000000000000e+02
-2.319277629338812403e+02,-1.690411025201697157e+02,-1.632059524880180561e+02,-2.061990270834471630e+02,-2.313157953553075004e+02,-2.032775569408220235e+02,-1.971124613628126099e+02,-1.838040130401225269e+02,9.408499717712402344e+00,-7.649186849594116211e-01,0.000000000000000000e+00,5.020000000000000000e+02
-2.392803185220664091e+02,-1.776535390325666413e+02,-1.701023195357472559e+02,-2.130745478665348855e+02,-2.369736958338630757e+02,-2.083200629336370184e+02,-2.026960973321292840e+02,-1.891356760261237469e+02,9.408499717712402344e+00,-7.649186849594116211e-01,0.000000000000000000e+00,5.030000000000000000e+02
-2.365700007213288245e+02,-1.783137618603805095e+02,-1.684015037140839013e+02,-2.120321956107507049e+02,-2.354454449325749010e+02,-2.060596476220594013e+02,-2.019085688316663436e+02,-1.836006215767592948e+02,9.408499717712402344e+00,-7.649186849594116211e-01,0.000000000000000000e+00,5.040000000000000000e+02
-2.229118170247411399e+02,-1.684751077961304873e+02,-1.568579890780879396e+02,-2.014725593840385045e+02,-2.259216382554286611e+02,-1.954190482183266795e+02,-1.937188661918803518e+02,-1.679170625858102994e+02,9.408499717712402344e+00,-7.649186849594116211e-01,0.000000000000000000e+00,5.050000000000000000e+02
-2.011316501118412816e+02,-1.497467012253621306e+02,-1.376118634323274819e+02,-1.832067788982958518e+02,-2.103784713089353318e+02,-1.783237455019720983e+02,-1.797238620919288223e+02,-1.461335000006283735e+02,9.408499717712402344e+00,-7.649186849594116211e-01,0.000000000000000000e+00,5.060000000000000000e+02
-1.756055052360325135e+02,-1.264130628133743812e+02,-1.145913540686869965e+02,-1.607759184405977066e+02,-1.917596982803042920e+02,-1.579963989117923120e+02,-1.626327002413431728e+02,-1.231015927195194308e+02,9.408499717712402344e+00,-7.649186849594116211e-01,0.000000000000000000e+00,5.070000000000000000e+02
-1.505185503317989060e+02,-1.031231132412763145e+02,-9.181775461881807132e+01,-1.378077701942042950e+02,-1.725989811218187242e+02,-1.374780446129811935e+02,-1.449602994216238585e+02,-1.025591471463908420e+02,9.408499717712402344e+00,-7.649186849594116211e-01,0.000000000000000000e+00,5.080000000000000000e+02
-1.288225581779379354e+02,-8.286165340877209928e+01,-7.200284189962439996e+01,-1.169127522132916965e+02,-1.544296114656062855e+02,-1.187787433019234413e+02,-1.283334488414507177e+02,-8.610400003824270243e+01,9.408499717712402344e+00,-7.649186849594116211e-01,0.000000000000000000e+00,5.090000000000000000e+02
-1.116089605410479635e+02,-6.610758165911670403e+01,-5.574518003708271863e+01,-9.915151238990756610e+01,-1.377001041891662680e+02,-1.025448883384406145e+02,-1.132674831274439384e+02,-7.302126470356461141e+01,9.408499717712402344e+00,-7.649186849594116211e-01,0.000000000000000000e+00,5.100000000000000000e+02
-9.805394848371997796e+01,-5.159518715224453445e+01,-4.182470619747891760e+01,-8.420093613799645027e+01,-1.220752612605801914e+02,-8.827816156128028524e+01,-9.935938065494292459e+01,-6.116467127146188432e+01,9.408499717712402344e+00,-7.649186849594116211e-01,0.000000000000000000e+00,5.110000000000000000e+02
-8.637443681445847687e+01,-3.814184969146708681e+01,-2.869323882098206013e+01,-7.126665654185399035e+01,-1.071830089342456631e+02,-7.520461898756548180e+01,-8.596695882101630559e+01,-4.879872801351666567e+01,9.408499717712402344e+00,-7.649186849594116211e-01,0.000000000000000000e+00,5.120000000000000000e+02
-7.549600724389256357e+01,-2.611869866482675206e+01,-1.621554508874260137e+01,-6.020395780663693586e+01,-9.350018163741151511e+01,-6.337220755010594075e+01,-7.308943922820071748e+01,-3.631008084490349574e+01,9.408499717712402344e+00,-7.649186849594116211e-01,0.000000000000000000e+00,5.130000000000000000e+02
-6.611646031897589637e+01,-1.724632899908874606e+01,-6.136846291201891290e+00,-5.184857086143028937e+01,-8.256228712514712242e+01,-5.400501234491639480e+01,-6.170994436967976071e+01,-2.622662197440922682e+01,9.408499717712402344e+00,-7.649186849594116211e-01,0.000000000000000000e+00,5.140000000000000000e+02
-6.000603564517996347e+01,-1.279380678545294359e+01,-6.124705731999711134e-01,-4.706062172162910429e+01,-7.596920553537984233e+01,-4.850990146544882009e+01,-5.309068941713303502e+01,-2.109292684968113463e+01,9.408499717712402344e+00,-7.649186849594116211e-01,0.000000000000000000e+00,5.150000000000000000e+02
-5.793638430571354547e+01,-1.180793558606774241e+01,9.438794729658184224e-02,-4.523410832610034049e+01,-7.376884832235191425e+01,-4.677156246874437784e+01,-4.748370582343704882e+01,-2.075235278103673409e+01,9.408499717712402344e+00,-7.649186849594116211e-01,0.000000000000000000e+00,5.160000000000000000e+02
-5.808768610815559441e+01,-1.110915148416961529e+01,-1.296053614506490703e+00,-4.373542257620374585e+01,-7.361100330858062080e+01,-4.627962610600934568e+01,-4.341928720610940218e+01,-2.147843898559858644e+01,9.408499717712402344e+00,-7.649186849594116211e-01,0.000000000000000000e+00,5.170000000000000000e+02
-5.658703581066629340e+01,-7.204715497936376778e+00,-3.405299632968308288e-01,-3.905726234344001568e+01,-7.163109647006967862e+01,-4.313378860882312438e+01,-3.834676144841978385e+01,-1.804192202172998805e+01,9.408499717712402344e+00,-7.649186849594116211e-01,0.000000000000000000e+00,5.180000000000000000e+02
-4.993992288720482975e+01,1.535040449673942931e+00,6.404462626244367129e+00,-2.891875543824926353e+01,-6.458144067009015998e+01,-3.434703681193786906e+01,-3.017955752163652505e+01,-7.234456239188148174e+00,9.408499717712402344e+00,-7.649186849594116211e-01,0.000000000000000000e+00,5.190000000000000000e+02
-3.735521986506182657e+01,1.427708108838805856e+01,1.933290917709064161e+01,-1.363622530205839212e+01,-5.165381426597195968e+01,-1.967614558605328057e+01,-1.849155885895834217e+01,9.997374835211303434e+00,9.446745872497558594e+00,-8.414105772972106934e-01,0.000000000000000000e+00,5.200000000000000000e+02
-2.108895296554237575e+01,2.892776349767518695e+01,3.586789794996730052e+01,4.258968110672412877e+00,-3.473680821120706241e+01,-1.607361951058919658e+00,-4.513906250118452590e+00,2.943174089467220256e+01,9.446745872497558594e+00,-8.414105772972106934e-01,0.000000000000000000e+00,5.210000000000000000e+02
-4.767951508931218996e+00,4.364423663964862499e+01,5.226241385788307525e+01,2.163212497449558214e+01,-1.715877461221498379e+01,1.629004395240917802e+01,9.793927130046540697e+00,4.645746318939563935e+01,9.446745872497558594e+00,-8.414105772972106934e-01,0.000000000000000000e+00,5.220000000000000000e+02
8.631771726916667831e+00,5.713840897538284480e+01,6.545584669177242176e+01,3.613065805497353722e+01,-2.053329671076426166e+00,3.116924613160063018e+01,2.263751670452984399e+01,5.842143242895690491e+01,9.446745872497558594e+00,-8.414105772972106934e-01,0.000000000000000000e+00,5.230000000000000000e+02
1.752087382109220925e+01,6.783239348891038389e+01,7.370666967423130700e+01,4.639605529200525780e+01,8.548656380249667563e+00,4.156871562632204586e+01,3.263106163972588547e+01,6.477523830917562009e+01,9.446745872497558594e+00,-8.414105772972106934e-01,0.000000000000000000e+00,5.240000000000000000e+02
2.110388046904790826e+01,7.333694392186225741e+01,7.615015742563264212e+01,5.147159762307364872e+01,1.368500048352507292e+01,4.689917430984041857e+01,3.861192018625843048e+01,6.566061207693110191e+01,9.446745872497558594e+00,-8.414105772972106934e-01,0.000000000000000000e+00,5.250000000000000000e+02
1.884176577859489043e+01,7.146234100664787547e+01,7.245668269959878671e+01,5.054829445160885371e+01,1.314161671907550044e+01,4.682551543761928770e+01,3.969077784014825738e+01,6.098339705851140025e+01,9.446745872497558594e+00,-8.414105772972106934e-01,0.000000000000000000e+00,5.260000000000000000e+02
1.112330127126460866e+01,6.227860972021881025e+01,6.341285051722752542e+01,4.371509214651996444e+01,7.576060367828176823e+00,4.152606908550296794e+01,3.586155606923875894e+01,5.122581571892351349e+01,9.446745872497558594e+00,-8.414105772972106934e-01,0.000000000000000000e+00,5.270000000000000000e+02
6.446152962107589701e-01,4.935712894383277671e+01,5.194281851586856646e+01,3.314432667024539114e+01,-9.108674869858077727e-01,3.267281094308964384e+01,2.874926182347462600e+01,3.910880410586742073e+01,9.446745872497558594e+00,-8.414105772972106934e-01,0.000000000000000000e+00,5.280000000000000000e+02
-7.345101494598566205e+00,3.869133234139053457e+01,4.312244754800940427e+01,2.334162465717054147e+01,-8.567489397606550483e+00,2.393316216010043718e+01,2.168534457317946362e+01,2.991650381116596691e+01,9.446745872497558594e+00,-8.414105772972106934e-01,0.000000000000000000e+00,5.290000000000000000e+02
-7.187694335028027126e+00,3.563890865335633862e+01,4.224113843055965845e+01,1.956585161350722046e+01,-1.102621394198104099e+01,1.990648897006667539e+01,1.861775080481766054e+01,2.925577760912983649e+01,9.446745872497558594e+00,-8.414105772972106934e-01,0.000000000000000000e+00,5.300000000000000000e+02
3.571877512945320632e+00,4.187812905843111366e+01,5.165588182853480248e+01,2.498068727479494555e+01,-5.536373903228195559e+00,2.368111707184016268e+01,2.219325190563085926e+01,3.939297865204571281e+01,9.446745872497558594e+00,-8.414105772972106934e-01,0.000000000000000000e+00,5.310000000000000000e+02
2.181546642635476019e+01,5.447307356685087143e+01,6.863625703689467628e+01,3.839952781956617400e+01,6.934087941473990213e+00,3.462894880888416083e+01,3.211239646553258353e+01,5.699458547104040917e+01,9.446745872497558594e+00,-8.414105772972106934e-01,0.000000000000000000e+00,5.320000000000000000e+02
4.002150043700567039e+01,6.766983411041928775e+01,8.623053556516970275e+01,5.446676284606292029e+01,2.155519755663954129e+01,4.829817946115508676e+01,4.496104281947373238e+01,7.445677225528288545e+01,9.446745872497558594e+00,-8.414105772972106934e-01,0.000000000000000000e+00,5.330000000000000000e+02
5.063826299007814669e+01,7.616787993586513039e+01,9.709857407735762536e+01,6.654208583415493194e+01,3.214796557585577830e+01,5.886350247469636088e+01,5.591073334420616447e+01,8.430879445709433639e+01,9.446745872497558594e+00,-8.414105772972106934e-01,0.000000000000000000e+00,5.340000000000000000e+02
5.067508927178005251e+01,7.773501115816270612e+01,9.786584057500931522e+01,7.053140520445776929e+01,3.493893657861553947e+01,6.259204260408750997e+01,6.137148258170600457e+01,8.370399671648101503e+01,9.446745872497558594e+00,-8.414105772972106934e-01,0.000000000000000000e+00,5.350000000000000000e+02
4.314478319578302035e+01,7.367391039851827372e+01,9.087299606886517722e+01,6.704315119918192067e+01,3.083843340765452012e+01,5.985946642916132987e+01,6.086289704458067717e+01,7.578485854020436818e+01,9.446745872497558594e+00,-8.414105772972106934e-01,0.000000000000000000e+00,5.360000000000000000e+02
3.438329132295621093e+01,6.722319692355631560e+01,8.204773712780752248e+01,6.038409143461103668e+01,2.443783972742676269e+01,5.431068364823113370e+01,5.682768983295318321e+01,6.701746331033064052e+01,9.446745872497558594e+00,-8.414105772972106934e-01,0.000000000000000000e+00,5.370000000000000000e+02
2.956934831060243596e+01,6.136182510410526447e+01,7.669324622271233238e+01,5.533684157274001336e+01,2.055836044498937554e+01,5.004299738738882297e+01,5.267258149937697453e+01,6.272885608964224957e+01,9.446745872497558594e+00,-8.414105772972106934e-01,0.000000000000000000e+00,5.380000000000000000e+02
3.004674956250437390e+01,5.767314206652918074e+01,7.658659127089504182e+01,5.435799798371772340e+01,2.124375452582171420e+01,4.921798281960036547e+01,5.070412770908114908e+01,6.433566006848286634e+01,9.446745872497558594e+00,-8.414105772972106934e-01,0.000000000000000000e+00,5.390000000000000000e+02
3.412657635930190736e+01,5.675061717080097878e+01,8.035975101850453939e+01,5.720846566824366164e+01,2.550047871010065137e+01,5.181348223080385651e+01,5.149670133705149055e+01,7.001217085826010589e+01,9.446745872497558594e+00,-8.414105772972106934e-01,0.000000000000000000e+00,5.400000000000000000e+02
3.983619244350757072e+01,5.913672020072044688e+01,8.605629278304513718e+01,6.265234005703678122e+01,3.141448341944123968e+01,5.706172095485453610e+01,5.474586748325054941e+01,7.744412003282286605e+01,9.446745872497558594e+00,-8.414105772972106934e-01,0.000000000000000000e+00,5.410000000000000000e+02
4.654809373007992690e+01,6.535386007763463567e+01,9.292578928228067525e+01,7.000789629273913306e+01,3.810976273107735324e+01,6.458479423179051082e+01,6.024841128328444029e+01,8.564259033323742187e+01,9.446745872497558594e+00,-8.414105772972106934e-01,0.000000000000000000e+00,5.420000000000000000e+02
5.395978347409982234e+01,7.468054735667465138e+01,1.006961714879107603e+02,7.880409286114445422e+01,4.550734401768386306e+01,7.386348514675410115e+01,6.772717683107839548e+01,9.413617666177015053e+01,9.446745872497558594e+00,-8.414105772972106934e-01,0.000000000000000000e+00,5.430000000000000000e+02
5.997204317314390210e+01,8.398910973976398964e+01,1.075478224709695496e+02,8.715362895739417581e+01,5.248866863897092117e+01,8.282193284919048892e+01,7.575151876138443185e+01,1.009046060912805842e+02,9.446745872497558594e+00,-8.414105772972106934e-01,0.000000000000000000e+00,5.440000000000000000e+02
6.038506354808123433e+01,8.838546095308174699e+01,1.096046419526101090e+02,9.116306154752874136e+01,5.596378872435161611e+01,8.758322360531929007e+01,8.126487294247817772e+01,1.019592036839412685e+02,9.484992027282714844e+00,-8.414105772972106934e-01,0.000000000000000000e+00,5.450000000000000000e+02
5.155327157386454928e+01,8.392535958498592663e+01,1.032506059174138500e+02,8.685326820961108751e+01,5.246528164843948616e+01,8.444796359333304281e+01,8.084082399910403183e+01,9.383706779741078208e+01,9.484992027282714844e+00,-8.414105772972106934e-01,0.000000000000000000e+00,5.460000000000000000e+02
3.386895733098026540e+01,7.050905052613325097e+01,8.840913391757567297e+01,7.334098774444737501e+01,4.108580218015777064e+01,7.273472439476790896e+01,7.299847743409009126e+01,7.697839085939085635e+01,9.484992027282714844e+00,-8.414105772972106934e-01,0.000000000000000000e+00,5.470000000000000000e+02
1.262869157358909433e+01,5.240958267530822923e+01,6.949597704553889344e+01,5.430266395258331613e+01,2.486295387005884550e+01,5.585175212260583066e+01,5.958753872954366670e+01,5.652538132632253109e+01,9.484992027282714844e+00,-8.414105772972106934e-01,0.000000000000000000e+00,5.480000000000000000e+02
-5.038035219586163294e+00,3.567325978658755048e+01,5.271852488645708945e+01,3.598435581363628444e+01,9.003369393141838373e+00,3.931080393753290991e+01,4.484531401339700096e+01,3.922253233073934098e+01,9.484992027282714844e+00,-8.414105772972106934e-01,0.000000000000000000e+00,5.490000000000000000e+02
-1.493200053086002299e+01,2.426777593331735261e+01,4.180477350309956819e+01,2.311450206983317912e+01,-2.701271705684121116e+00,2.710850319800920261e+01,3.268802139838408038e+01,2.878072282080938749e+01,9.484992027282714844e+00,-8.414105772972106934e-01,0.000000000000000000e+00,5.500000000000000000e+02
-1.830082803548793891e+01,1.798475872576545953e+01,3.581641571278123592e+01,1.609422825207002461e+01,-1.016698016010741412e+01,1.943811290786106838e+01,2.436679475857818034e+01,2.370202669956779573e+01,9.484992027282714844e+00,-8.414105772972106934e-01,0.000000000000000000e+00,5.510000000000000000e+02
-2.007673501644967473e+01,1.358504722895213490e+01,3.082429713453893783e+01,1.172092693698687071e+01,-1.614396976910938974e+01,1.351184533821833611e+01,1.829314772292127600e+01,1.938134842625368037e+01,9.484992027282714844e+00,-8.414105772972106934e-01,0.000000000000000000e+00,5.520000000000000000e+02
-2.450849419949372532e+01,7.915911866097303573e+00,2.372533050792480935e+01,6.525440472896661959e+00,-2.323211305470431398e+01,6.522582106208574260e+00,1.195904151277500205e+01,1.240743163599108811e+01,9.484992027282714844e+00,-8.414105772972106934e-01,0.000000000000000000e+00,5.530000000000000000e+02
-3.193050642353227886e+01,3.134110542723647086e-01,1.478145182752268738e+01,-3.506445336279284675e-01,-3.156943016818513570e+01,-1.938966384816012578e+00,4.207813777964474866e+00,3.185718725804690621e+00,9.484992027282714844e+00,-8.414105772972106934e-01,0.000000000000000000e+00,5.540000000000000000e+02
-3.906083190942445071e+01,-7.358556292497269169e+00,7.001282966959479381e+00,-6.971645578645620844e+00,-3.900407547926806728e+01,-9.877518596005756990e+00,-3.923788056903504184e+00,-5.032748043868195964e+00,9.484992027282714844e+00,-8.414105772972106934e-01,0.000000000000000000e+00,5.550000000000000000e+02
-4.201438971432799008e+01,-1.245388415103661828e+01,3.466955195866830763e+00,-1.067341178598508122e+01,-4.310715405003793421e+01,-1.482310115255313576e+01,-1.016960701229800179e+01,-9.187851377768311067e+00,9.484992027282714844e+00,-8.414105772972106934e-01,0.000000000000000000e+00,5.560000000000000000e+02
-3.918054101086272567e+01,-1.326003763427434023e+01,5.223744289740352542e+00,-1.010802852382221317e+01,-4.292015204443850962e+01,-1.567321306924532109e+01,-1.272056229211739264e+01,-8.462320980383083224e+00,9.484992027282714844e+00,-8.414105772972106934e-01,0.000000000000000000e+00,5.570000000000000000e+02
-3.189873694682137284e+01,-9.578203533654232160e+00,1.117505719466498704e+01,-5.673226822853393969e+00,-3.911448423126421403e+01,-1.299563626930830651e+01,-1.128598281736958597e+01,-3.976388178305569454e+00,9.484992027282714844e+00,-8.414105772972106934e-01,0.000000000000000000e+00,5.580000000000000000e+02
-2.317687352202119655e+01,-2.510358012530559790e+00,1.923184247306198813e+01,1.262699339136815979e+00,-3.308173220276330539e+01,-8.139550557369148009e+00,-7.041677715660625836e+00,2.599165403977167443e+00,9.484992027282714844e+00,-8.414105772972106934e-01,0.000000000000000000e+00,5.590000000000000000e+02
-1.607460627514592488e+01,5.768059277634165483e+00,2.716581311016307154e+01,8.981392281986700254e+00,-2.630232979126049031e+01,-2.479245176871700096e+00,-1.933649465780035825e+00,9.623150763787634787e+00,9.484992027282714844e+00,-8.414105772972106934e-01,0.000000000000000000e+00,5.600000000000000000e+02
-1.285576984340696072e+01,1.223305776598317607e+01,3.270461931872341665e+01,1.538886155255022459e+01,-2.046776221635627735e+01,2.546622674120953889e+00,2.020677177457400830e+00,1.504026966371020535e+01,9.484992027282714844e+00,-8.414105772972106934e-01,0.000000000000000000e+00,5.610000000000000000e+02
-1.469307934022253903e+01,1.389423563168929832e+01,3.373534809641387255e+01,1.817075147085597564e+01,-1.754561610556265805e+01,5.234720282907801447e+00,3.254403192444442539e+00,1.637078628036215378e+01,9.484992027282714844e+00,-8.414105772972106934e-01,0.000000000000000000e+00,5.620000000000000000e+02
-2.125298997458776284e+01,9.456682623520464404e+00,2.934691656743962085e+01,1.592029112893396814e+01,-1.892894189123944670e+01,4.189919162799924379e+00,1.145371326667373069e+00,1.213312225059053162e+01,9.484992027282714844e+00,-8.414105772972106934e-01,0.000000000000000000e+00,5.630000000000000000e+02
-3.031148396972457704e+01,6.256918480921740411e-01,2.102962832518278447e+01,9.594790108792949468e+00,-2.409245761229612981e+01,-4.653295738353335764e-01,-3.579465639217232820e+00,3.610325895542700891e+00,9.484992027282714844e+00,-8.414105772972106934e-01,0.000000000000000000e+00,5.640000000000000000e+02
-3.837369810919881274e+01,-8.498686604103568243e+00,1.242452037388829922e+01,2.570693718955226359e+00,-3.032105552721259301e+01,-6.581302877992129652e+00,-9.019028578273719177e+00,-5.269192565905541414e+00,9.484992027282714844e+00,-8.414105772972106934e-01,0.000000000000000000e+00,5.650000000000000000e+02
-4.267266326141725585e+01,-1.411239659730199492e+01,7.051892532863348606e+00,-1.529762239677438629e+00,-3.443038181026713573e+01,-1.123646845632902114e+01,-1.316613012828747742e+01,-1.066008372464239073e+01,9.484992027282714844e+00,-8.414105772972106934e-01,0.000000000000000000e+00,5.660000000000000000e+02
-4.334560503309512569e+01,-1.558982099857894354e+01,5.567143403157388093e+00,-1.801701497784961248e+00,-3.538803239615299390e+01,-1.310258457115196506e+01,-1.534260827083198819e+01,-1.207117693939471792e+01,9.484992027282714844e+00,-8.414105772972106934e-01,0.000000000000000000e+00,5.670000000000000000e+02
-4.370970400964870350e+01,-1.602829689742793562e+01,5.082615664392506005e+00,-1.079215818021111772e+00,-3.541856370144159882e+01,-1.380163671316768159e+01,-1.680115684276461252e+01,-1.299202772587523214e+01,9.484992027282714844e+00,-8.414105772972106934e-01,0.000000000000000000e+00,5.680000000000000000e+02
-4.777446303181568510e+01,-1.968380225777582382e+01,1.583646443459656439e+00,-3.653480168617534218e+00,-3.818977956593880663e+01,-1.667252843876849511e+01,-1.971040102153347107e+01,-1.782237907584203640e+01,9.484992027282714844e+00,-8.414105772972106934e-01,0.000000000000000000e+00,5.690000000000000000e+02
-5.663954740178814973e+01,-2.824677561960925232e+01,-6.362587254070604104e+00,-1.134258994383162644e+01,-4.537173014516520198e+01,-2.368442696192869334e+01,-2.514311091258059605e+01,-2.755187823744745401e+01,9.484992027282714844e+00,-8.414105772972106934e-01,0.000000000000000000e+00,5.700000000000000000e+02
-6.682861761870844930e+01,-3.905098306117361062e+01,-1.581941297031335125e+01,-2.132381645101122558e+01,-5.459650962191881263e+01,-3.313192728842477663e+01,-3.175904203256504843e+01,-3.807657082608602650e+01,9.484992027282714844e+00,-8.414105772972106934e-01,0.000000000000000000e+00,5.710000000000000000e+02
-7.231259413840052730e+01,-4.674152737602889829e+01,-2.134265162325573328e+01,-2.779749859226467379e+01,-6.081160904374337406e+01,-4.029478073068457888e+01,-3.645820609260408673e+01,-4.288104538297557156e+01,9.446745872497558594e+00,-8.414105772972106934e-01,0.000000000000000000e+00,5.720000000000000000e+02
-6.882916839416793664e+01,-4.698155135387423798e+01,-1.900694661193665524e+01,-2.617235617105143319e+01,-5.997773535547094070e+01,-4.067566965799778700e+01,-3.655840289491970907e+01,-3.790278816937097872e+01,9.446745872497558594e+00,-8.414105772972106934e-01,0.000000000000000000e+00,5.730000000000000000e+02
-5.694150752257155546e+01,-3.913321592046668229e+01,-9.175996118592593120e+00,-1.621368177538352029e+01,-5.189815872076724190e+01,-3.311791385306059965e+01,-3.162186121819104301e+01,-2.443606610178721894e+01,9.446745872497558594e+00,-8.414105772972106934e-01,0.000000000000000000e+00,5.740000000000000000e+02
-4.131946552267982042e+01,-2.601084513888963556e+01,4.187504898534825770e+00,-1.660670160608788137e+00,-3.986534843092522351e+01,-2.031080625693357433e+01,-2.341648988459201064e+01,-7.819052609916980145e+00,9.446745872497558594e+00,-8.414105772972106934e-01,0.000000000000000000e+00,5.750000000000000000e+02
-2.700938431971007958e+01,-1.142254251115627994e+01,1.678255103495030198e+01,1.296836149256341741e+01,-2.776180940205449588e+01,-6.569179939484456554e+00,-1.424086636969877873e+01,6.625913512263650773e+00,9.446745872497558594e+00,-8.414105772972106934e-01,0.000000000000000000e+00,5.760000000000000000e+02
-1.603999756561825052e+01,2.119484734246725566e+00,2.678602835250057979e+01,2.534156199871904391e+01,-1.741696031508035958e+01,4.968848588399850996e+00,-5.294422800518077565e+00,1.677733534410435823e+01,9.446745872497558594e+00,-8.414105772972106934e-01,0.000000000000000000e+00,5.770000000000000000e+02
-7.197500369657063857e+00,1.379149929694904131e+01,3.493923434401585837e+01,3.564269375541698537e+01,-8.418460695978865260e+00,1.347269176762347342e+01,3.448638548710732721e+00,2.364243926305425703e+01,9.446745872497558594e+00,-8.414105772972106934e-01,0.000000000000000000e+00,5.780000000000000000e+02
1.290076981953461654e+00,2.329516552760287595e+01,4.236597935536337900e+01,4.461713081238849554e+01,2.033479697274742648e-02,1.951753114970415481e+01,1.203955161003614194e+01,2.886844332288092119e+01,9.446745872497558594e+00,-8.414105772972106934e-01,0.000000000000000000e+00,5.790000000000000000e+02
9.121702874595939647e+00,2.984565824600758788e+01,4.862312719479450607e+01,5.177521540445923165e+01,7.416919322091416689e+00,2.364991411757364403e+01,1.952940427646171884e+01,3.270575019213356427e+01,9.446745872497558594e+00,-8.414105772972106934e-01,0.000000000000000000e+00,5.800000000000000000e+02
1.395716456862646737e+01,3.245081911704073718e+01,5.189611323448480107e+01,5.559778477924373874e+01,1.226871547881091828e+01,2.591968331659882097e+01,2.429652961550527834e+01,3.423074056114273844e+01,9.446745872497558594e+00,-8.414105772972106934e-01,0.000000000000000000e+00,5.810000000000000000e+02
1.380107890981162200e+01,3.094561984909705643e+01,5.082951083328953246e+01,5.517721954652188288e+01,1.362969697974767769e+01,2.636701606103088125e+01,2.535909236963561852e+01,3.295920906647370430e+01,9.446745872497558594e+00,-8.414105772972106934e-01,0.000000000000000000e+00,5.820000000000000000e+02
8.993011845788714709e+00,2.634395618744747480e+01,4.582098681858042255e+01,5.118809204264834989e+01,1.204878361264127307e+01,2.531268834717047866e+01,2.320539080928938347e+01,2.959395618666894734e+01,9.446745872497558594e+00,-8.414105772972106934e-01,0.000000000000000000e+00,5.830000000000000000e+02
1.576665945882268716e+00,1.983690471209774842e+01,3.831934046245442005e+01,4.495174842390042613e+01,8.728599069207120920e+00,2.275267981558135943e+01,1.916452476025369833e+01,2.488629356412639027e+01,9.446745872497558594e+00,-8.414105772972106934e-01,0.000000000000000000e+00,5.840000000000000000e+02
-7.242503293175104773e+00,1.138787590376523440e+01,2.894153973460925044e+01,3.663676726866106037e+01,3.815949092397204367e+00,1.756793795648991363e+01,1.389719706537653110e+01,1.801110342239553574e+01,9.446745872497558594e+00,-8.414105772972106934e-01,0.000000000000000000e+00,5.850000000000000000e+02
-1.859174032932787668e+01,-4.072020160092506558e-01,1.666108577424893156e+01,2.482855415365702356e+01,-4.157435270961286733e+00,7.895486275268922327e+00,6.623156964433292160e+00,6.743486268354899948e+00,9.446745872497558594e+00,-8.414105772972106934e-01,0.000000000000000000e+00,5.860000000000000000e+02
-3.429087066435386078e+01,-1.656287441728636622e+01,3.608035285797086544e-01,8.449714892387419241e+00,-1.669196760105842259e+01,-7.006655379180301679e+00,-3.890098931657121284e+00,-1.000884339419280877e+01,9.446745872497558594e+00,-8.414105772972106934e-01,0.000000000000000000e+00,5.870000000000000000e+02
-5.334465089058721787e+01,-3.536915087725719786e+01,-1.849092629351071082e+01,-1.056608889724157052e+01,-3.282122155240722350e+01,-2.483012866772696725e+01,-1.729474785228012479e+01,-2.946087374048511265e+01,9.446745872497558594e+00,-8.414105772972106934e-01,0.000000000000000000e+00,5.880000000000000000e+02
-7.026372127526337863e+01,-5.179180064339197997e+01,-3.483935247388944845e+01,-2.669284938431155751e+01,-4.815014749106194358e+01,-4.025945476524429978e+01,-3.052910590817191405e+01,-4.499161349355563289e+01,9.446745872497558594e+00,-8.414105772972106934e-01,0.000000000000000000e+00,5.890000000000000000e+02
