F3,F4,C3,C4,P3,P4,Cz,Pz,Accel_x,Accel_y,Accel_z,Sample
-5.911715561524033546e-11,-3.456079866737127304e-11,-4.911271389573812485e-11,-5.093170329928398132e-11,-6.548361852765083313e-11,-8.003553375601768494e-11,-3.637978807091712952e-11,-5.547917680814862251e-11,9.408499717712402344e+00,-1.338607788085937500e+00,-3.824593871831893921e-02,2.250000000000000000e+02
-3.621593190457679157e+01,-3.269768788574037899e+01,-1.986107276513484976e+01,-1.236769926254419261e+01,-2.342747841597883962e+01,-1.592411592179269064e+01,-1.595021558688677032e+01,-3.173965776793193072e+01,9.408499717712402344e+00,-1.338607788085937500e+00,-3.824593871831893921e-02,2.260000000000000000e+02
-7.426153085476016713e+01,-6.632454484524623695e+01,-4.272217100787929667e+01,-2.861754296245453588e+01,-5.560023643669592275e+01,-3.913933766821901372e+01,-3.257803652241545933e+01,-6.338292322158304160e+01,9.408499717712402344e+00,-1.338607788085937500e+00,-3.824593871831893921e-02,2.270000000000000000e+02
-1.144885097299638801e+02,-1.009770842382640694e+02,-6.865313987836361775e+01,-4.873138388932147791e+01,-9.808263364233425818e+01,-7.009198035741246713e+01,-5.011223464380145742e+01,-9.443035087070802547e+01,9.408499717712402344e+00,-1.338607788085937500e+00,-3.824593871831893921e-02,2.280000000000000000e+02
-1.557649191561449697e+02,-1.358774261593234769e+02,-9.494081769328204246e+01,-6.907931665990690817e+01,-1.448727029363199108e+02,-1.024889307969824586e+02,-6.818558994361228542e+01,-1.242578796061307003e+02,9.484992027282714844e+00,-1.415099620819091797e+00,-3.824593871831893921e-02,2.290000000000000000e+02
-1.967761287338744296e+02,-1.701117244300467064e+02,-1.190143366142174273e+02,-8.640372494677194481e+01,-1.885413986174917227e+02,-1.298794233360949875e+02,-8.604549077576120908e+01,-1.528390452298517630e+02,9.484992027282714844e+00,-1.415099620819091797e+00,-3.824593871831893921e-02,2.300000000000000000e+02
-2.370945686071208911e+02,-2.033791276936044596e+02,-1.409247987788912724e+02,-1.010317480270505257e+02,-2.262929749783124862e+02,-1.516397728860592906e+02,-1.029467145366152181e+02,-1.810335014106540257e+02,9.484992027282714844e+00,-1.415099620819091797e+00,-3.824593871831893921e-02,2.310000000000000000e+02
-2.769010769974847790e+02,-2.360618609884495527e+02,-1.628043634456544169e+02,-1.159436850101319578e+02,-2.603831986141631205e+02,-1.724818313172909257e+02,-1.185041782127791521e+02,-2.100031828505516387e+02,9.484992027282714844e+00,-1.415099620819091797e+00,-3.824593871831893921e-02,2.320000000000000000e+02
-3.159441635734583542e+02,-2.686876731209176796e+02,-1.861671168117891284e+02,-1.331163760416684454e+02,-2.939392394729247826e+02,-1.968599227913073264e+02,-1.328964813849106577e+02,-2.403366684442444239e+02,9.484992027282714844e+00,-1.415099620819091797e+00,-3.824593871831893921e-02,2.330000000000000000e+02
-3.532184040901256594e+02,-3.014130375021950385e+02,-2.101632969999336638e+02,-1.514438086705786191e+02,-3.276222662100444722e+02,-2.247091518864781392e+02,-1.468786048731999472e+02,-2.718202634587987632e+02,9.484992027282714844e+00,-1.415099620819091797e+00,-3.824593871831893921e-02,2.340000000000000000e+02
-3.879430808469824115e+02,-3.339733911108642133e+02,-2.325719125840696506e+02,-1.683968098682589698e+02,-3.603734221182712645e+02,-2.526265231160468829e+02,-1.615337536675860974e+02,-3.040207940516756935e+02,9.484992027282714844e+00,-1.415099620819091797e+00,-3.824593871831893921e-02,2.350000000000000000e+02
-4.207874829455586223e+02,-3.659671328593194630e+02,-2.522239132145095937e+02,-1.832191838809221736e+02,-3.921812989232694235e+02,-2.782774151240337233e+02,-1.777669926618655154e+02,-3.368789854904198364e+02,9.484992027282714844e+00,-1.415099620819091797e+00,-3.824593871831893921e-02,2.360000000000000000e+02
-4.537987623544277085e+02,-3.970487514409724099e+02,-2.701448934967929745e+02,-1.978665441767861921e+02,-4.248228883778274394e+02,-3.027190260442384897e+02,-1.957297134380687567e+02,-3.705289511392784334e+02,9.484992027282714844e+00,-1.415099620819091797e+00,-3.824593871831893921e-02,2.370000000000000000e+02
-4.888142429900017305e+02,-4.268834238303334132e+02,-2.883796067946886978e+02,-2.146981556263117454e+02,-4.597345864554017680e+02,-3.284441894312021759e+02,-2.145494474472789079e+02,-4.045691226697772436e+02,9.484992027282714844e+00,-1.415099620819091797e+00,-3.824593871831893921e-02,2.380000000000000000e+02
-5.257812429214227450e+02,-4.551216193417740214e+02,-3.080033807849522418e+02,-2.336506611172135308e+02,-4.960027171047840966e+02,-3.559977221357639792e+02,-2.326523281893214516e+02,-4.377578094896825860e+02,9.484992027282714844e+00,-1.415099620819091797e+00,-3.824593871831893921e-02,2.390000000000000000e+02
-5.626094418626125844e+02,-4.816336551274935118e+02,-3.284309907094175287e+02,-2.520383942465223299e+02,-5.311687011402236749e+02,-3.831773715737872408e+02,-2.485711431536083182e+02,-4.686807566856377889e+02,9.484992027282714844e+00,-1.415099620819091797e+00,-3.824593871831893921e-02,2.400000000000000000e+02
-5.967735640510018129e+02,-5.068567102496244843e+02,-3.484718384962861819e+02,-2.671083275664168468e+02,-5.638790711282836128e+02,-4.074336351931015088e+02,-2.617564852228251766e+02,-4.968340507910679662e+02,9.484992027282714844e+00,-1.415099620819091797e+00,-3.824593871831893921e-02,2.410000000000000000e+02
-6.272398153417780122e+02,-5.318131507008447443e+02,-3.676855906042128481e+02,-2.785543645162752000e+02,-5.951200523490251726e+02,-4.284631969594584007e+02,-2.728562277776759402e+02,-5.230029177639025875e+02,9.484992027282714844e+00,-1.415099620819091797e+00,-3.824593871831893921e-02,2.420000000000000000e+02
-6.550916072523059484e+02,-5.575949652379704276e+02,-3.865817903363231380e+02,-2.885482774601559868e+02,-6.266180435241376472e+02,-4.482079057705450396e+02,-2.833135232999316031e+02,-5.485221662617450420e+02,9.484992027282714844e+00,-1.415099620819091797e+00,-3.824593871831893921e-02,2.430000000000000000e+02
-6.824735724259198832e+02,-5.846265964579370120e+02,-4.056955012157004603e+02,-2.996025712649034176e+02,-6.584324958303323001e+02,-4.686567995911482285e+02,-2.945641617591450085e+02,-5.741458333730752202e+02,9.484992027282714844e+00,-1.415099620819091797e+00,-3.824593871831893921e-02,2.440000000000000000e+02
-7.108904990971395819e+02,-6.122844038801558781e+02,-4.247502770353130472e+02,-3.125450130058225113e+02,-6.886539079729109289e+02,-4.900523182298211395e+02,-3.073067246693708512e+02,-5.995856465678389213e+02,9.484992027282714844e+00,-1.415099620819091797e+00,-3.824593871831893921e-02,2.450000000000000000e+02
-7.402618431165792572e+02,-6.392198162520480764e+02,-4.428395051816132764e+02,-3.263117490185313727e+02,-7.155517771739887394e+02,-5.111844334570268984e+02,-3.212292316897219280e+02,-6.240626509598496341e+02,9.484992027282714844e+00,-1.415099620819091797e+00,-3.824593871831893921e-02,2.460000000000000000e+02
-7.693087351528592990e+02,-6.641452310317517913e+02,-4.593390494759378271e+02,-3.391980788027367453e+02,-7.396736551695676098e+02,-5.309654623276492202e+02,-3.352616317335896383e+02,-6.471937179911901694e+02,9.484992027282714844e+00,-1.415099620819091797e+00,-3.824593871831893921e-02,2.470000000000000000e+02
-7.967325843223006814e+02,-6.865050388230492899e+02,-4.745635261274828736e+02,-3.500935812512425400e+02,-7.636086929826979031e+02,-5.494150343607507239e+02,-3.481762687321684098e+02,-6.693129114596613363e+02,9.484992027282714844e+00,-1.415099620819091797e+00,-3.824593871831893921e-02,2.480000000000000000e+02
-8.221590814727269390e+02,-7.066108390528420387e+02,-4.895365762003257259e+02,-3.588338883200940472e+02,-7.897697547458328700e+02,-5.672897390812941012e+02,-3.592163960447087447e+02,-6.910336138246739210e+02,9.484992027282714844e+00,-1.415099620819091797e+00,-3.824593871831893921e-02,2.490000000000000000e+02
-8.461907550182868363e+02,-7.252742037736161365e+02,-5.051194574528062731e+02,-3.659207364459616656e+02,-8.184711628854174705e+02,-5.851488101502045538e+02,-3.684323928287876697e+02,-7.126346461210841881e+02,9.484992027282714844e+00,-1.415099620819091797e+00,-3.824593871831893921e-02,2.500000000000000000e+02
-8.697084449971071081e+02,-7.433347059020970846e+02,-5.213044091726542320e+02,-3.722249121696022485e+02,-8.479705257707610144e+02,-6.029466905832732664e+02,-3.765871889106047092e+02,-7.339292649053377318e+02,9.484992027282714844e+00,-1.415099620819091797e+00,-3.824593871831893921e-02,2.510000000000000000e+02
-8.931248140974475973e+02,-7.614354045092795786e+02,-5.372660535438581064e+02,-3.787935662872596367e+02,-8.760032136926738531e+02,-6.203209861138311680e+02,-3.847287363893469774e+02,-7.546856301031821204e+02,9.484992027282714844e+00,-1.415099620819091797e+00,-3.824593871831893921e-02,2.520000000000000000e+02
-9.162292637188675144e+02,-7.800574895300906064e+02,-5.521360140391716413e+02,-3.865338405342818078e+02,-9.012392233853897778e+02,-6.369823989413380332e+02,-3.936764113247681962e+02,-7.750881588893016669e+02,9.484992027282714844e+00,-1.415099620819091797e+00,-3.824593871831893921e-02,2.530000000000000000e+02
-9.386759729769182741e+02,-7.995471947072051080e+02,-5.658818833795548926e+02,-3.957760481671211892e+02,-9.237127175867890401e+02,-6.527819363752914796e+02,-4.036817952099768263e+02,-7.957392978148036491e+02,9.408499717712402344e+00,-1.415099620819091797e+00,-7.649187743663787842e-02,2.540000000000000000e+02
-9.605474252489239007e+02,-8.199180460714296714e+02,-5.795287471627862033e+02,-4.060552367214513652e+02,-9.443992491765175146e+02,-6.676018712056029472e+02,-4.143541066289958508e+02,-8.171824079654179513e+02,9.408499717712402344e+00,-1.415099620819091797e+00,-7.649187743663787842e-02,2.550000000000000000e+02
-9.823645297348357417e+02,-8.405634954682795978e+02,-5.944465761383798963e+02,-4.163866767435201837e+02,-9.645499491551581741e+02,-6.814032552220987782e+02,-4.248282592189011666e+02,-8.393880712402897188e+02,9.408499717712402344e+00,-1.415099620819091797e+00,-7.649187743663787842e-02,2.560000000000000000e+02
-1.004442785861328048e+03,-8.602719845356318729e+02,-6.111875293307193715e+02,-4.258516701087828551e+02,-9.850874621763314281e+02,-6.944254678006018366e+02,-4.341253271995419709e+02,-8.616600444132072880e+02,9.408499717712402344e+00,-1.415099620819091797e+00,-7.649187743663787842e-02,2.570000000000000000e+02
-1.026206911772427247e+03,-8.778084665319756823e+02,-6.288553525401821389e+02,-4.340681657101349629e+02,-1.006175131140802478e+03,-7.072716121178618778e+02,-4.416429998929020257e+02,-8.830819710419173134e+02,9.408499717712402344e+00,-1.415099620819091797e+00,-7.649187743663787842e-02,2.580000000000000000e+02
-1.046240008379626488e+03,-8.927907513879104044e+02,-6.456253911947851520e+02,-4.412779416794210192e+02,-1.027186180674816569e+03,-7.206931715448990872e+02,-4.475847525755339120e+02,-9.031668068742492324e+02,9.408499717712402344e+00,-1.415099620819091797e+00,-7.649187743663787842e-02,2.590000000000000000e+02
-1.063215130518482511e+03,-9.061630245880887742e+02,-6.600231447746450613e+02,-4.481152210867203394e+02,-1.047227862759797972e+03,-7.351758692425537447e+02,-4.530111994940248223e+02,-9.222187309419978192e+02,9.408499717712402344e+00,-1.415099620819091797e+00,-7.649187743663787842e-02,2.600000000000000000e+02
-1.077057081258074049e+03,-9.197243458937937248e+02,-6.718901924768383651e+02,-4.552716365070627944e+02,-1.065912529313831328e+03,-7.506350210027931098e+02,-4.593131350785492941e+02,-9.411438677023261334e+02,9.408499717712402344e+00,-1.415099620819091797e+00,-7.649187743663787842e-02,2.610000000000000000e+02
-1.089349029559081373e+03,-9.349066841551652942e+02,-6.822291364538255038e+02,-4.631714753797341473e+02,-1.083679719008967368e+03,-7.664341193882255538e+02,-4.673323111095155582e+02,-9.608347811692883624e+02,9.408499717712402344e+00,-1.415099620819091797e+00,-7.649187743663787842e-02,2.620000000000000000e+02
-1.102519022927168862e+03,-9.517308362958051475e+02,-6.921998134032492089e+02,-4.717300654282207688e+02,-1.101343848547467132e+03,-7.817447704594405877e+02,-4.767685508292406666e+02,-9.815785351072213416e+02,9.408499717712402344e+00,-1.415099620819091797e+00,-7.649187743663787842e-02,2.630000000000000000e+02
-1.118338044080823693e+03,-9.688496426619881277e+02,-7.022759932325543559e+02,-4.803354813452006056e+02,-1.119313439078832744e+03,-7.960397053588794734e+02,-4.864180410924250282e+02,-1.002923134571637092e+03,9.408499717712402344e+00,-1.415099620819091797e+00,-7.649187743663787842e-02,2.640000000000000000e+02
-1.136825714042709478e+03,-9.847129291678356822e+02,-7.122536196791957082e+02,-4.881798201915689788e+02,-1.137278238684350072e+03,-8.093663030128864193e+02,-4.951215310524430606e+02,-1.024059754179826541e+03,9.408499717712402344e+00,-1.415099620819091797e+00,-7.649187743663787842e-02,2.650000000000000000e+02
-1.156363427680229051e+03,-9.988835303358255260e+02,-7.218653684409700872e+02,-4.948413622603220574e+02,-1.154706527037990782e+03,-8.221859374381410817e+02,-5.026147482748997390e+02,-1.044359521767133629e+03,9.408499717712402344e+00,-1.415099620819091797e+00,-7.649187743663787842e-02,2.660000000000000000e+02
-1.174915846628347481e+03,-1.012338643023298118e+03,-7.311908273110939263e+02,-5.007068889367901647e+02,-1.171589668415262167e+03,-8.348827726745330438e+02,-5.095298897683533141e+02,-1.063602946038563005e+03,9.408499717712402344e+00,-1.415099620819091797e+00,-7.649187743663787842e-02,2.670000000000000000e+02
-1.191441694946048301e+03,-1.026459617659319974e+03,-7.404484247149707699e+02,-5.067959345590420526e+02,-1.188609525896329615e+03,-8.473616367470467594e+02,-5.165879699427741798e+02,-1.081750887625117230e+03,9.408499717712402344e+00,-1.415099620819091797e+00,-7.649187743663787842e-02,2.680000000000000000e+02
-1.206476893494080741e+03,-1.041611523751613731e+03,-7.495710649701377406e+02,-5.139754241141126840e+02,-1.206492750148796858e+03,-8.591196705242164171e+02,-5.237947008540058960e+02,-1.098574632680343257e+03,9.408499717712402344e+00,-1.415099620819091797e+00,-7.649187743663787842e-02,2.690000000000000000e+02
-1.221543598606291198e+03,-1.056634863142000086e+03,-7.582214576090914306e+02,-5.221389749415802726e+02,-1.225144205000712645e+03,-8.697456350007923902e+02,-5.304424144716199407e+02,-1.113615977194197058e+03,9.408499717712402344e+00,-1.415099620819091797e+00,-7.649187743663787842e-02,2.700000000000000000e+02
-1.237890748665433875e+03,-1.069747115496722472e+03,-7.662864600059347140e+02,-5.300579408751186747e+02,-1.243375882086973888e+03,-8.793414198577393108e+02,-5.358446729622833118e+02,-1.126580527855481705e+03,9.408499717712402344e+00,-1.415099620819091797e+00,-7.649187743663787842e-02,2.710000000000000000e+02
-1.255482893501961371e+03,-1.080038187907912288e+03,-7.742090751829782675e+02,-5.361279834257093171e+02,-1.259519816849543076e+03,-8.884057892300061212e+02,-5.399723721533850949e+02,-1.137771058601700133e+03,9.408499717712402344e+00,-1.415099620819091797e+00,-7.649187743663787842e-02,2.720000000000000000e+02
-1.272906397940508214e+03,-1.088194678560470493e+03,-7.826086489973099560e+02,-5.395010774208494695e+02,-1.272490707949652005e+03,-8.972798314906367523e+02,-5.433225296948935465e+02,-1.148056753602455046e+03,9.408499717712402344e+00,-1.415099620819091797e+00,-7.649187743663787842e-02,2.730000000000000000e+02
-1.288161200474186899e+03,-1.095814646826229819e+03,-7.914355486318372641e+02,-5.407110319993603298e+02,-1.282494962075246349e+03,-9.057072826821813578e+02,-5.462236917996783632e+02,-1.158291511362252095e+03,9.408499717712402344e+00,-1.415099620819091797e+00,-7.649187743663787842e-02,2.740000000000000000e+02
-1.299761778774735831e+03,-1.104028450515825170e+03,-7.995992327677090543e+02,-5.412905807319125415e+02,-1.290874939342547805e+03,-9.129614643001104923e+02,-5.484744096740359964e+02,-1.168726386954236659e+03,9.408499717712402344e+00,-1.415099620819091797e+00,-7.649187743663787842e-02,2.750000000000000000e+02
-1.307538652075023947e+03,-1.112783245942546728e+03,-8.057305463670309109e+02,-5.427341578916234539e+02,-1.299230969249491409e+03,-9.184731747019277464e+02,-5.498756089089247325e+02,-1.179086135419038783e+03,9.408499717712402344e+00,-1.415099620819091797e+00,-7.649187743663787842e-02,2.760000000000000000e+02
-1.312809697106158637e+03,-1.121399365884904455e+03,-8.096274193448912229e+02,-5.456915457404202243e+02,-1.308540042655140041e+03,-9.224714143897299437e+02,-5.511136252618898652e+02,-1.189352042096170862e+03,9.408499717712402344e+00,-1.415099620819091797e+00,-7.649187743663787842e-02,2.770000000000000000e+02
-1.317857233621909018e+03,-1.129648685482515702e+03,-8.130460482467451584e+02,-5.499657796211554341e+02,-1.318913394324561978e+03,-9.261223401897386793e+02,-5.538492549581865205e+02,-1.200468613423750867e+03,9.408499717712402344e+00,-1.415099620819091797e+00,-7.649187743663787842e-02,2.780000000000000000e+02
-1.324884908978598105e+03,-1.138074231755265146e+03,-8.188312008871384933e+02,-5.550705350820985586e+02,-1.330020501118416178e+03,-9.309919753429157936e+02,-5.595472045247095139e+02,-1.214042917177955133e+03,9.408499717712402344e+00,-1.415099620819091797e+00,-7.649187743663787842e-02,2.790000000000000000e+02
-1.334853617551422303e+03,-1.147185190406790070e+03,-8.287883915441539102e+02,-5.606362201258293680e+02,-1.341634546169552323e+03,-9.380935232149063268e+02,-5.679354178276548737e+02,-1.230966308405572818e+03,9.408499717712402344e+00,-1.415099620819091797e+00,-7.649187743663787842e-02,2.800000000000000000e+02
-1.346832538066781126e+03,-1.156499478889488728e+03,-8.419590793455763560e+02,-5.663115700988696517e+02,-1.353736964950045149e+03,-9.471068627719610049e+02,-5.766439145735594138e+02,-1.250040012610652411e+03,9.446745872497558594e+00,-1.376853704452514648e+00,-7.649187743663787842e-02,2.810000000000000000e+02
-1.358447980227148037e+03,-1.164687815874389344e+03,-8.548792763878641381e+02,-5.715213342925453617e+02,-1.366176108120434037e+03,-9.563934544935759732e+02,-5.826591974146010671e+02,-1.267987616243603497e+03,9.446745872497558594e+00,-1.376853704452514648e+00,-7.649187743663787842e-02,2.820000000000000000e+02
-1.367362363453559738e+03,-1.170859374717572564e+03,-8.638225625705163111e+02,-5.756202520601973447e+02,-1.378360408659811583e+03,-9.639678096183042726e+02,-5.845189040708285120e+02,-1.281195343432972550e+03,9.446745872497558594e+00,-1.376853704452514648e+00,-7.649187743663787842e-02,2.830000000000000000e+02
-1.372819531427759102e+03,-1.175650323277983262e+03,-8.673263176282689528e+02,-5.784139759657828108e+02,-1.389388723432442475e+03,-9.688294478854568297e+02,-5.833463313616753112e+02,-1.287979445513415612e+03,9.446745872497558594e+00,-1.376853704452514648e+00,-7.649187743663787842e-02,2.840000000000000000e+02
-1.376063490032418485e+03,-1.180826513451514529e+03,-8.670118536849900011e+02,-5.804251803769866456e+02,-1.398518144003890484e+03,-9.716175944045098731e+02,-5.818055397924574663e+02,-1.289634214756969868e+03,9.446745872497558594e+00,-1.376853704452514648e+00,-7.649187743663787842e-02,2.850000000000000000e+02
-1.379260847972833744e+03,-1.187637039441335446e+03,-8.661335041774186720e+02,-5.824474792230821549e+02,-1.405549450521436484e+03,-9.739825113037386473e+02,-5.819524865530888746e+02,-1.289468932672276424e+03,9.446745872497558594e+00,-1.376853704452514648e+00,-7.649187743663787842e-02,2.860000000000000000e+02
-1.383844973802009463e+03,-1.195567315616422547e+03,-8.671766302469623042e+02,-5.847724842291067944e+02,-1.410903264271577427e+03,-9.771744424187131699e+02,-5.839251768322346834e+02,-1.290691586067576281e+03,9.446745872497558594e+00,-1.376853704452514648e+00,-7.649187743663787842e-02,2.870000000000000000e+02
-1.389730944705936281e+03,-1.202817270387689859e+03,-8.704814014358162240e+02,-5.869486875124000562e+02,-1.415489009068660380e+03,-9.811142141835032362e+02,-5.865132771975846708e+02,-1.294816209883549163e+03,9.446745872497558594e+00,-1.376853704452514648e+00,-7.649187743663787842e-02,2.880000000000000000e+02
-1.395991518418453779e+03,-1.208052209556683238e+03,-8.747611186913752590e+02,-5.884074452684749303e+02,-1.420502246449196036e+03,-9.847837702515255387e+02,-5.888060760836490317e+02,-1.301584051380647225e+03,9.446745872497558594e+00,-1.376853704452514648e+00,-7.649187743663787842e-02,2.890000000000000000e+02
-1.402138279851260222e+03,-1.211608134218666692e+03,-8.786599442318901083e+02,-5.892862083433064981e+02,-1.427051187828377124e+03,-9.874622939080859396e+02,-5.911328232033803260e+02,-1.309964973565607352e+03,9.446745872497558594e+00,-1.376853704452514648e+00,-7.649187743663787842e-02,2.900000000000000000e+02
-1.408631310569329798e+03,-1.214928527695982439e+03,-8.818101505993046203e+02,-5.904918856218903329e+02,-1.435532364666269132e+03,-9.895162458596353190e+02,-5.943964791496946418e+02,-1.319069781882067673e+03,9.446745872497558594e+00,-1.376853704452514648e+00,-7.649187743663787842e-02,2.910000000000000000e+02
-1.416145565908096842e+03,-1.218931744129398794e+03,-8.846696219295196215e+02,-5.928877411452060642e+02,-1.445119730705876009e+03,-9.919784357084918156e+02,-5.986449647567170587e+02,-1.328287392074716536e+03,9.446745872497558594e+00,-1.376853704452514648e+00,-7.649187743663787842e-02,2.920000000000000000e+02
-1.424486994379959015e+03,-1.223139755804706738e+03,-8.876822558627113722e+02,-5.964776569796500780e+02,-1.453985517226165030e+03,-9.954555295174232015e+02,-6.025434574172080602e+02,-1.336980312459874540e+03,9.446745872497558594e+00,-1.376853704452514648e+00,-7.649187743663787842e-02,2.930000000000000000e+02
-1.432407814786949530e+03,-1.226496841933222186e+03,-8.907731215608168895e+02,-6.004643195273015408e+02,-1.460410253681064660e+03,-9.995670999854615957e+02,-6.044509687217671399e+02,-1.344457722605717208e+03,9.446745872497558594e+00,-1.376853704452514648e+00,-7.649187743663787842e-02,2.940000000000000000e+02
-1.438569480344719523e+03,-1.228864681109866069e+03,-8.935726576837425910e+02,-6.040487241646877692e+02,-1.464045262061660651e+03,-1.003461830033401384e+03,-6.040829918768317839e+02,-1.350378459543166628e+03,9.446745872497558594e+00,-1.376853704452514648e+00,-7.649187743663787842e-02,2.950000000000000000e+02
-1.442651572944838790e+03,-1.231408487923376015e+03,-8.959387846542559828e+02,-6.070373951032333935e+02,-1.466216733937639219e+03,-1.006766845406834932e+03,-6.030579674515581701e+02,-1.355075355567878432e+03,9.446745872497558594e+00,-1.376853704452514648e+00,-7.649187743663787842e-02,2.960000000000000000e+02
-1.445437691305838143e+03,-1.235341389362323980e+03,-8.981586886036147916e+02,-6.096360181025296470e+02,-1.468887684379853454e+03,-1.009915912699745149e+03,-6.036603983503690642e+02,-1.359294474786475121e+03,9.446745872497558594e+00,-1.376853704452514648e+00,-7.649187743663787842e-02,2.970000000000000000e+02
-1.447824446267544545e+03,-1.240351092804398149e+03,-9.006566875259941298e+02,-6.117987465548286536e+02,-1.473104387423990147e+03,-1.013544722016652599e+03,-6.068829574016531296e+02,-1.363485820927873192e+03,9.446745872497558594e+00,-1.376853704452514648e+00,-7.649187743663787842e-02,2.980000000000000000e+02
-1.449831504239805554e+03,-1.244476128137775731e+03,-9.035178300837688994e+02,-6.129973041185388638e+02,-1.478195346707552289e+03,-1.017652538775579274e+03,-6.115133030072620386e+02,-1.367319172922099824e+03,9.446745872497558594e+00,-1.376853704452514648e+00,-7.649187743663787842e-02,2.990000000000000000e+02
-1.450670743426817353e+03,-1.245702452751706460e+03,-9.062503494232316825e+02,-6.127108820455805471e+02,-1.482266934082740136e+03,-1.021402808764740712e+03,-6.150788424224381288e+02,-1.369924601224254502e+03,9.446745872497558594e+00,-1.376853704452514648e+00,-7.649187743663787842e-02,3.000000000000000000e+02
-1.449813195450701187e+03,-1.243762402535977344e+03,-9.079844681084522335e+02,-6.110397324108635075e+02,-1.483439998360240679e+03,-1.023705767421936798e+03,-6.157839127502037400e+02,-1.370664771207591002e+03,9.446745872497558594e+00,-1.376853704452514648e+00,-7.649187743663787842e-02,3.010000000000000000e+02
-1.447980055710082752e+03,-1.240412757916875535e+03,-9.080652071306867583e+02,-6.087277376396248201e+02,-1.480853394957904129e+03,-1.023990017040308317e+03,-6.137435748834469678e+02,-1.369749377053041371e+03,9.446745872497558594e+00,-1.376853704452514648e+00,-7.649187743663787842e-02,3.020000000000000000e+02
-1.447031410964108090e+03,-1.237991820204120813e+03,-9.067081948684515282e+02,-6.065847462781107424e+02,-1.474895698442768889e+03,-1.022500879699105894e+03,-6.105594543871935684e+02,-1.368175940809217991e+03,9.446745872497558594e+00,-1.376853704452514648e+00,-7.649187743663787842e-02,3.030000000000000000e+02
-1.448752817945636025e+03,-1.237668935407142726e+03,-9.051720617450271220e+02,-6.049513023080336325e+02,-1.466807162078957617e+03,-1.020006084107662218e+03,-6.078225771753967592e+02,-1.367093976805372222e+03,9.446745872497558594e+00,-1.376853704452514648e+00,-7.649187743663787842e-02,3.040000000000000000e+02
-1.453514991579717162e+03,-1.238902466297059618e+03,-9.050636399332074689e+02,-6.036793208578961867e+02,-1.458066340074837399e+03,-1.017273411853397988e+03,-6.059709743596773706e+02,-1.367108993427170390e+03,9.446745872497558594e+00,-1.376853704452514648e+00,-7.649187743663787842e-02,3.050000000000000000e+02
-1.459857519242565559e+03,-1.240309205120647675e+03,-9.070720913204784210e+02,-6.024644808896181303e+02,-1.449871075849368935e+03,-1.014721112160418897e+03,-6.044144872376579087e+02,-1.368008226317393337e+03,9.446745872497558594e+00,-1.376853704452514648e+00,-7.649187743663787842e-02,3.060000000000000000e+02
-1.465303320970213690e+03,-1.240909661295104797e+03,-9.101604235107727163e+02,-6.010946104269855823e+02,-1.442908621378478074e+03,-1.012413414699873670e+03,-6.026059878245522441e+02,-1.369046133308075696e+03,9.446745872497558594e+00,-1.376853704452514648e+00,-7.649187743663787842e-02,3.070000000000000000e+02
-1.467798998349740259e+03,-1.240649581692049878e+03,-9.121343265163820888e+02,-5.994686904299404659e+02,-1.437512162724430709e+03,-1.010313295841673835e+03,-6.009096724453975185e+02,-1.369558118315389265e+03,9.446745872497558594e+00,-1.376853704452514648e+00,-7.649187743663787842e-02,3.080000000000000000e+02
-1.466779977006155150e+03,-1.240005771700977675e+03,-9.113730999073266048e+02,-5.976195291919676720e+02,-1.434031168848023299e+03,-1.008556939290642845e+03,-6.003915681619646421e+02,-1.369456092768283042e+03,9.446745872497558594e+00,-1.376853704452514648e+00,-7.649187743663787842e-02,3.090000000000000000e+02
-1.463204196962108654e+03,-1.239301799617482857e+03,-9.082661125866042084e+02,-5.958558658399037995e+02,-1.432953969636128932e+03,-1.007484256529299046e+03,-6.017097195911926519e+02,-1.369191847834653345e+03,9.446745872497558594e+00,-1.376853704452514648e+00,-7.649187743663787842e-02,3.100000000000000000e+02
-1.458673210824288844e+03,-1.238407922585060760e+03,-9.049255389808579366e+02,-5.947590115677982112e+02,-1.434437235001535328e+03,-1.007317003875462660e+03,-6.041660325126038060e+02,-1.369140032675333941e+03,9.446745872497558594e+00,-1.376853704452514648e+00,-7.649187743663787842e-02,3.110000000000000000e+02
-1.454369232493549816e+03,-1.236950460975832584e+03,-9.033008830203416437e+02,-5.947901445663349023e+02,-1.437540866479393799e+03,-1.007720218755953397e+03,-6.058748990584399507e+02,-1.368863274912578390e+03,9.446745872497558594e+00,-1.415099620819091797e+00,-7.649187743663787842e-02,3.120000000000000000e+02
-1.450565217800168284e+03,-1.234705969051220336e+03,-9.034124397709147161e+02,-5.957505422207896117e+02,-1.440030152327435417e+03,-1.007710430206714591e+03,-6.050429315491048783e+02,-1.366994048086153498e+03,9.446745872497558594e+00,-1.415099620819091797e+00,-7.649187743663787842e-02,3.130000000000000000e+02
-1.446955805472055545e+03,-1.231843758965503639e+03,-9.034179176175025532e+02,-5.966945518988153481e+02,-1.439311090232695733e+03,-1.006175880976265034e+03,-6.013781938532711138e+02,-1.362117978202765698e+03,9.446745872497558594e+00,-1.415099620819091797e+00,-7.649187743663787842e-02,3.140000000000000000e+02
-1.443389144741051496e+03,-1.228879551389616609e+03,-9.014733828478086934e+02,-5.965478772301685240e+02,-1.434026241951205520e+03,-1.002719106462535592e+03,-5.964838222478917942e+02,-1.354150736291293697e+03,9.446745872497558594e+00,-1.415099620819091797e+00,-7.649187743663787842e-02,3.150000000000000000e+02
-1.440285752610230929e+03,-1.226400938877688759e+03,-8.976046050159509377e+02,-5.949303450478109880e+02,-1.425070898447551372e+03,-9.981255531848917144e+02,-5.928775794563143791e+02,-1.345024529149422506e+03,9.446745872497558594e+00,-1.415099620819091797e+00,-7.649187743663787842e-02,3.160000000000000000e+02
-1.438366111606399272e+03,-1.224720418258496920e+03,-8.938498524699427890e+02,-5.924017925273166156e+02,-1.415136997558498024e+03,-9.939975081846749845e+02,-5.923818528392946519e+02,-1.337821769999682147e+03,9.446745872497558594e+00,-1.415099620819091797e+00,-7.649187743663787842e-02,3.170000000000000000e+02
-1.437950546120277068e+03,-1.223666408201306467e+03,-8.926121880134029425e+02,-5.898939826808943963e+02,-1.407083013851602800e+03,-9.917844021260817726e+02,-5.950967099602937651e+02,-1.334762941365196184e+03,9.446745872497558594e+00,-1.415099620819091797e+00,-7.649187743663787842e-02,3.180000000000000000e+02
-1.438482917126010989e+03,-1.222684528486807721e+03,-8.947674847451123696e+02,-5.879183211517787413e+02,-1.402335177663715967e+03,-9.919286869420093353e+02,-5.996249944122126863e+02,-1.335581205252383370e+03,9.446745872497558594e+00,-1.415099620819091797e+00,-7.649187743663787842e-02,3.190000000000000000e+02
-1.438726668171126221e+03,-1.221230405003236228e+03,-8.991138805848191851e+02,-5.863253950545311000e+02,-1.400379401712232948e+03,-9.937178891821354227e+02,-6.041898037612028247e+02,-1.337684939507465288e+03,9.446745872497558594e+00,-1.415099620819091797e+00,-7.649187743663787842e-02,3.200000000000000000e+02
-1.437510305371331015e+03,-1.219186316340857275e+03,-9.033786255873339996e+02,-5.847664442655271841e+02,-1.399495189293868179e+03,-9.958363638468536010e+02,-6.076555192779233039e+02,-1.338070071539066248e+03,9.446745872497558594e+00,-1.415099620819091797e+00,-7.649187743663787842e-02,3.210000000000000000e+02
-1.434460541980520702e+03,-1.216946591291883806e+03,-9.056958471443124381e+02,-5.832553938973303502e+02,-1.398070734492778001e+03,-9.971337465332552483e+02,-6.097063521157485866e+02,-1.335397364033101439e+03,9.446745872497558594e+00,-1.415099620819091797e+00,-7.649187743663787842e-02,3.220000000000000000e+02
-1.430189568566635671e+03,-1.215077524511482807e+03,-9.054029285243244658e+02,-5.821860057870970877e+02,-1.395622422765032525e+03,-9.970997880421666650e+02,-6.103222352666548431e+02,-1.330493150658896866e+03,9.446745872497558594e+00,-1.415099620819091797e+00,-7.649187743663787842e-02,3.230000000000000000e+02
-1.425848714110682067e+03,-1.213813203190387185e+03,-9.028928162126703683e+02,-5.817986351824747544e+02,-1.392932014796419935e+03,-9.958240221320296541e+02,-6.093105898597912073e+02,-1.324974625920699964e+03,9.446745872497558594e+00,-1.415099620819091797e+00,-7.649187743663787842e-02,3.240000000000000000e+02
-1.422397480699793277e+03,-1.212791053841050825e+03,-8.990016363399244028e+02,-5.816968077901613015e+02,-1.391225951508392427e+03,-9.935845067902490655e+02,-6.064350432994682478e+02,-1.319420685568920817e+03,9.446745872497558594e+00,-1.415099620819091797e+00,-7.649187743663787842e-02,3.250000000000000000e+02
-1.420071130960625624e+03,-1.211245791423674746e+03,-8.944866511061322853e+02,-5.809794236811126211e+02,-1.390943245913667397e+03,-9.904451008148638493e+02,-6.019917856721510816e+02,-1.312900810655617533e+03,9.446745872497558594e+00,-1.415099620819091797e+00,-7.649187743663787842e-02,3.260000000000000000e+02
-1.418353997214388073e+03,-1.208515286430115111e+03,-8.898092952042463821e+02,-5.789520756649928899e+02,-1.391081758141253658e+03,-9.862471130357638458e+02,-5.971444217115704305e+02,-1.304312727875929795e+03,9.446745872497558594e+00,-1.415099620819091797e+00,-7.649187743663787842e-02,3.270000000000000000e+02
-1.416393802172714231e+03,-1.204467938125816090e+03,-8.851558817458492285e+02,-5.757671481115687584e+02,-1.389825808554930063e+03,-9.810382862074663990e+02,-5.934656238912513118e+02,-1.294105013960051110e+03,9.446745872497558594e+00,-1.415099620819091797e+00,-7.649187743663787842e-02,3.280000000000000000e+02
-1.413507416953505754e+03,-1.199559559062801327e+03,-8.806024797987031434e+02,-5.723813553985762610e+02,-1.386116659409179192e+03,-9.755207567227582786e+02,-5.919268215731601686e+02,-1.284503123429033622e+03,9.446745872497558594e+00,-1.415099620819091797e+00,-7.649187743663787842e-02,3.290000000000000000e+02
-1.409440762429466304e+03,-1.194533521781185527e+03,-8.762925318259166261e+02,-5.698346929877897082e+02,-1.380780610741443979e+03,-9.709190323642178555e+02,-5.921828603600210954e+02,-1.277787836495123884e+03,9.446745872497558594e+00,-1.415099620819091797e+00,-7.649187743663787842e-02,3.300000000000000000e+02
-1.404318106886669057e+03,-1.190029069903413529e+03,-8.724641621479038349e+02,-5.684588225630104716e+02,-1.375992042913467685e+03,-9.681412097772742982e+02,-5.928345279264012788e+02,-1.274151622991960721e+03,9.446745872497558594e+00,-1.415099620819091797e+00,-7.649187743663787842e-02,3.310000000000000000e+02
-1.398462270499507213e+03,-1.186377483475687541e+03,-8.692717580531243584e+02,-5.677070470123384212e+02,-1.373375012372092215e+03,-9.669309331701944075e+02,-5.925589472193395295e+02,-1.271247232656859524e+03,9.446745872497558594e+00,-1.415099620819091797e+00,-7.649187743663787842e-02,3.320000000000000000e+02
-1.392299818901632307e+03,-1.183652449540476482e+03,-8.665653430093364022e+02,-5.667266832867545645e+02,-1.372484459716384208e+03,-9.659431723943947645e+02,-5.911896075229708458e+02,-1.266022652031210782e+03,9.484992027282714844e+00,-1.376853704452514648e+00,-3.824593871831893921e-02,3.330000000000000000e+02
-1.386347412454148525e+03,-1.181807103784905166e+03,-8.638947204528974453e+02,-5.651109764610214370e+02,-1.371192121668182608e+03,-9.638895131083061187e+02,-5.898075946653062829e+02,-1.257249844170462211e+03,9.484992027282714844e+00,-1.376853704452514648e+00,-3.824593871831893921e-02,3.340000000000000000e+02
-1.381088163355461347e+03,-1.180666632688245045e+03,-8.608088325623750734e+02,-5.631280855047122031e+02,-1.367657126556832736e+03,-9.607402566508992550e+02,-5.897192185779680358e+02,-1.246406957419269020e+03,9.484992027282714844e+00,-1.376853704452514648e+00,-3.824593871831893921e-02,3.350000000000000000e+02
-1.376670397522374515e+03,-1.179762271734631668e+03,-8.572016461296493617e+02,-5.612635725612661872e+02,-1.361938416600532491e+03,-9.577188350618275763e+02,-5.911539438856212882e+02,-1.236086675805828236e+03,9.484992027282714844e+00,-1.376853704452514648e+00,-3.824593871831893921e-02,3.360000000000000000e+02
-1.372666550218262500e+03,-1.178264522018524076e+03,-8.533783700241984889e+02,-5.596150906522310606e+02,-1.355685142932530653e+03,-9.559585802096793259e+02,-5.928070955393798158e+02,-1.227433828466445675e+03,9.484992027282714844e+00,-1.376853704452514648e+00,-3.824593871831893921e-02,3.370000000000000000e+02
-1.368215583509854696e+03,-1.175263323073454330e+03,-8.497713727244621396e+02,-5.577768183574971772e+02,-1.350281311719082623e+03,-9.550937100859123348e+02,-5.926651169050898034e+02,-1.218991018196902132e+03,9.484992027282714844e+00,-1.376853704452514648e+00,-3.824593871831893921e-02,3.380000000000000000e+02
-1.362584755688649238e+03,-1.170325137273840710e+03,-8.465828568015238034e+02,-5.552785441659773369e+02,-1.345345550493460451e+03,-9.532470872082629967e+02,-5.894732032949389122e+02,-1.207934889138618473e+03,9.484992027282714844e+00,-1.376853704452514648e+00,-3.824593871831893921e-02,3.390000000000000000e+02
-1.355739418844132842e+03,-1.163882390632662919e+03,-8.436684136977371509e+02,-5.520193148512867083e+02,-1.339024469145219882e+03,-9.485236232219559724e+02,-5.836753872199708439e+02,-1.192431281337843075e+03,9.484992027282714844e+00,-1.376853704452514648e+00,-3.824593871831893921e-02,3.400000000000000000e+02
-1.348395249805906815e+03,-1.157028958791235937e+03,-8.406954052541281044e+02,-5.481855761212161724e+02,-1.329677306241986116e+03,-9.406117620535005699e+02,-5.770861403629240840e+02,-1.172917828973924543e+03,9.484992027282714844e+00,-1.376853704452514648e+00,-3.824593871831893921e-02,3.410000000000000000e+02
-1.341497706196058289e+03,-1.150796743435646931e+03,-8.373876505930297753e+02,-5.438279815002946407e+02,-1.317324279982400412e+03,-9.310349430087602514e+02,-5.716154548326883287e+02,-1.151367194846312714e+03,9.484992027282714844e+00,-1.376853704452514648e+00,-3.824593871831893921e-02,3.420000000000000000e+02
-1.335615479097575644e+03,-1.145499130829791966e+03,-8.336609119680506410e+02,-5.387151944769095735e+02,-1.303687005615812723e+03,-9.219425129567056274e+02,-5.680958458180738262e+02,-1.129567605710371708e+03,9.484992027282714844e+00,-1.376853704452514648e+00,-3.824593871831893921e-02,3.430000000000000000e+02
-1.330761304555925108e+03,-1.140719079803188833e+03,-8.296221174502667282e+02,-5.327488439119679242e+02,-1.291062740282832920e+03,-9.146659339113095939e+02,-5.660650508706501114e+02,-1.108177562615041097e+03,9.484992027282714844e+00,-1.376853704452514648e+00,-3.824593871831893921e-02,3.440000000000000000e+02
-1.326673719535698183e+03,-1.135912007128382584e+03,-8.255181567539723346e+02,-5.264787171329157900e+02,-1.281116397524161584e+03,-9.092564254861464406e+02,-5.645025912034371913e+02,-1.087208776775318256e+03,9.484992027282714844e+00,-1.376853704452514648e+00,-3.824593871831893921e-02,3.450000000000000000e+02
-1.323120034796120308e+03,-1.131004697450082404e+03,-8.216580810035356990e+02,-5.210065855830868031e+02,-1.274337917848673442e+03,-9.050659700609309084e+02,-5.627696654364290225e+02,-1.066966122674269627e+03,9.484992027282714844e+00,-1.376853704452514648e+00,-3.824593871831893921e-02,3.460000000000000000e+02
-1.319851998118919028e+03,-1.126391381213709337e+03,-8.182908618325358248e+02,-5.172142394479640188e+02,-1.270146243666064493e+03,-9.015335405695630016e+02,-5.609672121082553531e+02,-1.048119951711270460e+03,9.484992027282714844e+00,-1.376853704452514648e+00,-3.824593871831893921e-02,3.470000000000000000e+02
-1.316347999965820236e+03,-1.122367251640063387e+03,-8.154580256860238023e+02,-5.150585866781271989e+02,-1.267256698190585439e+03,-8.984574750232654878e+02,-5.595498337572627179e+02,-1.030747309630113477e+03,9.484992027282714844e+00,-1.376853704452514648e+00,-3.824593871831893921e-02,3.480000000000000000e+02
-1.311776807305659759e+03,-1.118628373701168812e+03,-8.129166552248416338e+02,-5.136792403935361335e+02,-1.264111843062591561e+03,-8.957733072186595109e+02,-5.586689681835600823e+02,-1.013490885319459267e+03,9.484992027282714844e+00,-1.376853704452514648e+00,-3.824593871831893921e-02,3.490000000000000000e+02
-1.305338365322648997e+03,-1.114400809347512222e+03,-8.102127400113290605e+02,-5.122174492541740847e+02,-1.259356190536686427e+03,-8.932871648882031650e+02,-5.578476861517933685e+02,-9.940005646337300504e+02,9.484992027282714844e+00,-1.376853704452514648e+00,-3.824593871831893921e-02,3.500000000000000000e+02
-1.296698848024693007e+03,-1.109096752507559131e+03,-8.068678213831225321e+02,-5.105054853378276221e+02,-1.252260220315125025e+03,-8.906160731001077693e+02,-5.562265622492691364e+02,-9.705441492431431243e+02,9.484992027282714844e+00,-1.376853704452514648e+00,-3.824593871831893921e-02,3.510000000000000000e+02
-1.286165138122872349e+03,-1.102837574829271944e+03,-8.025805624131605782e+02,-5.089970925377019739e+02,-1.242926248439978053e+03,-8.872648186699216240e+02,-5.531331883917174537e+02,-9.434533814117723978e+02,9.484992027282714844e+00,-1.376853704452514648e+00,-3.824593871831893921e-02,3.520000000000000000e+02
-1.274558558536632518e+03,-1.096338413729746662e+03,-7.973698179329799132e+02,-5.081760502259096484e+02,-1.232180661288452939e+03,-8.827453089876264585e+02,-5.485334037064292261e+02,-9.151477358960871697e+02,9.484992027282714844e+00,-1.376853704452514648e+00,-3.824593871831893921e-02,3.530000000000000000e+02
-1.263021355967102409e+03,-1.090315566211959322e+03,-7.916220399238648042e+02,-5.081643774166805088e+02,-1.221244228997325308e+03,-8.768010349749213219e+02,-5.430816894214974582e+02,-8.887203257469130904e+02,9.484992027282714844e+00,-1.376853704452514648e+00,-3.824593871831893921e-02,3.540000000000000000e+02
-1.252840246973224112e+03,-1.085006567484991137e+03,-7.859945510672794171e+02,-5.088596695726971575e+02,-1.211291794016062340e+03,-8.697280692308365815e+02,-5.377790618801124083e+02,-8.662404706964007346e+02,9.484992027282714844e+00,-1.376853704452514648e+00,-3.824593871831893921e-02,3.550000000000000000e+02
-1.245068112517937834e+03,-1.080219589357578116e+03,-7.811575470456483572e+02,-5.102367125304510864e+02,-1.202952075020523353e+03,-8.625095820030301184e+02,-5.334740870798389096e+02,-8.479782629340253379e+02,9.484992027282714844e+00,-1.376853704452514648e+00,-3.824593871831893921e-02,3.560000000000000000e+02
-1.239857067511832156e+03,-1.075737965243789631e+03,-7.774498439917100541e+02,-5.122976435837924782e+02,-1.195911602470585649e+03,-8.564552552971890691e+02,-5.304681600745559535e+02,-8.327987566838482962e+02,9.484992027282714844e+00,-1.376853704452514648e+00,-3.824593871831893921e-02,3.570000000000000000e+02
-1.235949613085494548e+03,-1.071523073232061734e+03,-7.746149041933572335e+02,-5.147040868368060273e+02,-1.188931587446203366e+03,-8.524341050229400025e+02,-5.283864904573853210e+02,-8.190421979179284335e+02,9.370253562927246094e+00,-1.376853704452514648e+00,-1.147378161549568176e-01,3.580000000000000000e+02
-1.231067798449652855e+03,-1.067477435490090329e+03,-7.718249272616501457e+02,-5.166287425004526312e+02,-1.180474461673899896e+03,-8.502517261589728150e+02,-5.263847284339389034e+02,-8.051323557077264468e+02,9.370253562927246094e+00,-1.376853704452514648e+00,-1.147378161549568176e-01,3.590000000000000000e+02
-1.223374850357304240e+03,-1.063154284328543326e+03,-7.680623100525242535e+02,-5.171796736442623796e+02,-1.169665799366469173e+03,-8.487209029722512241e+02,-5.236562916509067236e+02,-7.897755653331137182e+02,9.370253562927246094e+00,-1.376853704452514648e+00,-1.147378161549568176e-01,3.600000000000000000e+02
-1.213065210087091600e+03,-1.057939855217956392e+03,-7.626813150044766871e+02,-5.160781480127909617e+02,-1.156875553380160000e+03,-8.464267295499539614e+02,-5.200009608409453676e+02,-7.721237724303196046e+02,9.370253562927246094e+00,-1.376853704452514648e+00,-1.147378161549568176e-01,3.610000000000000000e+02
-1.202621564520885386e+03,-1.051705815924007084e+03,-7.558364702125510348e+02,-5.139280271044998472e+02,-1.143387784607258936e+03,-8.426264476477560947e+02,-5.160857817446669742e+02,-7.521335977807100335e+02,9.370253562927246094e+00,-1.376853704452514648e+00,-1.147378161549568176e-01,3.620000000000000000e+02
-1.195166932478566650e+03,-1.045272143665549720e+03,-7.484880847600320521e+02,-5.117817030146711659e+02,-1.130379564475123289e+03,-8.376397562386896425e+02,-5.131227895465569873e+02,-7.308353638687822240e+02,9.370253562927246094e+00,-1.376853704452514648e+00,-1.147378161549568176e-01,3.630000000000000000e+02
-1.192036966013170513e+03,-1.040006759744943793e+03,-7.419092797715584311e+02,-5.103743839042317632e+02,-1.118069372727690279e+03,-8.325001074964975487e+02,-5.120426661794055008e+02,-7.100066438184805975e+02,9.370253562927246094e+00,-1.376853704452514648e+00,-1.147378161549568176e-01,3.640000000000000000e+02
-1.191598899971441824e+03,-1.036682355072023711e+03,-7.369399481938112331e+02,-5.096602967375192748e+02,-1.105773522976125832e+03,-8.281672280249581490e+02,-5.127130752612715696e+02,-6.911965379850737463e+02,9.370253562927246094e+00,-1.376853704452514648e+00,-1.147378161549568176e-01,3.650000000000000000e+02
-1.190416396496009156e+03,-1.034568399508779748e+03,-7.334740797050910714e+02,-5.089376454555615510e+02,-1.092818802397501486e+03,-8.248488435407316501e+02,-5.138395662909796329e+02,-6.747404938621120891e+02,9.370253562927246094e+00,-1.376853704452514648e+00,-1.147378161549568176e-01,3.660000000000000000e+02
-1.185826244348990713e+03,-1.031698489028894073e+03,-7.305734367549175658e+02,-5.073424696520389716e+02,-1.079506796223068704e+03,-8.218833187769769211e+02,-5.137255683292186177e+02,-6.595616901917428549e+02,9.370253562927246094e+00,-1.376853704452514648e+00,-1.147378161549568176e-01,3.670000000000000000e+02
-1.177718151118804144e+03,-1.026247081154476064e+03,-7.271353827063207973e+02,-5.042923930171564280e+02,-1.067283525872685004e+03,-8.182588968344891782e+02,-5.113688082773426231e+02,-6.439707072029746087e+02,9.370253562927246094e+00,-1.376853704452514648e+00,-1.147378161549568176e-01,3.680000000000000000e+02
-1.168069483717868479e+03,-1.017893038630873207e+03,-7.225755240732735274e+02,-4.996383781104668742e+02,-1.057895767772869704e+03,-8.134030364102407020e+02,-5.070287180579035748e+02,-6.268259049931834852e+02,9.370253562927246094e+00,-1.376853704452514648e+00,-1.147378161549568176e-01,3.690000000000000000e+02
-1.158826352806435807e+03,-1.007992729340852406e+03,-7.169704635074174348e+02,-4.935725615705555356e+02,-1.052084080599182926e+03,-8.076490658472221185e+02,-5.018261559776100285e+02,-6.081307437185328126e+02,9.370253562927246094e+00,-1.376853704452514648e+00,-1.147378161549568176e-01,3.700000000000000000e+02
-1.150184855498924662e+03,-9.984650837080341717e+02,-7.106635251212524054e+02,-4.864938300124281341e+02,-1.048781712155053810e+03,-8.019966223123842610e+02,-4.967935086403324476e+02,-5.887023185146849755e+02,9.370253562927246094e+00,-1.376853704452514648e+00,-1.147378161549568176e-01,3.710000000000000000e+02
-1.140809383429614172e+03,-9.904390184305102593e+02,-7.038980091475182235e+02,-4.789796464909513816e+02,-1.045504146403452069e+03,-7.973523046385905673e+02,-4.922501039147632582e+02,-5.693783678074462387e+02,9.370253562927246094e+00,-1.376853704452514648e+00,-1.147378161549568176e-01,3.720000000000000000e+02
-1.129587605616834935e+03,-9.838108239599359877e+02,-6.969246555307636299e+02,-4.718273072903591583e+02,-1.039790276139975049e+03,-7.938786810042722664e+02,-4.880094281140378598e+02,-5.505394625673948212e+02,9.370253562927246094e+00,-1.376853704452514648e+00,-1.147378161549568176e-01,3.730000000000000000e+02
-1.117088522382907968e+03,-9.778496823007192233e+02,-6.903461564047343018e+02,-4.659603228272339948e+02,-1.030736054979946857e+03,-7.909647552381798050e+02,-4.840529810044467922e+02,-5.322451114767673062e+02,9.370253562927246094e+00,-1.376853704452514648e+00,-1.147378161549568176e-01,3.740000000000000000e+02
-1.105274867120508134e+03,-9.719841722635862880e+02,-6.850123271516033583e+02,-4.620285592504501437e+02,-1.019469035575248199e+03,-7.877564994076915355e+02,-4.808243639679960779e+02,-5.145768652727363133e+02,9.370253562927246094e+00,-1.376853704452514648e+00,-1.147378161549568176e-01,3.750000000000000000e+02
-1.095780648198021709e+03,-9.659474758833080159e+02,-6.812517067729802420e+02,-4.598438496949047476e+02,-1.008154790357877573e+03,-7.837235517228159551e+02,-4.787652557578198866e+02,-4.976614988073506538e+02,9.370253562927246094e+00,-1.376853704452514648e+00,-1.147378161549568176e-01,3.760000000000000000e+02
-1.088444041236758949e+03,-9.593737623817653457e+02,-6.781569982092987630e+02,-4.581377535888705097e+02,-9.983183497480274582e+02,-7.788175442554929759e+02,-4.775782279398194987e+02,-4.813351513116881506e+02,9.370253562927246094e+00,-1.376853704452514648e+00,-1.147378161549568176e-01,3.770000000000000000e+02
-1.081465268442746719e+03,-9.516046433694787083e+02,-6.739045705824853485e+02,-4.550671455948754556e+02,-9.898366560454364844e+02,-7.732403552665027746e+02,-4.760532834125560839e+02,-4.649007940996302750e+02,9.370253562927246094e+00,-1.376853704452514648e+00,-1.147378161549568176e-01,3.780000000000000000e+02
-1.072985485875805580e+03,-9.421632634372388111e+02,-6.671372501820210346e+02,-4.493336314634952942e+02,-9.813613344946568304e+02,-7.671684190313262661e+02,-4.727895675046638644e+02,-4.474119502199750968e+02,9.370253562927246094e+00,-1.376853704452514648e+00,-1.147378161549568176e-01,3.790000000000000000e+02
-1.062601929111005802e+03,-9.314364355982409052e+02,-6.581907307017786479e+02,-4.411271107521774866e+02,-9.716334053908112764e+02,-7.606551297292376148e+02,-4.672260868072883113e+02,-4.283347550329365276e+02,9.370253562927246094e+00,-1.376853704452514648e+00,-1.147378161549568176e-01,3.800000000000000000e+02
-1.051535951153791530e+03,-9.207071191509503478e+02,-6.488653479091908594e+02,-4.320670393420250548e+02,-9.604152544673099783e+02,-7.536574024531842042e+02,-4.600679986769589505e+02,-4.079800619996299247e+02,9.370253562927246094e+00,-1.376853704452514648e+00,-1.147378161549568176e-01,3.810000000000000000e+02
-1.041504764560633248e+03,-9.113219461983001111e+02,-6.408424527370436863e+02,-4.240966369868549464e+02,-9.483302332092434881e+02,-7.460870260434794545e+02,-4.527620610677811328e+02,-3.872792269274957562e+02,9.370253562927246094e+00,-1.376853704452514648e+00,-1.147378161549568176e-01,3.820000000000000000e+02
-1.033387281920243822e+03,-9.037243517728149982e+02,-6.342646943479235233e+02,-4.181739237643064371e+02,-9.360312858384647825e+02,-7.379050212663582897e+02,-4.464969246189227761e+02,-3.670779738099829501e+02,9.370253562927246094e+00,-1.376853704452514648e+00,-1.147378161549568176e-01,3.830000000000000000e+02
-1.026736303783446374e+03,-8.972810464109857094e+02,-6.278935153019531299e+02,-4.137781525412199244e+02,-9.236787388773070688e+02,-7.293012552338068417e+02,-4.415534022866174837e+02,-3.475829941268909806e+02,9.370253562927246094e+00,-1.376853704452514648e+00,-1.147378161549568176e-01,3.840000000000000000e+02
-1.020347862130366593e+03,-8.910506449955337303e+02,-6.206402145754550475e+02,-4.095222867118982322e+02,-9.112069749266054259e+02,-7.208210132099713974e+02,-4.374311402662619912e+02,-3.284320696896215850e+02,9.484992027282714844e+00,-1.338607788085937500e+00,-3.824593871831893921e-02,3.850000000000000000e+02
-1.013254442408447176e+03,-8.846817159644847379e+02,-6.128322372015127257e+02,-4.042467892077784200e+02,-8.989362123637213244e+02,-7.131984603690075346e+02,-4.334742672264210341e+02,-3.092616735810743194e+02,9.484992027282714844e+00,-1.338607788085937500e+00,-3.824593871831893921e-02,3.860000000000000000e+02
-1.005329786926637325e+03,-8.785668969508562895e+02,-6.058876790048798284e+02,-3.977435897247858065e+02,-8.877598747164101951e+02,-7.069178651787906347e+02,-4.294395851725914781e+02,-2.902422472170237597e+02,9.484992027282714844e+00,-1.338607788085937500e+00,-3.824593871831893921e-02,3.870000000000000000e+02
-9.971269709585080818e+02,-8.732042013751911327e+02,-6.007796062140905633e+02,-3.907452406745819644e+02,-8.786297878467066766e+02,-7.018747740556991630e+02,-4.256520307460784807e+02,-2.721211221769030999e+02,9.484992027282714844e+00,-1.338607788085937500e+00,-3.824593871831893921e-02,3.880000000000000000e+02
-9.891398566371447032e+02,-8.685116428070000438e+02,-5.969440024559037283e+02,-3.844120248528113279e+02,-8.717571744062049675e+02,-6.974825130084268494e+02,-4.227416138408634652e+02,-2.557342125923673848e+02,9.484992027282714844e+00,-1.338607788085937500e+00,-3.824593871831893921e-02,3.890000000000000000e+02
-9.810833166910249474e+02,-8.637943174572210410e+02,-5.927576201073229640e+02,-3.797337537124403752e+02,-8.661787245000450639e+02,-6.931287253012028486e+02,-4.211709255237410616e+02,-2.413684451175854520e+02,9.484992027282714844e+00,-1.338607788085937500e+00,-3.824593871831893921e-02,3.900000000000000000e+02
-9.718657564018085395e+02,-8.583281346589205896e+02,-5.870392080798671941e+02,-3.770842863648049388e+02,-8.600511698223522217e+02,-6.885187836474774485e+02,-4.208377365654901041e+02,-2.284766225996081630e+02,9.484992027282714844e+00,-1.338607788085937500e+00,-3.824593871831893921e-02,3.910000000000000000e+02
-9.605048893468749611e+02,-8.519204413858519729e+02,-5.800391988273606785e+02,-3.760511043345281905e+02,-8.515998481705114500e+02,-6.836122491560499839e+02,-4.209844881612038989e+02,-2.159850952036608760e+02,9.484992027282714844e+00,-1.338607788085937500e+00,-3.824593871831893921e-02,3.920000000000000000e+02
-9.473915860013739803e+02,-8.449205922373880639e+02,-5.730032575012551206e+02,-3.756262858948014127e+02,-8.402247653393733344e+02,-6.783485569364793264e+02,-4.205053989596046904e+02,-2.029831397549226040e+02,9.484992027282714844e+00,-1.338607788085937500e+00,-3.824593871831893921e-02,3.930000000000000000e+02
-9.347358606570599022e+02,-8.377776456020874321e+02,-5.668864791206804057e+02,-3.747204589378652599e+02,-8.270465776567643843e+02,-6.725836974062831359e+02,-4.185279562514238023e+02,-1.892810238496376769e+02,9.484992027282714844e+00,-1.338607788085937500e+00,-3.824593871831893921e-02,3.940000000000000000e+02
-9.254334024592312744e+02,-8.306601968471729833e+02,-5.615423930543199731e+02,-3.727049525576460383e+02,-8.143425984877305837e+02,-6.663269464062436782e+02,-4.148878611327506860e+02,-1.753945099325346746e+02,9.484992027282714844e+00,-1.338607788085937500e+00,-3.824593871831893921e-02,3.950000000000000000e+02
-9.209425781836373517e+02,-8.234793235541546892e+02,-5.560755567291225816e+02,-3.695674583036834520e+02,-8.040374805968567671e+02,-6.599249058525542750e+02,-4.101234733068815785e+02,-1.619489721885354356e+02,9.484992027282714844e+00,-1.338607788085937500e+00,-3.824593871831893921e-02,3.960000000000000000e+02
-9.199193232774275657e+02,-8.161931690996166253e+02,-5.498581266199025777e+02,-3.656007569842108751e+02,-7.963146280150199345e+02,-6.538911171723857478e+02,-4.050124170270203194e+02,-1.490296792979872862e+02,9.484992027282714844e+00,-1.338607788085937500e+00,-3.824593871831893921e-02,3.970000000000000000e+02
-9.190038179968132681e+02,-8.090063337420699554e+02,-5.431621673001493491e+02,-3.609873487733295860e+02,-7.895736911118206081e+02,-6.485116763641981379e+02,-4.000751364542950341e+02,-1.360944043737254106e+02,9.484992027282714844e+00,-1.338607788085937500e+00,-3.824593871831893921e-02,3.980000000000000000e+02
-9.153081292139436300e+02,-8.022485306953876716e+02,-5.368828431798069687e+02,-3.557391949148025105e+02,-7.819586215828880995e+02,-6.436549699946222063e+02,-3.954947369235351289e+02,-1.225856150557615365e+02,9.484992027282714844e+00,-1.338607788085937500e+00,-3.824593871831893921e-02,3.990000000000000000e+02
-9.084661862595703496e+02,-7.960695664621855485e+02,-5.317352906847588656e+02,-3.500179245065260147e+02,-7.731963549298411635e+02,-6.389748392018336745e+02,-3.914303603953633228e+02,-1.087064170395242400e+02,9.484992027282714844e+00,-1.338607788085937500e+00,-3.824593871831893921e-02,4.000000000000000000e+02
-9.004023351357107003e+02,-7.902593323093087747e+02,-5.276890270026740382e+02,-3.443676719890668210e+02,-7.650019855584591824e+02,-6.342302959578687478e+02,-3.882644377461533622e+02,-9.559392506416406832e+01,9.484992027282714844e+00,-1.338607788085937500e+00,-3.824593871831893921e-02,4.010000000000000000e+02
-8.931383139537351781e+02,-7.843917364911353616e+02,-5.240801541410412483e+02,-3.394971655973110956e+02,-7.595549059561340073e+02,-6.293716060230717630e+02,-3.864128438000736878e+02,-8.464489922345933337e+01,9.484992027282714844e+00,-1.338607788085937500e+00,-3.824593871831893921e-02,4.020000000000000000e+02
-8.868269226764239193e+02,-7.781709767807815297e+02,-5.201724851806675360e+02,-3.357696843127378088e+02,-7.573420270118249391e+02,-6.243676840381772308e+02,-3.858223169656771461e+02,-7.648758730715530874e+01,9.484992027282714844e+00,-1.338607788085937500e+00,-3.824593871831893921e-02,4.030000000000000000e+02
-8.799207953817999623e+02,-7.716716127451381908e+02,-5.156129627939578768e+02,-3.329159953209741616e+02,-7.563331152385617315e+02,-6.190594621482441653e+02,-3.856928703697567471e+02,-7.040916120179622339e+01,9.484992027282714844e+00,-1.338607788085937500e+00,-3.824593871831893921e-02,4.040000000000000000e+02
-8.711804655565299527e+02,-7.652635367057853273e+02,-5.104403817675533901e+02,-3.302591232934639720e+02,-7.532577691041869912e+02,-6.132371201331384327e+02,-3.848262023873126054e+02,-6.466870244896676923e+01,9.484992027282714844e+00,-1.338607788085937500e+00,-3.824593871831893921e-02,4.050000000000000000e+02
-8.613327096947080008e+02,-7.592898449702020116e+02,-5.047599550064983305e+02,-3.271924386558257538e+02,-7.458623163245056276e+02,-6.068277575422857808e+02,-3.823839099629362863e+02,-5.744123211584701494e+01,9.484992027282714844e+00,-1.338607788085937500e+00,-3.824593871831893921e-02,4.060000000000000000e+02
-8.526240330404341421e+02,-7.537873679403737697e+02,-4.985150766356921395e+02,-3.234597655424513505e+02,-7.343017896773008033e+02,-5.999819907800656438e+02,-3.784379245370951139e+02,-4.777233174233219870e+01,9.484992027282714844e+00,-1.338607788085937500e+00,-3.824593871831893921e-02,4.070000000000000000e+02
-8.467009381938548813e+02,-7.484387335120509306e+02,-4.916079665459647003e+02,-3.190560486495301120e+02,-7.207340748064684703e+02,-5.930086634935423717e+02,-3.738111247701599495e+02,-3.600387025426539367e+01,9.484992027282714844e+00,-1.338607788085937500e+00,-3.824593871831893921e-02,4.080000000000000000e+02
-8.429193360792708063e+02,-7.427115087856705031e+02,-4.841874265347089477e+02,-3.139767365840748425e+02,-7.076925630137639018e+02,-5.862536787815242860e+02,-3.693172557893635712e+02,-2.350813065443617234e+01,9.484992027282714844e+00,-1.338607788085937500e+00,-3.824593871831893921e-02,4.090000000000000000e+02
-8.387316439020155485e+02,-7.360446571942384253e+02,-4.767257511885281929e+02,-3.081409551858605482e+02,-6.965945370220160839e+02,-5.799783215085062693e+02,-3.650805465660248501e+02,-1.194683360174894915e+01,9.484992027282714844e+00,-1.338607788085937500e+00,-3.824593871831893921e-02,4.100000000000000000e+02
-8.317667237496480084e+02,-7.280312406879149876e+02,-4.697316626502711188e+02,-3.015424623894436991e+02,-6.873510247177619021e+02,-5.742056126927022888e+02,-3.605447317092043704e+02,-2.456162357600987889e+00,9.484992027282714844e+00,-1.338607788085937500e+00,-3.824593871831893921e-02,4.110000000000000000e+02
-8.217084122022533847e+02,-7.186844226867619909e+02,-4.634005478803742335e+02,-2.944396146990311536e+02,-6.790812643932085848e+02,-5.686048530633765949e+02,-3.551890399892558889e+02,4.808447357683235168e+00,9.484992027282714844e+00,-1.338607788085937500e+00,-3.824593871831893921e-02,4.120000000000000000e+02
-8.104233215418312284e+02,-7.087537787015355661e+02,-4.575906397454266425e+02,-2.873884840924847595e+02,-6.711966107073149033e+02,-5.626119227241069893e+02,-3.493351212856564416e+02,1.050996539001835117e+01,9.484992027282714844e+00,-1.338607788085937500e+00,-3.824593871831893921e-02,4.130000000000000000e+02
-8.004338825636004913e+02,-6.997568830462148526e+02,-4.521181955459201163e+02,-2.810679930166838858e+02,-6.639720046794041082e+02,-5.558222523113731768e+02,-3.442630405800127846e+02,1.549292259369531166e+01,9.484992027282714844e+00,-1.338607788085937500e+00,-3.824593871831893921e-02,4.140000000000000000e+02
-7.931233919584083196e+02,-6.933352626774681084e+02,-4.469611976435667202e+02,-2.759706994075268085e+02,-6.581676741915212006e+02,-5.483566472115762735e+02,-3.413809348692293497e+02,2.017730418526571157e+01,9.484992027282714844e+00,-1.338607788085937500e+00,-3.824593871831893921e-02,4.150000000000000000e+02
-7.879790583968897408e+02,-6.900847471657327787e+02,-4.420751032385676353e+02,-2.721132795417565831e+02,-6.540271091107001666e+02,-5.408115138963912614e+02,-3.410442851260988846e+02,2.444664574707758220e+01,9.408499717712402344e+00,-1.376853704452514648e+00,-1.147378161549568176e-01,4.160000000000000000e+02
-7.831790790121317514e+02,-6.887532872357096494e+02,-4.370878058190871798e+02,-2.690062851240977579e+02,-6.506150803221462411e+02,-5.338185207971082491e+02,-3.420705049779785440e+02,2.798933748578110681e+01,9.408499717712402344e+00,-1.376853704452514648e+00,-1.147378161549568176e-01,4.170000000000000000e+02
-7.768980079147372635e+02,-6.867542035033966386e+02,-4.314016662088492922e+02,-2.660348745507062631e+02,-6.463235606636671946e+02,-5.277006556636447385e+02,-3.425295442764597738e+02,3.061447962753709362e+01,9.408499717712402344e+00,-1.376853704452514648e+00,-1.147378161549568176e-01,4.180000000000000000e+02
-7.684351235391250157e+02,-6.819284546619867342e+02,-4.247973471777886516e+02,-2.630688518500160171e+02,-6.403217187780246604e+02,-5.225988805433603375e+02,-3.412560957353889535e+02,3.220662647824065061e+01,9.408499717712402344e+00,-1.376853704452514648e+00,-1.147378161549568176e-01,4.190000000000000000e+02
-7.585481910250232431e+02,-6.742057958601944847e+02,-4.179104045913309164e+02,-2.607476722221631462e+02,-6.336158917106299668e+02,-5.188046560625407437e+02,-3.387280562216287763e+02,3.257783929028573766e+01,9.408499717712402344e+00,-1.376853704452514648e+00,-1.147378161549568176e-01,4.200000000000000000e+02
-7.488576583723634030e+02,-6.655891930821626374e+02,-4.118484511325059430e+02,-2.599692913700573627e+02,-6.284287029916918073e+02,-5.166337540806707693e+02,-3.363833700942232099e+02,3.177175578681453771e+01,9.408499717712402344e+00,-1.376853704452514648e+00,-1.147378161549568176e-01,4.210000000000000000e+02
-7.407005672405221048e+02,-6.582769169729313035e+02,-4.070789804998985346e+02,-2.608358549402960307e+02,-6.261223452313806774e+02,-5.156951593813050749e+02,-3.349000740685464734e+02,3.080712173426081790e+01,9.408499717712402344e+00,-1.376853704452514648e+00,-1.147378161549568176e-01,4.220000000000000000e+02
-7.342178361688766017e+02,-6.525537966033643897e+02,-4.026712568373295653e+02,-2.620018462552275196e+02,-6.254829303539372631e+02,-5.143232896535769214e+02,-3.331265560751055546e+02,3.197803196213044430e+01,9.408499717712402344e+00,-1.376853704452514648e+00,-1.147378161549568176e-01,4.230000000000000000e+02
-7.283696759778617889e+02,-6.464649741567518504e+02,-3.968452767403091457e+02,-2.612230153394848458e+02,-6.231359112467775958e+02,-5.101069361090549137e+02,-3.289106308978850848e+02,3.782487824775398622e+01,9.408499717712402344e+00,-1.376853704452514648e+00,-1.147378161549568176e-01,4.240000000000000000e+02
-7.218913276752059573e+02,-6.377098501800135182e+02,-3.885151432555749125e+02,-2.568886108061255982e+02,-6.159930902393871293e+02,-5.014674382714401872e+02,-3.212695430755309189e+02,4.910796408984606387e+01,9.408499717712402344e+00,-1.376853704452514648e+00,-1.147378161549568176e-01,4.250000000000000000e+02
-7.144283732322528522e+02,-6.260517862675487777e+02,-3.784053738766665447e+02,-2.493200067423399560e+02,-6.036946512166891807e+02,-4.890268636817477272e+02,-3.118547885120606225e+02,6.345450198225171334e+01,9.408499717712402344e+00,-1.376853704452514648e+00,-1.147378161549568176e-01,4.260000000000000000e+02
-7.068626218034605699e+02,-6.139388262043123632e+02,-3.686054583669592830e+02,-2.406955749925073178e+02,-5.889586989073191035e+02,-4.754428199762674012e+02,-3.040901415907626415e+02,7.626619647318921125e+01,9.408499717712402344e+00,-1.376853704452514648e+00,-1.147378161549568176e-01,4.270000000000000000e+02
-7.004620672204969196e+02,-6.046565742544510158e+02,-3.609109833963643723e+02,-2.336051436412335534e+02,-5.756401463644106116e+02,-4.636965743266014215e+02,-3.005021171804287405e+02,8.363007355057061432e+01,9.408499717712402344e+00,-1.376853704452514648e+00,-1.147378161549568176e-01,4.280000000000000000e+02
-6.955782570407541243e+02,-5.996653845842652117e+02,-3.555031581131820531e+02,-2.294077464021625019e+02,-5.662602378163201138e+02,-4.552193113341172648e+02,-3.006205730521362511e+02,8.495748089405742576e+01,9.408499717712402344e+00,-1.376853704452514648e+00,-1.147378161549568176e-01,4.290000000000000000e+02
-6.910888761216529019e+02,-5.975315090431322460e+02,-3.511462523764880643e+02,-2.276543371005172958e+02,-5.609341342961015471e+02,-4.493580798309776583e+02,-3.014479264548983792e+02,8.305601853253301670e+01,9.408499717712402344e+00,-1.376853704452514648e+00,-1.147378161549568176e-01,4.300000000000000000e+02
-6.851635080175528856e+02,-5.953157415607142866e+02,-3.465581324032641533e+02,-2.268434612221790303e+02,-5.580916272772728917e+02,-4.444357116984474487e+02,-3.001070135555180514e+02,8.154444702260752820e+01,9.408499717712402344e+00,-1.376853704452514648e+00,-1.147378161549568176e-01,4.310000000000000000e+02
-6.767562272451646095e+02,-5.910055454454225128e+02,-3.415108267760974741e+02,-2.256878577948418751e+02,-5.558685995388345873e+02,-4.392895728051798869e+02,-2.961836302007604900e+02,8.196655535788204361e+01,9.408499717712402344e+00,-1.376853704452514648e+00,-1.147378161549568176e-01,4.320000000000000000e+02
-6.665210681149883385e+02,-5.847551435374120956e+02,-3.366167973843730579e+02,-2.238212665481314616e+02,-5.529072962340023878e+02,-4.339426827617230629e+02,-2.915754895381614915e+02,8.321433456160048081e+01,9.408499717712402344e+00,-1.376853704452514648e+00,-1.147378161549568176e-01,4.330000000000000000e+02
-6.562971906080579174e+02,-5.780161585642422324e+02,-3.321577580846487763e+02,-2.215213830471202527e+02,-5.483092492402415701e+02,-4.290346824456719332e+02,-2.881063356700731219e+02,8.360417561375334117e+01,9.408499717712402344e+00,-1.376853704452514648e+00,-1.147378161549568176e-01,4.340000000000000000e+02
-6.475594749691845209e+02,-5.716732985526914490e+02,-3.272599678435594797e+02,-2.189074007116687426e+02,-5.413810997376340310e+02,-4.247561633118480131e+02,-2.853603484329194089e+02,8.335261957720194914e+01,9.408499717712402344e+00,-1.376853704452514648e+00,-1.147378161549568176e-01,4.350000000000000000e+02
-6.401295715910655417e+02,-5.650799016016960650e+02,-3.203209318515246196e+02,-2.154404201786942394e+02,-5.317479280363595535e+02,-4.203187704692954867e+02,-2.809316516585720365e+02,8.487455063978813996e+01,9.408499717712402344e+00,-1.376853704452514648e+00,-1.147378161549568176e-01,4.360000000000000000e+02
-6.323047606478367015e+02,-5.568438074779837734e+02,-3.103714382448588367e+02,-2.102259363622874844e+02,-5.197829329412506922e+02,-4.144173471368608261e+02,-2.728860082969563337e+02,9.052447607855128808e+01,9.408499717712402344e+00,-1.453345537185668945e+00,-1.529837548732757568e-01,4.370000000000000000e+02
-6.224022517037365105e+02,-5.464474572388830893e+02,-2.981547638855217883e+02,-2.028798375817123087e+02,-5.068656612579388820e+02,-4.062644168791111952e+02,-2.620274837052347721e+02,9.998289010181269987e+01,9.408499717712402344e+00,-1.453345537185668945e+00,-1.529837548732757568e-01,4.380000000000000000e+02
-6.105051123569810443e+02,-5.350614108766822028e+02,-2.859459742810749958e+02,-1.941960415001599358e+02,-4.950700097175913470e+02,-3.963227946483311825e+02,-2.517365074427666514e+02,1.098690626912339212e+02,9.408499717712402344e+00,-1.453345537185668945e+00,-1.529837548732757568e-01,4.390000000000000000e+02
-5.989402371884134482e+02,-5.248132339952690018e+02,-2.762372620425530840e+02,-1.859471581210482327e+02,-4.863272421812998800e+02,-3.861299816168502730e+02,-2.454888476721775987e+02,1.160204564829750780e+02,9.408499717712402344e+00,-1.453345537185668945e+00,-1.529837548732757568e-01,4.400000000000000000e+02
-5.909491192184050306e+02,-5.172469759499344946e+02,-2.703148433870819645e+02,-1.798327741656985381e+02,-4.815070369430413848e+02,-3.773458498022860113e+02,-2.443155102109244581e+02,1.163920760967575916e+02,9.408499717712402344e+00,-1.453345537185668945e+00,-1.529837548732757568e-01,4.410000000000000000e+02
-5.883931402668931696e+02,-5.123543518064693671e+02,-2.677357089053125492e+02,-1.763905480972680380e+02,-4.799608958557059850e+02,-3.707934971045983730e+02,-2.463836097729561061e+02,1.121085652076990300e+02,9.408499717712402344e+00,-1.453345537185668945e+00,-1.529837548732757568e-01,4.420000000000000000e+02
-5.901679417478057985e+02,-5.089217998995368362e+02,-2.669317820483147443e+02,-1.748166737833639672e+02,-4.798553460769012418e+02,-3.662552850008414680e+02,-2.488281739176773044e+02,1.060689744856563266e+02,9.408499717712402344e+00,-1.453345537185668945e+00,-1.529837548732757568e-01,4.430000000000000000e+02
-5.925976507409445730e+02,-5.057241840200658771e+02,-2.663110769517766130e+02,-1.738940320136730406e+02,-4.791554450790490591e+02,-3.631182754746173487e+02,-2.500001589395565134e+02,1.006554676570290212e+02,9.408499717712402344e+00,-1.453345537185668945e+00,-1.529837548732757568e-01,4.440000000000000000e+02
-5.916746724841727882e+02,-5.024258091036667793e+02,-2.649710404649863449e+02,-1.731714309062836037e+02,-4.766404843820546375e+02,-3.611605250724596772e+02,-2.501706052146219008e+02,9.657382686344590184e+01,9.408499717712402344e+00,-1.453345537185668945e+00,-1.529837548732757568e-01,4.450000000000000000e+02
-5.856327659521884925e+02,-4.994752369244383772e+02,-2.626499144725453334e+02,-1.732462821999470179e+02,-4.722785542997053199e+02,-3.606425638615633034e+02,-2.504015728225265320e+02,9.340803775477797899e+01,9.408499717712402344e+00,-1.453345537185668945e+00,-1.529837548732757568e-01,4.460000000000000000e+02
-5.760293226957828665e+02,-4.972674795341667959e+02,-2.592755170427435587e+02,-1.748770657322943407e+02,-4.667926798410317133e+02,-3.616192910049298916e+02,-2.509765763989103107e+02,9.081299859705768540e+01,9.408499717712402344e+00,-1.453345537185668945e+00,-1.529837548732757568e-01,4.470000000000000000e+02
-5.665270017191405714e+02,-4.954366754475927337e+02,-2.547142709662443849e+02,-1.778267266738980652e+02,-4.608874753958239125e+02,-3.632324848618395663e+02,-2.509086914983920451e+02,8.904403065092537872e+01,9.408499717712402344e+00,-1.453345537185668945e+00,-1.529837548732757568e-01,4.480000000000000000e+02
-5.601963908840875774e+02,-4.929488219093982480e+02,-2.489458539333600129e+02,-1.806497753410349105e+02,-4.548186409159811774e+02,-3.638456429930570266e+02,-2.488191582820531949e+02,8.856274376409646720e+01,9.408499717712402344e+00,-1.453345537185668945e+00,-1.529837548732757568e-01,4.490000000000000000e+02
-5.572798281903287716e+02,-4.889030117769834760e+02,-2.423613692500643992e+02,-1.816967738398871006e+02,-4.485563049201650756e+02,-3.620454776069009313e+02,-2.441945057296024970e+02,8.945649988583545564e+01,9.408499717712402344e+00,-1.453345537185668945e+00,-1.529837548732757568e-01,4.500000000000000000e+02
-5.551035838500724822e+02,-4.833208863811314586e+02,-2.357478178564065274e+02,-1.803658626214619289e+02,-4.421964017249006247e+02,-3.576382515255427279e+02,-2.378537487217020043e+02,9.135289189903960505e+01,9.408499717712402344e+00,-1.453345537185668945e+00,-1.529837548732757568e-01,4.510000000000000000e+02
-5.502802196396241925e+02,-4.772322353016893430e+02,-2.299109821159850071e+02,-1.773994074624679342e+02,-4.361508258376316007e+02,-3.517472796527486025e+02,-2.313577726004064061e+02,9.371026692083887610e+01,9.408499717712402344e+00,-1.453345537185668945e+00,-1.529837548732757568e-01,4.520000000000000000e+02
-5.415349221787364513e+02,-4.719343573133423888e+02,-2.252726262894998399e+02,-1.739872382227449634e+02,-4.309628590033285036e+02,-3.459395285205869186e+02,-2.259940012590018341e+02,9.599778632805919187e+01,9.408499717712402344e+00,-1.453345537185668945e+00,-1.529837548732757568e-01,4.530000000000000000e+02
-5.308854919118430189e+02,-4.679835598878730707e+02,-2.217603887366121853e+02,-1.706148445467106285e+02,-4.269621585241638968e+02,-3.411447021787348604e+02,-2.221521091346432968e+02,9.766005304469763360e+01,9.408499717712402344e+00,-1.453345537185668945e+00,-1.529837548732757568e-01,4.540000000000000000e+02
-5.221344561659011561e+02,-4.647359134124667435e+02,-2.189822690257833528e+02,-1.667753323574511342e+02,-4.240296958451176579e+02,-3.372128285831272478e+02,-2.194072251697741649e+02,9.820942301768491234e+01,9.408499717712402344e+00,-1.453345537185668945e+00,-1.529837548732757568e-01,4.550000000000000000e+02
-5.178047967318980227e+02,-4.608310783295037254e+02,-2.164417279618464818e+02,-1.617155182575893377e+02,-4.215141563805009355e+02,-3.333095053830038523e+02,-2.170136300519825454e+02,9.762148349332937869e+01,9.408499717712402344e+00,-1.453345537185668945e+00,-1.529837548732757568e-01,4.560000000000000000e+02
-5.170405291881697849e+02,-4.552598020104892385e+02,-2.136708869084027356e+02,-1.553762881892607766e+02,-4.183195055007499832e+02,-3.286986076604271148e+02,-2.143552648127219982e+02,9.662717981330342809e+01,9.408499717712402344e+00,-1.453345537185668945e+00,-1.529837548732757568e-01,4.570000000000000000e+02
-5.162803027934255624e+02,-4.481584431483966000e+02,-2.103520295890630223e+02,-1.485816597221732991e+02,-4.132535348827555026e+02,-3.232889291743231297e+02,-2.111025635061175763e+02,9.634732399252152391e+01,9.408499717712402344e+00,-1.453345537185668945e+00,-1.529837548732757568e-01,4.580000000000000000e+02
-5.121716397977015731e+02,-4.407000068221227593e+02,-2.064580315940056607e+02,-1.423636452670243671e+02,-4.056439576483953715e+02,-3.176296314248693307e+02,-2.071442996129389940e+02,9.738605149405884731e+01,9.408499717712402344e+00,-1.453345537185668945e+00,-1.529837548732757568e-01,4.590000000000000000e+02
-5.042487037891069122e+02,-4.342083999073583982e+02,-2.022551599578864625e+02,-1.371618287632131796e+02,-3.959164951809098056e+02,-3.124529910136416220e+02,-2.025135637017940553e+02,9.923577965399454115e+01,9.408499717712402344e+00,-1.453345537185668945e+00,-1.529837548732757568e-01,4.600000000000000000e+02
-4.951118394271748002e+02,-4.292651889702644894e+02,-1.980191838314449342e+02,-1.326589468048314302e+02,-3.856273494313641095e+02,-3.081069562186589792e+02,-1.974173626769743350e+02,1.006998642208964156e+02,9.408499717712402344e+00,-1.453345537185668945e+00,-1.529837548732757568e-01,4.610000000000000000e+02
-4.880771836754979631e+02,-4.255530232537466873e+02,-1.936868046777231029e+02,-1.283511091690847934e+02,-3.767706512492186448e+02,-3.043134717147140691e+02,-1.923343110306600465e+02,1.009660024603854254e+02,9.446745872497558594e+00,-1.415099620819091797e+00,-7.649187743663787842e-02,4.620000000000000000e+02
-4.844678878828335655e+02,-4.224549820475167508e+02,-1.888624465532252543e+02,-1.242455083513091267e+02,-3.707475419540928669e+02,-3.004674887858909642e+02,-1.880211090462046286e+02,1.001965225177150387e+02,9.446745872497558594e+00,-1.415099620819091797e+00,-7.649187743663787842e-02,4.630000000000000000e+02
-4.828996640572086108e+02,-4.197486075335466467e+02,-1.833311259024922037e+02,-1.210177150308113596e+02,-3.676811964870539668e+02,-2.962603068131879809e+02,-1.853018406122671422e+02,9.898652756940509789e+01,9.446745872497558594e+00,-1.415099620819091797e+00,-7.649187743663787842e-02,4.640000000000000000e+02
-4.809713585425984093e+02,-4.177318635481851743e+02,-1.776278063855547771e+02,-1.195094864106235946e+02,-3.664893162159414715e+02,-2.920610300194043703e+02,-1.846966511097270995e+02,9.731738874715665588e+01,9.446745872497558594e+00,-1.415099620819091797e+00,-7.649187743663787842e-02,4.650000000000000000e+02
-4.775636101161971965e+02,-4.167308193979947646e+02,-1.729623081685604120e+02,-1.200166630150856690e+02,-3.655692349103346714e+02,-2.886156110070814975e+02,-1.860948094651209885e+02,9.429377761302202998e+01,9.446745872497558594e+00,-1.415099620819091797e+00,-7.649187743663787842e-02,4.660000000000000000e+02
-4.735646612982627630e+02,-4.165526198692691651e+02,-1.703566828426805841e+02,-1.219722854403948986e+02,-3.636338513497448730e+02,-2.862933638123649871e+02,-1.886848141306891193e+02,8.912647002538142260e+01,9.446745872497558594e+00,-1.415099620819091797e+00,-7.649187743663787842e-02,4.670000000000000000e+02
-4.705435524548870490e+02,-4.164267733925748871e+02,-1.696871702794451267e+02,-1.242366964849384203e+02,-3.602714193917872763e+02,-2.846308970048230549e+02,-1.912012192784973195e+02,8.238354754375495759e+01,9.446745872497558594e+00,-1.415099620819091797e+00,-7.649187743663787842e-02,4.680000000000000000e+02
-4.688949491525022495e+02,-4.154296549817763662e+02,-1.695471407608533809e+02,-1.256870485259742054e+02,-3.559870451869282988e+02,-2.826787507383169213e+02,-1.923663156422524025e+02,7.609456292047889292e+01,9.446745872497558594e+00,-1.415099620819091797e+00,-7.649187743663787842e-02,4.690000000000000000e+02
-4.673245384512588316e+02,-4.129433152264730325e+02,-1.681530584804122554e+02,-1.256434956451189464e+02,-3.517030541453264050e+02,-2.798179189536190279e+02,-1.913391204628499054e+02,7.239325277493389876e+01,9.446745872497558594e+00,-1.415099620819091797e+00,-7.649187743663787842e-02,4.700000000000000000e+02
-4.640967638423599055e+02,-4.088366281108787916e+02,-1.645865395296937095e+02,-1.239597015445838224e+02,-3.479859334442307954e+02,-2.761905061878755987e+02,-1.880694117499710956e+02,7.188018796356072926e+01,9.446745872497558594e+00,-1.415099620819091797e+00,-7.649187743663787842e-02,4.710000000000000000e+02
-4.587256064565990528e+02,-4.034512780914665200e+02,-1.594011572199246984e+02,-1.209532619553683617e+02,-3.445703186501468736e+02,-2.723261618952392382e+02,-1.834414507631975084e+02,7.319342659297308273e+01,9.446745872497558594e+00,-1.415099620819091797e+00,-7.649187743663787842e-02,4.720000000000000000e+02
-4.524356388844539651e+02,-3.975644913521020953e+02,-1.541964043499178842e+02,-1.173468546934386723e+02,-3.406704352237461535e+02,-2.684572821485508030e+02,-1.790360583251210755e+02,7.409378771725050683e+01,9.446745872497558594e+00,-1.415099620819091797e+00,-7.649187743663787842e-02,4.730000000000000000e+02
-4.470017333764117211e+02,-3.922637487772540226e+02,-1.505728060505703070e+02,-1.141148494481640228e+02,-3.359471258989915441e+02,-2.643743283230737688e+02,-1.764301127500589246e+02,7.296631818614878284e+01,9.446745872497558594e+00,-1.415099620819091797e+00,-7.649187743663787842e-02,4.740000000000000000e+02
-4.431517338162229862e+02,-3.885051764376732990e+02,-1.492150882167898089e+02,-1.120402687015152878e+02,-3.312587256506631093e+02,-2.599951592793622694e+02,-1.762760417971433071e+02,6.945123973713862142e+01,9.446745872497558594e+00,-1.415099620819091797e+00,-7.649187743663787842e-02,4.750000000000000000e+02
-4.400573807971891256e+02,-3.864302310726375254e+02,-1.495890284673107544e+02,-1.111226729501977388e+02,-3.283259972841315175e+02,-2.559034781706882313e+02,-1.777679888800867047e+02,6.399330846543080042e+01,9.446745872497558594e+00,-1.415099620819091797e+00,-7.649187743663787842e-02,4.760000000000000000e+02
-4.363001249509593436e+02,-3.850202057474393769e+02,-1.503156813091338790e+02,-1.103994747843439654e+02,-3.284253544084813257e+02,-2.530839793151103549e+02,-1.790649920090443175e+02,5.714696886497904416e+01,9.446745872497558594e+00,-1.415099620819091797e+00,-7.649187743663787842e-02,4.770000000000000000e+02
-4.312652759417114794e+02,-3.826411378155596594e+02,-1.499697851130606523e+02,-1.085804362388598747e+02,-3.312395409080218087e+02,-2.519859756339255910e+02,-1.785462535385354386e+02,4.944803119558991966e+01,9.446745872497558594e+00,-1.415099620819091797e+00,-7.649187743663787842e-02,4.780000000000000000e+02
-4.255968818915796419e+02,-3.782707625993534748e+02,-1.478534502746283579e+02,-1.051192680464337172e+02,-3.349566848161430244e+02,-2.518697736451335913e+02,-1.759585171380460906e+02,4.176831608984457489e+01,9.446745872497558594e+00,-1.415099620819091797e+00,-7.649187743663787842e-02,4.790000000000000000e+02
-4.203981409460648138e+02,-3.724070478555140653e+02,-1.442903999432908222e+02,-1.007272944473929783e+02,-3.375298833370934517e+02,-2.511803359004784397e+02,-1.724629167140169557e+02,3.543172220322094290e+01,9.446745872497558594e+00,-1.415099620819091797e+00,-7.649187743663787842e-02,4.800000000000000000e+02
-4.161228462307667542e+02,-3.667511553211222690e+02,-1.402320723044410897e+02,-9.670065859995565916e+01,-3.378753967061729782e+02,-2.486514448498305683e+02,-1.694914138000083312e+02,3.167509706895680210e+01,9.446745872497558594e+00,-1.415099620819091797e+00,-7.649187743663787842e-02,4.810000000000000000e+02
-4.123314134991746869e+02,-3.628164571544764385e+02,-1.364546341913221568e+02,-9.360103568125805396e+01,-3.359854181771111143e+02,-2.441308286588141527e+02,-1.674281621491568330e+02,3.085564422412699059e+01,9.446745872497558594e+00,-1.415099620819091797e+00,-7.649187743663787842e-02,4.820000000000000000e+02
-4.084548314559854134e+02,-3.606434087043821819e+02,-1.330059893406996707e+02,-9.060282799839160361e+01,-3.321535821787529130e+02,-2.384591101216060451e+02,-1.653501779398304734e+02,3.215202884289146823e+01,9.446745872497558594e+00,-1.415099620819091797e+00,-7.649187743663787842e-02,4.830000000000000000e+02
-4.045751036719693730e+02,-3.587606399522728680e+02,-1.293711214504760392e+02,-8.625021011881381128e+01,-3.263768179640933340e+02,-2.326626885900864181e+02,-1.620492489578464301e+02,3.405287615905058374e+01,9.446745872497558594e+00,-1.415099620819091797e+00,-7.649187743663787842e-02,4.840000000000000000e+02
-4.012643037800376078e+02,-3.554356308017338506e+02,-1.251716566026050259e+02,-7.996441769466810001e+01,-3.186399013933882998e+02,-2.272784111278920136e+02,-1.573438286037976468e+02,3.516929659078186887e+01,9.446745872497558594e+00,-1.415099620819091797e+00,-7.649187743663787842e-02,4.850000000000000000e+02
-3.986732340817729892e+02,-3.501210886053565901e+02,-1.207031599225063019e+02,-7.283630930008325777e+01,-3.096642325700768197e+02,-2.223342293125838296e+02,-1.524278791581732548e+02,3.470424572131742025e+01,9.446745872497558594e+00,-1.415099620819091797e+00,-7.649187743663787842e-02,4.860000000000000000e+02
-3.960236068009617156e+02,-3.438803724187648641e+02,-1.167782238035299542e+02,-6.692312263371854897e+01,-3.011171649473528760e+02,-2.177919284126014645e+02,-1.489456690123531644e+02,3.239182989058485873e+01,9.446745872497558594e+00,-1.415099620819091797e+00,-7.649187743663787842e-02,4.870000000000000000e+02
-3.923051310115522483e+02,-3.385186214936666147e+02,-1.140406571536195770e+02,-6.371834203209255065e+01,-2.948490249915259938e+02,-2.138625948916997004e+02,-1.477072451670260307e+02,2.825732611622652257e+01,9.446745872497558594e+00,-1.415099620819091797e+00,-7.649187743663787842e-02,4.880000000000000000e+02
-3.875508420655401096e+02,-3.352142775625998183e+02,-1.124169772749360163e+02,-6.317860301042242099e+01,-2.917490161234643438e+02,-2.108543741784542362e+02,-1.482116555214402069e+02,2.258311697748740698e+01,9.446745872497558594e+00,-1.415099620819091797e+00,0.000000000000000000e+00,4.890000000000000000e+02
-3.831909767274962633e+02,-3.337373540765393045e+02,-1.111919557715841620e+02,-6.402177928664195861e+01,-2.911972576940877389e+02,-2.087296190010517876e+02,-1.492543420606898508e+02,1.603636193335751159e+01,9.446745872497558594e+00,-1.415099620819091797e+00,0.000000000000000000e+00,4.900000000000000000e+02
-3.808278276994601583e+02,-3.327856986906449492e+02,-1.095952948478975486e+02,-6.478605702641061725e+01,-2.915502227514364222e+02,-2.068623347795185055e+02,-1.499139276083755021e+02,9.574123986601307479e+00,9.446745872497558594e+00,-1.415099620819091797e+00,0.000000000000000000e+00,4.910000000000000000e+02
-3.805175940807321240e+02,-3.310961208634316790e+02,-1.073775907030153576e+02,-6.466325469777234503e+01,-2.912415798897723107e+02,-2.043419575799114227e+02,-1.500217575171625413e+02,3.964721892600891806e+00,9.446745872497558594e+00,-1.415099620819091797e+00,0.000000000000000000e+00,4.920000000000000000e+02
-3.803962159136385708e+02,-3.284597862487344173e+02,-1.049471816134985147e+02,-6.363553972613772203e+01,-2.896566987441058245e+02,-2.006710730667921325e+02,-1.498834689801094555e+02,-7.272222063411390991e-01,9.446745872497558594e+00,-1.415099620819091797e+00,0.000000000000000000e+00,4.930000000000000000e+02
-3.782746668301838326e+02,-3.258978438179627801e+02,-1.030572867938735726e+02,-6.218144968364026681e+01,-2.872299771290620356e+02,-1.962939727270136245e+02,-1.497725826380924445e+02,-5.176724386293471980e+00,9.446745872497558594e+00,-1.415099620819091797e+00,0.000000000000000000e+00,4.940000000000000000e+02
-3.737579781911285863e+02,-3.248525431959933485e+02,-1.023171838970656609e+02,-6.097285517986347259e+01,-2.848140195374830910e+02,-1.924223045492672099e+02,-1.497539363289047287e+02,-1.021670741226603241e+01,9.446745872497558594e+00,-1.415099620819091797e+00,0.000000000000000000e+00,4.950000000000000000e+02
-3.687476715218051595e+02,-3.259764176717933424e+02,-1.028399111943658681e+02,-6.063576081658356998e+01,-2.828531566281531013e+02,-1.901949171414380544e+02,-1.498822604516531101e+02,-1.612395250285067050e+01,9.446745872497558594e+00,-1.415099620819091797e+00,0.000000000000000000e+00,4.960000000000000000e+02
-3.657389952949466760e+02,-3.284718620172029659e+02,-1.041999710110929982e+02,-6.147224209802106998e+01,-2.810264759226129172e+02,-1.898608432430407902e+02,-1.503877980827295460e+02,-2.243174424764788455e+01,9.446745872497558594e+00,-1.415099620819091797e+00,0.000000000000000000e+00,4.970000000000000000e+02
-3.655354863152335838e+02,-3.305553653086828945e+02,-1.056853897881048852e+02,-6.323323250863722933e+01,-2.786814731744811979e+02,-1.907267880807223719e+02,-1.515324151487807285e+02,-2.842012213095415518e+01,9.446745872497558594e+00,-1.415099620819091797e+00,0.000000000000000000e+00,4.980000000000000000e+02
-3.665887582446268880e+02,-3.306998381220578267e+02,-1.066486541523368032e+02,-6.519933935076949183e+01,-2.757217490299290148e+02,-1.919153363662949232e+02,-1.532273471963595739e+02,-3.374169134027488326e+01,9.446745872497558594e+00,-1.415099620819091797e+00,0.000000000000000000e+00,4.990000000000000000e+02
-3.665234601414496183e+02,-3.286232972630490394e+02,-1.066953215238825123e+02,-6.660304795602792183e+01,-2.731084285952302935e+02,-1.931407543400955547e+02,-1.547899011414443748e+02,-3.851360881060986685e+01,9.446745872497558594e+00,-1.415099620819091797e+00,0.000000000000000000e+00,5.000000000000000000e+02
-3.642435142826543597e+02,-3.251780386443712132e+02,-1.055984663198723865e+02,-6.704945192587047131e+01,-2.723417190119048428e+02,-1.946540174180307758e+02,-1.551202389787796960e+02,-4.279340112724378287e+01,9.446745872497558594e+00,-1.415099620819091797e+00,0.000000000000000000e+00,5.010000000000000000e+02
-3.606023137275694808e+02,-3.213296846059829477e+02,-1.031360782238259617e+02,-6.657919849094184883e+01,-2.741858963780484828e+02,-1.964141515657788659e+02,-1.532669779205314171e+02,-4.607465932016066290e+01,9.446745872497558594e+00,-1.415099620819091797e+00,0.000000000000000000e+00,5.020000000000000000e+02
-3.572223459593429880e+02,-3.173083367727961672e+02,-9.916335384100148076e+01,-6.543573496317901572e+01,-2.776992697032914066e+02,-1.974720581417060430e+02,-1.490662993529753635e+02,-4.751507255466458446e+01,9.446745872497558594e+00,-1.415099620819091797e+00,0.000000000000000000e+00,5.030000000000000000e+02
-3.548891903392990343e+02,-3.128068894798641395e+02,-9.396813688450157542e+01,-6.390076739214134705e+01,-2.805141146830624166e+02,-1.964196547701353666e+02,-1.434514135450864956e+02,-4.685606009327239008e+01,9.446745872497558594e+00,-1.415099620819091797e+00,0.000000000000000000e+00,5.040000000000000000e+02
-3.531021236621369894e+02,-3.079537466463119131e+02,-8.851111954541494242e+01,-6.236224373360920481e+01,-2.802812290298971334e+02,-1.926191038223989835e+02,-1.381575802296234770e+02,-4.516446501739915220e+01,9.446745872497558594e+00,-1.415099620819091797e+00,0.000000000000000000e+00,5.050000000000000000e+02
-3.509236507092581405e+02,-3.038814042726239109e+02,-8.408547714915641791e+01,-6.135053719330511512e+01,-2.762059637318907335e+02,-1.869994991925730687e+02,-1.348745090695976501e+02,-4.452615812122917305e+01,9.446745872497558594e+00,-1.415099620819091797e+00,0.000000000000000000e+00,5.060000000000000000e+02
-3.479733092517467412e+02,-3.020728721213963013e+02,-8.149300909140316662e+01,-6.125455468904937106e+01,-2.695628121022535879e+02,-1.815571240454625013e+02,-1.343097054557768502e+02,-4.674317128482979911e+01,9.446745872497558594e+00,-1.415099620819091797e+00,0.000000000000000000e+00,5.070000000000000000e+02
-3.445344621467673960e+02,-3.029766302198197536e+02,-8.043040330169998242e+01,-6.189359824313868330e+01,-2.629105484573856302e+02,-1.779739730811639333e+02,-1.357897513550258282e+02,-5.206263269994903453e+01,9.446745872497558594e+00,-1.415099620819091797e+00,0.000000000000000000e+00,5.080000000000000000e+02
-3.409404809547798436e+02,-3.052748210033363989e+02,-7.971081911712295209e+01,-6.246033042546980596e+01,-2.586141378790585463e+02,-1.765959618754674807e+02,-1.377211194099436113e+02,-5.902800917021578897e+01,9.446745872497558594e+00,-1.415099620819091797e+00,0.000000000000000000e+00,5.090000000000000000e+02
-3.372008384530018930e+02,-3.066488630705899254e+02,-7.820464539587078434e+01,-6.206296164736789933e+01,-2.575758629512723701e+02,-1.765601873886612339e+02,-1.386076323380407871e+02,-6.560026155337487808e+01,9.446745872497558594e+00,-1.415099620819091797e+00,0.000000000000000000e+00,5.100000000000000000e+02
-3.333308021069516940e+02,-3.054351603848302830e+02,-7.568037741942634966e+01,-6.042501374457526708e+01,-2.587775501893812589e+02,-1.766922912200378164e+02,-1.378894798708481630e+02,-7.059015262763875853e+01,9.446745872497558594e+00,-1.415099620819091797e+00,0.000000000000000000e+00,5.110000000000000000e+02
-3.298375664856380354e+02,-3.016950879330251496e+02,-7.282325166172870468e+01,-5.805022090232017717e+01,-2.598056232098981582e+02,-1.762188472717376726e+02,-1.359988964976820398e+02,-7.421930676430940821e+01,9.446745872497558594e+00,-1.415099620819091797e+00,0.000000000000000000e+00,5.120000000000000000e+02
-3.275545787119473857e+02,-2.967964006097929541e+02,-7.049791583530941352e+01,-5.566144680172885728e+01,-2.581327313276545965e+02,-1.748093404263488537e+02,-1.336905560288021206e+02,-7.746096285915791668e+01,9.446745872497558594e+00,-1.415099620819091797e+00,0.000000000000000000e+00,5.130000000000000000e+02
-3.267888479405551152e+02,-2.920403454084901682e+02,-6.896381389360158209e+01,-5.346078869533619127e+01,-2.525101900816368925e+02,-1.722878759206420227e+02,-1.312863322218039457e+02,-8.087562968228701266e+01,9.446745872497558594e+00,-1.415099620819091797e+00,0.000000000000000000e+00,5.140000000000000000e+02
-3.266684615016342832e+02,-2.876961976821335156e+02,-6.767924981671058049e+01,-5.093533804438732204e+01,-2.436314240657012533e+02,-1.685642519638158774e+02,-1.284805399281577252e+02,-8.403107190658658965e+01,9.446745872497558594e+00,-1.415099620819091797e+00,0.000000000000000000e+00,5.150000000000000000e+02
-3.255246453194682772e+02,-2.832438435446730409e+02,-6.573829889428145634e+01,-4.737832005977497829e+01,-2.335851964261112244e+02,-1.638522793164559062e+02,-1.248082215598647053e+02,-8.598780779057028667e+01,9.446745872497558594e+00,-1.415099620819091797e+00,0.000000000000000000e+00,5.160000000000000000e+02
-3.221301018928766098e+02,-2.783832733410914670e+02,-6.252924809763817393e+01,-4.263248701284464914e+01,-2.245075884070104166e+02,-1.588152867867006535e+02,-1.203138128908151430e+02,-8.636311851057678268e+01,9.446745872497558594e+00,-1.415099620819091797e+00,0.000000000000000000e+00,5.170000000000000000e+02
-3.167251581418718160e+02,-2.736880465029249763e+02,-5.818755369276743750e+01,-3.739264283993293247e+01,-2.174903714647844026e+02,-1.543779233344364457e+02,-1.158144088643880423e+02,-8.600500587498299865e+01,9.446745872497558594e+00,-1.415099620819091797e+00,0.000000000000000000e+00,5.180000000000000000e+02
-3.108972786588378767e+02,-2.702606071489383339e+02,-5.365693984300605734e+01,-3.285959694887719706e+01,-2.125097322143572001e+02,-1.513433450770739910e+02,-1.125303180591563432e+02,-8.667005467619173942e+01,9.446745872497558594e+00,-1.415099620819091797e+00,0.000000000000000000e+00,5.190000000000000000e+02
-3.064017047891968559e+02,-2.687906802641141439e+02,-5.032779455032482474e+01,-3.006920943375280331e+01,-2.091118106666772292e+02,-1.501098382156030766e+02,-1.113533974152321662e+02,-8.993737327801272841e+01,9.446745872497558594e+00,-1.415099620819091797e+00,-3.824593871831893921e-02,5.200000000000000000e+02
-3.039412816807603122e+02,-2.689463117927900839e+02,-4.932240190613811137e+01,-2.937242573500930121e+01,-2.069208673791131332e+02,-1.505768172699586103e+02,-1.122822254742175119e+02,-9.618440157065697349e+01,9.446745872497558594e+00,-1.415099620819091797e+00,-3.824593871831893921e-02,5.210000000000000000e+02
-3.028962458638261523e+02,-2.696162821748318947e+02,-5.072617093099779595e+01,-3.033178599290954480e+01,-2.054759620114273275e+02,-1.521614442960358247e+02,-1.143980857848516735e+02,-1.043407626715718379e+02,9.446745872497558594e+00,-1.415099620819091797e+00,-3.824593871831893921e-02,5.220000000000000000e+02
-3.020724213186626912e+02,-2.696930898930986586e+02,-5.329098573030159969e+01,-3.199096398286064868e+01,-2.038742280302299150e+02,-1.539154356092408307e+02,-1.163571755147718250e+02,-1.125035631918999570e+02,9.446745872497558594e+00,-1.415099620819091797e+00,-3.824593871831893921e-02,5.230000000000000000e+02
-3.006830854208167239e+02,-2.686719629743706719e+02,-5.500204088845543993e+01,-3.330058935373835993e+01,-2.010231271002767244e+02,-1.548373944144095731e+02,-1.170608040729057393e+02,-1.189095249139490988e+02,9.446745872497558594e+00,-1.415099620819091797e+00,-3.824593871831893921e-02,5.240000000000000000e+02
-2.987195960960289085e+02,-2.666701866021876413e+02,-5.427701028609135392e+01,-3.348539797044600164e+01,-1.965139036007867617e+02,-1.543389671008180812e+02,-1.160979783536549803e+02,-1.226469595192779707e+02,9.446745872497558594e+00,-1.415099620819091797e+00,-3.824593871831893921e-02,5.250000000000000000e+02
-2.965276718864606664e+02,-2.640637314554978730e+02,-5.094915553229247962e+01,-3.224017256752085814e+01,-1.911873934908308001e+02,-1.525434604744127682e+02,-1.137543084229696433e+02,-1.238347841614613571e+02,9.446745872497558594e+00,-1.415099620819091797e+00,-3.824593871831893921e-02,5.260000000000000000e+02
-2.941812387354029852e+02,-2.612227304178763916e+02,-4.627304426214323030e+01,-2.975434052863556644e+01,-1.866077997084962590e+02,-1.501289090571826819e+02,-1.107148603196319527e+02,-1.234322821160872081e+02,9.446745872497558594e+00,-1.415099620819091797e+00,-3.824593871831893921e-02,5.270000000000000000e+02
-2.913371684682633713e+02,-2.585448107902161610e+02,-4.197198882464181224e+01,-2.660549619451830949e+01,-1.837990829351369939e+02,-1.478081963097479274e+02,-1.077534275535899724e+02,-1.229341176555412858e+02,9.446745872497558594e+00,-1.415099620819091797e+00,-3.824593871831893921e-02,5.280000000000000000e+02
-2.876817143056014174e+02,-2.565591541363842225e+02,-3.911985846372363085e+01,-2.353917758455008880e+01,-1.824591137785550927e+02,-1.458853799979451651e+02,-1.055652498607939833e+02,-1.239744458538552863e+02,9.446745872497558594e+00,-1.415099620819091797e+00,-3.824593871831893921e-02,5.290000000000000000e+02
-2.834699301533564721e+02,-2.557750683704230141e+02,-3.769910709706300622e+01,-2.116395943939232893e+01,-1.814361280266862195e+02,-1.442328567645017756e+02,-1.046737118758608176e+02,-1.277491258913646561e+02,9.446745872497558594e+00,-1.415099620819091797e+00,-3.824593871831893921e-02,5.300000000000000000e+02
-2.795570077434108498e+02,-2.562635469852334609e+02,-3.700227217743031360e+01,-1.965585925974983184e+01,-1.799703802487520079e+02,-1.425958027698284241e+02,-1.052484536795534495e+02,-1.343650486691340120e+02,9.446745872497558594e+00,-1.415099620819091797e+00,-3.824593871831893921e-02,5.310000000000000000e+02
-2.768267298591608778e+02,-2.573714025780354859e+02,-3.635552724429317095e+01,-1.867481529195265466e+01,-1.784889750295565136e+02,-1.408656529865752418e+02,-1.068619503652630556e+02,-1.425697755117648740e+02,9.446745872497558594e+00,-1.415099620819091797e+00,-3.824593871831893921e-02,5.320000000000000000e+02
-2.754846037764655193e+02,-2.579608372837874413e+02,-3.550841765121140270e+01,-1.762152346820857929e+01,-1.782620694202114464e+02,-1.391019665041676490e+02,-1.084544599939627005e+02,-1.502548062696778288e+02,9.446745872497558594e+00,-1.415099620819091797e+00,-3.824593871831893921e-02,5.330000000000000000e+02
-2.748109779181213526e+02,-2.570911411096167285e+02,-3.449807588763724198e+01,-1.607269262296495071e+01,-1.803257382374636109e+02,-1.373680515721716802e+02,-1.087330192601175440e+02,-1.555653154196802461e+02,9.446745872497558594e+00,-1.415099620819091797e+00,-3.824593871831893921e-02,5.340000000000000000e+02
-2.736109337227526339e+02,-2.546373371747176861e+02,-3.331344834339961380e+01,-1.402360762127455018e+01,-1.846373296611400292e+02,-1.355916680555710627e+02,-1.068854063588714780e+02,-1.578961084512461639e+02,9.446745872497558594e+00,-1.415099620819091797e+00,-3.824593871831893921e-02,5.350000000000000000e+02
-2.710523301191205974e+02,-2.513370091284405135e+02,-3.176889785725552429e+01,-1.171698659483354277e+01,-1.900087562882608836e+02,-1.335395917929945426e+02,-1.031264456569406320e+02,-1.580491174788726312e+02,9.446745872497558594e+00,-1.415099620819091797e+00,-3.824593871831893921e-02,5.360000000000000000e+02
-2.672851392649454283e+02,-2.482194205419064019e+02,-2.970079580484343751e+01,-9.291623036902819877e+00,-1.946778569221633006e+02,-1.309111947173360022e+02,-9.862429617050747765e+01,-1.574948113685259159e+02,9.446745872497558594e+00,-1.415099620819091797e+00,-3.824593871831893921e-02,5.370000000000000000e+02
-2.633930842534518888e+02,-2.458897698364808093e+02,-2.724306162300490541e+01,-6.701738115454645595e+00,-1.970804401512168624e+02,-1.275450191741920207e+02,-9.480096605409062249e+01,-1.574022304493500997e+02,9.446745872497558594e+00,-1.415099620819091797e+00,-3.824593871831893921e-02,5.380000000000000000e+02
-2.606783794367338487e+02,-2.442279508404744774e+02,-2.486695075497846119e+01,-4.030862881540087983e+00,-1.965212229231638048e+02,-1.236871243499990669e+02,-9.251033380626222424e+01,-1.582129101786886167e+02,9.446745872497558594e+00,-1.415099620819091797e+00,-3.824593871831893921e-02,5.390000000000000000e+02
-2.597447930459111376e+02,-2.426648102265298803e+02,-2.311292729000160762e+01,-1.774739149518609338e+00,-1.935571213596522284e+02,-1.201047375154103065e+02,-9.167308512175623036e+01,-1.599058110467012739e+02,9.446745872497558594e+00,-1.415099620819091797e+00,-3.824593871831893921e-02,5.400000000000000000e+02
-2.600253176330506903e+02,-2.407174414896512644e+02,-2.225204958858284954e+01,-5.969304042992007453e-01,-1.898835387048338816e+02,-1.177796446295596979e+02,-9.156051347049924516e+01,-1.624530260441688370e+02,9.523238182067871094e+00,-1.376853704452514648e+00,0.000000000000000000e+00,5.410000000000000000e+02
-2.601520166967038676e+02,-2.383328792451457048e+02,-2.221243515953483438e+01,-6.545293590352230240e-01,-1.875948226279006121e+02,-1.172406019371210277e+02,-9.142436382776350001e+01,-1.659346490502475717e+02,9.523238182067871094e+00,-1.376853704452514648e+00,0.000000000000000000e+00,5.420000000000000000e+02
-2.589585008085778099e+02,-2.358476914930388375e+02,-2.284298719273829192e+01,-1.225221159205830190e+00,-1.880608591696691292e+02,-1.180461888917780016e+02,-9.099930110644663728e+01,-1.703167751928995131e+02,9.523238182067871094e+00,-1.376853704452514648e+00,0.000000000000000000e+00,5.430000000000000000e+02
-2.563455327306046456e+02,-2.337126823298976888e+02,-2.421286535563285724e+01,-1.210736170386553567e+00,-1.910965799375399001e+02,-1.189733810013922266e+02,-9.060522365809856637e+01,-1.753330853833831497e+02,9.523238182067871094e+00,-1.376853704452514648e+00,0.000000000000000000e+00,5.440000000000000000e+02
-2.532856789265651969e+02,-2.322494095200299853e+02,-2.656447239488261403e+01,-1.709753519489822793e-01,-1.950581048777485194e+02,-1.189036206037217198e+02,-9.088355152711119445e+01,-1.807343399791616321e+02,9.523238182067871094e+00,-1.376853704452514648e+00,0.000000000000000000e+00,5.450000000000000000e+02
-2.509511832105754365e+02,-2.315719251901145981e+02,-2.987775628992312704e+01,1.136998085665254621e+00,-1.978974789405783667e+02,-1.177137765162797223e+02,-9.236555604813838727e+01,-1.866310078637334300e+02,9.523238182067871094e+00,-1.376853704452514648e+00,0.000000000000000000e+00,5.460000000000000000e+02
-2.497582128222775282e+02,-2.316223411584041969e+02,-3.350008314379556396e+01,1.345528633176400035e+00,-1.985039723060972392e+02,-1.163957253539083467e+02,-9.507626005846623229e+01,-1.934198941361892139e+02,9.523238182067871094e+00,-1.376853704452514648e+00,0.000000000000000000e+00,5.470000000000000000e+02
-2.492147798546538979e+02,-2.322071015688179614e+02,-3.635155554740049411e+01,-2.967932386045504245e-01,-1.973928642560076696e+02,-1.162604488439201305e+02,-9.831626583283832588e+01,-2.011772964951805989e+02,9.523238182067871094e+00,-1.376853704452514648e+00,0.000000000000000000e+00,5.480000000000000000e+02
-2.486669563836221641e+02,-2.329941876679004054e+02,-3.765124750479935756e+01,-3.211316137814719696e+00,-1.962034607643772688e+02,-1.178552917581218935e+02,-1.007709355746674191e+02,-2.090422672537042672e+02,9.523238182067871094e+00,-1.376853704452514648e+00,0.000000000000000000e+00,5.490000000000000000e+02
-2.480999343328121540e+02,-2.335500831498347907e+02,-3.750759944646597432e+01,-5.951865135212756286e+00,-1.963222767904062493e+02,-1.204483885432164243e+02,-1.010414979689312531e+02,-2.153248150128711131e+02,9.523238182067871094e+00,-1.376853704452514648e+00,0.000000000000000000e+00,5.500000000000000000e+02
-2.480663481515875901e+02,-2.335006472120985563e+02,-3.676496399589268549e+01,-7.376754614014316758e+00,-1.976483795058193209e+02,-1.224652000396235962e+02,-9.845098098244216089e+01,-2.185186758708077832e+02,9.523238182067871094e+00,-1.376853704452514648e+00,0.000000000000000000e+00,5.510000000000000000e+02
-2.487648090003749530e+02,-2.327649412561759164e+02,-3.621826367737503460e+01,-7.455586659650180081e+00,-1.985099883917191619e+02,-1.225508169263357559e+02,-9.364858891619223868e+01,-2.185351078083085667e+02,9.523238182067871094e+00,-1.376853704452514648e+00,0.000000000000000000e+00,5.520000000000000000e+02
-2.492850289625866935e+02,-2.316689031224404971e+02,-3.595932254926992755e+01,-7.092619390839900007e+00,-1.969114663349191687e+02,-1.205065535308604012e+02,-8.847098143233415612e+01,-2.171176485105288521e+02,9.523238182067871094e+00,-1.376853704452514648e+00,0.000000000000000000e+00,5.530000000000000000e+02
-2.480007457072551915e+02,-2.307865275467065658e+02,-3.546637850325441832e+01,-7.295796554124535760e+00,-1.921605342817583733e+02,-1.174399040442149271e+02,-8.495458429884456564e+01,-2.169138280616843986e+02,9.523238182067871094e+00,-1.376853704452514648e+00,0.000000000000000000e+00,5.540000000000000000e+02
-2.439651715366244389e+02,-2.305628251680100220e+02,-3.424693955172097048e+01,-8.498631307455070782e+00,-1.854920763457375870e+02,-1.150021557498639595e+02,-8.407630190524832869e+01,-2.197249910031923719e+02,9.523238182067871094e+00,-1.376853704452514648e+00,0.000000000000000000e+00,5.550000000000000000e+02
-2.380513464991872752e+02,-2.309762138815995058e+02,-3.230548797809569805e+01,-1.049878981132314948e+01,-1.790849452145012037e+02,-1.142346712140333693e+02,-8.515276287576580216e+01,-2.251909479832047509e+02,9.523238182067871094e+00,-1.376853704452514648e+00,0.000000000000000000e+00,5.560000000000000000e+02
-2.326626062203631591e+02,-2.315346508458751487e+02,-3.002945425929465273e+01,-1.286533651289209956e+01,-1.743276905603761406e+02,-1.148963955540675670e+02,-8.642791218785623641e+01,-2.309496187095082860e+02,9.523238182067871094e+00,-1.376853704452514648e+00,0.000000000000000000e+00,5.570000000000000000e+02
-2.300605271137956152e+02,-2.316255548872350118e+02,-2.779954503170665703e+01,-1.534709532519264030e+01,-1.709272841638394311e+02,-1.158210485454419540e+02,-8.641096038492560183e+01,-2.342183391020917043e+02,9.523238182067871094e+00,-1.376853704452514648e+00,0.000000000000000000e+00,5.580000000000000000e+02
-2.306583228725339723e+02,-2.309239401808135881e+02,-2.586116172039055527e+01,-1.797364018767984817e+01,-1.676558093633284443e+02,-1.159964254620026622e+02,-8.488052331874496303e+01,-2.336685646742353129e+02,9.523238182067871094e+00,-1.376853704452514648e+00,0.000000000000000000e+00,5.590000000000000000e+02
-2.327117891441521351e+02,-2.294978006419851226e+02,-2.449578449660657498e+01,-2.085932247724849731e+01,-1.639174746813805541e+02,-1.153628577590916393e+02,-8.274500573232489842e+01,-2.302180066993150831e+02,9.523238182067871094e+00,-1.376853704452514648e+00,0.000000000000000000e+00,5.600000000000000000e+02
-2.336593104137700720e+02,-2.275435609787909925e+02,-2.404404456502561516e+01,-2.392310978955356404e+01,-1.605103474957722938e+02,-1.145542542982293526e+02,-8.098832688016045722e+01,-2.262204696382868860e+02,9.523238182067871094e+00,-1.376853704452514648e+00,0.000000000000000000e+00,5.610000000000000000e+02
-2.320180557395760843e+02,-2.250947917428811706e+02,-2.453715184815155226e+01,-2.678276153088518186e+01,-1.588501173553268018e+02,-1.139099127758963732e+02,-7.977475128170863172e+01,-2.237930503773168311e+02,9.523238182067871094e+00,-1.376853704452514648e+00,0.000000000000000000e+00,5.620000000000000000e+02
-2.283541216960184101e+02,-2.220799427906486017e+02,-2.535859883548982907e+01,-2.897392567830138432e+01,-1.595194775939671672e+02,-1.129211513821301196e+02,-7.857706290375244862e+01,-2.236173271491006744e+02,9.523238182067871094e+00,-1.376853704452514648e+00,0.000000000000000000e+00,5.630000000000000000e+02
-2.246672060506389244e+02,-2.187095171856399247e+02,-2.557336895206753979e+01,-3.038408008885198797e+01,-1.616199976243660785e+02,-1.108495193231974554e+02,-7.712307567456991819e+01,-2.250332140587306640e+02,9.523238182067871094e+00,-1.376853704452514648e+00,0.000000000000000000e+00,5.640000000000000000e+02
-2.227953430684501654e+02,-2.157614786377398559e+02,-2.486720334767778695e+01,-3.155701880108790647e+01,-1.634846005178587802e+02,-1.079214103518424963e+02,-7.609301496525768016e+01,-2.271056749015278911e+02,9.523238182067871094e+00,-1.376853704452514648e+00,0.000000000000000000e+00,5.650000000000000000e+02
-2.231243128207333939e+02,-2.143512478619468311e+02,-2.416043224608620221e+01,-3.351631892003024404e+01,-1.638983629125195876e+02,-1.056944587265952578e+02,-7.672257306786559639e+01,-2.295841645449945645e+02,9.370253562927246094e+00,-1.376853704452514648e+00,-7.649187743663787842e-02,5.660000000000000000e+02
-2.245158895285585459e+02,-2.152304279452782794e+02,-2.503090657456596091e+01,-3.708917418320379511e+01,-1.626197643704272195e+02,-1.059240677699908701e+02,-7.958622614165506093e+01,-2.329004789563223312e+02,9.370253562927246094e+00,-1.376853704452514648e+00,-7.649187743663787842e-02,5.670000000000000000e+02
-2.253392656417236140e+02,-2.181318703101987921e+02,-2.822432890344862244e+01,-4.218447631572416867e+01,-1.599387707326004602e+02,-1.088820120487871463e+02,-8.372712746107754356e+01,-2.372976755832169147e+02,9.370253562927246094e+00,-1.376853704452514648e+00,-7.649187743663787842e-02,5.680000000000000000e+02
-2.246655472650891170e+02,-2.216876744172077451e+02,-3.261385726114349382e+01,-4.760607255305149010e+01,-1.560586812006713444e+02,-1.128267998872524913e+02,-8.705949976657848310e+01,-2.419728634524726658e+02,9.370253562927246094e+00,-1.376853704452514648e+00,-7.649187743663787842e-02,5.690000000000000000e+02
-2.226928661587426177e+02,-2.240124737752266810e+02,-3.574832868150224385e+01,-5.160953720586439886e+01,-1.510583421076607920e+02,-1.152905649053136585e+02,-8.779155614582305134e+01,-2.450965715766124049e+02,9.370253562927246094e+00,-1.376853704452514648e+00,-7.649187743663787842e-02,5.700000000000000000e+02
-2.202161611450592318e+02,-2.235876686921947112e+02,-3.567956986031822453e+01,-5.284350250709030661e+01,-1.452856820439519652e+02,-1.150413135533890454e+02,-8.566021533437560720e+01,-2.448137880482354376e+02,9.370253562927246094e+00,-1.376853704452514648e+00,-7.649187743663787842e-02,5.710000000000000000e+02
-2.178110016313075903e+02,-2.199615796350772143e+02,-3.251915408184868284e+01,-5.106488742058718344e+01,-1.394824110332683631e+02,-1.129170797454698913e+02,-8.197814593329894706e+01,-2.405177382580313861e+02,9.370253562927246094e+00,-1.376853704452514648e+00,-7.649187743663787842e-02,5.720000000000000000e+02
-2.155478323863371770e+02,-2.139672955050773453e+02,-2.835433520792139461e+01,-4.722140753592429974e+01,-1.343407213980499364e+02,-1.108722154595598113e+02,-7.857148189084364276e+01,-2.334478675523096172e+02,9.370253562927246094e+00,-1.376853704452514648e+00,-7.649187743663787842e-02,5.730000000000000000e+02
-2.134244271802290314e+02,-2.074089442421154672e+02,-2.562513658616080647e+01,-4.291811329898155236e+01,-1.299593677053508145e+02,-1.102746369474989478e+02,-7.659169205308535311e+01,-2.261241331545370485e+02,9.370253562927246094e+00,-1.376853704452514648e+00,-7.649187743663787842e-02,5.740000000000000000e+02
-2.118851460220048466e+02,-2.023248212992330082e+02,-2.539298003031581175e+01,-3.958800313287247263e+01,-1.258498737629961397e+02,-1.110426630470174132e+02,-7.608047255430574296e+01,-2.209389559338414983e+02,9.370253562927246094e+00,-1.376853704452514648e+00,-7.649187743663787842e-02,5.750000000000000000e+02
-2.116791949372145609e+02,-2.000669932013588550e+02,-2.691783727839720086e+01,-3.780040865277987905e+01,-1.215451614598950982e+02,-1.121843694964190945e+02,-7.634042434132607013e+01,-2.188318582865176722e+02,9.370253562927246094e+00,-1.376853704452514648e+00,-7.649187743663787842e-02,5.760000000000000000e+02
-2.130782151312814676e+02,-2.006385403785679955e+02,-2.873297391141932167e+01,-3.709866209248502855e+01,-1.172430856256560219e+02,-1.129480571547719592e+02,-7.656411972231035179e+01,-2.189635246812649712e+02,9.370253562927246094e+00,-1.376853704452514648e+00,-7.649187743663787842e-02,5.770000000000000000e+02
-2.152823391490110225e+02,-2.027287643581257726e+02,-3.011460778628497792e+01,-3.649325711705751019e+01,-1.138788164612997207e+02,-1.134205855509208050e+02,-7.623335894106821797e+01,-2.196060374835906259e+02,9.370253562927246094e+00,-1.376853704452514648e+00,-7.649187743663787842e-02,5.780000000000000000e+02
-2.167701827024357044e+02,-2.044969088483103405e+02,-3.161851865224707581e+01,-3.527658138748847705e+01,-1.125303806000010809e+02,-1.141795587829947181e+02,-7.524392881236963149e+01,-2.195296184601957066e+02,9.370253562927246094e+00,-1.376853704452514648e+00,-7.649187743663787842e-02,5.790000000000000000e+02
-2.164238840137568332e+02,-2.046488764541390992e+02,-3.432424707518111973e+01,-3.352894573743105866e+01,-1.135933906258105708e+02,-1.155544624087233387e+02,-7.395567497341471608e+01,-2.187924293893847789e+02,9.370253562927246094e+00,-1.376853704452514648e+00,-7.649187743663787842e-02,5.800000000000000000e+02
-2.144005263338985969e+02,-2.030887397509595758e+02,-3.859157953274188912e+01,-3.188116365025780397e+01,-1.163040362703613937e+02,-1.172337393130073906e+02,-7.315169421772225178e+01,-2.183273960351925780e+02,9.370253562927246094e+00,-1.376853704452514648e+00,-7.649187743663787842e-02,5.810000000000000000e+02
-2.118748096037234063e+02,-2.007224780397791619e+02,-4.349875281608365185e+01,-3.077128673940569570e+01,-1.189801335608681256e+02,-1.184888445534234052e+02,-7.369247478804390994e+01,-2.187622560556501412e+02,9.370253562927246094e+00,-1.376853704452514648e+00,-7.649187743663787842e-02,5.820000000000000000e+02
-2.098838945788211277e+02,-1.986666323679874040e+02,-4.743579994942047051e+01,-2.995681032095308183e+01,-1.199242405746153963e+02,-1.187294939864550543e+02,-7.587687903894220653e+01,-2.195996848473878345e+02,9.370253562927246094e+00,-1.376853704452514648e+00,-7.649187743663787842e-02,5.830000000000000000e+02
-2.084123142915832432e+02,-1.975341581343855069e+02,-4.927529201993820607e+01,-2.882205544178214041e+01,-1.184721350314721349e+02,-1.179271787573197798e+02,-7.898504811812745174e+01,-2.195522190328083525e+02,9.370253562927246094e+00,-1.376853704452514648e+00,-7.649187743663787842e-02,5.840000000000000000e+02
-2.066037856937127799e+02,-1.972466000371659902e+02,-4.907795502764565754e+01,-2.716221465671696933e+01,-1.154411395911665750e+02,-1.166180446784055675e+02,-8.152028725930904329e+01,-2.177027588894525252e+02,9.370253562927246094e+00,-1.376853704452514648e+00,-7.649187743663787842e-02,5.850000000000000000e+02
-2.038775138953351416e+02,-1.973356740988256206e+02,-4.781016525494123925e+01,-2.557336076868159580e+01,-1.125275060299172765e+02,-1.155109357681903930e+02,-8.216432151507615345e+01,-2.143782705227204133e+02,9.370253562927246094e+00,-1.376853704452514648e+00,-7.649187743663787842e-02,5.860000000000000000e+02
-2.008182943466599681e+02,-1.973614889968630450e+02,-4.650176965113860206e+01,-2.499158163534593768e+01,-1.110085361433848448e+02,-1.150020413535930857e+02,-8.076012659745538258e+01,-2.109196376407926437e+02,9.370253562927246094e+00,-1.376853704452514648e+00,-7.649187743663787842e-02,5.870000000000000000e+02
-1.989171105948516924e+02,-1.971285872115549864e+02,-4.568646007159622968e+01,-2.583024104854121106e+01,-1.107567086645722156e+02,-1.149538571341654460e+02,-7.847105625846415933e+01,-2.085872478903802403e+02,9.370253562927246094e+00,-1.376853704452514648e+00,-7.649187743663787842e-02,5.880000000000000000e+02
-1.993443479562083667e+02,-1.966561837744611694e+02,-4.550510615236635203e+01,-2.759857552006724291e+01,-1.103809263726761856e+02,-1.148968358564707160e+02,-7.692311613199308340e+01,-2.076295920446900709e+02,9.370253562927246094e+00,-1.376853704452514648e+00,-7.649187743663787842e-02,5.890000000000000000e+02
-2.018526972978179401e+02,-1.960375446344423835e+02,-4.609877324517947272e+01,-2.934647027164828614e+01,-1.083735858539876062e+02,-1.144585660028424172e+02,-7.704317474128401955e+01,-2.073249235704461171e+02,9.370253562927246094e+00,-1.376853704452514648e+00,-7.649187743663787842e-02,5.900000000000000000e+02
-2.048079180033346347e+02,-1.953306220248668978e+02,-4.769502039585859166e+01,-3.041100686661593500e+01,-1.042919026529307303e+02,-1.136323460702114971e+02,-7.856988539812300587e+01,-2.068457736962773197e+02,9.370253562927246094e+00,-1.376853704452514648e+00,-7.649187743663787842e-02,5.910000000000000000e+02
-2.063329304050457722e+02,-1.945327931267802342e+02,-5.027780989244638477e+01,-3.072020395470462972e+01,-9.905490571993868798e+01,-1.126767142008029623e+02,-8.056702840309299063e+01,-2.060446533468748385e+02,9.370253562927246094e+00,-1.376853704452514648e+00,-7.649187743663787842e-02,5.920000000000000000e+02
-2.056237699977573357e+02,-1.936586505176619539e+02,-5.331511194314589375e+01,-3.053371303183666896e+01,-9.429034827618306736e+01,-1.118287178806203883e+02,-8.237975498994455847e+01,-2.054752337032368814e+02,9.523238182067871094e+00,-1.338607788085937500e+00,-7.649187743663787842e-02,5.930000000000000000e+02
-2.034080823004660488e+02,-1.929028212223784067e+02,-5.601228446967797936e+01,-3.014089105743914843e+01,-9.141029208630061476e+01,-1.111805686355983198e+02,-8.416030464587129245e+01,-2.057787954034174618e+02,9.523238182067871094e+00,-1.338607788085937500e+00,-7.649187743663787842e-02,5.940000000000000000e+02
-2.012673643626876583e+02,-1.927556446747985319e+02,-5.794956798020575661e+01,-2.993704608661209932e+01,-9.105558131515863352e+01,-1.108261229365489271e+02,-8.658358153894914722e+01,-2.071147979967827268e+02,9.523238182067871094e+00,-1.338607788085937500e+00,-7.649187743663787842e-02,5.950000000000000000e+02
-2.004517612692725379e+02,-1.938745983034459641e+02,-5.948858086389736854e+01,-3.063793744799477281e+01,-9.301758800108291325e+01,-1.110224161928344984e+02,-9.012546974746874184e+01,-2.091244226403068751e+02,9.523238182067871094e+00,-1.338607788085937500e+00,-7.649187743663787842e-02,5.960000000000000000e+02
-2.011526966352721502e+02,-1.966857167620837572e+02,-6.154204908133033314e+01,-3.310049139606417157e+01,-9.644376009944244288e+01,-1.121187355209913221e+02,-9.461736310736159794e+01,-2.113283661026071059e+02,9.523238182067871094e+00,-1.338607788085937500e+00,-7.649187743663787842e-02,5.970000000000000000e+02
-2.027340915499844414e+02,-2.009865599240292795e+02,-6.491956243023741990e+01,-3.767657663095815224e+01,-1.002173011560662417e+02,-1.143246321053156862e+02,-9.942826992150367005e+01,-2.134898372302377538e+02,9.523238182067871094e+00,-1.338607788085937500e+00,-7.649187743663787842e-02,5.980000000000000000e+02
-2.045766252726498351e+02,-2.059334886190008547e+02,-6.983588483198764152e+01,-4.371862019651598530e+01,-1.035307798149697192e+02,-1.176013223086847574e+02,-1.040222613386686135e+02,-2.156660918220404710e+02,9.523238182067871094e+00,-1.338607788085937500e+00,-7.649187743663787842e-02,5.990000000000000000e+02
-2.066935469222044048e+02,-2.105346039247888257e+02,-7.593217527539309231e+01,-4.989426692656707019e+01,-1.064537112984471605e+02,-1.218082842898147646e+02,-1.083730145130793971e+02,-2.180934517144378333e+02,9.523238182067871094e+00,-1.338607788085937500e+00,-7.649187743663787842e-02,6.000000000000000000e+02
-2.095572417019575369e+02,-2.143434600494874758e+02,-8.267676246441260446e+01,-5.519725256066158181e+01,-1.100266759709666076e+02,-1.268898802641524526e+02,-1.129656252522927389e+02,-2.211695686634011508e+02,9.523238182067871094e+00,-1.338607788085937500e+00,-7.649187743663787842e-02,6.010000000000000000e+02
-2.133995234414978768e+02,-2.178368683201442764e+02,-8.980841832878286368e+01,-5.981236371885097469e+01,-1.156560854536473926e+02,-1.328648088147892850e+02,-1.185311912970519188e+02,-2.255431931468447146e+02,9.523238182067871094e+00,-1.338607788085937500e+00,-7.649187743663787842e-02,6.020000000000000000e+02
-2.177878297409333754e+02,-2.221725685102501302e+02,-9.756670538308753748e+01,-6.505314672651365981e+01,-1.242006562964670593e+02,-1.396714097424883221e+02,-1.257753256862579292e+02,-2.320195574508434220e+02,9.523238182067871094e+00,-1.338607788085937500e+00,-7.649187743663787842e-02,6.030000000000000000e+02
-2.219915392614748271e+02,-2.284833031528396532e+02,-1.065919921855238499e+02,-7.238708654562287848e+01,-1.354704653965236503e+02,-1.471241658160870429e+02,-1.351654997828791238e+02,-2.410859939203619433e+02,9.523238182067871094e+00,-1.338607788085937500e+00,-7.649187743663787842e-02,6.040000000000000000e+02
-2.257720147999825713e+02,-2.371625351835100446e+02,-1.174758654817778734e+02,-8.232383864865551004e+01,-1.484743318274850026e+02,-1.550585730147176946e+02,-1.466728959057218162e+02,-2.523080736910342239e+02,9.523238182067871094e+00,-1.338607788085937500e+00,-7.649187743663787842e-02,6.050000000000000000e+02
-2.296899239208723884e+02,-2.475508769600273808e+02,-1.300837656107687508e+02,-9.397233871209755307e+01,-1.620413513467829034e+02,-1.634130136731509992e+02,-1.594703817502158927e+02,-2.641512775427581801e+02,9.523238182067871094e+00,-1.338607788085937500e+00,-7.649187743663787842e-02,6.060000000000000000e+02
-2.344690685107780155e+02,-2.581557342713567778e+02,-1.431044233143984457e+02,-1.055228323691735568e+02,-1.752087347787746694e+02,-1.720438675807381514e+02,-1.718808627186081139e+02,-2.745789027920509398e+02,9.523238182067871094e+00,-1.338607788085937500e+00,-7.649187743663787842e-02,6.070000000000000000e+02
-2.399655327945110912e+02,-2.672554879998024262e+02,-1.543818417940128711e+02,-1.152461161994542636e+02,-1.871897503508589580e+02,-1.804496931910180137e+02,-1.818845058318001975e+02,-2.821076110670037451e+02,9.523238182067871094e+00,-1.338607788085937500e+00,-7.649187743663787842e-02,6.080000000000000000e+02
-2.448154319025561563e+02,-2.735763224060756329e+02,-1.620819059403656865e+02,-1.223361601746801171e+02,-1.972296138933197653e+02,-1.878040460900010657e+02,-1.880575588413448713e+02,-2.864962598049241933e+02,9.523238182067871094e+00,-1.338607788085937500e+00,-7.649187743663787842e-02,6.090000000000000000e+02
-2.472674109445906652e+02,-2.767103217613439483e+02,-1.658757266641914612e+02,-1.271085674686291895e+02,-2.046737140921868559e+02,-1.933918245555905742e+02,-1.903202509648835985e+02,-2.884745741934821126e+02,9.523238182067871094e+00,-1.338607788085937500e+00,-7.649187743663787842e-02,6.100000000000000000e+02
-2.465366706815912039e+02,-2.770727359147131210e+02,-1.670555399758086423e+02,-1.304938485805396340e+02,-2.091984181632869877e+02,-1.970267605183616979e+02,-1.898683349091224954e+02,-2.887667854267856455e+02,9.523238182067871094e+00,-1.338607788085937500e+00,-7.649187743663787842e-02,6.110000000000000000e+02
