F3,F4,C3,C4,P3,P4,Cz,Pz,Accel_x,Accel_y,Accel_z,Sample
-5.729816621169447899e-11,-5.002220859751105309e-11,-3.637978807091712952e-11,-3.728928277269005775e-11,-4.729372449219226837e-11,-6.366462912410497665e-11,-1.637090463191270828e-11,-3.456079866737127304e-11,9.446745872497558594e+00,-1.223870038986206055e+00,-2.294756323099136353e-01,2.010000000000000000e+02
-3.768555433879555494e+00,2.162511670585445245e-01,7.612882194890516985e+00,1.109823157893970347e+01,1.746004848950178712e+00,2.807955131138442084e+00,6.357179601609459496e+00,3.635058952724648407e+00,9.446745872497558594e+00,-1.223870038986206055e+00,-2.294756323099136353e-01,2.020000000000000000e+02
-8.692995714478456648e+00,-2.966090833861926512e+00,1.029197230447334732e+01,1.898319067487682332e+01,-4.397019990265107481e-01,4.418828110769027262e+00,1.034987908073526341e+01,4.137790191807653173e+00,9.446745872497558594e+00,-1.223870038986206055e+00,-2.294756323099136353e-01,2.030000000000000000e+02
-1.497548969210674841e+01,-1.042423619151213643e+01,7.200696077744396462e+00,2.282524618627667223e+01,-7.401035842203782522e+00,4.557618164511950454e+00,1.144194083596448763e+01,5.175092802437575301e-01,9.446745872497558594e+00,-1.223870038986206055e+00,-2.294756323099136353e-01,2.040000000000000000e+02
-2.202691407513157174e+01,-2.025547717225435917e+01,1.872894089635337878e+00,2.433264378798230609e+01,-1.667408626471024036e+01,3.778867933973742765e+00,1.096006713282986311e+01,-6.001074968126886233e+00,9.446745872497558594e+00,-1.223870038986206055e+00,-2.294756323099136353e-01,2.050000000000000000e+02
-2.947606960749089922e+01,-2.977836144272805541e+01,-1.357845469403400784e+00,2.573326353768879926e+01,-2.509788307245980832e+01,2.493878121598754660e+00,1.047308775258534297e+01,-1.378520100833884499e+01,9.446745872497558594e+00,-1.223870038986206055e+00,-2.294756323099136353e-01,2.060000000000000000e+02
-3.774274766059443209e+01,-3.771345201532585634e+01,-1.158099994538133615e+00,2.773811280922473088e+01,-3.152185581448338780e+01,2.496531710330600617e-01,1.033086115924470505e+01,-2.235627197694611823e+01,9.446745872497558594e+00,-1.223870038986206055e+00,-2.294756323099136353e-01,2.070000000000000000e+02
-4.739555289446525421e+01,-4.456893923705229099e+01,2.888752687485975912e-01,2.947596514963879599e+01,-3.704307505458109517e+01,-3.803326402348830015e+00,9.856082146581684356e+00,-3.204379252920716681e+01,9.523238182067871094e+00,-1.262115836143493652e+00,-2.294756323099136353e-01,2.080000000000000000e+02
-5.803473662163560221e+01,-5.130558936397756042e+01,3.993502808134508086e-02,3.018438626825900428e+01,-4.298208266861274751e+01,-9.645449275907594711e+00,8.756540813748870278e+00,-4.236837091455981863e+01,9.523238182067871094e+00,-1.262115836143493652e+00,-2.294756323099136353e-01,2.090000000000000000e+02
-6.814834162225633918e+01,-5.801853008811849577e+01,-2.714202839081735874e+00,3.061859294525402220e+01,-4.910491667006226635e+01,-1.573061728350330668e+01,7.981316924937345902e+00,-5.129951270214132819e+01,9.523238182067871094e+00,-1.262115836143493652e+00,-2.294756323099136353e-01,2.100000000000000000e+02
-7.633226654404097644e+01,-6.397599084650391887e+01,-6.364518277511706401e+00,3.262221783418772247e+01,-5.402212938404863962e+01,-1.984661503007373540e+01,8.984652107726105896e+00,-5.652039373869956762e+01,9.523238182067871094e+00,-1.262115836143493652e+00,-2.294756323099136353e-01,2.110000000000000000e+02
-8.264208851173680159e+01,-6.867771507570068934e+01,-8.946449582042987458e+00,3.735548254352488584e+01,-5.713723852132989123e+01,-2.087555262091518671e+01,1.220291658874975838e+01,-5.751413104216590000e+01,9.523238182067871094e+00,-1.262115836143493652e+00,-2.294756323099136353e-01,2.120000000000000000e+02
-8.853518793499097228e+01,-7.256957895842970174e+01,-1.001903256480181881e+01,4.410443245244914579e+01,-5.979041473269899143e+01,-1.977628906475911208e+01,1.643190176640564459e+01,-5.624647497393198137e+01,9.523238182067871094e+00,-1.262115836143493652e+00,-2.294756323099136353e-01,2.130000000000000000e+02
-9.533486582149907917e+01,-7.667382670883307583e+01,-1.053441642582129134e+01,5.088130879416530661e+01,-6.424798195353196206e+01,-1.877063133019510133e+01,1.976444265941063350e+01,-5.567864557836855965e+01,9.523238182067871094e+00,-1.262115836143493652e+00,-2.294756323099136353e-01,2.140000000000000000e+02
-1.028202972533526918e+02,-8.168669359948671627e+01,-1.134703578831431514e+01,5.612338237763378856e+01,-7.163065732964514609e+01,-1.945680660940342932e+01,2.109014439873635638e+01,-5.759595401508249779e+01,9.523238182067871094e+00,-1.262115836143493652e+00,-2.294756323099136353e-01,2.150000000000000000e+02
-1.094774133887212884e+02,-8.752334891011378204e+01,-1.231950392351973278e+01,5.978779399334507616e+01,-8.097487089149490203e+01,-2.162292611386328645e+01,2.068262784512944563e+01,-6.181873870978506602e+01,9.523238182067871094e+00,-1.262115836143493652e+00,-2.294756323099136353e-01,2.160000000000000000e+02
-1.141949245688383598e+02,-9.359235865956179623e+01,-1.293901170797471423e+01,6.291698699252356164e+01,-9.033214751594005065e+01,-2.382725042480706179e+01,1.948907258187409752e+01,-6.725171220144238760e+01,9.523238182067871094e+00,-1.262115836143493652e+00,-2.294756323099136353e-01,2.170000000000000000e+02
-1.176084008146744964e+02,-9.926286068132412765e+01,-1.342532539901731070e+01,6.637891263151959720e+01,-9.860334841227358993e+01,-2.502472777317052532e+01,1.809869830406933033e+01,-7.330450236892829707e+01,9.523238182067871094e+00,-1.262115836143493652e+00,-2.294756323099136353e-01,2.180000000000000000e+02
-1.216428247435069352e+02,-1.040632579367129438e+02,-1.482254078738515091e+01,7.012605417639588268e+01,-1.061909822978159355e+02,-2.555537345543234551e+01,1.651585085344231629e+01,-8.008400725312367285e+01,9.523238182067871094e+00,-1.262115836143493652e+00,-2.294756323099136353e-01,2.190000000000000000e+02
-1.277002144598345694e+02,-1.077601784160106035e+02,-1.788542654564571421e+01,7.352588111386467062e+01,-1.140124991121620042e+02,-2.658659027156227239e+01,1.477012506661594671e+01,-8.739508850962647557e+01,9.523238182067871094e+00,-1.262115836143493652e+00,-2.294756323099136353e-01,2.200000000000000000e+02
-1.353200838407474293e+02,-1.106225321960982910e+02,-2.202685565216324903e+01,7.618693168843583408e+01,-1.221562349765963518e+02,-2.869811969914371730e+01,1.346671330811477674e+01,-9.399910702089982806e+01,9.523238182067871094e+00,-1.262115836143493652e+00,-2.294756323099136353e-01,2.210000000000000000e+02
-1.426400995967269409e+02,-1.136875785292868386e+02,-2.556050165878241387e+01,7.837289242354381713e+01,-1.296665003262132814e+02,-3.112100832193937094e+01,1.353947593976181452e+01,-9.822877150326712581e+01,9.523238182067871094e+00,-1.262115836143493652e+00,-2.294756323099136353e-01,2.220000000000000000e+02
-1.481537343267691540e+02,-1.184562840542475897e+02,-2.706584719325110200e+01,8.073066972173910472e+01,-1.355269107638860078e+02,-3.234910445797413558e+01,1.544119907211006648e+01,-9.943613542068760580e+01,9.523238182067871094e+00,-1.262115836143493652e+00,-2.294756323099136353e-01,2.230000000000000000e+02
-1.520302217307362298e+02,-1.259139993728022091e+02,-2.657323320349496498e+01,8.372057963114366430e+01,-1.396818807345498499e+02,-3.147379306490802264e+01,1.861127878152365156e+01,-9.877280743702249310e+01,9.523238182067871094e+00,-1.262115836143493652e+00,-2.294756323099136353e-01,2.240000000000000000e+02
-1.558219449463504134e+02,-1.356502569926815340e+02,-2.553409127804661694e+01,8.722763605004820420e+01,-1.431035707034734514e+02,-2.900415262208025524e+01,2.172848005240575731e+01,-9.848252360934930039e+01,9.523238182067871094e+00,-1.262115836143493652e+00,-2.294756323099136353e-01,2.250000000000000000e+02
-1.610032274534623866e+02,-1.460326122748692796e+02,-2.574327281709065574e+01,9.050736324111949216e+01,-1.470215791652790358e+02,-2.652935331894423143e+01,2.347035272187576993e+01,-1.003976262706446505e+02,9.523238182067871094e+00,-1.262115836143493652e+00,-2.294756323099136353e-01,2.260000000000000000e+02
-1.677968180654970638e+02,-1.554438474420712737e+02,-2.823267055294672900e+01,9.239622118718034471e+01,-1.521702768293989720e+02,-2.566604540576645377e+01,2.313487085975020818e+01,-1.050044466960125646e+02,9.523238182067871094e+00,-1.262115836143493652e+00,-2.294756323099136353e-01,2.270000000000000000e+02
-1.752269028908622204e+02,-1.634617600700439652e+02,-3.290449600670763175e+01,9.177783439974882640e+01,-1.585625140899219332e+02,-2.716287714041664003e+01,2.079756149653940156e+01,-1.116729693268698611e+02,9.523238182067871094e+00,-1.262115836143493652e+00,-2.294756323099136353e-01,2.280000000000000000e+02
-1.820629864604406976e+02,-1.708522674658538563e+02,-3.890766572495522269e+01,8.820645969047382096e+01,-1.656539329264314802e+02,-3.070795024885319435e+01,1.715308718469077576e+01,-1.194614912477509279e+02,9.523238182067871094e+00,-1.262115836143493652e+00,-2.294756323099136353e-01,2.290000000000000000e+02
-1.876668134048668435e+02,-1.784580883155767879e+02,-4.526259457570358791e+01,8.231340397369604034e+01,-1.726096300697254264e+02,-3.538070187885023188e+01,1.326394976800020231e+01,-1.276195306772206095e+02,9.523238182067871094e+00,-1.262115836143493652e+00,-2.294756323099136353e-01,2.300000000000000000e+02
-1.921284678554093261e+02,-1.861932470399951853e+02,-5.128659698754108831e+01,7.557333263608416019e+01,-1.786272443587477028e+02,-4.030163873163928656e+01,1.022585841638147031e+01,-1.355878658187484689e+02,9.523238182067871094e+00,-1.262115836143493652e+00,-2.294756323099136353e-01,2.310000000000000000e+02
-1.958796892607151676e+02,-1.931673483817830856e+02,-5.667569998307044443e+01,6.944813798811355809e+01,-1.833616304742363354e+02,-4.503860575123690069e+01,8.725226929889231542e+00,-1.429136495848988488e+02,9.523238182067871094e+00,-1.262115836143493652e+00,-2.294756323099136353e-01,2.320000000000000000e+02
-1.993122143818718541e+02,-1.986950072639497193e+02,-6.131544267952904192e+01,6.457509452730391786e+01,-1.871662417537418150e+02,-4.953977489833869186e+01,8.672087913044833840e+00,-1.493862849203378573e+02,9.523238182067871094e+00,-1.262115836143493652e+00,-2.294756323099136353e-01,2.330000000000000000e+02
-2.026777109162931083e+02,-2.030356268275045295e+02,-6.503988161504548771e+01,6.070462882866468135e+01,-1.907862788341926716e+02,-5.373146771987194370e+01,9.257714594817116449e+00,-1.551474404143273205e+02,9.523238182067871094e+00,-1.262115836143493652e+00,-2.294756323099136353e-01,2.340000000000000000e+02
-2.061574724106940266e+02,-2.070978260364413472e+02,-6.757982334462303697e+01,5.736547135701221123e+01,-1.946307053025757341e+02,-5.719917668196376326e+01,9.551597210094314505e+00,-1.603867862069937473e+02,9.523238182067871094e+00,-1.262115836143493652e+00,-2.294756323099136353e-01,2.350000000000000000e+02
-2.098813990872363320e+02,-2.115222163558719330e+02,-6.879028185152674268e+01,5.451399866516294423e+01,-1.983123475976981354e+02,-5.931441126605477621e+01,9.244930250303696084e+00,-1.647798938713867756e+02,9.523238182067871094e+00,-1.262115836143493652e+00,-2.294756323099136353e-01,2.360000000000000000e+02
-2.138586048753254545e+02,-2.161632722139347607e+02,-6.896533818009720562e+01,5.249368805159792828e+01,-2.010153286266922805e+02,-5.974956614426719170e+01,8.930487556713615049e+00,-1.673428273467998224e+02,9.523238182067871094e+00,-1.262115836143493652e+00,-2.294756323099136353e-01,2.370000000000000000e+02
-2.179198011383145968e+02,-2.204390914614268695e+02,-6.883605545243153756e+01,5.147575063944441354e+01,-2.023462646089801638e+02,-5.883123444161083171e+01,9.651615896624207380e+00,-1.670803435795132827e+02,9.523238182067871094e+00,-1.262115836143493652e+00,-2.294756323099136353e-01,2.380000000000000000e+02
-2.217518017616748693e+02,-2.240348718410627953e+02,-6.910657972318495013e+01,5.114496270003473910e+01,-2.027466968198023096e+02,-5.727584590885908256e+01,1.208066867006073153e+01,-1.639428793539109392e+02,9.370253562927246094e+00,-1.262115836143493652e+00,-3.059675097465515137e-01,2.390000000000000000e+02
-2.250147403073078749e+02,-2.271524267716058603e+02,-6.990936299354370931e+01,5.104991434391558869e+01,-2.029979177882260046e+02,-5.551083288728204934e+01,1.598130679750647687e+01,-1.591553848151188504e+02,9.370253562927246094e+00,-1.262115836143493652e+00,-3.059675097465515137e-01,2.400000000000000000e+02
-2.274890276696191904e+02,-2.301411156253493573e+02,-7.075925220294539031e+01,5.116727124213230127e+01,-2.033731083608345216e+02,-5.332675218027361552e+01,2.032037473167065400e+01,-1.545015409381649079e+02,9.370253562927246094e+00,-1.262115836143493652e+00,-3.059675097465515137e-01,2.410000000000000000e+02
-2.291983151035087758e+02,-2.330764097402325206e+02,-7.114473882748552569e+01,5.190435054657700675e+01,-2.034143923378678664e+02,-5.034473597573105508e+01,2.385520080922606212e+01,-1.511729269394609219e+02,9.370253562927246094e+00,-1.262115836143493652e+00,-3.059675097465515137e-01,2.420000000000000000e+02
-2.304200331522542911e+02,-2.357960210481401191e+02,-7.117615094869370296e+01,5.344535951432226284e+01,-2.025779088865392623e+02,-4.685553101835466805e+01,2.572468905017967700e+01,-1.492448489732314556e+02,9.370253562927246094e+00,-1.262115836143493652e+00,-3.059675097465515137e-01,2.430000000000000000e+02
-2.315641944315320870e+02,-2.382551242371105218e+02,-7.159281063828348124e+01,5.518499748690373963e+01,-2.010203721616535404e+02,-4.407820959997116006e+01,2.568200772040518132e+01,-1.482327443328958907e+02,9.370253562927246094e+00,-1.262115836143493652e+00,-3.059675097465515137e-01,2.440000000000000000e+02
-2.330088444422331122e+02,-2.406799501326640893e+02,-7.310517349438259771e+01,5.598353252691686066e+01,-1.997011620398443483e+02,-4.342084588790112321e+01,2.395860786321554770e+01,-1.481074576986907232e+02,9.370253562927246094e+00,-1.262115836143493652e+00,-3.059675097465515137e-01,2.450000000000000000e+02
-2.350413190456320081e+02,-2.432947836838252442e+02,-7.577002225474416264e+01,5.512883915650036215e+01,-1.997655130531475152e+02,-4.536856700286170962e+01,2.099993026374932015e+01,-1.496808166925306978e+02,9.370253562927246094e+00,-1.262115836143493652e+00,-3.059675097465515137e-01,2.460000000000000000e+02
-2.379364206694945096e+02,-2.459878403934590096e+02,-7.902376011186925098e+01,5.309630777042821137e+01,-2.018770922432386214e+02,-4.906813216954560630e+01,1.733085326107675428e+01,-1.538716364445654108e+02,9.370253562927246094e+00,-1.262115836143493652e+00,-3.059675097465515137e-01,2.470000000000000000e+02
-2.419805704329492073e+02,-2.483799533281107870e+02,-8.222135191541610766e+01,5.136004395188456328e+01,-2.059972981517357766e+02,-5.297105631327212905e+01,1.364662504838815948e+01,-1.604555738260587532e+02,9.370253562927246094e+00,-1.262115836143493652e+00,-3.059675097465515137e-01,2.480000000000000000e+02
-2.472570201800676841e+02,-2.502755210323293795e+02,-8.501764292595316874e+01,5.139153995844071687e+01,-2.115170426692147885e+02,-5.586969376600609394e+01,1.093040153962965633e+01,-1.675327797349445973e+02,9.370253562927246094e+00,-1.262115836143493652e+00,-3.059675097465515137e-01,2.490000000000000000e+02
-2.533108454117132169e+02,-2.519965213858408788e+02,-8.725060845754796901e+01,5.366364940185894739e+01,-2.174394791238373728e+02,-5.740518747993610305e+01,1.028308006689712784e+01,-1.724348425357839005e+02,9.370253562927246094e+00,-1.262115836143493652e+00,-3.059675097465515137e-01,2.500000000000000000e+02
-2.590895933968872669e+02,-2.541635339358308556e+02,-8.866897843694687253e+01,5.740387588174598932e+01,-2.226025041040161341e+02,-5.779907639334578562e+01,1.236842628158865409e+01,-1.735167222510276588e+02,9.370253562927246094e+00,-1.262115836143493652e+00,-3.059675097465515137e-01,2.510000000000000000e+02
-2.634208100149753591e+02,-2.570864134110938721e+02,-8.903532332657050574e+01,6.118231691972596309e+01,-2.261204672648677843e+02,-5.733351270388357079e+01,1.675683067128193215e+01,-1.714387131948487877e+02,9.370253562927246094e+00,-1.262115836143493652e+00,-3.059675097465515137e-01,2.520000000000000000e+02
-2.657773645045022022e+02,-2.603828057809678285e+02,-8.855544884517166793e+01,6.383556890784439020e+01,-2.279274140273105331e+02,-5.616756182466087921e+01,2.174018385604904324e+01,-1.688397395711754143e+02,9.370253562927246094e+00,-1.262115836143493652e+00,-3.059675097465515137e-01,2.530000000000000000e+02
-2.666691750177474205e+02,-2.632297116341064793e+02,-8.802525751802522791e+01,6.511092562413705309e+01,-2.288832840876043520e+02,-5.452705368150782306e+01,2.500364621803100817e+01,-1.685436335029921793e+02,9.370253562927246094e+00,-1.262115836143493652e+00,-3.059675097465515137e-01,2.540000000000000000e+02
-2.672376592534947122e+02,-2.650168688188550732e+02,-8.833380983227834804e+01,6.567471517215972199e+01,-2.301281241887436408e+02,-5.289327601174591109e+01,2.490055737937791491e+01,-1.716455109156199796e+02,9.370253562927246094e+00,-1.262115836143493652e+00,-3.059675097465515137e-01,2.550000000000000000e+02
-2.683630021792346270e+02,-2.658048230791923743e+02,-8.974028747913462212e+01,6.654332497343648356e+01,-2.321439066769162309e+02,-5.192993366824975965e+01,2.148007049394527712e+01,-1.769300010995707453e+02,9.370253562927246094e+00,-1.262115836143493652e+00,-3.059675097465515137e-01,2.560000000000000000e+02
-2.700846511985296274e+02,-2.662328940427541966e+02,-9.171045538449789092e+01,6.834246707561032963e+01,-2.344022435792899159e+02,-5.221920792485798302e+01,1.645545218666848086e+01,-1.819670900899895969e+02,9.370253562927246094e+00,-1.262115836143493652e+00,-3.059675097465515137e-01,2.570000000000000000e+02
-2.718509588526908374e+02,-2.670556881456805058e+02,-9.352032294079708663e+01,7.093638620619049107e+01,-2.359461777125980007e+02,-5.399280327605902130e+01,1.209995097989985879e+01,-1.848804511954094778e+02,9.370253562927246094e+00,-1.262115836143493652e+00,-3.059675097465515137e-01,2.580000000000000000e+02
-2.732976354154143337e+02,-2.687460359335536850e+02,-9.496974911133838759e+01,7.370283424633407776e+01,-2.362962822867220893e+02,-5.693862106741471507e+01,9.903812592514668722e+00,-1.853809584829650703e+02,9.370253562927246094e+00,-1.262115836143493652e+00,-3.059675097465515137e-01,2.590000000000000000e+02
-2.747569698169681942e+02,-2.714097143491817405e+02,-9.642354670054328381e+01,7.616316134220687672e+01,-2.357746959974360834e+02,-6.015359485154203867e+01,9.981840245503917686e+00,-1.844451089925200904e+02,9.523238182067871094e+00,-1.338607788085937500e+00,-2.677215635776519775e-01,2.600000000000000000e+02
-2.769933164707831565e+02,-2.748968847258338428e+02,-9.816839390394397924e+01,7.833307376729680982e+01,-2.350110288260775633e+02,-6.240809217610149062e+01,1.151714190205211708e+01,-1.832281179436258753e+02,9.523238182067871094e+00,-1.338607788085937500e+00,-2.677215635776519775e-01,2.610000000000000000e+02
-2.804393160375261687e+02,-2.788639362315125254e+02,-9.986543225726154560e+01,8.043322021493440843e+01,-2.342666593184058001e+02,-6.278152619545016933e+01,1.362310401110585190e+01,-1.822992786765926212e+02,9.523238182067871094e+00,-1.338607788085937500e+00,-2.677215635776519775e-01,2.620000000000000000e+02
-2.846534768135925333e+02,-2.827423574214567452e+02,-1.007609798893613515e+02,8.232057458039344056e+01,-2.333197046258565024e+02,-6.133471552585251629e+01,1.579629530512784186e+01,-1.817151476335398002e+02,9.523238182067871094e+00,-1.338607788085937500e+00,-2.677215635776519775e-01,2.630000000000000000e+02
-2.884800948509916907e+02,-2.858023063892361506e+02,-1.004460611198974220e+02,8.339005430932047602e+01,-2.319335731824892264e+02,-5.921657263376528135e+01,1.772642961558858588e+01,-1.815321077025905652e+02,9.523238182067871094e+00,-1.338607788085937500e+00,-2.677215635776519775e-01,2.640000000000000000e+02
-2.907975225774920318e+02,-2.874574604119495689e+02,-9.935071991015593085e+01,8.319330046177196891e+01,-2.303312290819462760e+02,-5.796506349784499434e+01,1.894015026190027129e+01,-1.820509809404712769e+02,9.523238182067871094e+00,-1.338607788085937500e+00,-2.677215635776519775e-01,2.650000000000000000e+02
-2.912702426063410712e+02,-2.876527728104699690e+02,-9.845388997160512190e+01,8.213606442509262706e+01,-2.291815747367309086e+02,-5.850236100445158627e+01,1.885277268841377918e+01,-1.835657568597177942e+02,9.523238182067871094e+00,-1.338607788085937500e+00,-2.677215635776519775e-01,2.660000000000000000e+02
-2.905652182152615524e+02,-2.869841709469736770e+02,-9.850261897935706656e+01,8.137889462346652181e+01,-2.291637522816506589e+02,-6.066563988080429226e+01,1.724078829517839040e+01,-1.860075638162185214e+02,9.523238182067871094e+00,-1.338607788085937500e+00,-2.677215635776519775e-01,2.670000000000000000e+02
-2.899113811370143594e+02,-2.863629303665445605e+02,-9.949119769041226391e+01,8.184316284602846281e+01,-2.305505702379500690e+02,-6.363504639089865123e+01,1.458179859942117673e+01,-1.889308862324243137e+02,9.523238182067871094e+00,-1.338607788085937500e+00,-2.677215635776519775e-01,2.680000000000000000e+02
-2.903152225715558643e+02,-2.864588145548944453e+02,-1.008170234598312618e+02,8.325836433410086102e+01,-2.331147442511432928e+02,-6.675358524108264646e+01,1.179502817484603838e+01,-1.918242347429302299e+02,9.523238182067871094e+00,-1.338607788085937500e+00,-2.677215635776519775e-01,2.690000000000000000e+02
-2.919626352196603420e+02,-2.873712967492617736e+02,-1.018590233691538742e+02,8.430274893528257962e+01,-2.363309109040758358e+02,-6.993046748186065997e+01,9.565407917573452323e+00,-1.943426768215909988e+02,9.523238182067871094e+00,-1.338607788085937500e+00,-2.677215635776519775e-01,2.700000000000000000e+02
-2.942132490294341096e+02,-2.887595337991052702e+02,-1.024179961023603482e+02,8.382936967164573616e+01,-2.396606579306990170e+02,-7.333404615855715747e+01,7.896211078993701449e+00,-1.962305018259590952e+02,9.523238182067871094e+00,-1.338607788085937500e+00,-2.677215635776519775e-01,2.710000000000000000e+02
-2.961861161038320915e+02,-2.902167350109874633e+02,-1.027157758565895165e+02,8.202733813812392327e+01,-2.427466334638507988e+02,-7.681566756795427864e+01,6.338415448360819937e+00,-1.971369280270706668e+02,9.523238182067871094e+00,-1.338607788085937500e+00,-2.677215635776519775e-01,2.720000000000000000e+02
-2.974883613457274123e+02,-2.914869262386969240e+02,-1.030778036636149864e+02,8.035032455224973091e+01,-2.454421526577827990e+02,-7.969162413451817883e+01,4.660311472014427636e+00,-1.966613000818348382e+02,9.523238182067871094e+00,-1.338607788085937500e+00,-2.677215635776519775e-01,2.730000000000000000e+02
-2.984819460024325508e+02,-2.924003839018077997e+02,-1.036355988704838182e+02,8.021283955494868678e+01,-2.476846435668637696e+02,-8.106936177390070952e+01,3.252889896692067850e+00,-1.946850137436335899e+02,9.523238182067871094e+00,-1.338607788085937500e+00,-2.677215635776519775e-01,2.740000000000000000e+02
-2.998034547988520444e+02,-2.927670381697514586e+02,-1.042638607919295737e+02,8.166913606269372394e+01,-2.493580623018536926e+02,-8.041472963192723000e+01,2.832222203496144175e+00,-1.916645565694965399e+02,9.523238182067871094e+00,-1.338607788085937500e+00,-2.677215635776519775e-01,2.750000000000000000e+02
-3.015194301771045957e+02,-2.924805853499670434e+02,-1.047230273008015047e+02,8.332614939653808506e+01,-2.503334346679780538e+02,-7.793313605398952859e+01,3.733955419199332937e+00,-1.885398843750676861e+02,9.523238182067871094e+00,-1.338607788085937500e+00,-2.677215635776519775e-01,2.760000000000000000e+02
-3.027438803653324157e+02,-2.917582575090426076e+02,-1.048463427772848036e+02,8.358284821611800908e+01,-2.507202915168267054e+02,-7.455797808071065447e+01,5.495847070319541672e+00,-1.863016027545730822e+02,9.523238182067871094e+00,-1.338607788085937500e+00,-2.677215635776519775e-01,2.770000000000000000e+02
-3.022299773706735095e+02,-2.911602274994434651e+02,-1.046326994934225922e+02,8.205438141799822915e+01,-2.510765504238667063e+02,-7.158086885961029111e+01,7.131402285986951028e+00,-1.855563908418126857e+02,9.523238182067871094e+00,-1.338607788085937500e+00,-2.677215635776519775e-01,2.780000000000000000e+02
-2.995412873666757037e+02,-2.911748186638001243e+02,-1.042023566718251004e+02,7.990716186554254818e+01,-2.522244721209619911e+02,-7.007719655330970454e+01,7.843658713092395374e+00,-1.863491445678463378e+02,9.523238182067871094e+00,-1.338607788085937500e+00,-2.677215635776519775e-01,2.790000000000000000e+02
-2.957439580495613427e+02,-2.916666798885864296e+02,-1.036901378592676792e+02,7.885715795649025495e+01,-2.546853417382989164e+02,-7.038992608852845478e+01,7.558437385701495259e+00,-1.882235662415124580e+02,9.523238182067871094e+00,-1.338607788085937500e+00,-2.677215635776519775e-01,2.800000000000000000e+02
-2.928075487413200335e+02,-2.917552441626972382e+02,-1.031641397474671749e+02,7.977747143271312780e+01,-2.581836312164673473e+02,-7.198232398118534547e+01,6.898199519186050566e+00,-1.903653261536704804e+02,9.523238182067871094e+00,-1.338607788085937500e+00,-2.677215635776519775e-01,2.810000000000000000e+02
-2.920373161909265605e+02,-2.903628614942014110e+02,-1.026018156979929472e+02,8.214552069782894250e+01,-2.616902373140293321e+02,-7.379129895169944575e+01,6.753443119415919682e+00,-1.917784270885888418e+02,9.523238182067871094e+00,-1.338607788085937500e+00,-2.677215635776519775e-01,2.820000000000000000e+02
-2.928613315130795058e+02,-2.870456456100217792e+02,-1.018815686530037965e+02,8.471018223883311293e+01,-2.640199317416705753e+02,-7.485679581574140684e+01,7.830604998140984208e+00,-1.915984964704341564e+02,9.523238182067871094e+00,-1.338607788085937500e+00,-2.677215635776519775e-01,2.830000000000000000e+02
-2.931612620244027880e+02,-2.824144574916442139e+02,-1.007826580520068092e+02,8.663592162968939192e+01,-2.645088083398243270e+02,-7.476331891004701902e+01,1.037577184976714761e+01,-1.895459488905903527e+02,9.523238182067871094e+00,-1.338607788085937500e+00,-2.677215635776519775e-01,2.840000000000000000e+02
-2.910723175328342336e+02,-2.778105273338691177e+02,-9.907784266471901446e+01,8.799237534058636356e+01,-2.633138453897636282e+02,-7.365014543945267178e+01,1.401152613578676664e+01,-1.862567288457685208e+02,9.484992027282714844e+00,-1.223870038986206055e+00,-3.059675097465515137e-01,2.850000000000000000e+02
-2.867786347426928728e+02,-2.745233409270194329e+02,-9.676517803925025873e+01,8.921944138329286034e+01,-2.612643473205838518e+02,-7.196299510925132381e+01,1.766868313688394210e+01,-1.831069302847866993e+02,9.484992027282714844e+00,-1.223870038986206055e+00,-3.059675097465515137e-01,2.860000000000000000e+02
-2.826540343905404598e+02,-2.731315188667930443e+02,-9.428277111739248539e+01,9.028770917255019413e+01,-2.594679624774354352e+02,-7.026159141590960644e+01,1.984143163596741033e+01,-1.814587559098201837e+02,9.484992027282714844e+00,-1.223870038986206055e+00,-3.059675097465515137e-01,2.870000000000000000e+02
-2.814568102991551086e+02,-2.733345954446019732e+02,-9.241549282122787190e+01,9.057806826017827007e+01,-2.588510713832519059e+02,-6.911911616120892177e+01,1.933824483582122866e+01,-1.817650683142376238e+02,9.484992027282714844e+00,-1.223870038986206055e+00,-3.059675097465515137e-01,2.880000000000000000e+02
-2.840138877177447512e+02,-2.742258485347783790e+02,-9.179380845418972967e+01,8.969052421525839236e+01,-2.597085165976749295e+02,-6.889897135398405226e+01,1.621720448662847502e+01,-1.831966109544922574e+02,9.484992027282714844e+00,-1.223870038986206055e+00,-3.059675097465515137e-01,2.890000000000000000e+02
-2.883911852128595115e+02,-2.747709225795815087e+02,-9.233234551556074621e+01,8.825711209504265753e+01,-2.614803842400248186e+02,-6.939606885874775344e+01,1.212536642239456341e+01,-1.841544894869664404e+02,9.484992027282714844e+00,-1.223870038986206055e+00,-3.059675097465515137e-01,2.900000000000000000e+02
-2.913369704155354611e+02,-2.742963367669253216e+02,-9.316143769603206692e+01,8.768010988015555540e+01,-2.630663516581736303e+02,-6.973730866741686896e+01,9.475351559499586074e+00,-1.833691852125017476e+02,9.484992027282714844e+00,-1.223870038986206055e+00,-3.059675097465515137e-01,2.910000000000000000e+02
-2.908080225139658523e+02,-2.728133434971124984e+02,-9.323345315526103150e+01,8.883791787542998009e+01,-2.636495837056910432e+02,-6.891965793558017594e+01,9.841979996340796788e+00,-1.807819317923568292e+02,9.484992027282714844e+00,-1.223870038986206055e+00,-3.059675097465515137e-01,2.920000000000000000e+02
-2.874530724042256793e+02,-2.710030422484618384e+02,-9.214132759458004784e+01,9.101476342472687975e+01,-2.634170919271871298e+02,-6.674945153130545350e+01,1.278676451000251291e+01,-1.775438968434425533e+02,9.484992027282714844e+00,-1.223870038986206055e+00,-3.059675097465515137e-01,2.930000000000000000e+02
-2.838736139365552162e+02,-2.697746162351133421e+02,-9.042730222666159534e+01,9.226854473843081905e+01,-2.634332022815909795e+02,-6.433419364006249452e+01,1.612924920351144920e+01,-1.751524660972402216e+02,9.484992027282714844e+00,-1.223870038986206055e+00,-3.059675097465515137e-01,2.940000000000000000e+02
-2.824593776205418862e+02,-2.696045580432622160e+02,-8.911521538642023188e+01,9.104986400547409175e+01,-2.646425508181532678e+02,-6.349679737970723181e+01,1.754036661615714365e+01,-1.744177468604378873e+02,9.484992027282714844e+00,-1.223870038986206055e+00,-3.059675097465515137e-01,2.950000000000000000e+02
-2.837339381635575251e+02,-2.701480727277418055e+02,-8.892382788528425408e+01,8.756663394830445668e+01,-2.668949844832696954e+02,-6.544225433886742849e+01,1.618707429955964017e+01,-1.750558284281039505e+02,9.484992027282714844e+00,-1.223870038986206055e+00,-3.059675097465515137e-01,2.960000000000000000e+02
-2.864621982734091148e+02,-2.704998455918131981e+02,-8.985087941690130720e+01,8.358173320799039629e+01,-2.689569911860306775e+02,-6.976329115378894130e+01,1.311644664277491756e+01,-1.761412249517267128e+02,9.484992027282714844e+00,-1.223870038986206055e+00,-3.059675097465515137e-01,2.970000000000000000e+02
-2.890446019167513896e+02,-2.699361469653738936e+02,-9.138213954923776328e+01,8.087273404387781284e+01,-2.695401622626530980e+02,-7.464363611211194893e+01,1.018500874269295764e+01,-1.769448027500965281e+02,9.484992027282714844e+00,-1.223870038986206055e+00,-3.059675097465515137e-01,2.980000000000000000e+02
-2.906608806263566862e+02,-2.685007521988092094e+02,-9.296109786553392951e+01,7.986899573121695539e+01,-2.683495621128870425e+02,-7.807372115607529395e+01,8.590083215617141832e+00,-1.773962668143215069e+02,9.484992027282714844e+00,-1.223870038986206055e+00,-3.059675097465515137e-01,2.990000000000000000e+02
-2.912132641621790299e+02,-2.669226428159728357e+02,-9.425354504939275557e+01,7.967084403519970692e+01,-2.661883684273202562e+02,-7.909318823091632567e+01,8.252129783176656019e+00,-1.778498719713533092e+02,9.484992027282714844e+00,-1.223870038986206055e+00,-3.059675097465515137e-01,3.000000000000000000e+02
-2.905446032116898323e+02,-2.659607513127210154e+02,-9.512830674218560034e+01,7.918723692385242430e+01,-2.641636016173449661e+02,-7.817950324420075958e+01,8.359881160384929899e+00,-1.785096898811334540e+02,9.484992027282714844e+00,-1.223870038986206055e+00,-3.059675097465515137e-01,3.010000000000000000e+02
-2.881417758421656004e+02,-2.657870923293201599e+02,-9.559356110777730464e+01,7.811578800182064697e+01,-2.628661325398758208e+02,-7.666327205472884998e+01,8.315577876982729322e+00,-1.791475196476259271e+02,9.484992027282714844e+00,-1.223870038986206055e+00,-3.059675097465515137e-01,3.020000000000000000e+02
-2.838536694201885098e+02,-2.659698544738117221e+02,-9.584766686411910541e+01,7.687147832518780888e+01,-2.622458980437658056e+02,-7.574241044095776942e+01,8.094968827007051004e+00,-1.793817615100521152e+02,9.484992027282714844e+00,-1.223870038986206055e+00,-3.059675097465515137e-01,3.030000000000000000e+02
-2.787971777529822361e+02,-2.659878934133255939e+02,-9.627059054189237486e+01,7.583756185270544847e+01,-2.620123645218142201e+02,-7.575604150022650174e+01,7.823053811910881450e+00,-1.791419841530029089e+02,9.484992027282714844e+00,-1.223870038986206055e+00,-3.059675097465515137e-01,3.040000000000000000e+02
-2.751555807803464972e+02,-2.657036097990861094e+02,-9.716654654448382189e+01,7.493948710938821023e+01,-2.619400825839599065e+02,-7.609553653308853427e+01,7.243452604914978110e+00,-1.787567650989408321e+02,9.484992027282714844e+00,-1.223870038986206055e+00,-3.059675097465515137e-01,3.050000000000000000e+02
-2.746316341617340981e+02,-2.653410598284449406e+02,-9.839050901090172374e+01,7.395814681595766160e+01,-2.618178204959378945e+02,-7.574230828211557309e+01,5.812475839177182024e+00,-1.785390079635624261e+02,9.484992027282714844e+00,-1.223870038986206055e+00,-3.059675097465515137e-01,3.060000000000000000e+02
-2.768323579853899332e+02,-2.650631406626062585e+02,-9.924625294918223517e+01,7.305110873494936641e+01,-2.613386093161540202e+02,-7.406363506183015488e+01,3.392509778008616195e+00,-1.783180949298791802e+02,9.484992027282714844e+00,-1.223870038986206055e+00,-3.059675097465515137e-01,3.070000000000000000e+02
-2.792238876068799982e+02,-2.646514890312024590e+02,-9.886008782135172623e+01,7.274820532869216549e+01,-2.602712598620960307e+02,-7.134204715724217749e+01,7.815816937365980266e-01,-1.774869327139977031e+02,9.484992027282714844e+00,-1.223870038986206055e+00,-3.059675097465515137e-01,3.080000000000000000e+02
-2.790095307791813184e+02,-2.636663294638196930e+02,-9.678058304393971412e+01,7.338736720760482513e+01,-2.587717677044838638e+02,-6.863369020476216065e+01,-6.190165655127657374e-01,-1.756205693398496805e+02,9.484992027282714844e+00,-1.223870038986206055e+00,-3.059675097465515137e-01,3.090000000000000000e+02
-2.754731425153678401e+02,-2.619426529592201973e+02,-9.332128510222332807e+01,7.464709635581016300e+01,-2.574022837322701207e+02,-6.702279429500254082e+01,1.552574314750927442e-01,-1.730799807746060424e+02,9.484992027282714844e+00,-1.223870038986206055e+00,-3.059675097465515137e-01,3.100000000000000000e+02
-2.707164014162781314e+02,-2.598936509925688938e+02,-8.938328917703074694e+01,7.573341140612421896e+01,-2.567008632412613451e+02,-6.685192843842196453e+01,2.788216764925437019e+00,-1.709332612051447313e+02,9.484992027282714844e+00,-1.223870038986206055e+00,-3.059675097465515137e-01,3.110000000000000000e+02
-2.680172369965762300e+02,-2.582346683607163982e+02,-8.592998856764370430e+01,7.605777198575481179e+01,-2.566547304140813139e+02,-6.753313440987835747e+01,5.849389192000671756e+00,-1.701308203623348163e+02,9.408499717712402344e+00,-1.300361871719360352e+00,-2.677215635776519775e-01,3.120000000000000000e+02
-2.691426590866847164e+02,-2.573084557609741978e+02,-8.351671643487350138e+01,7.572553823156272301e+01,-2.565704716825246123e+02,-6.804817605612902298e+01,7.896361902319313231e+00,-1.706174079960767358e+02,9.408499717712402344e+00,-1.300361871719360352e+00,-2.677215635776519775e-01,3.130000000000000000e+02
-2.729448883493576545e+02,-2.566462667443442456e+02,-8.216072923917988646e+01,7.537366380710795966e+01,-2.554801091779565922e+02,-6.765767481866816979e+01,8.554537539103080235e+00,-1.712206430821580625e+02,9.408499717712402344e+00,-1.300361871719360352e+00,-2.677215635776519775e-01,3.140000000000000000e+02
-2.764356776030190304e+02,-2.552666637060087851e+02,-8.155303532541506684e+01,7.551979086854271372e+01,-2.527959039814750213e+02,-6.625263740818911629e+01,8.637382650202539480e+00,-1.705026756406819004e+02,9.408499717712402344e+00,-1.300361871719360352e+00,-2.677215635776519775e-01,3.150000000000000000e+02
-2.772978128901288528e+02,-2.525522125954257717e+02,-8.138187880716805012e+01,7.601905020288938886e+01,-2.487770567823966985e+02,-6.421782186410200666e+01,9.251264863568508190e+00,-1.678887150479680486e+02,9.408499717712402344e+00,-1.300361871719360352e+00,-2.677215635776519775e-01,3.160000000000000000e+02
-2.755359830929628515e+02,-2.489569518185502375e+02,-8.151905287924910226e+01,7.609630380148917084e+01,-2.445115791066633619e+02,-6.211701061951657721e+01,1.072418233074938598e+01,-1.641305023607495741e+02,9.408499717712402344e+00,-1.300361871719360352e+00,-2.677215635776519775e-01,3.170000000000000000e+02
-2.728865530159166610e+02,-2.458503841715671570e+02,-8.196427247448491471e+01,7.491990421516345577e+01,-2.413994348451437872e+02,-6.050687046677512626e+01,1.231343277048893015e+01,-1.607455954112506333e+02,9.408499717712402344e+00,-1.300361871719360352e+00,-2.677215635776519775e-01,3.180000000000000000e+02
-2.707894698254135619e+02,-2.445261022032118490e+02,-8.263441319393245976e+01,7.227252740391350017e+01,-2.403789077117475017e+02,-5.985435433162535901e+01,1.289905069253939018e+01,-1.589437457690933115e+02,9.408499717712402344e+00,-1.300361871719360352e+00,-2.677215635776519775e-01,3.190000000000000000e+02
-2.690570595721421796e+02,-2.451645408800844166e+02,-8.323486842576483014e+01,6.881038637184133222e+01,-2.413497364927850413e+02,-6.038024446278234336e+01,1.200091706427531335e+01,-1.589209356265070028e+02,9.408499717712402344e+00,-1.300361871719360352e+00,-2.677215635776519775e-01,3.200000000000000000e+02
-2.665061430208982074e+02,-2.466302718999295962e+02,-8.337937816495616516e+01,6.570217548216692194e+01,-2.432360553271395247e+02,-6.185312145231341674e+01,1.023624451184252848e+01,-1.599880704985930606e+02,9.408499717712402344e+00,-1.300361871719360352e+00,-2.677215635776519775e-01,3.210000000000000000e+02
-2.627069594409585989e+02,-2.473042807921095232e+02,-8.287434022353897944e+01,6.389129857639488819e+01,-2.447234452568816323e+02,-6.358433823725829370e+01,8.873537893485035966e+00,-1.612308752164467478e+02,9.408499717712402344e+00,-1.300361871719360352e+00,-2.677215635776519775e-01,3.220000000000000000e+02
-2.588553935510310566e+02,-2.462707413257193707e+02,-8.189729336014204364e+01,6.351065360161067019e+01,-2.451390544011896964e+02,-6.477287852900826692e+01,8.883761567690385164e+00,-1.620572998852735509e+02,9.408499717712402344e+00,-1.300361871719360352e+00,-2.677215635776519775e-01,3.230000000000000000e+02
-2.567606696054058375e+02,-2.439060512341261528e+02,-8.085709170768416243e+01,6.389018048290847673e+01,-2.447594639263363661e+02,-6.498723739119122911e+01,1.024042390088578713e+01,-1.623030802422010765e+02,9.408499717712402344e+00,-1.300361871719360352e+00,-2.677215635776519775e-01,3.240000000000000000e+02
-2.569875706052041551e+02,-2.414481961829145575e+02,-8.005955432249959358e+01,6.413944458295566164e+01,-2.443281914538657702e+02,-6.438995954311712921e+01,1.195485316242201179e+01,-1.620654653918818440e+02,9.408499717712402344e+00,-1.300361871719360352e+00,-2.677215635776519775e-01,3.250000000000000000e+02
-2.581356071330790201e+02,-2.399738059094524942e+02,-7.952529457640230248e+01,6.383571857278991502e+01,-2.442933799283845246e+02,-6.351817558733660007e+01,1.275748234231463130e+01,-1.615835653425457394e+02,9.408499717712402344e+00,-1.300361871719360352e+00,-2.677215635776519775e-01,3.260000000000000000e+02
-2.580693456789753100e+02,-2.396129414004279852e+02,-7.912916641163917575e+01,6.328281719167625852e+01,-2.444888051732458507e+02,-6.281490318239036696e+01,1.194923316485449050e+01,-1.612094324403478822e+02,9.408499717712402344e+00,-1.300361871719360352e+00,-2.677215635776519775e-01,3.270000000000000000e+02
-2.558935644754419627e+02,-2.395569903312116367e+02,-7.886375334069145993e+01,6.315355910140885953e+01,-2.444622366073222111e+02,-6.230940526997505913e+01,9.868971094025482671e+00,-1.612877681676518478e+02,9.408499717712402344e+00,-1.300361871719360352e+00,-2.677215635776519775e-01,3.280000000000000000e+02
-2.527129456180284706e+02,-2.387729967169491374e+02,-7.889530577794539568e+01,6.383397872238867876e+01,-2.439907648688586050e+02,-6.169177624977430696e+01,7.663622192376294606e+00,-1.618974998097992284e+02,9.408499717712402344e+00,-1.300361871719360352e+00,-2.677215635776519775e-01,3.290000000000000000e+02
-2.504976097864680469e+02,-2.368331466779366110e+02,-7.932896686045171464e+01,6.500775165200445826e+01,-2.432372667450692916e+02,-6.069863387559416879e+01,6.504555808763484492e+00,-1.626928521074635228e+02,9.408499717712402344e+00,-1.300361871719360352e+00,-2.677215635776519775e-01,3.300000000000000000e+02
-2.502855407905121865e+02,-2.342448236704390183e+02,-7.995940920263581120e+01,6.579505950055067842e+01,-2.425016443119693577e+02,-5.949604759791054676e+01,6.778683400681188687e+00,-1.630927553402602825e+02,9.408499717712402344e+00,-1.300361871719360352e+00,-2.677215635776519775e-01,3.310000000000000000e+02
-2.514522567917308606e+02,-2.320487157725310681e+02,-8.029523296375089103e+01,6.535159462766921479e+01,-2.419353960564806130e+02,-5.872667745265971462e+01,7.856895015300324303e+00,-1.627064029057037260e+02,9.408499717712402344e+00,-1.300361871719360352e+00,-2.677215635776519775e-01,3.320000000000000000e+02
-2.525665581557899486e+02,-2.310142748042027279e+02,-7.986357841858068696e+01,6.348353662059844282e+01,-2.415326160412882928e+02,-5.913130466149800668e+01,8.606391516021403731e+00,-1.616209508189919006e+02,9.408499717712402344e+00,-1.300361871719360352e+00,-2.677215635776519775e-01,3.330000000000000000e+02
-2.527696074057257647e+02,-2.310572691071247391e+02,-7.852773934776564602e+01,6.081387175424220004e+01,-2.412929196812737018e+02,-6.097526372832408015e+01,8.249268297248590898e+00,-1.602733389993564970e+02,9.408499717712402344e+00,-1.300361871719360352e+00,-2.677215635776519775e-01,3.340000000000000000e+02
-2.522939862081472029e+02,-2.313256399133857713e+02,-7.659273460425754365e+01,5.834953338670368339e+01,-2.412831509063558997e+02,-6.374164745675398080e+01,6.898219870644993534e+00,-1.590504748826031118e+02,9.408499717712402344e+00,-1.300361871719360352e+00,-2.677215635776519775e-01,3.350000000000000000e+02
-2.518309882713090246e+02,-2.308686018532640674e+02,-7.469651471252655028e+01,5.677226923349621757e+01,-2.415275087175111821e+02,-6.639593380522387633e+01,5.374727484864479266e+00,-1.580202349244187872e+02,9.408499717712402344e+00,-1.300361871719360352e+00,-2.677215635776519775e-01,3.360000000000000000e+02
-2.516094422957789902e+02,-2.292984104422473592e+02,-7.353166635052366473e+01,5.606058658999154432e+01,-2.418758496574670289e+02,-6.803099265804007700e+01,4.571482475272432566e+00,-1.569653590797146308e+02,9.408499717712402344e+00,-1.300361871719360352e+00,-2.677215635776519775e-01,3.370000000000000000e+02
-2.511196502522009268e+02,-2.268502602136966289e+02,-7.343953447875946949e+01,5.580651341223233430e+01,-2.419840547612225237e+02,-6.833358777783405458e+01,4.961134729366676765e+00,-1.555464962008860539e+02,9.408499717712402344e+00,-1.300361871719360352e+00,-2.677215635776519775e-01,3.380000000000000000e+02
-2.495980596803885874e+02,-2.238460793716699300e+02,-7.402543582160899405e+01,5.592952530128707167e+01,-2.413918022692009799e+02,-6.748245336754257551e+01,6.574715978754625212e+00,-1.534094771154711907e+02,9.408499717712402344e+00,-1.300361871719360352e+00,-2.677215635776519775e-01,3.390000000000000000e+02
-2.466840243397796257e+02,-2.202149982956395888e+02,-7.414976063460972000e+01,5.697975327076414942e+01,-2.396842331129005288e+02,-6.571908576837563487e+01,9.211183245423171684e+00,-1.503183601853334039e+02,9.408499717712402344e+00,-1.300361871719360352e+00,-2.677215635776519775e-01,3.400000000000000000e+02
-2.427032871833962417e+02,-2.156869574331001331e+02,-7.257435134601621485e+01,5.952726839798128822e+01,-2.367652293423127503e+02,-6.317495715813242896e+01,1.246181356103409144e+01,-1.464729697252358847e+02,9.408499717712402344e+00,-1.300361871719360352e+00,-2.677215635776519775e-01,3.410000000000000000e+02
-2.385155800399435293e+02,-2.104987939639388514e+02,-6.897791716452843502e+01,6.314382367086568593e+01,-2.331200849291969917e+02,-6.015796801484930256e+01,1.554959229312976277e+01,-1.428112418305418032e+02,9.408499717712402344e+00,-1.300361871719360352e+00,-2.677215635776519775e-01,3.420000000000000000e+02
-2.351478007342975616e+02,-2.057617030263021434e+02,-6.450147301694039470e+01,6.612872753816600380e+01,-2.297646734081799877e+02,-5.743806138167406061e+01,1.740246753166002236e+01,-1.407838314024725150e+02,9.484992027282714844e+00,-1.262115836143493652e+00,-1.529837548732757568e-01,3.430000000000000000e+02
-2.333563244881697756e+02,-2.028651064923192280e+02,-6.113611592666427441e+01,6.659317608286278301e+01,-2.276827036585016231e+02,-5.593592529137845304e+01,1.722367992176532425e+01,-1.414068975286052137e+02,9.484992027282714844e+00,-1.262115836143493652e+00,-1.529837548732757568e-01,3.440000000000000000e+02
-2.332053990416791294e+02,-2.023116093858477598e+02,-6.027184237495816888e+01,6.411601101039423156e+01,-2.270859905364393398e+02,-5.592299828907175652e+01,1.518863940243011257e+01,-1.442412293402740033e+02,9.484992027282714844e+00,-1.262115836143493652e+00,-1.529837548732757568e-01,3.450000000000000000e+02
-2.338850843789618921e+02,-2.031174790317959378e+02,-6.162598737396865545e+01,6.037444692684152869e+01,-2.272153990435940614e+02,-5.655886380950369130e+01,1.253138604200296413e+01,-1.473473386599566766e+02,9.484992027282714844e+00,-1.262115836143493652e+00,-1.529837548732757568e-01,3.460000000000000000e+02
-2.340400106291294833e+02,-2.035089687341289846e+02,-6.354087864230768901e+01,5.795366193787913289e+01,-2.270340956323157116e+02,-5.640234294958509054e+01,1.072783901921218330e+01,-1.485672769646052984e+02,9.484992027282714844e+00,-1.262115836143493652e+00,-1.529837548732757568e-01,3.470000000000000000e+02
-2.325768333251656941e+02,-2.023877040224244865e+02,-6.439865650810736497e+01,5.827058895540130834e+01,-2.262646153119944756e+02,-5.454780664706117932e+01,1.038106473168659249e+01,-1.471879156677214269e+02,9.484992027282714844e+00,-1.262115836143493652e+00,-1.529837548732757568e-01,3.480000000000000000e+02
-2.294336700751475746e+02,-2.002089034086400261e+02,-6.383517654431932442e+01,6.048068905211994206e+01,-2.257344446085826348e+02,-5.132052596421726776e+01,1.081539777277532721e+01,-1.444744859479178558e+02,9.484992027282714844e+00,-1.262115836143493652e+00,-1.529837548732757568e-01,3.490000000000000000e+02
-2.256716071224441293e+02,-1.984361196623465275e+02,-6.268816612266164157e+01,6.233887351348789707e+01,-2.265912976497161253e+02,-4.789439703459379416e+01,1.079247562590080634e+01,-1.424838436102581909e+02,9.484992027282714844e+00,-1.262115836143493652e+00,-1.529837548732757568e-01,3.500000000000000000e+02
-2.227406474417978188e+02,-1.980898982294135067e+02,-6.191195240657589238e+01,6.214183988385093471e+01,-2.290971947438297320e+02,-4.529386787656630986e+01,9.694302259630148910e+00,-1.421847662201907951e+02,9.484992027282714844e+00,-1.262115836143493652e+00,-1.529837548732757568e-01,3.510000000000000000e+02
-2.214528953711833310e+02,-1.987687914148528989e+02,-6.165264489536230030e+01,5.995732132321700192e+01,-2.321715296266679616e+02,-4.377962622943277893e+01,8.071946634323126091e+00,-1.426149205555923345e+02,9.484992027282714844e+00,-1.262115836143493652e+00,-1.529837548732757568e-01,3.520000000000000000e+02
-2.214200742821012682e+02,-1.990052696611039664e+02,-6.133297748388667969e+01,5.721550093093424039e+01,-2.341146472704472217e+02,-4.304648995383763577e+01,7.115908892466904945e+00,-1.418280144260418183e+02,9.484992027282714844e+00,-1.262115836143493652e+00,-1.529837548732757568e-01,3.530000000000000000e+02
-2.213195105488553054e+02,-1.975218525937208369e+02,-6.046118596043902471e+01,5.533387830520086936e+01,-2.337950425658716540e+02,-4.274469750344655949e+01,7.618420907654012808e+00,-1.387223415008902521e+02,9.484992027282714844e+00,-1.262115836143493652e+00,-1.529837548732757568e-01,3.540000000000000000e+02
-2.197368181742376692e+02,-1.942107134364349577e+02,-5.921919245581420910e+01,5.471776707632352554e+01,-2.312606997019331629e+02,-4.267255833028275447e+01,9.373278805671816372e+00,-1.340991813764303515e+02,9.484992027282714844e+00,-1.262115836143493652e+00,-1.529837548732757568e-01,3.550000000000000000e+02
-2.160286211293941960e+02,-1.900887596834902524e+02,-5.827308121468149693e+01,5.478936360152738416e+01,-2.274511413450604778e+02,-4.261293615378531285e+01,1.143447170478248154e+01,-1.301003041132200906e+02,9.484992027282714844e+00,-1.262115836143493652e+00,-1.529837548732757568e-01,3.560000000000000000e+02
-2.107217697573382793e+02,-1.864833211497593766e+02,-5.811582830085899332e+01,5.463839386414610999e+01,-2.235054167051569038e+02,-4.226789069921960618e+01,1.284482179495773835e+01,-1.286306429864457641e+02,9.484992027282714844e+00,-1.262115836143493652e+00,-1.529837548732757568e-01,3.570000000000000000e+02
-2.052624365118426795e+02,-1.842599709961623375e+02,-5.865639549915249518e+01,5.357336196008168372e+01,-2.202778774209166386e+02,-4.151055791587828026e+01,1.315733870937492611e+01,-1.301119161661995349e+02,9.484992027282714844e+00,-1.262115836143493652e+00,-1.529837548732757568e-01,3.580000000000000000e+02
-2.012301541868644108e+02,-1.835659998125945549e+02,-5.935469800324017342e+01,5.137474761659495925e+01,-2.181743988801322303e+02,-4.057025465793685726e+01,1.248584884056015198e+01,-1.333741676970610115e+02,9.484992027282714844e+00,-1.262115836143493652e+00,-1.529837548732757568e-01,3.590000000000000000e+02
-1.994162257858149587e+02,-1.839500656311909097e+02,-5.962544829158696302e+01,4.843768680895618672e+01,-2.171012900408788937e+02,-3.975447623274089892e+01,1.131707250053818825e+01,-1.364730791898773532e+02,9.484992027282714844e+00,-1.262115836143493652e+00,-1.529837548732757568e-01,3.600000000000000000e+02
-1.993444450779738872e+02,-1.845478978876656129e+02,-5.912725819204865729e+01,4.580316151762417576e+01,-2.164886413467995681e+02,-3.896082875021306791e+01,1.034840174102805577e+01,-1.377104676452834155e+02,9.484992027282714844e+00,-1.262115836143493652e+00,-1.529837548732757568e-01,3.610000000000000000e+02
-1.996382272774671947e+02,-1.842962429591900673e+02,-5.784334584891075792e+01,4.478935695257996485e+01,-2.155700252369720147e+02,-3.764415173236102419e+01,1.032090237656382214e+01,-1.363222655235226739e+02,9.484992027282714844e+00,-1.262115836143493652e+00,-1.529837548732757568e-01,3.620000000000000000e+02
-1.990445338604765766e+02,-1.823303098403209788e+02,-5.607102897436288913e+01,4.617209749585254031e+01,-2.139100996486356507e+02,-3.544188216395309610e+01,1.169335173212243717e+01,-1.327026217815764539e+02,9.484992027282714844e+00,-1.262115836143493652e+00,-1.529837548732757568e-01,3.630000000000000000e+02
-1.973325036749442916e+02,-1.785053412042159380e+02,-5.434228203242491873e+01,4.948664958092376764e+01,-2.117631409059704310e+02,-3.278450744716906229e+01,1.426944764663710430e+01,-1.281797385048544129e+02,9.446745872497558594e+00,-1.262115836143493652e+00,-2.294756323099136353e-01,3.640000000000000000e+02
-1.952992333288934788e+02,-1.736445734625324349e+02,-5.318568581546310270e+01,5.316812685576405784e+01,-2.098611318336024851e+02,-3.070299304970126286e+01,1.715315947193880675e+01,-1.243785200330137286e+02,9.446745872497558594e+00,-1.262115836143493652e+00,-2.294756323099136353e-01,3.650000000000000000e+02
-1.938509256170930257e+02,-1.691485394126591473e+02,-5.276139921447452252e+01,5.557479422231517674e+01,-2.087601477386010629e+02,-2.990760483632584510e+01,1.926172903281485560e+01,-1.223660026966665555e+02,9.446745872497558594e+00,-1.262115836143493652e+00,-2.294756323099136353e-01,3.660000000000000000e+02
-1.930103419976171608e+02,-1.661203677835128474e+02,-5.263949290296704930e+01,5.608005199603394431e+01,-2.083453406105486465e+02,-3.008216118837958675e+01,2.008179543715584714e+01,-1.220631552730114890e+02,9.446745872497558594e+00,-1.262115836143493652e+00,-2.294756323099136353e-01,3.670000000000000000e+02
-1.918585737402779614e+02,-1.646838284101836507e+02,-5.204963082227391169e+01,5.528202323380673988e+01,-2.079704868532191995e+02,-3.019698510378793799e+01,1.998162446820356308e+01,-1.224300895504436539e+02,9.446745872497558594e+00,-1.262115836143493652e+00,-2.294756323099136353e-01,3.680000000000000000e+02
-1.895316345838159577e+02,-1.640650656767788860e+02,-5.052131000669874084e+01,5.421235202628031402e+01,-2.070621601866812398e+02,-2.955302062614168790e+01,1.974281294088018512e+01,-1.223851680334116736e+02,9.446745872497558594e+00,-1.262115836143493652e+00,-2.294756323099136353e-01,3.690000000000000000e+02
-1.863008752547150380e+02,-1.633301168836264878e+02,-4.840591170195671111e+01,5.335655603583791162e+01,-2.056150349793970236e+02,-2.847015734367050754e+01,1.973972021273084465e+01,-1.217189908378652490e+02,9.446745872497558594e+00,-1.262115836143493652e+00,-2.294756323099136353e-01,3.700000000000000000e+02
-1.835736319613884007e+02,-1.620860685924264999e+02,-4.674932610645237219e+01,5.238368859949855505e+01,-2.041817389185318916e+02,-2.790952982714134123e+01,1.959682365944627236e+01,-1.211576280757599307e+02,9.446745872497558594e+00,-1.262115836143493652e+00,-2.294756323099136353e-01,3.710000000000000000e+02
-1.826628869614869473e+02,-1.605313685061771594e+02,-4.648881825830130765e+01,5.073860978191510185e+01,-2.034440417350010648e+02,-2.843650371234616614e+01,1.869902524573763003e+01,-1.214483453951265801e+02,9.446745872497558594e+00,-1.262115836143493652e+00,-2.294756323099136353e-01,3.720000000000000000e+02
-1.834557669210178119e+02,-1.589437347976611363e+02,-4.758900956371144275e+01,4.842793512510093024e+01,-2.037444364034361115e+02,-2.958629040705272928e+01,1.704026534675358562e+01,-1.222859864594504415e+02,9.446745872497558594e+00,-1.262115836143493652e+00,-2.294756323099136353e-01,3.730000000000000000e+02
-1.843374216903371234e+02,-1.572660847022386861e+02,-4.888846213073429681e+01,4.623267813221082179e+01,-2.048580329539988725e+02,-3.020707684597164189e+01,1.549829709345044648e+01,-1.221643119695008863e+02,9.446745872497558594e+00,-1.262115836143493652e+00,-2.294756323099136353e-01,3.740000000000000000e+02
-1.835870817128657109e+02,-1.552917585640591369e+02,-4.890620393460312698e+01,4.517527749840974138e+01,-2.060865312303849350e+02,-2.939461856674643059e+01,1.515638831452383783e+01,-1.194628122662161331e+02,9.446745872497558594e+00,-1.262115836143493652e+00,-2.294756323099136353e-01,3.750000000000000000e+02
-1.810082738731855443e+02,-1.532342739934208566e+02,-4.701739895350738152e+01,4.574552339013325764e+01,-2.066138668989833604e+02,-2.715676617373355839e+01,1.628419007321826939e+01,-1.139044315900741822e+02,9.446745872497558594e+00,-1.262115836143493652e+00,-2.294756323099136353e-01,3.760000000000000000e+02
-1.781963640835251681e+02,-1.519478045101716361e+02,-4.399097901051527515e+01,4.755446084514551330e+01,-2.059342547139463022e+02,-2.429861823676856147e+01,1.801333711677693827e+01,-1.070611637648260057e+02,9.446745872497558594e+00,-1.262115836143493652e+00,-2.294756323099136353e-01,3.770000000000000000e+02
-1.770841109194161618e+02,-1.523737224294161479e+02,-4.136064643917370631e+01,4.963559636948889420e+01,-2.040899545772176680e+02,-2.175582190607838129e+01,1.909586126426984265e+01,-1.013599945823598318e+02,9.446745872497558594e+00,-1.262115836143493652e+00,-2.294756323099136353e-01,3.780000000000000000e+02
-1.780799345744799211e+02,-1.546290755610154974e+02,-4.012068596444737523e+01,5.106153361838460114e+01,-2.015313943102155463e+02,-1.997754640582161301e+01,1.905002941149814433e+01,-9.836554803485796583e+01,9.446745872497558594e+00,-1.262115836143493652e+00,-2.294756323099136353e-01,3.790000000000000000e+02
-1.795714308828271442e+02,-1.576545911274060927e+02,-3.992371973968420207e+01,5.133985845586994401e+01,-1.987356225490225370e+02,-1.879005193360808335e+01,1.856106590546778534e+01,-9.780061586494321091e+01,9.446745872497558594e+00,-1.262115836143493652e+00,-2.294756323099136353e-01,3.800000000000000000e+02
-1.793342431680416666e+02,-1.598867275521922693e+02,-3.956400512876575704e+01,5.034882800849300111e+01,-1.959789479946502979e+02,-1.773403663522640272e+01,1.872602304956649277e+01,-9.811215577502002816e+01,9.446745872497558594e+00,-1.262115836143493652e+00,-2.294756323099136353e-01,3.810000000000000000e+02
-1.765465606080833822e+02,-1.603791494454380882e+02,-3.829515182543900664e+01,4.808134886173661471e+01,-1.934670398220278003e+02,-1.652243762321950271e+01,1.991364278881655991e+01,-9.797358798770119392e+01,9.446745872497558594e+00,-1.262115836143493652e+00,-2.294756323099136353e-01,3.820000000000000000e+02
-1.725157094107080411e+02,-1.592984567857922684e+02,-3.664916305314773126e+01,4.464189203786690996e+01,-1.915632122353017621e+02,-1.523658637912649283e+01,2.141634917086503265e+01,-9.728418898459858610e+01,9.446745872497558594e+00,-1.262115836143493652e+00,-2.294756323099136353e-01,3.830000000000000000e+02
-1.694699342678043195e+02,-1.573291446248458669e+02,-3.585968576634991223e+01,4.059917278915168026e+01,-1.906589635947725583e+02,-1.412924416602390920e+01,2.225694720657429571e+01,-9.679953379448852502e+01,9.446745872497558594e+00,-1.262115836143493652e+00,-2.294756323099136353e-01,3.840000000000000000e+02
-1.685871888915089585e+02,-1.546891092617086088e+02,-3.642186021943189189e+01,3.723934963702731693e+01,-1.906778831780684413e+02,-1.327068008626974915e+01,2.229789641780325837e+01,-9.691723523253358508e+01,9.446745872497558594e+00,-1.262115836143493652e+00,-2.294756323099136353e-01,3.850000000000000000e+02
-1.690876745634654981e+02,-1.509128657901117094e+02,-3.730168946980938927e+01,3.614586399042514131e+01,-1.907958572219517919e+02,-1.243142206925040227e+01,2.244634398685184351e+01,-9.697056749607031634e+01,9.446745872497558594e+00,-1.262115836143493652e+00,-2.294756323099136353e-01,3.860000000000000000e+02
-1.690858408476624390e+02,-1.457147815521523171e+02,-3.672910735384562031e+01,3.816794459973630183e+01,-1.898906292565689000e+02,-1.134055066639484721e+01,2.368523498387276049e+01,-9.578804696582437828e+01,9.446745872497558594e+00,-1.262115836143493652e+00,-2.294756323099136353e-01,3.870000000000000000e+02
-1.672344136592803352e+02,-1.399670872318174588e+02,-3.389138272225000037e+01,4.261664602665678103e+01,-1.874710992087229897e+02,-1.004447212269951706e+01,2.590194343246048447e+01,-9.292640287259655452e+01,9.446745872497558594e+00,-1.262115836143493652e+00,-2.294756323099136353e-01,3.880000000000000000e+02
-1.636412435705128701e+02,-1.355496851369459819e+02,-2.985862869941024655e+01,4.754653937253669937e+01,-1.842038038766486352e+02,-8.945534816522922483e+00,2.774847889782085986e+01,-8.927448650565702337e+01,9.446745872497558594e+00,-1.262115836143493652e+00,-2.294756323099136353e-01,3.890000000000000000e+02
-1.594608479343096406e+02,-1.339361601531959423e+02,-2.678020993049244680e+01,5.106647369175857420e+01,-1.814373303186803241e+02,-8.422188023313537997e+00,2.778141150130477399e+01,-8.635325100244608620e+01,9.446745872497558594e+00,-1.262115836143493652e+00,-2.294756323099136353e-01,3.900000000000000000e+02
-1.558754460849338557e+02,-1.348014061219021187e+02,-2.610217108683468723e+01,5.260540867485565286e+01,-1.801147485994515591e+02,-8.416935561885111383e+00,2.583070404877025794e+01,-8.497793317646892319e+01,9.446745872497558594e+00,-1.262115836143493652e+00,-2.294756323099136353e-01,3.910000000000000000e+02
-1.534759926496089975e+02,-1.360955781225316059e+02,-2.747956824743778270e+01,5.303287145950184822e+01,-1.800680304545699073e+02,-8.440798730173355580e+00,2.329593883876009386e+01,-8.457884552714403981e+01,9.446745872497558594e+00,-1.262115836143493652e+00,-2.294756323099136353e-01,3.920000000000000000e+02
-1.523207082272281241e+02,-1.356691708240919070e+02,-2.930958762329260026e+01,5.359767498790597529e+01,-1.802990114107938098e+02,-7.997091876879494521e+00,2.205930919900902154e+01,-8.381195757311161287e+01,9.446745872497558594e+00,-1.262115836143493652e+00,-2.294756323099136353e-01,3.930000000000000000e+02
-1.521930334177277473e+02,-1.330035158784110081e+02,-3.020791168438290697e+01,5.475558525633550744e+01,-1.798736793439807116e+02,-6.949199644414420618e+00,2.297217164649032384e+01,-8.181860379342833767e+01,9.446745872497558594e+00,-1.262115836143493652e+00,-2.294756323099136353e-01,3.940000000000000000e+02
-1.526069908719669002e+02,-1.294611360395231259e+02,-2.997456127861164532e+01,5.596009806028359890e+01,-1.785778494142828094e+02,-5.465472495634003280e+00,2.523240365484753056e+01,-7.892771944520791294e+01,9.446745872497558594e+00,-1.262115836143493652e+00,-2.294756323099136353e-01,3.950000000000000000e+02
-1.527397110873578185e+02,-1.268847106658586199e+02,-2.930437147189059033e+01,5.644491773875006402e+01,-1.768842152368838470e+02,-3.698484882123011630e+00,2.714533758510970074e+01,-7.622828342580851313e+01,9.446745872497558594e+00,-1.262115836143493652e+00,-2.294756323099136353e-01,3.960000000000000000e+02
-1.517025396336273388e+02,-1.259121188641138360e+02,-2.878982351100694359e+01,5.608191843816348410e+01,-1.754592177716481274e+02,-1.647643037663328869e+00,2.757047026219811414e+01,-7.453444299616376156e+01,9.446745872497558594e+00,-1.262115836143493652e+00,-2.294756323099136353e-01,3.970000000000000000e+02
-1.490944227330780905e+02,-1.255302284722206423e+02,-2.830538799665009719e+01,5.546577680323298409e+01,-1.747019429986571595e+02,6.269386625413062575e-01,2.685975575406564531e+01,-7.373963793260963939e+01,9.446745872497558594e+00,-1.262115836143493652e+00,-2.294756323099136353e-01,3.980000000000000000e+02
-1.453087864518822698e+02,-1.241219628341482348e+02,-2.726018901330235167e+01,5.527537078382192703e+01,-1.745646217630737738e+02,2.773831419579437352e+00,2.656444915919610139e+01,-7.307876985089797017e+01,9.446745872497558594e+00,-1.262115836143493652e+00,-2.294756323099136353e-01,3.990000000000000000e+02
-1.412600677209525202e+02,-1.208978191027476896e+02,-2.528459964744888566e+01,5.565355784127405059e+01,-1.746337175848370862e+02,4.277504995209710614e+00,2.816156333899766651e+01,-7.194750473748626973e+01,9.446745872497558594e+00,-1.262115836143493652e+00,-2.294756323099136353e-01,4.000000000000000000e+02
-1.378340399301098387e+02,-1.164323259101774966e+02,-2.263218415074607037e+01,5.618319307438059695e+01,-1.743954693661394231e+02,4.865610195412955363e+00,3.176702479166215198e+01,-7.050462054262470701e+01,9.446745872497558594e+00,-1.262115836143493652e+00,-2.294756323099136353e-01,4.010000000000000000e+02
-1.356491871944699596e+02,-1.120411070348068279e+02,-2.003438987081426603e+01,5.636276789180874403e+01,-1.736127539617650655e+02,4.751475264379223518e+00,3.578137919362802677e+01,-6.958209642736255773e+01,9.446745872497558594e+00,-1.262115836143493652e+00,-2.294756323099136353e-01,4.020000000000000000e+02
-1.352120537870093813e+02,-1.087702846609095104e+02,-1.827532045656221271e+01,5.605897403341941754e+01,-1.725939300568602448e+02,4.443421889804994862e+00,3.778789511329841844e+01,-7.001965491756209303e+01,9.446745872497558594e+00,-1.262115836143493652e+00,-2.294756323099136353e-01,4.030000000000000000e+02
-1.369401533643226685e+02,-1.068740363609040287e+02,-1.783292073950997292e+01,5.560275480251902991e+01,-1.720475177172966141e+02,4.365113561131238384e+00,3.617438882014971568e+01,-7.194464280144893564e+01,9.446745872497558594e+00,-1.262115836143493652e+00,-2.294756323099136353e-01,4.040000000000000000e+02
-1.406496558318945063e+02,-1.059770495609093359e+02,-1.869705779616879227e+01,5.558885799569316077e+01,-1.725290524678393922e+02,4.695537198670990620e+00,3.138372870236958079e+01,-7.451226750069145055e+01,9.446745872497558594e+00,-1.262115836143493652e+00,-2.294756323099136353e-01,4.050000000000000000e+02
-1.449495646844375187e+02,-1.054871779859922754e+02,-2.033110819506691769e+01,5.659439490200747969e+01,-1.739381103659220571e+02,5.495509550592942105e+00,2.584707507680377603e+01,-7.630491493704903405e+01,9.446745872497558594e+00,-1.262115836143493652e+00,-2.294756323099136353e-01,4.060000000000000000e+02
-1.475022716172315995e+02,-1.048376626295610095e+02,-2.181158028544086847e+01,5.893153481711351560e+01,-1.755782228486764325e+02,6.816851227362349164e+00,2.251579427398542066e+01,-7.618976989329848948e+01,9.446745872497558594e+00,-1.262115836143493652e+00,-2.294756323099136353e-01,4.070000000000000000e+02
-1.464433788856772480e+02,-1.035585671499409273e+02,-2.219874722684608059e+01,6.246098630251663053e+01,-1.767616436446028274e+02,8.571627792012805003e+00,2.296228524155776540e+01,-7.411370227001907551e+01,9.446745872497558594e+00,-1.262115836143493652e+00,-2.294756323099136353e-01,4.080000000000000000e+02
-1.419583968926540365e+02,-1.014154249549321776e+02,-2.105855545134591011e+01,6.653411617986148485e+01,-1.773567567431564385e+02,1.036237792391830226e+01,2.638134301504464929e+01,-7.127874697461402320e+01,9.446745872497558594e+00,-1.262115836143493652e+00,-2.294756323099136353e-01,4.090000000000000000e+02
-1.364994545538534112e+02,-9.864875250811383012e+01,-1.884607969476655853e+01,7.015273327513887125e+01,-1.777569609741208296e+02,1.161708058009389788e+01,3.019322110771190637e+01,-6.949273900082062028e+01,9.446745872497558594e+00,-1.262115836143493652e+00,-2.294756323099136353e-01,4.100000000000000000e+02
-1.331380021156037401e+02,-9.600535584374460996e+01,-1.679261661481177725e+01,7.234085304473001088e+01,-1.783631302307680926e+02,1.203193198970711819e+01,3.178743734097088236e+01,-7.003170106009474694e+01,9.446745872497558594e+00,-1.262115836143493652e+00,-2.294756323099136353e-01,4.110000000000000000e+02
-1.332809574285679446e+02,-9.432896460427855345e+01,-1.623544588237700736e+01,7.255396167769140447e+01,-1.791643297844238987e+02,1.190402966795227258e+01,3.012683377867483614e+01,-7.276048581237819235e+01,9.446745872497558594e+00,-1.262115836143493652e+00,-2.294756323099136353e-01,4.120000000000000000e+02
-1.357134712065408166e+02,-9.393414254988351786e+01,-1.775838958257918421e+01,7.091532777600150439e+01,-1.798174128454552374e+02,1.197526248030499119e+01,2.617497521752125067e+01,-7.615573460011137286e+01,9.446745872497558594e+00,-1.262115836143493652e+00,-2.294756323099136353e-01,4.130000000000000000e+02
-1.378224258475120223e+02,-9.431277558340730138e+01,-2.072411012219527038e+01,6.817244971961554256e+01,-1.800185042245252589e+02,1.290551329798336155e+01,2.209305311980301667e+01,-7.825477603737590471e+01,9.446745872497558594e+00,-1.262115836143493652e+00,-2.294756323099136353e-01,4.140000000000000000e+02
-1.379003970601324909e+02,-9.450255592097778390e+01,-2.359061625980439203e+01,6.538938833027987130e+01,-1.797140553225463009e+02,1.483561394386970278e+01,1.996202375919688166e+01,-7.787578086622806950e+01,9.446745872497558594e+00,-1.262115836143493652e+00,-2.294756323099136353e-01,4.150000000000000000e+02
-1.364517143868770290e+02,-9.381172330585013697e+01,-2.483538467082689749e+01,6.351253369172081875e+01,-1.789853536138343770e+02,1.737271438640073029e+01,2.088386628944681433e+01,-7.523962544519417861e+01,9.561484336853027344e+00,-1.262115836143493652e+00,-1.147378161549568176e-01,4.160000000000000000e+02
-1.354055011185223520e+02,-9.224482230387025083e+01,-2.383960645892057073e+01,6.303311528103404271e+01,-1.778385306874392882e+02,1.994393078742632497e+01,2.475884730181974192e+01,-7.157883257551884526e+01,9.561484336853027344e+00,-1.262115836143493652e+00,-1.147378161549568176e-01,4.170000000000000000e+02
-1.360917587489816469e+02,-9.028979915418676683e+01,-2.110291148888290991e+01,6.395004236366912664e+01,-1.761813426160774725e+02,2.219288533198687219e+01,3.051544430999274482e+01,-6.809357089467721380e+01,9.561484336853027344e+00,-1.262115836143493652e+00,-1.147378161549568176e-01,4.180000000000000000e+02
-1.379389521410294037e+02,-8.837857654110553085e+01,-1.770592528003726329e+01,6.605011858076886710e+01,-1.739808355499562822e+02,2.417954473958707240e+01,3.649222226908682387e+01,-6.510758866388732713e+01,9.561484336853027344e+00,-1.262115836143493652e+00,-1.147378161549568176e-01,4.190000000000000000e+02
-1.390685020133896614e+02,-8.665393993986208443e+01,-1.456778077803346605e+01,6.920744954138717731e+01,-1.714205374911980471e+02,2.630930892576861879e+01,4.089825339247659031e+01,-6.209897492023537779e+01,9.561484336853027344e+00,-1.262115836143493652e+00,-1.147378161549568176e-01,4.200000000000000000e+02
-1.381113702471097895e+02,-8.528003828125156360e+01,-1.215590984741720604e+01,7.330498273987632274e+01,-1.689668221568622357e+02,2.900611037984981522e+01,4.237124080829471495e+01,-5.858585462367818764e+01,9.561484336853027344e+00,-1.262115836143493652e+00,-1.147378161549568176e-01,4.210000000000000000e+02
-1.354159882397952970e+02,-8.481173300909449608e+01,-1.075567838711867807e+01,7.777220555341136787e+01,-1.673383484855667120e+02,3.226917127454044021e+01,4.052053710010841314e+01,-5.508848998348230452e+01,9.561484336853027344e+00,-1.262115836143493652e+00,-1.147378161549568176e-01,4.220000000000000000e+02
-1.324991756301601527e+02,-8.596785640526945826e+01,-1.077036210863207089e+01,8.129326363410837075e+01,-1.673207125994263151e+02,3.540249729033394033e+01,3.616786679882898170e+01,-5.323724867579585407e+01,9.561484336853027344e+00,-1.262115836143493652e+00,-1.147378161549568176e-01,4.230000000000000000e+02
-1.303906466619755520e+02,-8.881151116744013052e+01,-1.251580554687052427e+01,8.229667916241214698e+01,-1.693618978719787265e+02,3.723858250550756566e+01,3.102956502175857167e+01,-5.473958203655274701e+01,9.561484336853027344e+00,-1.262115836143493652e+00,-1.147378161549568176e-01,4.240000000000000000e+02
-1.286232515038500424e+02,-9.214097257308299049e+01,-1.564374659320765204e+01,8.012385719492522185e+01,-1.731285514050118763e+02,3.685834288086425659e+01,2.693036191420810610e+01,-5.991161239496159396e+01,9.561484336853027344e+00,-1.262115836143493652e+00,-1.147378161549568176e-01,4.250000000000000000e+02
-1.259298063101086882e+02,-9.391489587258047322e+01,-1.891959464779029076e+01,7.590578066010948532e+01,-1.774529577210191746e+02,3.432829183156218278e+01,2.498158040072485164e+01,-6.697744152121504158e+01,9.561484336853027344e+00,-1.262115836143493652e+00,-1.147378161549568176e-01,4.260000000000000000e+02
-1.218833157033950556e+02,-9.259906855498434197e+01,-2.081891479298246850e+01,7.217506712169915772e+01,-1.808888322237548891e+02,3.084583894794786829e+01,2.521668320865023816e+01,-7.282738124442357730e+01,9.561484336853027344e+00,-1.262115836143493652e+00,-1.147378161549568176e-01,4.270000000000000000e+02
-1.176905253360882853e+02,-8.835211868924079681e+01,-2.054217117397183756e+01,7.127903188099116960e+01,-1.825098486769816191e+02,2.810751970654609977e+01,2.686074894967032378e+01,-7.479651229045430227e+01,9.561484336853027344e+00,-1.262115836143493652e+00,-1.147378161549568176e-01,4.280000000000000000e+02
-1.151920317649542085e+02,-8.297598578130759961e+01,-1.851560597717207202e+01,7.382636920100731004e+01,-1.822513620702011394e+02,2.736894842029141728e+01,2.898241162981321395e+01,-7.218386540067467649e+01,9.561484336853027344e+00,-1.262115836143493652e+00,-1.147378161549568176e-01,4.290000000000000000e+02
-1.150355880465181144e+02,-7.864173069610887978e+01,-1.590518397645473669e+01,7.844376156426778834e+01,-1.805448678934940290e+02,2.886413597708269663e+01,3.102557389392927689e+01,-6.644602010527432867e+01,9.561484336853027344e+00,-1.262115836143493652e+00,-1.147378161549568176e-01,4.300000000000000000e+02
-1.159400635026909185e+02,-7.650689159211333390e+01,-1.366949821395928666e+01,8.294246864572414779e+01,-1.777812914180858570e+02,3.185721471592478338e+01,3.284843503479942228e+01,-6.007933033054632688e+01,9.561484336853027344e+00,-1.262115836143493652e+00,-1.147378161549568176e-01,4.310000000000000000e+02
-1.158987450166887356e+02,-7.634137465945332224e+01,-1.210353925214667470e+01,8.576923225797463601e+01,-1.743009867753235085e+02,3.510079179409649441e+01,3.434087607559445132e+01,-5.517309313189252862e+01,9.561484336853027344e+00,-1.262115836143493652e+00,-1.147378161549568176e-01,4.320000000000000000e+02
-1.141728410757150414e+02,-7.723945754471196778e+01,-1.121108025444709710e+01,8.653165742792407400e+01,-1.708934169204553655e+02,3.733511939136633373e+01,3.508036347676988953e+01,-5.266591371275944766e+01,9.561484336853027344e+00,-1.262115836143493652e+00,-1.147378161549568176e-01,4.330000000000000000e+02
-1.120617066500635701e+02,-7.850336816451658706e+01,-1.128607104459888433e+01,8.547054439471412479e+01,-1.689794097799672272e+02,3.770055768404063201e+01,3.447875938419610975e+01,-5.252218932752657565e+01,9.561484336853027344e+00,-1.262115836143493652e+00,-1.147378161549568176e-01,4.340000000000000000e+02
-1.116550214921535371e+02,-7.985581569523287726e+01,-1.290273102069295419e+01,8.275926921272275649e+01,-1.698725775424413769e+02,3.606980627985831234e+01,3.237050844611076172e+01,-5.425832267175928791e+01,9.561484336853027344e+00,-1.262115836143493652e+00,-1.147378161549568176e-01,4.350000000000000000e+02
-1.138033902285587828e+02,-8.105027956235062447e+01,-1.624946888482236318e+01,7.847468642495641689e+01,-1.735898345856016931e+02,3.318504771325979164e+01,2.948143719703489296e+01,-5.719930037159110725e+01,9.561484336853027344e+00,-1.262115836143493652e+00,-1.147378161549568176e-01,4.360000000000000000e+02
-1.172756701301982503e+02,-8.160335783351001737e+01,-2.054512424873973941e+01,7.315360477833064579e+01,-1.784002579666953352e+02,3.037977596965220073e+01,2.720787231519898342e+01,-6.039897406248746847e+01,9.561484336853027344e+00,-1.262115836143493652e+00,-1.147378161549568176e-01,4.370000000000000000e+02
-1.197980175874963606e+02,-8.111677357877420036e+01,-2.425782348069196814e+01,6.808839291530102855e+01,-1.817702215739468556e+02,2.887832458945467806e+01,2.671359364703243955e+01,-6.265316978642658796e+01,9.561484336853027344e+00,-1.262115836143493652e+00,-1.147378161549568176e-01,4.380000000000000000e+02
-1.198204595338820582e+02,-7.984694708610072666e+01,-2.602971581099518517e+01,6.477128831933441688e+01,-1.820347227550200842e+02,2.909137020372327243e+01,2.803316917038841893e+01,-6.293114433642449512e+01,9.561484336853027344e+00,-1.262115836143493652e+00,-1.147378161549568176e-01,4.390000000000000000e+02
-1.173601566132228982e+02,-7.880890683977963818e+01,-2.552551084132937831e+01,6.381773836716274673e+01,-1.794209730092993595e+02,3.043071665487013888e+01,2.997036890189656333e+01,-6.100998545848779031e+01,9.561484336853027344e+00,-1.262115836143493652e+00,-1.147378161549568176e-01,4.400000000000000000e+02
-1.134234366093978679e+02,-7.914852481891784919e+01,-2.353602108413451788e+01,6.433902908316031244e+01,-1.756513002314541154e+02,3.178221029609994730e+01,3.094484717766681570e+01,-5.774788686586407493e+01,9.561484336853027344e+00,-1.262115836143493652e+00,-1.147378161549568176e-01,4.410000000000000000e+02
-1.089548964092136885e+02,-8.128405818837654806e+01,-2.136566332077472907e+01,6.443846061652538992e+01,-1.726080903283959742e+02,3.225393318350779737e+01,3.009791320461999931e+01,-5.466191779038763343e+01,9.561484336853027344e+00,-1.262115836143493652e+00,-1.147378161549568176e-01,4.420000000000000000e+02
-1.044411883930988552e+02,-8.455745789295474424e+01,-2.005680624309570703e+01,6.256197467866741135e+01,-1.712034377892218799e+02,3.164349859136700616e+01,2.777396367667233790e+01,-5.303880873670277651e+01,9.561484336853027344e+00,-1.262115836143493652e+00,-1.147378161549568176e-01,4.430000000000000000e+02
-1.002427225397777875e+02,-8.763368110164628888e+01,-1.993897541121123140e+01,5.869196657981001408e+01,-1.711575138770563171e+02,3.038591206502087516e+01,2.509761552949657926e+01,-5.317814130933174965e+01,9.561484336853027344e+00,-1.262115836143493652e+00,-1.147378161549568176e-01,4.440000000000000000e+02
-9.688825463045714059e+01,-8.926963473015553063e+01,-2.063258192241733013e+01,5.444657649125429089e+01,-1.715516915467173931e+02,2.915397100980135292e+01,2.314069510390527284e+01,-5.429621775681744111e+01,9.561484336853027344e+00,-1.262115836143493652e+00,-1.147378161549568176e-01,4.450000000000000000e+02
-9.480156873625765002e+01,-8.889053209780922771e+01,-2.135690065410472016e+01,5.199762516521877842e+01,-1.715531982926522687e+02,2.844995205916347913e+01,2.242135898528317739e+01,-5.511520947401095327e+01,9.561484336853027344e+00,-1.262115836143493652e+00,-1.147378161549568176e-01,4.460000000000000000e+02
-9.382477483458615097e+01,-8.671261651039594653e+01,-2.135376863646069978e+01,5.264418714755765905e+01,-1.708259778375968381e+02,2.844422608708418920e+01,2.298746189153371233e+01,-5.468154627571811943e+01,9.408499717712402344e+00,-1.262115836143493652e+00,-2.677215635776519775e-01,4.470000000000000000e+02
-9.329027885957225408e+01,-8.353645521918429040e+01,-2.028383060837677476e+01,5.609942254447014420e+01,-1.695250900278660993e+02,2.908090707979681611e+01,2.468718807460072640e+01,-5.287766922033097217e+01,9.408499717712402344e+00,-1.262115836143493652e+00,-2.677215635776519775e-01,4.480000000000000000e+02
-9.271357589236322383e+01,-8.041505541940819057e+01,-1.843286747618049048e+01,6.092889840452062344e+01,-1.680030697476768182e+02,3.028336293008806024e+01,2.714710060107086065e+01,-5.035522970445026658e+01,9.408499717712402344e+00,-1.262115836143493652e+00,-2.677215635776519775e-01,4.490000000000000000e+02
-9.230963357011683001e+01,-7.825893412450614051e+01,-1.657655662154138554e+01,6.564631515501878312e+01,-1.664745148085298752e+02,3.204976308794039142e+01,2.954345270474141216e+01,-4.800357258766871382e+01,9.408499717712402344e+00,-1.262115836143493652e+00,-2.677215635776519775e-01,4.500000000000000000e+02
-9.267691590164758964e+01,-7.743955289750670090e+01,-1.555418908861724958e+01,6.952103041139253037e+01,-1.649111889510954825e+02,3.432739272996786895e+01,3.067195822851726916e+01,-4.636688437137217988e+01,9.408499717712402344e+00,-1.262115836143493652e+00,-2.677215635776519775e-01,4.510000000000000000e+02
-9.395866861243234780e+01,-7.757720048373380450e+01,-1.581876803387149266e+01,7.255526537360174189e+01,-1.632585748931755916e+02,3.679479047092354449e+01,2.960115735554245475e+01,-4.540513889959856897e+01,9.408499717712402344e+00,-1.262115836143493652e+00,-2.677215635776519775e-01,4.520000000000000000e+02
-9.545321235685628380e+01,-7.773942502340673855e+01,-1.724452110543325034e+01,7.491581626438596686e+01,-1.617583249737431288e+02,3.885007522540854552e+01,2.650252154481813704e+01,-4.470603655347622407e+01,9.408499717712402344e+00,-1.262115836143493652e+00,-2.677215635776519775e-01,4.530000000000000000e+02
-9.617155232018353672e+01,-7.703518624527555403e+01,-1.925758388936492338e+01,7.656243688714334894e+01,-1.609595545497886633e+02,3.997639041119919057e+01,2.285592984252616588e+01,-4.388618127287509196e+01,9.408499717712402344e+00,-1.262115836143493652e+00,-2.677215635776519775e-01,4.540000000000000000e+02
-9.573810680672750095e+01,-7.523562569119826549e+01,-2.112771290816885994e+01,7.744998047767649041e+01,-1.612653565449486450e+02,4.022257956877183460e+01,2.064855195635982454e+01,-4.280747902379061998e+01,9.408499717712402344e+00,-1.262115836143493652e+00,-2.677215635776519775e-01,4.550000000000000000e+02
-9.460074642657605182e+01,-7.295645458568651520e+01,-2.223465879927516653e+01,7.795315229562243076e+01,-1.624023496487584453e+02,4.028246528909949120e+01,2.108289770993110324e+01,-4.145785719460923247e+01,9.408499717712402344e+00,-1.262115836143493652e+00,-2.677215635776519775e-01,4.560000000000000000e+02
-9.330156549397770505e+01,-7.124236593632008407e+01,-2.223900419619394597e+01,7.888683696255475297e+01,-1.633855933374252345e+02,4.098612822739733019e+01,2.381951520664165400e+01,-3.968862729537795531e+01,9.408499717712402344e+00,-1.262115836143493652e+00,-2.677215635776519775e-01,4.570000000000000000e+02
-9.169942285832394191e+01,-7.086534300292851185e+01,-2.117796864947604263e+01,8.092893935449910714e+01,-1.631393505944997742e+02,4.261635853718780709e+01,2.734652402009646721e+01,-3.718524412667920842e+01,9.408499717712402344e+00,-1.262115836143493652e+00,-2.677215635776519775e-01,4.580000000000000000e+02
-8.915949832864112068e+01,-7.186820477489004588e+01,-1.946560552271034794e+01,8.393586435620500197e+01,-1.612898436805423898e+02,4.470470049857567574e+01,3.010279236288829452e+01,-3.383668156370822544e+01,9.408499717712402344e+00,-1.262115836143493652e+00,-2.677215635776519775e-01,4.590000000000000000e+02
-8.564378721529010363e+01,-7.365978634801581393e+01,-1.773969991206422492e+01,8.682374309551801161e+01,-1.584583420246181049e+02,4.648772011658593328e+01,3.140470285016840535e+01,-3.020601367984659191e+01,9.408499717712402344e+00,-1.262115836143493652e+00,-2.677215635776519775e-01,4.600000000000000000e+02
-8.243353743337615924e+01,-7.549154887566942307e+01,-1.655518829820152860e+01,8.821751826508989325e+01,-1.558340030194524388e+02,4.751784696823870036e+01,3.153953468347572198e+01,-2.754286719610786349e+01,9.408499717712402344e+00,-1.262115836143493652e+00,-2.677215635776519775e-01,4.610000000000000000e+02
-8.142171059952397627e+01,-7.688559378069203376e+01,-1.608237889712449942e+01,8.740341476734010939e+01,-1.544142486092423496e+02,4.779960075641611184e+01,3.117475696715246158e+01,-2.709822497765867411e+01,9.408499717712402344e+00,-1.262115836143493652e+00,-2.677215635776519775e-01,4.620000000000000000e+02
-8.339877360995842537e+01,-7.770640280711950254e+01,-1.603349453849682504e+01,8.487541680078174977e+01,-1.544707174964210026e+02,4.742842559781956879e+01,3.075148313945987866e+01,-2.915868004687217763e+01,9.408499717712402344e+00,-1.262115836143493652e+00,-2.677215635776519775e-01,4.630000000000000000e+02
-8.700130312835472068e+01,-7.794422267573963836e+01,-1.592099683612195804e+01,8.210242659415916933e+01,-1.554869858553399808e+02,4.631704920362381017e+01,3.033617668474209950e+01,-3.261357248939202691e+01,9.408499717712402344e+00,-1.262115836143493652e+00,-2.677215635776519775e-01,4.640000000000000000e+02
-8.959345546358144929e+01,-7.754135859962207178e+01,-1.550228738986834287e+01,8.068128227206216252e+01,-1.564677219973734736e+02,4.443123268150975491e+01,2.985117864085964356e+01,-3.555016025515715228e+01,9.408499717712402344e+00,-1.262115836143493652e+00,-2.677215635776519775e-01,4.650000000000000000e+02
-8.948361488830687449e+01,-7.647593408661441572e+01,-1.506716102115069589e+01,8.141627430330458992e+01,-1.564298144171866625e+02,4.223076559831019949e+01,2.927008217027287174e+01,-3.651787408584368677e+01,9.408499717712402344e+00,-1.262115836143493652e+00,-2.677215635776519775e-01,4.660000000000000000e+02
-8.740853957986269052e+01,-7.497306183967361903e+01,-1.526692961933531478e+01,8.390917049476342982e+01,-1.549022851836145946e+02,4.065773089501772120e+01,2.855455478164731176e+01,-3.544752606629162983e+01,9.408499717712402344e+00,-1.262115836143493652e+00,-2.677215635776519775e-01,4.670000000000000000e+02
-8.578148104278761821e+01,-7.351153143109979737e+01,-1.653228676436197020e+01,8.692923357484323788e+01,-1.522147791682673414e+02,4.051249959498113640e+01,2.751332367871987117e+01,-3.345807652417852296e+01,9.446745872497558594e+00,-1.338607788085937500e+00,-2.677215635776519775e-01,4.680000000000000000e+02
-8.634897028984869394e+01,-7.251713845770382250e+01,-1.855045069124412294e+01,8.930504266590673978e+01,-1.493492575923964978e+02,4.180808258962201762e+01,2.584682747116369228e+01,-3.178720317254692418e+01,9.446745872497558594e+00,-1.338607788085937500e+00,-2.677215635776519775e-01,4.690000000000000000e+02
-8.850382537194127508e+01,-7.200715003910659107e+01,-2.033305987559856476e+01,9.067974142263051363e+01,-1.473526082415476139e+02,4.379765114018186978e+01,2.342139294725404852e+01,-3.084580927950287332e+01,9.446745872497558594e+00,-1.338607788085937500e+00,-2.677215635776519775e-01,4.700000000000000000e+02
-8.991111396079554652e+01,-7.156225422166892258e+01,-2.092450367741935224e+01,9.155980596500057800e+01,-1.466682149880773522e+02,4.566360816309770598e+01,2.056522883216462105e+01,-3.018673908161599684e+01,9.446745872497558594e+00,-1.338607788085937500e+00,-2.677215635776519775e-01,4.710000000000000000e+02
-8.882056121127664028e+01,-7.070799622830008957e+01,-2.015886334910669575e+01,9.266712561535769055e+01,-1.468725849035768078e+02,4.714786173542256620e+01,1.812054540660142266e+01,-2.922836383402318461e+01,9.446745872497558594e+00,-1.338607788085937500e+00,-2.677215635776519775e-01,4.720000000000000000e+02
-8.575328275430001668e+01,-6.936260257452886435e+01,-1.872661696917873542e+01,9.421595722821757590e+01,-1.470080637619632853e+02,4.851078600242772154e+01,1.717528198628110658e+01,-2.785065211840378652e+01,9.446745872497558594e+00,-1.338607788085937500e+00,-2.677215635776519775e-01,4.730000000000000000e+02
-8.291262398058813687e+01,-6.791950963138299358e+01,-1.742872780229231466e+01,9.579110730048432742e+01,-1.462277279552322398e+02,4.998132810997435627e+01,1.857365521827205157e+01,-2.627408415926061025e+01,9.446745872497558594e+00,-1.338607788085937500e+00,-2.677215635776519775e-01,4.740000000000000000e+02
-8.198866125717916020e+01,-6.691407008055352890e+01,-1.636980930865354367e+01,9.686542154113328706e+01,-1.443041793214711106e+02,5.135816793223602872e+01,2.240000344859629422e+01,-2.455127384926572631e+01,9.446745872497558594e+00,-1.338607788085937500e+00,-2.677215635776519775e-01,4.750000000000000000e+02
-8.259806771702392325e+01,-6.661981074630750754e+01,-1.498876381891079745e+01,9.734943173229385138e+01,-1.417367029607946733e+02,5.215902415161292538e+01,2.769511478006404559e+01,-2.244420411244050229e+01,9.446745872497558594e+00,-1.338607788085937500e+00,-2.677215635776519775e-01,4.760000000000000000e+02
-8.286893267404423113e+01,-6.692764378400454461e+01,-1.296428244242383698e+01,9.760153485475768775e+01,-1.394792132736804433e+02,5.208099432295807674e+01,3.265065365071961878e+01,-1.994696685280518977e+01,9.446745872497558594e+00,-1.338607788085937500e+00,-2.677215635776519775e-01,4.770000000000000000e+02
-8.144059872317359350e+01,-6.753687328923155064e+01,-1.102020927690784902e+01,9.795988860314855629e+01,-1.384487474892050614e+02,5.125801329133673789e+01,3.534857227530397950e+01,-1.782354388916473908e+01,9.446745872497558594e+00,-1.338607788085937500e+00,-2.677215635776519775e-01,4.780000000000000000e+02
-7.876670392925666420e+01,-6.819516353906396944e+01,-1.062933197480879244e+01,9.837206379652332089e+01,-1.390228320984815582e+02,5.011038308656293339e+01,3.473266095400094855e+01,-1.735803098099097497e+01,9.446745872497558594e+00,-1.338607788085937500e+00,-2.677215635776519775e-01,4.790000000000000000e+02
-7.648591260510443135e+01,-6.878414827132968412e+01,-1.273103806311229391e+01,9.849511324303693982e+01,-1.408113166272617036e+02,4.901030225553563469e+01,3.121443267494311158e+01,-1.934181307335524025e+01,9.446745872497558594e+00,-1.338607788085937500e+00,-2.677215635776519775e-01,4.800000000000000000e+02
-7.565468436905337057e+01,-6.928319359935375132e+01,-1.669376285098337576e+01,9.805326988998160687e+01,-1.429184602498540357e+02,4.808354194396429193e+01,2.645627027286479915e+01,-2.324854962379765766e+01,9.446745872497558594e+00,-1.338607788085937500e+00,-2.677215635776519775e-01,4.810000000000000000e+02
-7.572586628989392921e+01,-6.975977790292296277e+01,-2.061965233971511680e+01,9.699982314843134645e+01,-1.445837817977771920e+02,4.723818302476433928e+01,2.241420033830056013e+01,-2.749836442919217916e+01,9.446745872497558594e+00,-1.338607788085937500e+00,-2.677215635776519775e-01,4.820000000000000000e+02
-7.524537604965979654e+01,-7.040096977235077702e+01,-2.278158923487853826e+01,9.538946755930521704e+01,-1.456948652259081882e+02,4.630227054622105243e+01,2.028304303500033257e+01,-3.063662293046539276e+01,9.446745872497558594e+00,-1.338607788085937500e+00,-2.677215635776519775e-01,4.830000000000000000e+02
-7.337336571290222764e+01,-7.143972761712551289e+01,-2.282861224357574770e+01,9.331160401352701683e+01,-1.466662346636805410e+02,4.515929876365390783e+01,2.006344085159440738e+01,-3.229605120358436920e+01,9.446745872497558594e+00,-1.338607788085937500e+00,-2.677215635776519775e-01,4.840000000000000000e+02
-7.059415649886344113e+01,-7.293347874910006112e+01,-2.167184476828499839e+01,9.111470420761334310e+01,-1.477795912111059522e+02,4.383072020416854286e+01,2.095779820722856357e+01,-3.303212081553567714e+01,9.446745872497558594e+00,-1.338607788085937500e+00,-2.677215635776519775e-01,4.850000000000000000e+02
-6.800083506488253704e+01,-7.458438236411338096e+01,-2.033764507911723030e+01,8.962743081940688228e+01,-1.486880413102170166e+02,4.246087387279268910e+01,2.213822973498885460e+01,-3.329440648659833357e+01,9.446745872497558594e+00,-1.338607788085937500e+00,-2.677215635776519775e-01,4.860000000000000000e+02
-6.607401486785357747e+01,-7.580806978804443474e+01,-1.905453250210288729e+01,8.988335144620404549e+01,-1.486460361248603022e+02,4.120749113060230684e+01,2.325556508859631322e+01,-3.267677547736894894e+01,9.446745872497558594e+00,-1.338607788085937500e+00,-2.677215635776519775e-01,4.870000000000000000e+02
-6.430922676716181741e+01,-7.603220557665039792e+01,-1.743219935398516895e+01,9.235289681728241362e+01,-1.472483693904025586e+02,4.013178383867602861e+01,2.439945628012628731e+01,-3.026228009211138215e+01,9.446745872497558594e+00,-1.338607788085937500e+00,-2.677215635776519775e-01,4.880000000000000000e+02
-6.198862408170788285e+01,-7.496927469564639068e+01,-1.532219031337996284e+01,9.636301626932851150e+01,-1.448677872144202752e+02,3.923833872832017278e+01,2.572759425014049839e+01,-2.571328802094490129e+01,9.446745872497558594e+00,-1.338607788085937500e+00,-2.677215635776519775e-01,4.890000000000000000e+02
-5.912002373098107455e+01,-7.264466656768064468e+01,-1.326262012859319839e+01,1.003733541775735603e+02,-1.423073415504559307e+02,3.865571448074092586e+01,2.720617328003510238e+01,-1.997480617434797523e+01,9.446745872497558594e+00,-1.338607788085937500e+00,-2.677215635776519775e-01,4.900000000000000000e+02
-5.648251614716946278e+01,-6.925759543827331299e+01,-1.199030767886688409e+01,1.029820450102980658e+02,-1.400660162154855470e+02,3.870371419597631757e+01,2.866868156935146317e+01,-1.486030849128974296e+01,9.446745872497558594e+00,-1.338607788085937500e+00,-2.677215635776519775e-01,4.910000000000000000e+02
-5.478520011236344089e+01,-6.511533297329469860e+01,-1.160616730774677308e+01,1.038016177057555751e+02,-1.380110391679979784e+02,3.964835331045333078e+01,3.002467994611617996e+01,-1.188133243714196396e+01,9.446745872497558594e+00,-1.338607788085937500e+00,-2.677215635776519775e-01,4.920000000000000000e+02
-5.394059703024959163e+01,-6.072508310455123137e+01,-1.139997105894542528e+01,1.034490067513612530e+02,-1.357448471624900321e+02,4.129537268351123203e+01,3.131788449521258144e+01,-1.136011309460366192e+01,9.408499717712402344e+00,-1.300361871719360352e+00,-1.912296712398529053e-01,4.930000000000000000e+02
-5.326932629553300558e+01,-5.684772710950187502e+01,-1.058917585964366026e+01,1.027650080484286264e+02,-1.331358479390387402e+02,4.287230966027505019e+01,3.253624383853866675e+01,-1.249856522974403106e+01,9.408499717712402344e+00,-1.300361871719360352e+00,-1.912296712398529053e-01,4.940000000000000000e+02
-5.239636606112276240e+01,-5.431813233632306037e+01,-9.215314222506322039e+00,1.020424548609714748e+02,-1.303818289075254597e+02,4.344489983821358692e+01,3.335989536743977624e+01,-1.418825319343613955e+01,9.408499717712402344e+00,-1.300361871719360352e+00,-1.912296712398529053e-01,4.950000000000000000e+02
-5.180535465082834889e+01,-5.367662208220224329e+01,-8.236619321726948328e+00,1.009239705157947355e+02,-1.276275406174122509e+02,4.258375751139465137e+01,3.318382956769164593e+01,-1.577345140331021867e+01,9.408499717712402344e+00,-1.300361871719360352e+00,-1.912296712398529053e-01,4.960000000000000000e+02
-5.237160488079780407e+01,-5.487796069453668224e+01,-8.630992980586597696e+00,9.893435082117161983e+01,-1.246688895666191002e+02,4.071023585651914800e+01,3.156697601529015174e+01,-1.718650337992630739e+01,9.408499717712402344e+00,-1.300361871719360352e+00,-1.912296712398529053e-01,4.970000000000000000e+02
-5.430730028249104180e+01,-5.729941351343609313e+01,-1.032574319945183561e+01,9.606993931041506585e+01,-1.210947700965821241e+02,3.884249177583251367e+01,2.884312987777013859e+01,-1.852230244580255203e+01,9.408499717712402344e+00,-1.300361871719360352e+00,-1.912296712398529053e-01,4.980000000000000000e+02
-5.663455991238060960e+01,-6.000514513462121613e+01,-1.198757365395067609e+01,9.294658850340192657e+01,-1.166239593377054007e+02,3.801011559609219148e+01,2.634349749125794915e+01,-1.955675893485658889e+01,9.408499717712402344e+00,-1.300361871719360352e+00,-1.912296712398529053e-01,4.990000000000000000e+02
-5.784149440438750389e+01,-6.207320925108501797e+01,-1.195259453939843297e+01,9.045520832923921262e+01,-1.112136829958776616e+02,3.879638125936844517e+01,2.584114753755943639e+01,-1.966143040679207843e+01,9.408499717712402344e+00,-1.300361871719360352e+00,-1.912296712398529053e-01,5.000000000000000000e+02
-5.718257584071170641e+01,-6.285521831260189174e+01,-9.554954338802417624e+00,8.924467551298721446e+01,-1.049381532953266287e+02,4.119016154884502612e+01,2.840681608585032336e+01,-1.817460724675083839e+01,9.408499717712402344e+00,-1.300361871719360352e+00,-1.912296712398529053e-01,5.010000000000000000e+02
-5.537843926851928700e+01,-6.212749429377254273e+01,-5.702615222968461239e+00,8.941288880198862898e+01,-9.796565818520321045e+01,4.463488993141800165e+01,3.347402549074013223e+01,-1.493103335510045326e+01,9.408499717712402344e+00,-1.300361871719360352e+00,-1.912296712398529053e-01,5.020000000000000000e+02
-5.401311737469018226e+01,-6.011896808068331666e+01,-2.188348972481890087e+00,9.056775836555880232e+01,-9.075336088355697939e+01,4.817561769112762704e+01,3.891391832841327414e+01,-1.058492466585994407e+01,9.408499717712402344e+00,-1.300361871719360352e+00,-1.912296712398529053e-01,5.030000000000000000e+02
-5.417301074700571917e+01,-5.737848095385197666e+01,-3.214477958078987285e-01,9.215222379567649114e+01,-8.409261478900680231e+01,5.078553802137048478e+01,4.221861662513401825e+01,-6.472513365817576414e+00,9.408499717712402344e+00,-1.300361871719360352e+00,-1.912296712398529053e-01,5.040000000000000000e+02
-5.560405862419611367e+01,-5.451947962087183441e+01,-5.840384634575457312e-02,9.374952516039593320e+01,-7.866835410598105227e+01,5.187709076930423180e+01,4.199877858070249204e+01,-4.007489704978979717e+00,9.408499717712402344e+00,-1.300361871719360352e+00,-1.912296712398529053e-01,5.050000000000000000e+02
-5.713951017435738322e+01,-5.201551914029096224e+01,-3.450915795210676151e-01,9.512214711752494622e+01,-7.442662345034113969e+01,5.168177832762739854e+01,3.871909947541712427e+01,-3.878996996334990399e+00,9.408499717712402344e+00,-1.300361871719360352e+00,-1.912296712398529053e-01,5.060000000000000000e+02
-5.788017681930386971e+01,-5.017962029752152375e+01,-2.324278895530369482e-01,9.603873142781503702e+01,-7.045484385024155927e+01,5.111862301866494818e+01,3.423043198789150665e+01,-5.496151840373386221e+00,9.408499717712402344e+00,-1.300361871719360352e+00,-1.912296712398529053e-01,5.070000000000000000e+02
-5.790857674341623351e+01,-4.926864272513830656e+01,3.526823444781257422e-01,9.618004994519060347e+01,-6.569486843651338859e+01,5.114425502227777542e+01,3.057798454015073730e+01,-7.133525170980647090e+00,9.408499717712402344e+00,-1.300361871719360352e+00,-1.912296712398529053e-01,5.080000000000000000e+02
-5.786868044059565364e+01,-4.947328610217482492e+01,8.741493327711395978e-01,9.533728721579336707e+01,-5.991096136787155046e+01,5.209482711412192657e+01,2.898735330858312409e+01,-6.893940012428629416e+00,9.408499717712402344e+00,-1.300361871719360352e+00,-1.912296712398529053e-01,5.090000000000000000e+02
-5.798014725087068655e+01,-5.068327311306029515e+01,1.048883312394536915e+00,9.373892855144731584e+01,-5.398088401504082867e+01,5.356590431416680076e+01,2.956782168838390135e+01,-4.003912362837127148e+00,9.408499717712402344e+00,-1.300361871719360352e+00,-1.912296712398529053e-01,5.100000000000000000e+02
-5.764200639056980435e+01,-5.227533408365025025e+01,1.241595632137432403e+00,9.206363220952562187e+01,-4.921302570967509382e+01,5.484151220534931781e+01,3.159128679026025566e+01,4.511359407151758205e-01,9.408499717712402344e+00,-1.300361871719360352e+00,-1.912296712398529053e-01,5.110000000000000000e+02
-5.609321861712487589e+01,-5.328144884022549377e+01,1.911340058859423152e+00,9.096258140532609104e+01,-4.632099710827014860e+01,5.540202099463749619e+01,3.390113421258274684e+01,4.042047050688324816e+00,9.408499717712402344e+00,-1.300361871719360352e+00,-1.912296712398529053e-01,5.120000000000000000e+02
-5.341189531693680692e+01,-5.297326076966510300e+01,2.765132809335227648e+00,9.048022044163144528e+01,-4.496682140912798786e+01,5.508389618603359850e+01,3.526189624994867700e+01,4.574009096120335016e+00,9.408499717712402344e+00,-1.300361871719360352e+00,-1.912296712398529053e-01,5.130000000000000000e+02
-5.072685963621233896e+01,-5.141650207133625372e+01,2.700600972902066133e+00,8.998364363313385184e+01,-4.415576037538630771e+01,5.391962809808683232e+01,3.475752929492409748e+01,1.635455977228957636e+00,9.408499717712402344e+00,-1.300361871719360352e+00,-1.912296712398529053e-01,5.140000000000000000e+02
-4.932189245936478983e+01,-4.945909170586492110e+01,8.082104088307460188e-01,8.874858807896180224e+01,-4.298223128248628200e+01,5.199490209967098053e+01,3.227496551501644717e+01,-3.083221175515063806e+00,9.408499717712402344e+00,-1.300361871719360352e+00,-1.912296712398529053e-01,5.150000000000000000e+02
-4.949274905922084145e+01,-4.809713350640913632e+01,-2.506078003936636378e+00,8.664175862235424574e+01,-4.107340598961491196e+01,4.949204916773032892e+01,2.876800804328104277e+01,-6.992191579593054485e+00,9.408499717712402344e+00,-1.300361871719360352e+00,-1.912296712398529053e-01,5.160000000000000000e+02
-5.027716219953435939e+01,-4.775223660026313155e+01,-5.442630402561007941e+00,8.422001455725967389e+01,-3.850763500017637853e+01,4.677855424695280817e+01,2.591543384728447563e+01,-8.372456581125334196e+00,9.408499717712402344e+00,-1.300361871719360352e+00,-1.912296712398529053e-01,5.170000000000000000e+02
-5.028866182554429543e+01,-4.808258376044796023e+01,-5.952815701871259080e+00,8.218195011156240071e+01,-3.548269221496957471e+01,4.434186441039037163e+01,2.522609083170618760e+01,-7.288010817313079315e+00,9.408499717712402344e+00,-1.300361871719360352e+00,-1.912296712398529053e-01,5.180000000000000000e+02
-4.880749771378668811e+01,-4.842376850286655099e+01,-3.113672676387977845e+00,8.080456519428753381e+01,-3.207780985680801678e+01,4.260467191839688894e+01,2.717284167432808317e+01,-5.006873048910165380e+00,9.408499717712402344e+00,-1.300361871719360352e+00,-1.912296712398529053e-01,5.190000000000000000e+02
-4.615662352976141847e+01,-4.837687935455824118e+01,2.378304602052594419e+00,7.993477897534648946e+01,-2.824947018776674668e+01,4.176977424526467075e+01,3.097104732254911141e+01,-2.678371065021565300e+00,9.446745872497558594e+00,-1.262115836143493652e+00,-3.059675097465515137e-01,5.200000000000000000e+02
-4.318674762516548071e+01,-4.798136597625352806e+01,8.784092227279870713e+00,7.940982407734099979e+01,-2.399048727875469922e+01,4.176547255761397537e+01,3.511868658531284382e+01,-5.742195034590622527e-01,9.446745872497558594e+00,-1.262115836143493652e+00,-3.059675097465515137e-01,5.210000000000000000e+02
-4.052076702913836925e+01,-4.738206811887130243e+01,1.429205929736144753e+01,7.931761016340715287e+01,-1.947750743888809666e+01,4.229094529701069405e+01,3.826357714692130685e+01,1.557860993594658794e+00,9.446745872497558594e+00,-1.262115836143493652e+00,-3.059675097465515137e-01,5.220000000000000000e+02
-3.826785933208975621e+01,-4.642311502946631663e+01,1.767201720146294974e+01,7.979792203251327010e+01,-1.506543531449460716e+01,4.297141302865202306e+01,3.981718192962534886e+01,3.696121227013463795e+00,9.446745872497558594e+00,-1.262115836143493652e+00,-3.059675097465515137e-01,5.230000000000000000e+02
-3.628072286871520191e+01,-4.464306473622036719e+01,1.849836573362699710e+01,8.073256150007000542e+01,-1.109284529411070253e+01,4.364520418382835487e+01,4.004449239156974727e+01,5.367541436017745582e+00,9.446745872497558594e+00,-1.262115836143493652e+00,-3.059675097465515137e-01,5.240000000000000000e+02
-3.448414645684897550e+01,-4.171433339396116935e+01,1.719033152268457343e+01,8.179447782068291417e+01,-7.657132682115843636e+00,4.460434648698901583e+01,3.973713395356162437e+01,6.298760828190097527e+00,9.446745872497558594e+00,-1.262115836143493652e+00,-3.059675097465515137e-01,5.250000000000000000e+02
-3.291723497721977765e+01,-3.794236280989116494e+01,1.491609557245556061e+01,8.277877041958345217e+01,-4.606597346191847464e+00,4.642556335203335038e+01,3.971673147823366889e+01,7.018793266350257909e+00,9.446745872497558594e+00,-1.262115836143493652e+00,-3.059675097465515137e-01,5.260000000000000000e+02
-3.156462351118443621e+01,-3.434264732109659235e+01,1.317444404858724738e+01,8.371273625597677892e+01,-1.790552189093432389e+00,4.931800944553015142e+01,4.041245856100977107e+01,8.526541670373262605e+00,9.446745872497558594e+00,-1.262115836143493652e+00,-3.059675097465515137e-01,5.270000000000000000e+02
-3.027461905328345892e+01,-3.215239327702329319e+01,1.305610611607426108e+01,8.451482488094643486e+01,7.117533293721862719e-01,5.252190714400785509e+01,4.168725910094235587e+01,1.121606221820456994e+01,9.446745872497558594e+00,-1.262115836143493652e+00,-3.059675097465515137e-01,5.280000000000000000e+02
-2.889254812012495677e+01,-3.208986416803600150e+01,1.464337072073431045e+01,8.464709869189391611e+01,2.716118199859920423e+00,5.452350926145845733e+01,4.300173709021601098e+01,1.421278350793090794e+01,9.446745872497558594e+00,-1.262115836143493652e+00,-3.059675097465515137e-01,5.290000000000000000e+02
-2.744219608826824697e+01,-3.386982090653600608e+01,1.705587055138221331e+01,8.337277672380787408e+01,4.343478586078163062e+00,5.419727239529493090e+01,4.382672956039186829e+01,1.597763743367067946e+01,9.446745872497558594e+00,-1.262115836143493652e+00,-3.059675097465515137e-01,5.300000000000000000e+02
-2.618866294758299773e+01,-3.633137910476125398e+01,1.909613565774452582e+01,8.052959598995403212e+01,6.194582385146532033e+00,5.194486583238176536e+01,4.397296851514693117e+01,1.567743777846953890e+01,9.446745872497558594e+00,-1.262115836143493652e+00,-3.059675097465515137e-01,5.310000000000000000e+02
-2.556275952479791158e+01,-3.811206245996254438e+01,1.993393626168654009e+01,7.699642983149169595e+01,8.913592276963754557e+00,4.965174958846728259e+01,4.355609446021389886e+01,1.394830769535019499e+01,9.446745872497558594e+00,-1.262115836143493652e+00,-3.059675097465515137e-01,5.320000000000000000e+02
-2.599387609076075023e+01,-3.842162520440160733e+01,1.935155106704860373e+01,7.419913996196373773e+01,1.244446398195395886e+01,4.927907381027762312e+01,4.266421284232364997e+01,1.226535644640352984e+01,9.446745872497558594e+00,-1.262115836143493652e+00,-3.059675097465515137e-01,5.330000000000000000e+02
-2.768158661625420791e+01,-3.739450109465269634e+01,1.760113234754771838e+01,7.300838875985300547e+01,1.576757020489276329e+01,5.127822668356930080e+01,4.113617858022007567e+01,1.155135558083475189e+01,9.446745872497558594e+00,-1.262115836143493652e+00,-3.059675097465515137e-01,5.340000000000000000e+02
-3.036810202492142707e+01,-3.580552084935970925e+01,1.522896931698414846e+01,7.309391164168482646e+01,1.755019848449046549e+01,5.429029928933960036e+01,3.878845628902763565e+01,1.144132466841256246e+01,9.446745872497558594e+00,-1.262115836143493652e+00,-3.059675097465515137e-01,5.350000000000000000e+02
-3.330037996056853444e+01,-3.440984517379183671e+01,1.300701704443417839e+01,7.337889947687472159e+01,1.722346378025395097e+01,5.640678997801478545e+01,3.590914966132186237e+01,1.089033992972326814e+01,9.446745872497558594e+00,-1.262115836143493652e+00,-3.059675097465515137e-01,5.360000000000000000e+02
-3.555754698590953922e+01,-3.344373227668256732e+01,1.175735896959486126e+01,7.311348974809334322e+01,1.550495394395693438e+01,5.680863588132706354e+01,3.344135102793279657e+01,9.421238035462010885e+00,9.446745872497558594e+00,-1.262115836143493652e+00,-3.059675097465515137e-01,5.370000000000000000e+02
-3.662741464845748851e+01,-3.264178773198909767e+01,1.193184891908731515e+01,7.246881544758252858e+01,1.389955881140122074e+01,5.631343283085698204e+01,3.251748470573056693e+01,7.733246459456495359e+00,9.446745872497558594e+00,-1.262115836143493652e+00,-3.059675097465515137e-01,5.380000000000000000e+02
-3.678063574489169696e+01,-3.166371493693077355e+01,1.325538264768874797e+01,7.210891726086811104e+01,1.367062821724721289e+01,5.648077481325526605e+01,3.366880635354755213e+01,7.124639787489286391e+00,9.446745872497558594e+00,-1.262115836143493652e+00,-3.059675097465515137e-01,5.390000000000000000e+02
-3.682073737379505474e+01,-3.048081679900224117e+01,1.488288252255915722e+01,7.229395885807389277e+01,1.516799868551606778e+01,5.824323037036811002e+01,3.644874840686679818e+01,8.389592845405786647e+00,9.446745872497558594e+00,-1.262115836143493652e+00,-3.059675097465515137e-01,5.400000000000000000e+02
-3.732531359297354356e+01,-2.935681151104745368e+01,1.607883977964047517e+01,7.252048782890415168e+01,1.792375043564425141e+01,6.127616911866243754e+01,3.985751027060632623e+01,1.127494088725325128e+01,9.446745872497558594e+00,-1.262115836143493652e+00,-3.059675097465515137e-01,5.410000000000000000e+02
-3.803776525152534305e+01,-2.849350992953259265e+01,1.683920537064477685e+01,7.207967893521890801e+01,2.119390980377102096e+01,6.446569511144662101e+01,4.314650108164278208e+01,1.487653551249786688e+01,9.446745872497558594e+00,-1.262115836143493652e+00,-3.059675097465515137e-01,5.420000000000000000e+02
-3.804065620312576357e+01,-2.776645585766527802e+01,1.781453538859204855e+01,7.088790795927889121e+01,2.437212571678355744e+01,6.684405639509350294e+01,4.618138460097907227e+01,1.836824962724494981e+01,9.446745872497558594e+00,-1.262115836143493652e+00,-3.059675097465515137e-01,5.430000000000000000e+02
-3.665436051739015966e+01,-2.687023696339747403e+01,1.956416277750395238e+01,6.968573555527291319e+01,2.709012141186030931e+01,6.817963083432914573e+01,4.901715079827135924e+01,2.130154609887904371e+01,9.446745872497558594e+00,-1.262115836143493652e+00,-3.059675097465515137e-01,5.440000000000000000e+02
-3.423705888077165582e+01,-2.575563325422263006e+01,2.184715472404786851e+01,6.938061627874412807e+01,2.917416034559028049e+01,6.889917387867717480e+01,5.119477108155388123e+01,2.335330881968184258e+01,9.446745872497558594e+00,-1.262115836143493652e+00,-3.059675097465515137e-01,5.450000000000000000e+02
-3.207225617819494801e+01,-2.488811516335772467e+01,2.363959326610893186e+01,7.019166362328542164e+01,3.061014365819937666e+01,6.958504996402007237e+01,5.160607068790704943e+01,2.405249583210024866e+01,9.446745872497558594e+00,-1.262115836143493652e+00,-3.059675097465515137e-01,5.460000000000000000e+02
-3.133441573657000845e+01,-2.497794927199720405e+01,2.388420173066151619e+01,7.143362743512989255e+01,3.148595069557995885e+01,7.049681336439243751e+01,4.924042624870980944e+01,2.297733279490967107e+01,9.446745872497558594e+00,-1.262115836143493652e+00,-3.059675097465515137e-01,5.470000000000000000e+02
-3.200840313454682473e+01,-2.633897179779523867e+01,2.231158928664808627e+01,7.212541863220212690e+01,3.188747063600385445e+01,7.142952655772751314e+01,4.421592901568055822e+01,2.029480406332004350e+01,9.446745872497558594e+00,-1.262115836143493652e+00,-3.059675097465515137e-01,5.480000000000000000e+02
-3.277134043484511494e+01,-2.844114554989573662e+01,1.966704045773258258e+01,7.181935613755922532e+01,3.188493755315721501e+01,7.196835630525310989e+01,3.814701309136853524e+01,1.702946956882624363e+01,9.446745872497558594e+00,-1.262115836143493652e+00,-3.059675097465515137e-01,5.490000000000000000e+02
-3.203145621995099646e+01,-3.012369794723599625e+01,1.722034318622718274e+01,7.088016409459487477e+01,3.167916809631969954e+01,7.192941932656140125e+01,3.341682519055120792e+01,1.463085394175504916e+01,9.446745872497558594e+00,-1.262115836143493652e+00,-3.059675097465515137e-01,5.500000000000000000e+02
-2.926017471932391345e+01,-3.036726363510388182e+01,1.600889036286389455e+01,7.003529239549243357e+01,3.173457877342116262e+01,7.163074354245145514e+01,3.185911273736110161e+01,1.410582382080065145e+01,9.484992027282714844e+00,-1.262115836143493652e+00,-2.294756323099136353e-01,5.510000000000000000e+02
-2.546794175140894367e+01,-2.901889823115743638e+01,1.635724795122223441e+01,6.971663103874197986e+01,3.260636658177645586e+01,7.170983670244095265e+01,3.379153985369521251e+01,1.540135963735883706e+01,9.484992027282714844e+00,-1.262115836143493652e+00,-2.294756323099136353e-01,5.520000000000000000e+02
-2.239512151000781159e+01,-2.689751025620353175e+01,1.787911911587252689e+01,6.982383069776915363e+01,3.446877257163396280e+01,7.255567093950594426e+01,3.797407633656439430e+01,1.750391986527938570e+01,9.484992027282714844e+00,-1.262115836143493652e+00,-2.294756323099136353e-01,5.530000000000000000e+02
-2.110672506276569038e+01,-2.522685819539947261e+01,1.981070108841959154e+01,7.002966338881196862e+01,3.678715174658100295e+01,7.384919108618487371e+01,4.236435360631730873e+01,1.912496519305568654e+01,9.484992027282714844e+00,-1.262115836143493652e+00,-2.294756323099136353e-01,5.540000000000000000e+02
-2.122522730622949894e+01,-2.486971777991857380e+01,2.139210841592648649e+01,7.017683067453071999e+01,3.855166848004773783e+01,7.468241189283435233e+01,4.512014240755161154e+01,1.941023662781299208e+01,9.484992027282714844e+00,-1.262115836143493652e+00,-2.294756323099136353e-01,5.550000000000000000e+02
-2.142121010644950729e+01,-2.591052181765189744e+01,2.211703203930301243e+01,7.031002661106140295e+01,3.896204606532774051e+01,7.422472314972037566e+01,4.535580154799026786e+01,1.822031453312229132e+01,9.484992027282714844e+00,-1.262115836143493652e+00,-2.294756323099136353e-01,5.560000000000000000e+02
-2.063689319672812417e+01,-2.777317613989907841e+01,2.184156435829572729e+01,7.039242329581793456e+01,3.798034585712957778e+01,7.237395097282205825e+01,4.342391904294163396e+01,1.595394360145837709e+01,9.484992027282714844e+00,-1.262115836143493652e+00,-2.294756323099136353e-01,5.570000000000000000e+02
-1.888613798959340784e+01,-2.964236151320983481e+01,2.080809229039732600e+01,7.015967230887872574e+01,3.628499900858514593e+01,6.981072025014509563e+01,4.067375339921636623e+01,1.320276168486816459e+01,9.484992027282714844e+00,-1.262115836143493652e+00,-2.294756323099136353e-01,5.580000000000000000e+02
-1.693749332881634473e+01,-3.085366767917912512e+01,1.957016358767032216e+01,6.938790115574556694e+01,3.473202836792916059e+01,6.744419066980481148e+01,3.876394742126467463e+01,1.052126133091951488e+01,9.484992027282714844e+00,-1.262115836143493652e+00,-2.294756323099136353e-01,5.590000000000000000e+02
-1.532748456922854530e+01,-3.110506794027423894e+01,1.874686848812234530e+01,6.828296522745768016e+01,3.383513951947679743e+01,6.578198788689041976e+01,3.878118555321270833e+01,8.366505962037990685e+00,9.484992027282714844e+00,-1.262115836143493652e+00,-2.294756323099136353e-01,5.600000000000000000e+02
-1.377377067923953291e+01,-3.048906243095370883e+01,1.865895486199406150e+01,6.747028474993931013e+01,3.364396942111488897e+01,6.477995206163541297e+01,4.066726228249535779e+01,7.109582533428692841e+00,9.484992027282714844e+00,-1.262115836143493652e+00,-2.294756323099136353e-01,5.610000000000000000e+02
-1.160458579904479848e+01,-2.937151839940815989e+01,1.907255826986875036e+01,6.748979585913912160e+01,3.397406628263706807e+01,6.422221222193911672e+01,4.336769602130152634e+01,7.036942318021829124e+00,9.484992027282714844e+00,-1.262115836143493652e+00,-2.294756323099136353e-01,5.620000000000000000e+02
-8.749944106783004827e+00,-2.814264614338389947e+01,1.930955216618713166e+01,6.829600901783851441e+01,3.467369356617564335e+01,6.415854682983626844e+01,4.560617602914499003e+01,8.324215258609910961e+00,9.484992027282714844e+00,-1.262115836143493652e+00,-2.294756323099136353e-01,5.630000000000000000e+02
-6.214501113165169954e+00,-2.695523207987753267e+01,1.876156534083929728e+01,6.931888525569229387e+01,3.571699851667290204e+01,6.491311821732233511e+01,4.667592804532796436e+01,1.097217631393505144e+01,9.484992027282714844e+00,-1.262115836143493652e+00,-2.294756323099136353e-01,5.640000000000000000e+02
-5.462274355762929190e+00,-2.567657144380427781e+01,1.742927873871485644e+01,7.000890112144043087e+01,3.711180546142713865e+01,6.662743223596407915e+01,4.661330084110159078e+01,1.466865587514257641e+01,9.484992027282714844e+00,-1.262115836143493652e+00,-2.294756323099136353e-01,5.650000000000000000e+02
-7.234373157620211714e+00,-2.418702317203315033e+01,1.597894706933402631e+01,7.022001701323097222e+01,3.872609227610882954e+01,6.877891521206765901e+01,4.571993907420983305e+01,1.862676769734025584e+01,9.484992027282714844e+00,-1.262115836143493652e+00,-2.294756323099136353e-01,5.660000000000000000e+02
-1.087362599937659979e+01,-2.278841206369725114e+01,1.520419135185693449e+01,7.000501963205533684e+01,4.019823725863534492e+01,7.022105028709847829e+01,4.407824293478552136e+01,2.163442135478908313e+01,9.484992027282714844e+00,-1.262115836143493652e+00,-2.294756323099136353e-01,5.670000000000000000e+02
-1.472749630390899256e+01,-2.226571595524364966e+01,1.537451708125081495e+01,6.916699971237176214e+01,4.107668504124012543e+01,6.988339092821843224e+01,4.169770321584474004e+01,2.252310822287472547e+01,9.484992027282714844e+00,-1.262115836143493652e+00,-2.294756323099136353e-01,5.680000000000000000e+02
-1.722079512263735523e+01,-2.336947633850286365e+01,1.612297634684364311e+01,6.730252603504413855e+01,4.119393494069299777e+01,6.766235968595356098e+01,3.915660489965193847e+01,2.093865420627116691e+01,9.484992027282714844e+00,-1.262115836143493652e+00,-2.294756323099136353e-01,5.690000000000000000e+02
-1.768266863529061084e+01,-2.606294362104927131e+01,1.699206277447228786e+01,6.448503169179457473e+01,4.098927873596767313e+01,6.473093345710003632e+01,3.787755732001460274e+01,1.786057986757805338e+01,9.484992027282714844e+00,-1.262115836143493652e+00,-2.294756323099136353e-01,5.700000000000000000e+02
-1.641632653875058168e+01,-2.921910782612940238e+01,1.804893768221882056e+01,6.183181084762327373e+01,4.138042806736484636e+01,6.286405625924453489e+01,3.939888689996041649e+01,1.528083779739972670e+01,9.484992027282714844e+00,-1.262115836143493652e+00,-2.294756323099136353e-01,5.710000000000000000e+02
-1.422106214205268770e+01,-3.114072855847734900e+01,1.986287179063947406e+01,6.110833897954944405e+01,4.311398274388557184e+01,6.319888293726035045e+01,4.403733524196104554e+01,1.505418018407362979e+01,9.484992027282714844e+00,-1.262115836143493652e+00,-1.912296712398529053e-01,5.720000000000000000e+02
-1.191666403325507417e+01,-3.057164333438231552e+01,2.278646829309218447e+01,6.346945568294177065e+01,4.609193142685035127e+01,6.543165912475160439e+01,5.016973313308517390e+01,1.769098227082940866e+01,9.484992027282714844e+00,-1.262115836143493652e+00,-1.912296712398529053e-01,5.730000000000000000e+02
-1.014748387926010764e+01,-2.743732377691230795e+01,2.627189934088528389e+01,6.843447837062558392e+01,4.935200411892583361e+01,6.816961030754100648e+01,5.502616155626856198e+01,2.205922236926562618e+01,9.484992027282714844e+00,-1.262115836143493652e+00,-1.912296712398529053e-01,5.740000000000000000e+02
-9.340702183049870655e+00,-2.283500634477059066e+01,2.899203006240713876e+01,7.408335562282809406e+01,5.180847790631742100e+01,7.011941300662147114e+01,5.653215572778935893e+01,2.626393011051186477e+01,9.484992027282714844e+00,-1.262115836143493652e+00,-1.912296712398529053e-01,5.750000000000000000e+02
-9.617023705028259428e+00,-1.840865559352823766e+01,2.978126314260953222e+01,7.833893385185365332e+01,5.308278612243157113e+01,7.101682675525808008e+01,5.471176794266284560e+01,2.899705185333732516e+01,9.484992027282714844e+00,-1.262115836143493652e+00,-1.912296712398529053e-01,5.760000000000000000e+02
-1.066168496145110112e+01,-1.560129230750135321e+01,2.860689532718242845e+01,8.021448560391945648e+01,5.364105297821151908e+01,7.148303729417239083e+01,5.148976991100062151e+01,3.027192095539430738e+01,9.484992027282714844e+00,-1.262115836143493652e+00,-1.912296712398529053e-01,5.770000000000000000e+02
-1.176527804259967525e+01,-1.517014529775042320e+01,2.669591259568915120e+01,8.005475101693082252e+01,5.415388889900714275e+01,7.206597369548399001e+01,4.910606180069044058e+01,3.101029043062953860e+01,9.484992027282714844e+00,-1.262115836143493652e+00,-1.912296712398529053e-01,5.780000000000000000e+02
-1.214160348636141862e+01,-1.703642268107068958e+01,2.566361383960247622e+01,7.883224988024448976e+01,5.477870280548813753e+01,7.251341932426294079e+01,4.850620665382120933e+01,3.193198298322749906e+01,9.484992027282714844e+00,-1.262115836143493652e+00,-1.912296712398529053e-01,5.790000000000000000e+02
-1.136188634412610554e+01,-2.037807795975095360e+01,2.632882115947359125e+01,7.733179482791820192e+01,5.506360599731488037e+01,7.198499729235118139e+01,4.896346996389911510e+01,3.275706721741153160e+01,9.484992027282714844e+00,-1.262115836143493652e+00,-1.912296712398529053e-01,5.800000000000000000e+02
-9.631449040083680302e+00,-2.395448593948094640e+01,2.811810489658819279e+01,7.587349624112903257e+01,5.444417154270922765e+01,6.987290767529702862e+01,4.898953899346452090e+01,3.237388963210105430e+01,9.484992027282714844e+00,-1.262115836143493652e+00,-1.912296712398529053e-01,5.810000000000000000e+02
-7.704345128346176352e+00,-2.662554086337695480e+01,2.946908924007584574e+01,7.452029075490281684e+01,5.272929907225989155e+01,6.633770175596509944e+01,4.755078369162220042e+01,2.977943711882835487e+01,9.484992027282714844e+00,-1.262115836143493652e+00,-1.912296712398529053e-01,5.820000000000000000e+02
-6.470161316858138889e+00,-2.783892573763660039e+01,2.891427500448844512e+01,7.331564974945649737e+01,5.015570300085892086e+01,6.210822897744583315e+01,4.460978791156230727e+01,2.499031740403370350e+01,9.484992027282714844e+00,-1.262115836143493652e+00,-1.912296712398529053e-01,5.830000000000000000e+02
-6.439764244849357056e+00,-2.776770623868287657e+01,2.607258914542035200e+01,7.230968795276567107e+01,4.716718591020980966e+01,5.793763493604637915e+01,4.082021596630875138e+01,1.921067186152868089e+01,9.484992027282714844e+00,-1.262115836143493652e+00,-1.912296712398529053e-01,5.840000000000000000e+02
-7.418884826696739765e+00,-2.699977717599540483e+01,2.188386329180502798e+01,7.149325747027251055e+01,4.427694904930831399e+01,5.433543984450807329e+01,3.694837510521028889e+01,1.417365156533924164e+01,9.484992027282714844e+00,-1.262115836143493652e+00,-1.912296712398529053e-01,5.850000000000000000e+02
-8.618295206913899165e+00,-2.608122631799051305e+01,1.796151057618408231e+01,7.079471982679751818e+01,4.203779494496848201e+01,5.165090625005177571e+01,3.359182022756067454e+01,1.116189098072209163e+01,9.484992027282714844e+00,-1.262115836143493652e+00,-1.912296712398529053e-01,5.860000000000000000e+02
-9.192094094956701156e+00,-2.531834048128803261e+01,1.554275342018081574e+01,7.011606003708220669e+01,4.086625391980851418e+01,5.009787869830324780e+01,3.124020945881056832e+01,1.040541153280355502e+01,9.484992027282714844e+00,-1.262115836143493652e+00,-1.912296712398529053e-01,5.870000000000000000e+02
-8.867903725877113175e+00,-2.489109299828851363e+01,1.480609863527570269e+01,6.932810614691334195e+01,4.071797803693334572e+01,4.952914343833617750e+01,3.036478219203672779e+01,1.125122398258099565e+01,9.484992027282714844e+00,-1.262115836143493652e+00,-1.912296712398529053e-01,5.880000000000000000e+02
-8.201768532340793172e+00,-2.497862470026666415e+01,1.502301866046400391e+01,6.827461150230374187e+01,4.100577713934035273e+01,4.931028595885436516e+01,3.128763842765692971e+01,1.287607123095222050e+01,9.484992027282714844e+00,-1.262115836143493652e+00,-1.912296712398529053e-01,5.890000000000000000e+02
-8.221099208170926431e+00,-2.565288790320482804e+01,1.531231880071936757e+01,6.686919227911130292e+01,4.103694982679735404e+01,4.869252742444950854e+01,3.391128380978625501e+01,1.489246554349301732e+01,9.484992027282714844e+00,-1.262115836143493652e+00,-1.912296712398529053e-01,5.900000000000000000e+02
