F3,F4,C3,C4,P3,P4,Cz,Pz,Accel_x,Accel_y,Accel_z,Sample
-4.092726157978177071e-11,-8.003553375601768494e-11,-4.183675628155469894e-11,-6.002665031701326370e-11,-5.275069270282983780e-11,-6.912159733474254608e-11,-5.275069270282983780e-11,-7.275957614183425903e-11,9.446745872497558594e+00,-6.119350194931030273e-01,-5.736890435218811035e-01,2.010000000000000000e+02
-2.530327449483320379e+01,-2.540483367710839957e+01,-1.342030847076330247e+01,-1.691074933670824976e+01,-1.882099578266388562e+01,-2.001663683580045472e+01,-1.592264535545655235e+01,-1.587386158218760102e+01,9.446745872497558594e+00,-6.119350194931030273e-01,-5.736890435218811035e-01,2.020000000000000000e+02
-5.082674129707083921e+01,-5.078722677547193598e+01,-3.326245423647196731e+01,-3.470790459645286319e+01,-4.109638410547267995e+01,-4.273147340032846841e+01,-3.234277947494592809e+01,-3.253935169437863806e+01,9.446745872497558594e+00,-6.119350194931030273e-01,-5.736890435218811035e-01,2.030000000000000000e+02
-7.626370497389962111e+01,-7.584281498535528954e+01,-6.013489889550692169e+01,-5.367795982780262420e+01,-6.721512713993797661e+01,-6.847253344843920786e+01,-4.938182898290324374e+01,-4.988310223436383239e+01,9.446745872497558594e+00,-6.119350194931030273e-01,-5.736890435218811035e-01,2.040000000000000000e+02
-1.007186889026188510e+02,-9.996077436668201699e+01,-8.798815891398317035e+01,-7.320275638842576882e+01,-9.434866450470690324e+01,-9.502693280436687928e+01,-6.667151032455058157e+01,-6.687464386210376688e+01,9.446745872497558594e+00,-6.119350194931030273e-01,-5.736890435218811035e-01,2.050000000000000000e+02
-1.232270102613783820e+02,-1.225181988269168869e+02,-1.089101676340451377e+02,-9.195270837533280428e+01,-1.191722065997273603e+02,-1.196589812330930727e+02,-8.359293845119100297e+01,-8.244890187313831120e+01,9.446745872497558594e+00,-6.119350194931030273e-01,-5.736890435218811035e-01,2.060000000000000000e+02
-1.434897937903360798e+02,-1.433197946510308611e+02,-1.194749031303645097e+02,-1.085992800119302046e+02,-1.406628683232374897e+02,-1.412691975854431803e+02,-9.976238183083114563e+01,-9.645226190126140864e+01,9.446745872497558594e+00,-6.119350194931030273e-01,-5.736890435218811035e-01,2.070000000000000000e+02
-1.622066211438823302e+02,-1.628372433877457297e+02,-1.234363429158820509e+02,-1.226914185690066006e+02,-1.603872602681531134e+02,-1.607668413043684268e+02,-1.154029083035020449e+02,-1.097684960707883874e+02,9.599730491638183594e+00,-4.207052886486053467e-01,-5.736890435218811035e-01,2.080000000000000000e+02
-1.806369004122570914e+02,-1.819898247937562701e+02,-1.288291257968539867e+02,-1.350787320318286220e+02,-1.804178884232915152e+02,-1.796847700928410632e+02,-1.312187745565115620e+02,-1.235035758414524025e+02,9.599730491638183594e+00,-4.207052886486053467e-01,-5.736890435218811035e-01,2.090000000000000000e+02
-1.996460916824771630e+02,-2.015649492756092513e+02,-1.421359677371356156e+02,-1.474778124956965257e+02,-2.012744812171731610e+02,-1.987127326331938093e+02,-1.477704686193110319e+02,-1.379885682399262805e+02,9.599730491638183594e+00,-4.207052886486053467e-01,-5.736890435218811035e-01,2.100000000000000000e+02
-2.190203544807927756e+02,-2.217026350941259807e+02,-1.641153459605338867e+02,-1.613997257442788396e+02,-2.218471959629105186e+02,-2.175354546646849485e+02,-1.648177530914463205e+02,-1.525073527991953597e+02,9.599730491638183594e+00,-4.207052886486053467e-01,-5.736890435218811035e-01,2.110000000000000000e+02
-2.377239736706405893e+02,-2.418598218682254810e+02,-1.899969951108805617e+02,-1.771849153956836744e+02,-2.409446663011194687e+02,-2.357448874782166968e+02,-1.812404665031262994e+02,-1.659686136555410485e+02,9.599730491638183594e+00,-4.207052886486053467e-01,-5.736890435218811035e-01,2.120000000000000000e+02
-2.549754124382498048e+02,-2.612747034881986110e+02,-2.131409467834027964e+02,-1.938569710986257633e+02,-2.585938737498354385e+02,-2.535627361512633797e+02,-1.957072765581251588e+02,-1.778915850472812963e+02,9.599730491638183594e+00,-4.207052886486053467e-01,-5.736890435218811035e-01,2.130000000000000000e+02
-2.712099177292902823e+02,-2.795354458274732679e+02,-2.290638318196306500e+02,-2.098885146196962523e+02,-2.758752846471443263e+02,-2.716099871417627583e+02,-2.076157242168401353e+02,-1.888481679669075675e+02,9.599730491638183594e+00,-4.207052886486053467e-01,-5.736890435218811035e-01,2.140000000000000000e+02
-2.879522586203020182e+02,-2.967993470535448068e+02,-2.373155504440683217e+02,-2.242749231472716929e+02,-2.938050086487201042e+02,-2.901774716596191865e+02,-2.175502544216360548e+02,-2.000292579971419400e+02,9.599730491638183594e+00,-4.207052886486053467e-01,-5.736890435218811035e-01,2.150000000000000000e+02
-3.065479590408995136e+02,-3.135574998400161348e+02,-2.408432266883410193e+02,-2.371172283111627621e+02,-3.125940973218603176e+02,-3.089267265011267227e+02,-2.268918742957475843e+02,-2.123501313079195825e+02,9.599730491638183594e+00,-4.207052886486053467e-01,-5.736890435218811035e-01,2.160000000000000000e+02
-3.268220955542810771e+02,-3.302510694047768993e+02,-2.440195046067010480e+02,-2.493806759402323223e+02,-3.318535388378313655e+02,-3.273137519730826170e+02,-2.369288853201460370e+02,-2.258482095771951208e+02,9.599730491638183594e+00,-4.207052886486053467e-01,-5.736890435218811035e-01,2.170000000000000000e+02
-3.469523328770674198e+02,-3.471063254509936087e+02,-2.505862813398298385e+02,-2.621423389190513262e+02,-3.511788979476905297e+02,-3.451694649209057388e+02,-2.481887158646168245e+02,-2.397902121212964630e+02,9.599730491638183594e+00,-4.207052886486053467e-01,-5.736890435218811035e-01,2.180000000000000000e+02
-3.648333852806445066e+02,-3.642407285829503962e+02,-2.621236596789403848e+02,-2.759541791036672294e+02,-3.703638328171637113e+02,-3.627982089124807317e+02,-2.604365340962158371e+02,-2.533175317488830842e+02,9.599730491638183594e+00,-4.207052886486053467e-01,-5.736890435218811035e-01,2.190000000000000000e+02
-3.798201553734179470e+02,-3.817815028040131438e+02,-2.773688318971262561e+02,-2.907081439058565593e+02,-3.892079585000510633e+02,-3.805920884621509686e+02,-2.731741241938825624e+02,-2.660894199169215426e+02,9.599730491638183594e+00,-4.207052886486053467e-01,-5.736890435218811035e-01,2.200000000000000000e+02
-3.933024235085258624e+02,-3.997711371853820310e+02,-2.928010064601376143e+02,-3.059205327257122917e+02,-4.074302386358940566e+02,-3.986548931783654552e+02,-2.861049791385339631e+02,-2.784565538982715225e+02,9.599730491638183594e+00,-4.207052886486053467e-01,-5.736890435218811035e-01,2.210000000000000000e+02
-4.075749888157679379e+02,-4.179545104875260222e+02,-3.046501675765202890e+02,-3.210745791074587032e+02,-4.249182246604614193e+02,-4.167723926966527870e+02,-2.991956819388060467e+02,-2.911028735934178258e+02,9.599730491638183594e+00,-4.207052886486053467e-01,-5.736890435218811035e-01,2.220000000000000000e+02
-4.239990508176597359e+02,-4.357476010660775501e+02,-3.115233712021317842e+02,-3.357641434038787338e+02,-4.419507566853571916e+02,-4.346139148619531625e+02,-3.124153519462224722e+02,-3.044598307801807096e+02,9.599730491638183594e+00,-4.207052886486053467e-01,-5.736890435218811035e-01,2.230000000000000000e+02
-4.420599452994838430e+02,-4.525523405983440171e+02,-3.158651902098599749e+02,-3.496620019130950823e+02,-4.589671960004307039e+02,-4.518648708019500191e+02,-3.254970929116043408e+02,-3.183056610334733705e+02,9.599730491638183594e+00,-4.207052886486053467e-01,-5.736890435218811035e-01,2.240000000000000000e+02
-4.600406149777309111e+02,-4.682163114505619887e+02,-3.227952344249670205e+02,-3.624933996685495003e+02,-4.760372915941670726e+02,-4.682334406140016654e+02,-3.379577096056045775e+02,-3.318115077898273739e+02,9.599730491638183594e+00,-4.207052886486053467e-01,-5.736890435218811035e-01,2.250000000000000000e+02
-4.765429119508489748e+02,-4.832309959504282233e+02,-3.367357729572295284e+02,-3.741309757517728940e+02,-4.926483880875111936e+02,-4.835063588073880965e+02,-3.493262417476698829e+02,-3.440042808758789761e+02,9.599730491638183594e+00,-4.207052886486053467e-01,-5.736890435218811035e-01,2.260000000000000000e+02
-4.914376478247804698e+02,-4.984359587050648770e+02,-3.581968933597672731e+02,-3.847372601289089289e+02,-5.081365308685690252e+02,-4.977169515936975586e+02,-3.593733302015843947e+02,-3.543495563678079634e+02,9.599730491638183594e+00,-4.207052886486053467e-01,-5.736890435218811035e-01,2.270000000000000000e+02
-5.055553861334237808e+02,-5.144142683914924419e+02,-3.832039078973675714e+02,-3.947798307578977983e+02,-5.223755598617435680e+02,-5.112385406826042527e+02,-3.681978312691007886e+02,-3.630866236147330710e+02,9.599730491638183594e+00,-4.207052886486053467e-01,-5.736890435218811035e-01,2.280000000000000000e+02
-5.196832735092839357e+02,-5.310525607328709157e+02,-4.058519607788075518e+02,-4.048484493827572805e+02,-5.360327702959475573e+02,-5.246066176772110339e+02,-3.762031410391809914e+02,-3.711355465594215275e+02,9.599730491638183594e+00,-4.207052886486053467e-01,-5.736890435218811035e-01,2.290000000000000000e+02
-5.339453862927221053e+02,-5.476154817319666108e+02,-4.219937661212115927e+02,-4.153767959692204386e+02,-5.501226994951184679e+02,-5.381756224727505469e+02,-3.840504926793792038e+02,-3.796842698112823200e+02,9.599730491638183594e+00,-4.207052886486053467e-01,-5.736890435218811035e-01,2.300000000000000000e+02
-5.480272400014373488e+02,-5.632796554591686800e+02,-4.312652470652019474e+02,-4.264760549497177635e+02,-5.652790611065192934e+02,-5.519531850206367380e+02,-3.925792355283192592e+02,-3.897506524181235363e+02,9.599730491638183594e+00,-4.207052886486053467e-01,-5.736890435218811035e-01,2.310000000000000000e+02
-5.617599367551556497e+02,-5.777266487858441906e+02,-4.362550907681034005e+02,-4.380040669965264897e+02,-5.813799275227956969e+02,-5.657949416260826183e+02,-4.025946776444170609e+02,-4.019435087760748502e+02,9.599730491638183594e+00,-4.207052886486053467e-01,-5.736890435218811035e-01,2.320000000000000000e+02
-5.753292722663591121e+02,-5.913768425960906825e+02,-4.400731511955518727e+02,-4.497889340027477374e+02,-5.977626142438712122e+02,-5.797363939063752696e+02,-4.144906314221434513e+02,-4.164021461472684678e+02,9.599730491638183594e+00,-4.207052886486053467e-01,-5.736890435218811035e-01,2.330000000000000000e+02
-5.889664106891650590e+02,-6.051142529161143102e+02,-4.446178696566348663e+02,-4.617815874060461283e+02,-6.137111025218282521e+02,-5.940377569041984316e+02,-4.278609870951668199e+02,-4.327464503431965568e+02,9.599730491638183594e+00,-4.207052886486053467e-01,-5.736890435218811035e-01,2.340000000000000000e+02
-6.026178523348071394e+02,-6.196972318864800400e+02,-4.507093629262326431e+02,-4.739846705672935059e+02,-6.287586850125835554e+02,-6.088100410252782240e+02,-4.414245067046495024e+02,-4.499984872071690916e+02,9.599730491638183594e+00,-4.207052886486053467e-01,-5.736890435218811035e-01,2.350000000000000000e+02
-6.160379471362748518e+02,-6.352414629022159716e+02,-4.592373473051447945e+02,-4.862243675816098403e+02,-6.426849698448741037e+02,-6.235903606934125492e+02,-4.534888983589007694e+02,-4.666800054043515047e+02,9.599730491638183594e+00,-4.207052886486053467e-01,-5.736890435218811035e-01,2.360000000000000000e+02
-6.291442378814481344e+02,-6.511078179034684581e+02,-4.715855636301430422e+02,-4.980220516003246303e+02,-6.554165686254755201e+02,-6.373848041293704227e+02,-4.628255166904355065e+02,-4.812936119547230192e+02,9.599730491638183594e+00,-4.207052886486053467e-01,-5.736890435218811035e-01,2.370000000000000000e+02
-6.421133305842431582e+02,-6.662705794233525012e+02,-4.886182295729413454e+02,-5.087748247023437216e+02,-6.670408081206460338e+02,-6.493124644554000042e+02,-4.694354326172597212e+02,-4.930697091393940354e+02,9.599730491638183594e+00,-4.207052886486053467e-01,-5.736890435218811035e-01,2.380000000000000000e+02
-6.550134183331092572e+02,-6.799536040261264134e+02,-5.092065207671594180e+02,-5.181711570395245872e+02,-6.778666949803100579e+02,-6.593750319528689943e+02,-4.746291175461219609e+02,-5.024713244693848537e+02,9.408499717712402344e+00,-4.971971809864044189e-01,-5.736890435218811035e-01,2.390000000000000000e+02
-6.674006844123655355e+02,-6.921430423697293008e+02,-5.298685143733446239e+02,-5.265070320338927559e+02,-6.883403229768118763e+02,-6.686541746988314117e+02,-4.802597831723842319e+02,-5.109746181308346422e+02,9.408499717712402344e+00,-4.971971809864044189e-01,-5.736890435218811035e-01,2.400000000000000000e+02
-6.784643578834097752e+02,-7.036173113213480974e+02,-5.461515841441405428e+02,-5.345936946235042342e+02,-6.987896832800934135e+02,-6.786634774937720067e+02,-4.875818933444179493e+02,-5.201508669706763612e+02,9.408499717712402344e+00,-4.971971809864044189e-01,-5.736890435218811035e-01,2.410000000000000000e+02
-6.877475249368553705e+02,-7.154223761131443098e+02,-5.549078742562974185e+02,-5.432508860622383509e+02,-7.092139515988901621e+02,-6.902885517262348003e+02,-4.965252606873209515e+02,-5.306665759136758425e+02,9.408499717712402344e+00,-4.971971809864044189e-01,-5.736890435218811035e-01,2.420000000000000000e+02
-6.957614674430783452e+02,-7.281079813072865363e+02,-5.559690867444337528e+02,-5.527386315556695990e+02,-7.193484377826644049e+02,-7.031296696317440365e+02,-5.058809040010855824e+02,-5.419479122512739195e+02,9.408499717712402344e+00,-4.971971809864044189e-01,-5.736890435218811035e-01,2.430000000000000000e+02
-7.037942492936872441e+02,-7.412679820411376568e+02,-5.522669063235757676e+02,-5.625569953901476765e+02,-7.289770759339271535e+02,-7.157548263262879118e+02,-5.142051555447665123e+02,-5.527432261163603471e+02,9.408499717712402344e+00,-4.971971809864044189e-01,-5.736890435218811035e-01,2.440000000000000000e+02
-7.129608565638595792e+02,-7.537531113028048821e+02,-5.484287564108199149e+02,-5.717587558898376301e+02,-7.381961597689960399e+02,-7.266490711873111650e+02,-5.207360888621383310e+02,-5.620923800317523273e+02,9.408499717712402344e+00,-4.971971809864044189e-01,-5.736890435218811035e-01,2.450000000000000000e+02
-7.233101512921643916e+02,-7.644357060322040525e+02,-5.485860477055462070e+02,-5.795400706970071951e+02,-7.473748914256848366e+02,-7.351414080746335458e+02,-5.256959732641994378e+02,-5.699311972222244549e+02,9.408499717712402344e+00,-4.971971809864044189e-01,-5.736890435218811035e-01,2.460000000000000000e+02
-7.337880100939701151e+02,-7.729489338468156348e+02,-5.543571744386167666e+02,-5.856677259490575125e+02,-7.568339604373668408e+02,-7.416621715642995696e+02,-5.299006616703481996e+02,-5.769216207770450637e+02,9.408499717712402344e+00,-4.971971809864044189e-01,-5.736890435218811035e-01,2.470000000000000000e+02
-7.430703855272113287e+02,-7.798361789489122202e+02,-5.639763326530319318e+02,-5.904726342681215101e+02,-7.665278262669116884e+02,-7.472564800653244674e+02,-5.341088762802787642e+02,-5.837669577490269148e+02,9.408499717712402344e+00,-4.971971809864044189e-01,-5.736890435218811035e-01,2.480000000000000000e+02
-7.505066067346861018e+02,-7.860293881915058591e+02,-5.732570524762727473e+02,-5.945052817355444859e+02,-7.759869540291829253e+02,-7.528294775036856663e+02,-5.385976048938650820e+02,-5.906296998735710986e+02,9.408499717712402344e+00,-4.971971809864044189e-01,-5.736890435218811035e-01,2.490000000000000000e+02
-7.563991626299425661e+02,-7.921399973818270155e+02,-5.781794343097558340e+02,-5.981785081628122498e+02,-7.845303254058799212e+02,-7.586903249622664589e+02,-5.431563313336223473e+02,-5.970806241567870529e+02,9.408499717712402344e+00,-4.971971809864044189e-01,-5.736890435218811035e-01,2.500000000000000000e+02
-7.615427774724862502e+02,-7.981825197497987574e+02,-5.776522069785760323e+02,-6.016693454892651971e+02,-7.915834502104362400e+02,-7.646219699394541749e+02,-5.473860499429201809e+02,-6.025334557053479330e+02,9.408499717712402344e+00,-4.971971809864044189e-01,-5.736890435218811035e-01,2.510000000000000000e+02
-7.665897318867364447e+02,-8.039004970712603608e+02,-5.744104802271335757e+02,-6.050891972996419099e+02,-7.969492417853439292e+02,-7.702952615172698643e+02,-5.510820381987236942e+02,-6.067785097068044706e+02,9.408499717712402344e+00,-4.971971809864044189e-01,-5.736890435218811035e-01,2.520000000000000000e+02
-7.718149314327101820e+02,-8.092740656803734964e+02,-5.730500798147368187e+02,-6.086830213203566018e+02,-8.009734002457080351e+02,-7.756723848086826365e+02,-5.544986393366702941e+02,-6.102253834742164145e+02,9.408499717712402344e+00,-4.971971809864044189e-01,-5.736890435218811035e-01,2.530000000000000000e+02
-7.773113709258441304e+02,-8.146544013684706442e+02,-5.764490515703832898e+02,-6.128285743533788263e+02,-8.045617550527263120e+02,-7.811487847853904896e+02,-5.583214203665365858e+02,-6.137292211857420625e+02,9.408499717712402344e+00,-4.971971809864044189e-01,-5.736890435218811035e-01,2.540000000000000000e+02
-7.831965570081015358e+02,-8.204068868362683133e+02,-5.834116204667534475e+02,-6.178118478493179282e+02,-8.089481957537700509e+02,-7.873817251898121867e+02,-5.632721756044784343e+02,-6.181500020327716811e+02,9.408499717712402344e+00,-4.971971809864044189e-01,-5.736890435218811035e-01,2.550000000000000000e+02
-7.895018535774970587e+02,-8.264806132870057809e+02,-5.896545599141650200e+02,-6.235610779236199051e+02,-8.151522822743468168e+02,-7.948921007014628231e+02,-5.695155666495979858e+02,-6.239056058273458802e+02,9.408499717712402344e+00,-4.971971809864044189e-01,-5.736890435218811035e-01,2.560000000000000000e+02
-7.958878099038811342e+02,-8.323993411377764460e+02,-5.915176539106641940e+02,-6.295811599855542227e+02,-8.233413849492803820e+02,-8.036444236012134752e+02,-5.763233963186394249e+02,-6.307552185067520440e+02,9.408499717712402344e+00,-4.971971809864044189e-01,-5.736890435218811035e-01,2.570000000000000000e+02
-8.016143402235961730e+02,-8.377097631868014105e+02,-5.893292743530087137e+02,-6.351822978317259185e+02,-8.325718003030729051e+02,-8.128882284873257049e+02,-5.824274266375855404e+02,-6.379258263919195997e+02,9.408499717712402344e+00,-4.971971809864044189e-01,-5.736890435218811035e-01,2.580000000000000000e+02
-8.059615321342389507e+02,-8.424216894476894595e+02,-5.875173450769862029e+02,-6.398541721947276528e+02,-8.412377043886481260e+02,-8.214488188886120952e+02,-5.869454665770904285e+02,-6.445108354061094360e+02,9.408499717712402344e+00,-4.971971809864044189e-01,-5.736890435218811035e-01,2.590000000000000000e+02
-8.088048492488019292e+02,-8.469733286393829985e+02,-5.913216472549302125e+02,-6.435261022981658243e+02,-8.480186081821375410e+02,-8.283665533730354582e+02,-5.901395364826289551e+02,-6.499146731774735599e+02,9.484992027282714844e+00,-5.354431271553039551e-01,-6.119350194931030273e-01,2.600000000000000000e+02
-8.108211609293343827e+02,-8.517414748877649799e+02,-6.028694985018696570e+02,-6.465256584403305169e+02,-8.526515970297164131e+02,-8.334569523681484498e+02,-5.932266197328558519e+02,-6.540826046435736316e+02,9.484992027282714844e+00,-5.354431271553039551e-01,-6.119350194931030273e-01,2.610000000000000000e+02
-8.131158922538211300e+02,-8.565969615909152708e+02,-6.198218551916020260e+02,-6.492748767747061720e+02,-8.559390634054848306e+02,-8.373394291408826575e+02,-5.972594170466768446e+02,-6.573818243526761762e+02,9.484992027282714844e+00,-5.354431271553039551e-01,-6.119350194931030273e-01,2.620000000000000000e+02
-8.165581347180632292e+02,-8.609659995826968952e+02,-6.374359303908408947e+02,-6.519592632686531033e+02,-8.590311128246771659e+02,-8.408803058194448568e+02,-6.020236857114023223e+02,-6.602390199423116428e+02,9.484992027282714844e+00,-5.354431271553039551e-01,-6.119350194931030273e-01,2.630000000000000000e+02
-8.213234725269657019e+02,-8.643480055575168990e+02,-6.519775416882492891e+02,-6.544145902548470985e+02,-8.625879917969721191e+02,-8.444892552368204406e+02,-6.060192008667387427e+02,-6.627947599820250844e+02,9.484992027282714844e+00,-5.354431271553039551e-01,-6.119350194931030273e-01,2.640000000000000000e+02
-8.269139859858217960e+02,-8.667848796446960478e+02,-6.626136723587306960e+02,-6.562868198637190744e+02,-8.664429960266782018e+02,-8.478454652667944629e+02,-6.076558176154217108e+02,-6.648014219506201243e+02,9.484992027282714844e+00,-5.354431271553039551e-01,-6.119350194931030273e-01,2.650000000000000000e+02
-8.325189139498647819e+02,-8.688381360401167512e+02,-6.706663889327643346e+02,-6.573220158461314213e+02,-8.699067706464406911e+02,-8.502531906943129343e+02,-6.066410867462757324e+02,-6.658382356382617218e+02,9.484992027282714844e+00,-5.354431271553039551e-01,-6.119350194931030273e-01,2.660000000000000000e+02
-8.374020491645496804e+02,-8.711163482014520696e+02,-6.775256960492553162e+02,-6.575676151850225324e+02,-8.723561569135646323e+02,-8.512894061276786033e+02,-6.043115526930787382e+02,-6.657145647294357786e+02,9.484992027282714844e+00,-5.354431271553039551e-01,-6.119350194931030273e-01,2.670000000000000000e+02
-8.411201382100671253e+02,-8.737973354236760315e+02,-6.833860533865732805e+02,-6.573631165043954070e+02,-8.736654839654295301e+02,-8.511979828698042638e+02,-6.026329023989748066e+02,-6.648044185665303303e+02,9.484992027282714844e+00,-5.354431271553039551e-01,-6.119350194931030273e-01,2.680000000000000000e+02
-8.435886926668483738e+02,-8.765610329117438368e+02,-6.877112592239727746e+02,-6.571822982833087963e+02,-8.742769270780385114e+02,-8.507721156336257309e+02,-6.028061166632278400e+02,-6.640594239263809868e+02,9.484992027282714844e+00,-5.354431271553039551e-01,-6.119350194931030273e-01,2.690000000000000000e+02
-8.450657140582823104e+02,-8.789373415126891587e+02,-6.904530459563536624e+02,-6.574651554150040056e+02,-8.749484202734322480e+02,-8.509047271649990307e+02,-6.046818442826279352e+02,-6.645871967632698443e+02,9.484992027282714844e+00,-5.354431271553039551e-01,-6.119350194931030273e-01,2.700000000000000000e+02
-8.460400429295415279e+02,-8.807263785703645453e+02,-6.924952856605812030e+02,-6.585263729737031326e+02,-8.763323989292579199e+02,-8.521857596489178377e+02,-6.073194605448589982e+02,-6.669884801868731756e+02,9.484992027282714844e+00,-5.354431271553039551e-01,-6.119350194931030273e-01,2.710000000000000000e+02
-8.470105844285722014e+02,-8.821451774391246090e+02,-6.948926924899176356e+02,-6.605148743324161842e+02,-8.785742610068898557e+02,-8.547551265531473064e+02,-6.099532143639263495e+02,-6.708812965597162474e+02,9.484992027282714844e+00,-5.354431271553039551e-01,-6.119350194931030273e-01,2.720000000000000000e+02
-8.482585508537636088e+02,-8.836137881835679764e+02,-6.978340593427709564e+02,-6.633439135510592450e+02,-8.811666528579347641e+02,-8.583349856918625846e+02,-6.124059667829860700e+02,-6.749991472580805976e+02,9.484992027282714844e+00,-5.354431271553039551e-01,-6.119350194931030273e-01,2.730000000000000000e+02
-8.497796237945010489e+02,-8.854016958120935215e+02,-7.005147732978120985e+02,-6.666078877543391172e+02,-8.832546434665771358e+02,-8.623067191465487440e+02,-6.147602566978054028e+02,-6.779042053076730099e+02,9.484992027282714844e+00,-5.354431271553039551e-01,-6.119350194931030273e-01,2.740000000000000000e+02
-8.514176672716765779e+02,-8.874224714978176962e+02,-7.020726800730947161e+02,-6.695999432463900121e+02,-8.842695474246065714e+02,-8.658290656274125467e+02,-6.169022281475984073e+02,-6.788632891943598224e+02,9.484992027282714844e+00,-5.354431271553039551e-01,-6.119350194931030273e-01,2.750000000000000000e+02
-8.530540033271405491e+02,-8.892959488048751382e+02,-7.026068124927422787e+02,-6.715257279031100097e+02,-8.844162100200073837e+02,-8.680830144230992573e+02,-6.185464752219635329e+02,-6.782430321701370985e+02,9.484992027282714844e+00,-5.354431271553039551e-01,-6.119350194931030273e-01,2.760000000000000000e+02
-8.546556540655201388e+02,-8.905924786087550729e+02,-7.032527461077036151e+02,-6.718617883323365731e+02,-8.845673573433946331e+02,-8.686292736981147300e+02,-6.196590198024487108e+02,-6.771310219587088568e+02,9.484992027282714844e+00,-5.354431271553039551e-01,-6.119350194931030273e-01,2.770000000000000000e+02
-8.561717547735229346e+02,-8.910693462848053059e+02,-7.052839753621713044e+02,-6.706599149500741532e+02,-8.856170967943747883e+02,-8.676874254017652675e+02,-6.206627749183458036e+02,-6.765267898975178014e+02,9.484992027282714844e+00,-5.354431271553039551e-01,-6.119350194931030273e-01,2.780000000000000000e+02
-8.574775932981406186e+02,-8.907541514233365660e+02,-7.091390957441914225e+02,-6.685816957356363446e+02,-8.878730551870642103e+02,-8.661110131037009978e+02,-6.220607456092263874e+02,-6.767903414589757176e+02,9.484992027282714844e+00,-5.354431271553039551e-01,-6.119350194931030273e-01,2.790000000000000000e+02
-8.584997520437385674e+02,-8.898641205693322718e+02,-7.142316782363211587e+02,-6.666022770643756985e+02,-8.910249452135363981e+02,-8.650122689658969648e+02,-6.238312771506491572e+02,-6.777550222545182805e+02,9.484992027282714844e+00,-5.354431271553039551e-01,-6.119350194931030273e-01,2.800000000000000000e+02
-8.593790473728997767e+02,-8.886621429532367529e+02,-7.195241192990920354e+02,-6.655372942404205787e+02,-8.946187689467573136e+02,-8.652452346103232230e+02,-6.252814795374017649e+02,-6.792542892389902818e+02,9.484992027282714844e+00,-5.354431271553039551e-01,-6.119350194931030273e-01,2.810000000000000000e+02
-8.603808874147052848e+02,-8.873694154694312601e+02,-7.241509495172866764e+02,-6.656653284189852684e+02,-8.984368776360549873e+02,-8.670576835484142748e+02,-6.255869804577232571e+02,-6.814196632325139262e+02,9.484992027282714844e+00,-5.354431271553039551e-01,-6.119350194931030273e-01,2.820000000000000000e+02
-8.615162867796128694e+02,-8.861787483029997929e+02,-7.275699981169971124e+02,-6.666540553984476674e+02,-9.023449872345209997e+02,-8.700707469521753410e+02,-6.245237049076914673e+02,-6.843885912516348071e+02,9.484992027282714844e+00,-5.354431271553039551e-01,-6.119350194931030273e-01,2.830000000000000000e+02
-8.622616614444618790e+02,-8.853076289868877211e+02,-7.293810407773240740e+02,-6.678105613970385548e+02,-9.058358859149727778e+02,-8.735130402331872119e+02,-6.226679436760068711e+02,-6.877134602069641005e+02,9.484992027282714844e+00,-5.354431271553039551e-01,-6.119350194931030273e-01,2.840000000000000000e+02
-8.618121338692416202e+02,-8.850016356726332560e+02,-7.293241256720772299e+02,-6.685115494012164845e+02,-9.079243756097982896e+02,-8.765243971286726037e+02,-6.208900981716875549e+02,-6.901641074505110964e+02,9.484992027282714844e+00,-4.589512646198272705e-01,-5.354431271553039551e-01,2.850000000000000000e+02
-8.597993955686370100e+02,-8.854379989558510715e+02,-7.276214760636767096e+02,-6.685621096062463948e+02,-9.077073995093467147e+02,-8.783848753981017126e+02,-6.196675090651551727e+02,-6.902978436909830862e+02,9.484992027282714844e+00,-4.589512646198272705e-01,-5.354431271553039551e-01,2.860000000000000000e+02
-8.568257783949807163e+02,-8.865806017838928028e+02,-7.252109055040220937e+02,-6.682596445319181839e+02,-9.051314624940905560e+02,-8.786690728681030578e+02,-6.188781778533500528e+02,-6.874418374135545946e+02,9.484992027282714844e+00,-4.589512646198272705e-01,-5.354431271553039551e-01,2.870000000000000000e+02
-8.542004440074897502e+02,-8.881075101693836586e+02,-7.233808957310841379e+02,-6.681353269942687803e+02,-9.012093406333808616e+02,-8.773816738611894834e+02,-6.182213821491795898e+02,-6.823252103754722384e+02,9.484992027282714844e+00,-4.589512646198272705e-01,-5.354431271553039551e-01,2.880000000000000000e+02
-8.529921415738823498e+02,-8.894810820982074802e+02,-7.229316720096074960e+02,-6.685293540192571982e+02,-8.974099980181903220e+02,-8.750151706476699474e+02,-6.177450401241316058e+02,-6.768144203102282290e+02,9.484992027282714844e+00,-4.589512646198272705e-01,-5.354431271553039551e-01,2.890000000000000000e+02
-8.532328696561542074e+02,-8.901462475187643122e+02,-7.236059188072805455e+02,-6.692886238706914810e+02,-8.947314342215006491e+02,-8.723839422203357117e+02,-6.178815396678597835e+02,-6.728834539726129833e+02,9.484992027282714844e+00,-4.589512646198272705e-01,-5.354431271553039551e-01,2.900000000000000000e+02
-8.540279222028134427e+02,-8.897698375951802063e+02,-7.244004853034977032e+02,-6.698281718115066496e+02,-8.932471529811646178e+02,-8.702159881908820580e+02,-6.189468448326697398e+02,-6.715284671893622317e+02,9.484992027282714844e+00,-4.589512646198272705e-01,-5.354431271553039551e-01,2.910000000000000000e+02
-8.544613377066981457e+02,-8.884029491995898979e+02,-7.245409451480638836e+02,-6.695337824727057523e+02,-8.924280833773185577e+02,-8.687363614193361627e+02,-6.206277785053428033e+02,-6.723444996425877207e+02,9.484992027282714844e+00,-4.589512646198272705e-01,-5.354431271553039551e-01,2.920000000000000000e+02
-8.543897896414351862e+02,-8.864654275128092422e+02,-7.242223616014466643e+02,-6.682023637235190563e+02,-8.918158757977207642e+02,-8.675951671068801261e+02,-6.220193398917421064e+02,-6.739522912274375130e+02,9.484992027282714844e+00,-4.589512646198272705e-01,-5.354431271553039551e-01,2.930000000000000000e+02
-8.543317850422456559e+02,-8.845390493230424909e+02,-7.243872236827514826e+02,-6.661691887511180994e+02,-8.913857093425363018e+02,-8.662554859043290207e+02,-6.222414952044559868e+02,-6.749005254300926708e+02,9.484992027282714844e+00,-4.589512646198272705e-01,-5.354431271553039551e-01,2.940000000000000000e+02
-8.546030754922026063e+02,-8.830706398754357451e+02,-7.257099816464998412e+02,-6.640251001007253535e+02,-8.913431058981839215e+02,-8.645380019946934453e+02,-6.210939941709843879e+02,-6.744332832969141691e+02,9.484992027282714844e+00,-4.589512646198272705e-01,-5.354431271553039551e-01,2.950000000000000000e+02
-8.546386987258817953e+02,-8.821514643821178652e+02,-7.277710493011172730e+02,-6.621879927110642257e+02,-8.916794389082965608e+02,-8.628280367535974165e+02,-6.191726072864133812e+02,-6.727151882316605906e+02,9.484992027282714844e+00,-4.589512646198272705e-01,-5.354431271553039551e-01,2.960000000000000000e+02
-8.532720615072116743e+02,-8.815271728825601940e+02,-7.292605903796877556e+02,-6.607323316851282016e+02,-8.920034429563950198e+02,-8.617463285331753013e+02,-6.173776817114485311e+02,-6.705335212964450875e+02,9.484992027282714844e+00,-4.589512646198272705e-01,-5.354431271553039551e-01,2.970000000000000000e+02
-8.497844057128370423e+02,-8.808435732414297945e+02,-7.290636245922961507e+02,-6.596223351385081060e+02,-8.918303082183119841e+02,-8.616211648823962150e+02,-6.162969486465246973e+02,-6.688061618335769936e+02,9.484992027282714844e+00,-4.589512646198272705e-01,-5.354431271553039551e-01,2.980000000000000000e+02
-8.447532466180019810e+02,-8.799358350236359456e+02,-7.272509782424000377e+02,-6.590624732021707359e+02,-8.910415915892931480e+02,-8.622914663131870157e+02,-6.159912997703197561e+02,-6.682256038237951543e+02,9.484992027282714844e+00,-4.589512646198272705e-01,-5.354431271553039551e-01,2.990000000000000000e+02
-8.398929912838952987e+02,-8.789211592902198618e+02,-7.250905220644011706e+02,-6.595143568201564221e+02,-8.900610509829202783e+02,-8.634026973665044125e+02,-6.162589329634680553e+02,-6.691415443519924793e+02,9.484992027282714844e+00,-4.589512646198272705e-01,-5.354431271553039551e-01,3.000000000000000000e+02
-8.369991976612666349e+02,-8.780260285659679766e+02,-7.240512424172572992e+02,-6.612307579280627579e+02,-8.895371127206078654e+02,-8.647801762546067721e+02,-6.169671278701677011e+02,-6.715354153159960333e+02,9.484992027282714844e+00,-4.589512646198272705e-01,-5.354431271553039551e-01,3.010000000000000000e+02
-8.368612682741668323e+02,-8.773271877661934468e+02,-7.246814741393516215e+02,-6.636844577601559649e+02,-8.897531806738326168e+02,-8.663669666601147128e+02,-6.180305594438467551e+02,-6.749288142924360727e+02,9.484992027282714844e+00,-4.589512646198272705e-01,-5.354431271553039551e-01,3.020000000000000000e+02
-8.389299496442259851e+02,-8.766763435404280926e+02,-7.263117985663232048e+02,-6.655170275671922582e+02,-8.902477332066350755e+02,-8.677633428170370280e+02,-6.190819097787363035e+02,-6.782916439653938596e+02,9.484992027282714844e+00,-4.589512646198272705e-01,-5.354431271553039551e-01,3.030000000000000000e+02
-8.418081012843063036e+02,-8.759091797258726046e+02,-7.277369681178054179e+02,-6.652574556306728937e+02,-8.899989594051140784e+02,-8.679816757298727907e+02,-6.193115335145266727e+02,-6.802125373879553081e+02,9.484992027282714844e+00,-4.589512646198272705e-01,-5.354431271553039551e-01,3.040000000000000000e+02
-8.440367340056610601e+02,-8.751308155541286169e+02,-7.281555701374928731e+02,-6.623753879291072053e+02,-8.881079282400229431e+02,-8.659373107176782014e+02,-6.178763460969041716e+02,-6.794906530504385955e+02,9.484992027282714844e+00,-4.589512646198272705e-01,-5.354431271553039551e-01,3.050000000000000000e+02
-8.446225092843747007e+02,-8.747567362629661147e+02,-7.275334400115054905e+02,-6.578317970434958397e+02,-8.845063723697206797e+02,-8.614097899462315127e+02,-6.146894655656089981e+02,-6.759087523666257766e+02,9.484992027282714844e+00,-4.589512646198272705e-01,-5.354431271553039551e-01,3.060000000000000000e+02
-8.431557202717127666e+02,-8.751892485507406718e+02,-7.261980895368615165e+02,-6.535918018349987051e+02,-8.801202576031186027e+02,-8.555560573086788736e+02,-6.108614612532478532e+02,-6.705943170918828855e+02,9.484992027282714844e+00,-4.589512646198272705e-01,-5.354431271553039551e-01,3.070000000000000000e+02
-8.397050910775151351e+02,-8.763591025934390473e+02,-7.242148968778187736e+02,-6.513530100584691809e+02,-8.762834204714102952e+02,-8.503095193855441494e+02,-6.081866932487929489e+02,-6.655031768643949590e+02,9.484992027282714844e+00,-4.589512646198272705e-01,-5.354431271553039551e-01,3.080000000000000000e+02
-8.346872057589225733e+02,-8.775337641550838725e+02,-7.212571774449717168e+02,-6.513786084096950617e+02,-8.737778841970806525e+02,-8.470105934330756554e+02,-6.078575972879983738e+02,-6.622017419150618025e+02,9.484992027282714844e+00,-4.589512646198272705e-01,-5.354431271553039551e-01,3.090000000000000000e+02
-8.287386428645479555e+02,-8.776023948899505740e+02,-7.170882195412796136e+02,-6.522889292124109488e+02,-8.722181451275432664e+02,-8.454101285142315874e+02,-6.093782163702960588e+02,-6.607862936776025435e+02,9.484992027282714844e+00,-4.589512646198272705e-01,-5.354431271553039551e-01,3.100000000000000000e+02
-8.225343201547780154e+02,-8.756667468991888654e+02,-7.120697757462501158e+02,-6.519697597211853690e+02,-8.702992516058493493e+02,-8.439386042411895232e+02,-6.106654782343327952e+02,-6.598210079707662317e+02,9.484992027282714844e+00,-4.589512646198272705e-01,-5.354431271553039551e-01,3.110000000000000000e+02
-8.165910202722056965e+02,-8.715338752376439970e+02,-7.070423357688755459e+02,-6.489490142002866833e+02,-8.667724920072467967e+02,-8.410127858413128479e+02,-6.094256034738464223e+02,-6.574346543848218971e+02,9.446745872497558594e+00,-4.589512646198272705e-01,-5.354431271553039551e-01,3.120000000000000000e+02
-8.111818909768758203e+02,-8.657948008332805330e+02,-7.025643909235665205e+02,-6.432922565194297704e+02,-8.614290045458310487e+02,-8.362476654736198043e+02,-6.048130688512110282e+02,-6.527799305734217796e+02,9.446745872497558594e+00,-4.589512646198272705e-01,-5.354431271553039551e-01,3.130000000000000000e+02
-8.064041953699668284e+02,-8.595015139935175057e+02,-6.982129235396757849e+02,-6.364473330779223943e+02,-8.553199491694654171e+02,-8.305982547159569549e+02,-5.980523208115290572e+02,-6.467120267626100940e+02,9.446745872497558594e+00,-4.589512646198272705e-01,-5.354431271553039551e-01,3.140000000000000000e+02
-8.023183038791962645e+02,-8.537014386414429055e+02,-6.927047908863378325e+02,-6.302466702234178229e+02,-8.500304591110741512e+02,-8.254651719142775619e+02,-5.915242385007716166e+02,-6.411676412688523214e+02,9.446745872497558594e+00,-4.589512646198272705e-01,-5.354431271553039551e-01,3.150000000000000000e+02
-7.990020884075331651e+02,-8.490944623875139996e+02,-6.848684403065595916e+02,-6.258439341622374741e+02,-8.465824362929505469e+02,-8.216683487247701123e+02,-5.870933576026645824e+02,-6.377840854354034263e+02,9.446745872497558594e+00,-4.589512646198272705e-01,-5.354431271553039551e-01,3.160000000000000000e+02
-7.964563652967063945e+02,-8.459163421503596965e+02,-6.746476955252445578e+02,-6.233176398192155148e+02,-8.448359306353173679e+02,-8.191421211945598770e+02,-5.850469931543416351e+02,-6.368742744159183076e+02,9.446745872497558594e+00,-4.589512646198272705e-01,-5.354431271553039551e-01,3.170000000000000000e+02
-7.944693037733468373e+02,-8.439787233927984289e+02,-6.632314104731956377e+02,-6.220909828178221233e+02,-8.438196087426856593e+02,-8.173974805590456754e+02,-5.844102560482277795e+02,-6.374753464124592028e+02,9.446745872497558594e+00,-4.589512646198272705e-01,-5.354431271553039551e-01,3.180000000000000000e+02
-7.926169398289044921e+02,-8.427705050892525378e+02,-6.521837452941517768e+02,-6.216571687744010433e+02,-8.426219330634987728e+02,-8.161090509355215090e+02,-5.841449833720400875e+02,-6.382281822200200168e+02,9.446745872497558594e+00,-4.589512646198272705e-01,-5.354431271553039551e-01,3.190000000000000000e+02
-7.904690380102318841e+02,-8.415912595255016413e+02,-6.423764666334168396e+02,-6.218957234058837003e+02,-8.410297288524751593e+02,-8.152179923741066432e+02,-5.839952827557976889e+02,-6.382198269705556868e+02,9.446745872497558594e+00,-4.589512646198272705e-01,-5.354431271553039551e-01,3.200000000000000000e+02
-7.878750888641977781e+02,-8.397396035277128021e+02,-6.336730005671615800e+02,-6.227265255936273434e+02,-8.393907236212811540e+02,-8.145641160370337275e+02,-5.842269251906898262e+02,-6.371440642800258729e+02,9.446745872497558594e+00,-4.589512646198272705e-01,-5.354431271553039551e-01,3.210000000000000000e+02
-7.850938436327585350e+02,-8.367568611199820907e+02,-6.255277558276541185e+02,-6.235481666822719262e+02,-8.379495828184393531e+02,-8.135777766779417561e+02,-5.846936593017337600e+02,-6.349129354826342251e+02,9.446745872497558594e+00,-4.589512646198272705e-01,-5.354431271553039551e-01,3.220000000000000000e+02
-7.826058876569514950e+02,-8.326370398333085632e+02,-6.177384883192734151e+02,-6.231920442857292528e+02,-8.364017806154490700e+02,-8.114725628666478769e+02,-5.843807093399029782e+02,-6.313664810239272356e+02,9.446745872497558594e+00,-4.589512646198272705e-01,-5.354431271553039551e-01,3.230000000000000000e+02
-7.806825869391926744e+02,-8.278571770185053538e+02,-6.105028800514655813e+02,-6.206445386414322911e+02,-8.341507320382836497e+02,-8.078337520226571087e+02,-5.820906215794404943e+02,-6.264996076797450542e+02,9.446745872497558594e+00,-4.589512646198272705e-01,-5.354431271553039551e-01,3.240000000000000000e+02
-7.790215669846763831e+02,-8.231313738154403836e+02,-6.037800317539958996e+02,-6.159477010926918865e+02,-8.309767952415693344e+02,-8.030356115648067998e+02,-5.777000918197319379e+02,-6.209122538832791633e+02,9.446745872497558594e+00,-4.589512646198272705e-01,-5.354431271553039551e-01,3.250000000000000000e+02
-7.767743962194990672e+02,-8.189701404637562518e+02,-5.968256006547491097e+02,-6.103491648332908426e+02,-8.273465985343009379e+02,-7.980355961972854857e+02,-5.726863122011244513e+02,-6.158157425778558718e+02,9.446745872497558594e+00,-4.589512646198272705e-01,-5.354431271553039551e-01,3.260000000000000000e+02
-7.730436642817652455e+02,-8.153174385938229989e+02,-5.886688387177425739e+02,-6.053915843879487966e+02,-8.239455597527791042e+02,-7.936603459743497524e+02,-5.691900997971315519e+02,-6.123268112879918590e+02,9.446745872497558594e+00,-4.589512646198272705e-01,-5.354431271553039551e-01,3.270000000000000000e+02
-7.675427850422845495e+02,-8.115439843993468685e+02,-5.792285158045503977e+02,-6.016645281725972154e+02,-8.208562055400685722e+02,-7.899689173734843735e+02,-5.682630374644618314e+02,-6.105494138974031557e+02,9.446745872497558594e+00,-4.589512646198272705e-01,-5.354431271553039551e-01,3.280000000000000000e+02
-7.609124386801208857e+02,-8.068695392902766343e+02,-5.698558748141962269e+02,-5.983860045503058700e+02,-8.172627255205272832e+02,-7.862485544927908450e+02,-5.688201919628149881e+02,-6.092939464248917147e+02,9.446745872497558594e+00,-4.589512646198272705e-01,-5.354431271553039551e-01,3.290000000000000000e+02
-7.544024121263913685e+02,-8.009489625331345906e+02,-5.624400886844617844e+02,-5.942670796863275200e+02,-8.121104694303570568e+02,-7.816681003467986102e+02,-5.683108703306677398e+02,-6.068212610681175647e+02,9.446745872497558594e+00,-4.589512646198272705e-01,-5.354431271553039551e-01,3.300000000000000000e+02
-7.491064536020526248e+02,-7.941607542950786183e+02,-5.576371119271501584e+02,-5.888525820173692864e+02,-8.051837721508720733e+02,-7.760318786006841947e+02,-5.646377318481499969e+02,-6.020807169417903424e+02,9.446745872497558594e+00,-4.589512646198272705e-01,-5.354431271553039551e-01,3.310000000000000000e+02
-7.453137097974447443e+02,-7.873467044480654522e+02,-5.538951280550990077e+02,-5.830320514535442271e+02,-7.975605258706630138e+02,-7.699818235523480325e+02,-5.577635736912178572e+02,-5.954348263447603813e+02,9.446745872497558594e+00,-4.589512646198272705e-01,-5.354431271553039551e-01,3.320000000000000000e+02
-7.424432976489929388e+02,-7.811987220907133178e+02,-5.484692227757384444e+02,-5.781830378380536786e+02,-7.908930774580576326e+02,-7.644533861544950923e+02,-5.496869636588374988e+02,-5.882590651103884056e+02,9.446745872497558594e+00,-4.589512646198272705e-01,-5.354431271553039551e-01,3.330000000000000000e+02
-7.395544659007020982e+02,-7.758057052945530359e+02,-5.398174110456684502e+02,-5.747612580986846069e+02,-7.860398648169050375e+02,-7.598279942610863600e+02,-5.428422517058830863e+02,-5.817527931964255004e+02,9.446745872497558594e+00,-4.589512646198272705e-01,-5.354431271553039551e-01,3.340000000000000000e+02
-7.359843040396873448e+02,-7.707516354104511720e+02,-5.293464459916626765e+02,-5.717419047157245586e+02,-7.822337672432367981e+02,-7.555071613550560414e+02,-5.382817775789967527e+02,-5.759818061813327859e+02,9.446745872497558594e+00,-4.589512646198272705e-01,-5.354431271553039551e-01,3.350000000000000000e+02
-7.316218312651012639e+02,-7.656364653397527036e+02,-5.208452124408024702e+02,-5.674909172869604390e+02,-7.775574725840172050e+02,-7.502969271174847563e+02,-5.350994700109430369e+02,-5.699570061945373709e+02,9.446745872497558594e+00,-4.589512646198272705e-01,-5.354431271553039551e-01,3.360000000000000000e+02
-7.267182527123909495e+02,-7.604959740515621434e+02,-5.178980590412110132e+02,-5.612407475792376772e+02,-7.703888105515502502e+02,-7.433170030052772290e+02,-5.314460404063938768e+02,-5.626465722451102920e+02,9.446745872497558594e+00,-4.589512646198272705e-01,-5.354431271553039551e-01,3.370000000000000000e+02
-7.215404185543806079e+02,-7.557263720648211347e+02,-5.213457919678451162e+02,-5.537775834174444753e+02,-7.606780001718141193e+02,-7.347294525645040721e+02,-5.261867262792088695e+02,-5.540502688008043606e+02,9.446745872497558594e+00,-4.589512646198272705e-01,-5.354431271553039551e-01,3.380000000000000000e+02
-7.162250615150385329e+02,-7.516444438060277662e+02,-5.288240791199607429e+02,-5.467670637497167263e+02,-7.500672896490214043e+02,-7.257330703873892617e+02,-5.198346996780555855e+02,-5.454428523044127815e+02,9.446745872497558594e+00,-4.589512646198272705e-01,-5.354431271553039551e-01,3.390000000000000000e+02
-7.108877964241153222e+02,-7.481859885860503709e+02,-5.366113077654517838e+02,-5.414755168361282358e+02,-7.408081775749474218e+02,-7.178493409533762133e+02,-5.140922642012155848e+02,-5.386066904382623761e+02,9.446745872497558594e+00,-4.589512646198272705e-01,-5.354431271553039551e-01,3.400000000000000000e+02
-7.057459058084239132e+02,-7.450614539113864794e+02,-5.421334145635214554e+02,-5.381135072347910864e+02,-7.343433600791345270e+02,-7.120596988203092224e+02,-5.104999281580103343e+02,-5.346825456154074345e+02,9.446745872497558594e+00,-4.589512646198272705e-01,-5.354431271553039551e-01,3.410000000000000000e+02
-7.010388925022543845e+02,-7.421483282353406139e+02,-5.451499866503086196e+02,-5.362270538411271446e+02,-7.305779320124488549e+02,-7.083925409896789915e+02,-5.093277396184735153e+02,-5.335003603833538364e+02,9.446745872497558594e+00,-4.589512646198272705e-01,-5.354431271553039551e-01,3.420000000000000000e+02
-6.968188844073715700e+02,-7.396119625631233703e+02,-5.470033152729213271e+02,-5.354473538974473286e+02,-7.282458186601606940e+02,-7.061417136058453252e+02,-5.095153167586386189e+02,-5.337977563633517093e+02,9.523238182067871094e+00,-5.736890435218811035e-01,-5.736890435218811035e-01,3.430000000000000000e+02
-6.928695963846025734e+02,-7.375507882555389187e+02,-5.489481998802950784e+02,-5.356689097219318683e+02,-7.259277052284130605e+02,-7.044184535736001180e+02,-5.095543910582750868e+02,-5.340426520838891520e+02,9.523238182067871094e+00,-5.736890435218811035e-01,-5.736890435218811035e-01,3.440000000000000000e+02
-6.888841473798784136e+02,-7.355352333579764945e+02,-5.510723616063057761e+02,-5.365354460521016335e+02,-7.228630098388018723e+02,-7.025794951359903280e+02,-5.084996019242430521e+02,-5.332051522331257729e+02,9.523238182067871094e+00,-5.736890435218811035e-01,-5.736890435218811035e-01,3.450000000000000000e+02
-6.847436090484691249e+02,-7.326045240155951888e+02,-5.524920017269871551e+02,-5.369996337375318944e+02,-7.190255936395960816e+02,-7.003064640542163488e+02,-5.063393384554922250e+02,-5.310123720860824506e+02,9.523238182067871094e+00,-5.736890435218811035e-01,-5.736890435218811035e-01,3.460000000000000000e+02
-6.805990495583316715e+02,-7.278532651478649314e+02,-5.523053429410153967e+02,-5.356675808596785373e+02,-7.146195415115107608e+02,-6.974480951928917420e+02,-5.035893605841201861e+02,-5.276991005723130002e+02,9.523238182067871094e+00,-5.736890435218811035e-01,-5.736890435218811035e-01,3.470000000000000000e+02
-6.766504308923831559e+02,-7.211187437151436370e+02,-5.503422350899099911e+02,-5.317426159531119083e+02,-7.096099060174710758e+02,-6.938851508175905565e+02,-5.006248930705758085e+02,-5.236116890497205532e+02,9.523238182067871094e+00,-5.736890435218811035e-01,-5.736890435218811035e-01,3.480000000000000000e+02
-6.728570460308274050e+02,-7.131381871881644656e+02,-5.472044854830699023e+02,-5.256722592212156542e+02,-7.037638937572962732e+02,-6.895574620652607791e+02,-4.973829981143037458e+02,-5.190098264125203968e+02,9.523238182067871094e+00,-5.736890435218811035e-01,-5.736890435218811035e-01,3.490000000000000000e+02
-6.689105297777689429e+02,-7.050586928931074908e+02,-5.438064678798755267e+02,-5.188592169214766727e+02,-6.970925472887283831e+02,-6.845687990023616294e+02,-4.936259828840841237e+02,-5.141291463233737886e+02,9.523238182067871094e+00,-5.736890435218811035e-01,-5.736890435218811035e-01,3.500000000000000000e+02
-6.645206681659340120e+02,-6.977729297748853696e+02,-5.409055563106769569e+02,-5.127122547710691833e+02,-6.901477518597930612e+02,-6.792199669119543159e+02,-4.894004275275601685e+02,-5.093131405820204236e+02,9.523238182067871094e+00,-5.736890435218811035e-01,-5.736890435218811035e-01,3.510000000000000000e+02
-6.597187458953189889e+02,-6.916260731462539297e+02,-5.388771192200920268e+02,-5.078979353292156702e+02,-6.837840034589660263e+02,-6.739174561923243800e+02,-4.851721991712340696e+02,-5.050047112901906985e+02,9.523238182067871094e+00,-5.736890435218811035e-01,-5.736890435218811035e-01,3.520000000000000000e+02
-6.548329029898616227e+02,-6.865805949248863271e+02,-5.376763460816584939e+02,-5.043359689730909849e+02,-6.785388271597835228e+02,-6.690250562376586458e+02,-4.814685805528647506e+02,-5.015454040336328490e+02,9.523238182067871094e+00,-5.736890435218811035e-01,-5.736890435218811035e-01,3.530000000000000000e+02
-6.501350347750073979e+02,-6.824800186151462640e+02,-5.368874592878128169e+02,-5.016980559901633114e+02,-6.742185264892789291e+02,-6.647504661178122660e+02,-4.783872922996836223e+02,-4.989401070402745972e+02,9.523238182067871094e+00,-5.736890435218811035e-01,-5.736890435218811035e-01,3.540000000000000000e+02
-6.455298661791280210e+02,-6.790879153782559570e+02,-5.358645286939529342e+02,-4.997733634321989484e+02,-6.701133619426909718e+02,-6.610960536467655402e+02,-4.754947331095190748e+02,-4.968058813736990942e+02,9.523238182067871094e+00,-5.736890435218811035e-01,-5.736890435218811035e-01,3.550000000000000000e+02
-6.406558402376117556e+02,-6.759566342301941404e+02,-5.340064459283955784e+02,-4.983730745509315057e+02,-6.656369285975777075e+02,-6.578350408761514245e+02,-4.722499499893765460e+02,-4.945404392383752565e+02,9.523238182067871094e+00,-5.736890435218811035e-01,-5.736890435218811035e-01,3.560000000000000000e+02
-6.353454102484838586e+02,-6.724287197593594101e+02,-5.310611979233333386e+02,-4.970424616521609096e+02,-6.607644205416163459e+02,-6.545188013986264650e+02,-4.685536470797442234e+02,-4.915696522493437897e+02,9.523238182067871094e+00,-5.736890435218811035e-01,-5.736890435218811035e-01,3.570000000000000000e+02
-6.299681184965670582e+02,-6.679292484882143981e+02,-5.272228116943888381e+02,-4.950541802838781678e+02,-6.558652286582409943e+02,-6.505895338851196357e+02,-4.648625978340735401e+02,-4.875109952421996695e+02,9.523238182067871094e+00,-5.736890435218811035e-01,-5.736890435218811035e-01,3.580000000000000000e+02
-6.252297731196472341e+02,-6.623203548503151978e+02,-5.228880119071532135e+02,-4.917751235789578459e+02,-6.511210481249752320e+02,-6.456005554177654631e+02,-4.616904784417915835e+02,-4.821734119050640857e+02,9.523238182067871094e+00,-5.736890435218811035e-01,-5.736890435218811035e-01,3.590000000000000000e+02
-6.215093450684498748e+02,-6.559599350610778856e+02,-5.182568183988316832e+02,-4.870505165532592855e+02,-6.461297108777678204e+02,-6.394151324679507979e+02,-4.589276744637129468e+02,-4.754942755469503481e+02,9.523238182067871094e+00,-5.736890435218811035e-01,-5.736890435218811035e-01,3.600000000000000000e+02
-6.183026144468551593e+02,-6.493728367917094602e+02,-5.131556757080638818e+02,-4.812375283092083009e+02,-6.401123664131951045e+02,-6.322186675304060373e+02,-4.556514960813408379e+02,-4.675666125103732611e+02,9.523238182067871094e+00,-5.736890435218811035e-01,-5.736890435218811035e-01,3.610000000000000000e+02
-6.143328690169496440e+02,-6.428064896231360308e+02,-5.072800480824973874e+02,-4.748958109409381905e+02,-6.325487701072156597e+02,-6.243311802759606053e+02,-4.507072061165981722e+02,-4.587753138800194392e+02,9.523238182067871094e+00,-5.736890435218811035e-01,-5.736890435218811035e-01,3.620000000000000000e+02
-6.083420679831026519e+02,-6.360458379820117898e+02,-5.006582075445980990e+02,-4.684624603961124194e+02,-6.236764856306731417e+02,-6.160224967671169907e+02,-4.436518012335802723e+02,-4.498910561058289659e+02,9.523238182067871094e+00,-5.736890435218811035e-01,-5.736890435218811035e-01,3.630000000000000000e+02
-5.999656746096372899e+02,-6.286343344333354253e+02,-4.938764659245032362e+02,-4.621709883559244645e+02,-6.144192847456483833e+02,-6.075314869032085880e+02,-4.352696380493700872e+02,-4.419115330306076430e+02,9.484992027282714844e+00,-5.354431271553039551e-01,-5.736890435218811035e-01,3.640000000000000000e+02
-5.899936621836673112e+02,-6.203237683118366022e+02,-4.877482317406306720e+02,-4.561774865446379863e+02,-6.058099750832939208e+02,-5.992547189320623602e+02,-4.271911206707313795e+02,-4.356271197466712692e+02,9.484992027282714844e+00,-5.354431271553039551e-01,-5.736890435218811035e-01,3.650000000000000000e+02
-5.798277746507797019e+02,-6.114115336286804450e+02,-4.826494127151629527e+02,-4.506709857088908393e+02,-5.983751261772042653e+02,-5.918257169350872573e+02,-4.208821359802523148e+02,-4.311614617183986411e+02,9.484992027282714844e+00,-5.354431271553039551e-01,-5.736890435218811035e-01,3.660000000000000000e+02
-5.706027376062572785e+02,-6.027160587530333942e+02,-4.781324566307230270e+02,-4.458219225293387353e+02,-5.919395282460200178e+02,-5.858635912410486526e+02,-4.167876839310883952e+02,-4.278445879799974136e+02,9.484992027282714844e+00,-5.354431271553039551e-01,-5.736890435218811035e-01,3.670000000000000000e+02
-5.626740042017236192e+02,-5.951857916809844937e+02,-4.732909638714122593e+02,-4.416320708426505917e+02,-5.859444632575491596e+02,-5.815209890322757929e+02,-4.142446290426066753e+02,-4.245784681332963828e+02,9.484992027282714844e+00,-5.354431271553039551e-01,-5.736890435218811035e-01,3.680000000000000000e+02
-5.557874238977883579e+02,-5.893689795797511124e+02,-4.676542791700085218e+02,-4.378608216970505964e+02,-5.799802449718458774e+02,-5.782361842035279551e+02,-4.121322017434829377e+02,-4.204925316684459631e+02,9.484992027282714844e+00,-5.354431271553039551e-01,-5.736890435218811035e-01,3.690000000000000000e+02
-5.496322306941206080e+02,-5.850831857860134733e+02,-4.617825012328621597e+02,-4.341227572582388348e+02,-5.740990526672051146e+02,-5.749918483499209287e+02,-4.096490076402214981e+02,-4.154339444614213335e+02,9.484992027282714844e+00,-5.354431271553039551e-01,-5.736890435218811035e-01,3.700000000000000000e+02
-5.441934629322959154e+02,-5.815260630980333190e+02,-4.568808461473997795e+02,-4.301081181709021166e+02,-5.686790265594540870e+02,-5.709465699536222019e+02,-4.066103187785315640e+02,-4.099533774835058466e+02,9.484992027282714844e+00,-5.354431271553039551e-01,-5.736890435218811035e-01,3.710000000000000000e+02
-5.396001057169162323e+02,-5.777633862849318120e+02,-4.536432165904352587e+02,-4.257710723160826092e+02,-5.639892408846826584e+02,-5.659303588053603562e+02,-4.031751753749049385e+02,-4.048132612633337430e+02,9.484992027282714844e+00,-5.354431271553039551e-01,-5.736890435218811035e-01,3.720000000000000000e+02
-5.357111584243125435e+02,-5.732346984212254029e+02,-4.513368462404391721e+02,-4.213307617430882601e+02,-5.598616654117531652e+02,-5.604003794373293204e+02,-3.994164778727754310e+02,-4.004019198433231850e+02,9.484992027282714844e+00,-5.354431271553039551e-01,-5.736890435218811035e-01,3.730000000000000000e+02
-5.319503894552035490e+02,-5.678959965681642643e+02,-4.480176114977487032e+02,-4.170487266176958201e+02,-5.557832409278325940e+02,-5.549220744158415073e+02,-3.952050707486253032e+02,-3.964861172527855615e+02,9.484992027282714844e+00,-5.354431271553039551e-01,-5.736890435218811035e-01,3.740000000000000000e+02
-5.276384695085109797e+02,-5.619514714284366619e+02,-4.417778195993539612e+02,-4.129216835384168007e+02,-5.513482404255596521e+02,-5.496500107546230538e+02,-3.904756039720423360e+02,-3.924555409341783161e+02,9.484992027282714844e+00,-5.354431271553039551e-01,-5.736890435218811035e-01,3.750000000000000000e+02
-5.225558328133224677e+02,-5.555132960724533859e+02,-4.320139462646316133e+02,-4.085665963037308757e+02,-5.466672196942040500e+02,-5.442609935842933737e+02,-3.855286757305848369e+02,-3.878526356381241840e+02,9.484992027282714844e+00,-5.354431271553039551e-01,-5.736890435218811035e-01,3.760000000000000000e+02
-5.171911720218338360e+02,-5.485689967894281835e+02,-4.197192430736397455e+02,-4.034869445736792386e+02,-5.423289514328625955e+02,-5.383587002217150257e+02,-3.809924673626119329e+02,-3.827708976963781424e+02,9.484992027282714844e+00,-5.354431271553039551e-01,-5.736890435218811035e-01,3.770000000000000000e+02
-5.123888134381313648e+02,-5.412849920603471219e+02,-4.066896994571277446e+02,-3.975932207624866805e+02,-5.388970262446864581e+02,-5.319558620950460863e+02,-3.774284233955283980e+02,-3.778167054094878949e+02,9.484992027282714844e+00,-5.354431271553039551e-01,-5.736890435218811035e-01,3.780000000000000000e+02
-5.086650604006117646e+02,-5.342671911317693230e+02,-3.944462401809526000e+02,-3.915403681571453944e+02,-5.363512222760950863e+02,-5.255964930605700829e+02,-3.749342562038118558e+02,-3.736614310272561852e+02,9.484992027282714844e+00,-5.354431271553039551e-01,-5.736890435218811035e-01,3.790000000000000000e+02
-5.057895376630094688e+02,-5.283956935081064330e+02,-3.837004242428711223e+02,-3.864864936405283515e+02,-5.339729877068552923e+02,-5.200141123474686538e+02,-3.731181049801657537e+02,-3.705344107894170520e+02,9.484992027282714844e+00,-5.354431271553039551e-01,-5.736890435218811035e-01,3.800000000000000000e+02
-5.030099014309291761e+02,-5.242785040527360252e+02,-3.744464902060285567e+02,-3.833349968684774467e+02,-5.307994241688215880e+02,-5.156156289955356442e+02,-3.714718450520172155e+02,-3.680472036219639449e+02,9.484992027282714844e+00,-5.354431271553039551e-01,-5.736890435218811035e-01,3.810000000000000000e+02
-4.996973024521234947e+02,-5.217713261968501683e+02,-3.661981364496616607e+02,-3.820339678705117876e+02,-5.262746575487544760e+02,-5.122074258067591472e+02,-3.697932307850587677e+02,-3.654862162288104628e+02,9.484992027282714844e+00,-5.354431271553039551e-01,-5.736890435218811035e-01,3.820000000000000000e+02
-4.957965335514336402e+02,-5.199780108451636806e+02,-3.581121620607184468e+02,-3.815488530857523983e+02,-5.205622795574099655e+02,-5.091587210193115425e+02,-3.682587575425663999e+02,-3.623342509705194061e+02,9.484992027282714844e+00,-5.354431271553039551e-01,-5.736890435218811035e-01,3.830000000000000000e+02
-4.916686623841067103e+02,-5.177269473868632303e+02,-3.492646516232957765e+02,-3.805691593430510693e+02,-5.142715754289124561e+02,-5.058333799516958607e+02,-3.670641836178733683e+02,-3.585680531819475618e+02,9.484992027282714844e+00,-5.354431271553039551e-01,-5.736890435218811035e-01,3.840000000000000000e+02
-4.875496430258058354e+02,-5.141584146089135174e+02,-3.393147799703049259e+02,-3.783698812405855278e+02,-5.078867494993423861e+02,-5.019376181937145702e+02,-3.659755259094054054e+02,-3.544970438710006420e+02,9.484992027282714844e+00,-5.354431271553039551e-01,-5.736890435218811035e-01,3.850000000000000000e+02
-4.832589294665845046e+02,-5.090800286083986066e+02,-3.291303241780019562e+02,-3.751469372137134997e+02,-5.014583116663920919e+02,-4.975712971565421867e+02,-3.642725915750775130e+02,-3.503478769308858318e+02,9.484992027282714844e+00,-5.354431271553039551e-01,-5.736890435218811035e-01,3.860000000000000000e+02
-4.785222900782932811e+02,-5.030092682171143679e+02,-3.205313997275802649e+02,-3.716584937990469371e+02,-4.948557156205847605e+02,-4.930512896634877507e+02,-3.612530898777881703e+02,-3.460592949552346909e+02,9.484992027282714844e+00,-5.354431271553039551e-01,-5.736890435218811035e-01,3.870000000000000000e+02
-4.735805562619821103e+02,-4.969732928978346536e+02,-3.149626266906921046e+02,-3.686129825929656363e+02,-4.883274198945487115e+02,-4.887344337796957916e+02,-3.569402056335152338e+02,-3.415502662844141923e+02,9.484992027282714844e+00,-5.354431271553039551e-01,-5.736890435218811035e-01,3.880000000000000000e+02
-4.693529318167056772e+02,-4.920831150917124432e+02,-3.121281731348426547e+02,-3.663414020483751301e+02,-4.827515612782826793e+02,-4.849510652344920345e+02,-3.523456203647101574e+02,-3.371679883433598661e+02,9.523238182067871094e+00,-4.971971809864044189e-01,-5.736890435218811035e-01,3.890000000000000000e+02
-4.667798442615112435e+02,-4.889349865144381511e+02,-3.100426075424611554e+02,-3.648465200870159606e+02,-4.791727010843915195e+02,-4.819471280906641368e+02,-3.489028348704464406e+02,-3.337208420366823702e+02,9.523238182067871094e+00,-4.971971809864044189e-01,-5.736890435218811035e-01,3.900000000000000000e+02
-4.658158282243080066e+02,-4.871076037977095439e+02,-3.067528443803557821e+02,-3.639062270516214994e+02,-4.778677172907709974e+02,-4.797038141568341416e+02,-3.473587486727160467e+02,-3.318222224636301689e+02,9.523238182067871094e+00,-4.971971809864044189e-01,-5.736890435218811035e-01,3.910000000000000000e+02
-4.650526264928666933e+02,-4.852198500456315742e+02,-3.022233183379057664e+02,-3.630044271706242398e+02,-4.777335570533796272e+02,-4.777173937329557702e+02,-3.469786035045767676e+02,-3.310250185343838893e+02,9.523238182067871094e+00,-4.971971809864044189e-01,-5.736890435218811035e-01,3.920000000000000000e+02
-4.625327493983886598e+02,-4.817672470902120949e+02,-2.984437078324490358e+02,-3.612929147494255631e+02,-4.766709218812939071e+02,-4.750276084508550412e+02,-3.458334436387754067e+02,-3.296520478668121541e+02,9.523238182067871094e+00,-4.971971809864044189e-01,-5.736890435218811035e-01,3.930000000000000000e+02
-4.572419960769966565e+02,-4.762916554124749382e+02,-2.974117020777912330e+02,-3.579615650680843828e+02,-4.728662284006395566e+02,-4.706942252344178996e+02,-3.421404919809333478e+02,-3.257733745499062934e+02,9.523238182067871094e+00,-4.971971809864044189e-01,-5.736890435218811035e-01,3.940000000000000000e+02
-4.500516473161833346e+02,-4.699439328737635151e+02,-2.988426195627021116e+02,-3.529642465310453190e+02,-4.660687603164724351e+02,-4.644979963506943932e+02,-3.357220387197903619e+02,-3.187459660161357533e+02,9.523238182067871094e+00,-4.971971809864044189e-01,-5.736890435218811035e-01,3.950000000000000000e+02
-4.432508993471333270e+02,-4.648045497458028876e+02,-2.999467695762441508e+02,-3.474669039728605640e+02,-4.578605788153972753e+02,-4.573114045511060795e+02,-3.284153277258656090e+02,-3.100589566058492892e+02,9.523238182067871094e+00,-4.971971809864044189e-01,-5.736890435218811035e-01,3.960000000000000000e+02
-4.389812657898964972e+02,-4.623486774586440333e+02,-2.977016404858245551e+02,-3.433893630144748386e+02,-4.506804980114584396e+02,-4.507387097543369237e+02,-3.230098759472016354e+02,-3.026524460272853503e+02,9.523238182067871094e+00,-4.971971809864044189e-01,-5.736890435218811035e-01,3.970000000000000000e+02
-4.378319487361195570e+02,-4.622747485578279338e+02,-2.915783897065703059e+02,-3.421595857710258315e+02,-4.463475516668750060e+02,-4.462052347847643432e+02,-3.214427125856154817e+02,-2.991033843347813672e+02,9.523238182067871094e+00,-4.971971809864044189e-01,-5.736890435218811035e-01,3.980000000000000000e+02
-4.386900989669120463e+02,-4.627103375611595766e+02,-2.841325597107356771e+02,-3.436399887467441658e+02,-4.451623251187384085e+02,-4.441550004376149445e+02,-3.235858679387974917e+02,-3.000362342189755509e+02,9.523238182067871094e+00,-4.971971809864044189e-01,-5.736890435218811035e-01,3.990000000000000000e+02
-4.398156556703579554e+02,-4.616695969385591525e+02,-2.788735147262041210e+02,-3.461925443645168343e+02,-4.460988859963322284e+02,-4.439458607929650498e+02,-3.274868369576456644e+02,-3.039375798258488430e+02,9.523238182067871094e+00,-4.971971809864044189e-01,-5.736890435218811035e-01,4.000000000000000000e+02
-4.401053302131290366e+02,-4.585561361331888293e+02,-2.773879361340091236e+02,-3.479156027444078063e+02,-4.477018889160212893e+02,-4.444565454928037980e+02,-3.307697697441803939e+02,-3.083905953509265601e+02,9.523238182067871094e+00,-4.971971809864044189e-01,-5.736890435218811035e-01,4.010000000000000000e+02
-4.395095310004462590e+02,-4.544907435345094200e+02,-2.783005802024049444e+02,-3.480440158601472831e+02,-4.488880829214231198e+02,-4.448585187074513669e+02,-3.320664001965269563e+02,-3.116452235195251887e+02,9.523238182067871094e+00,-4.971971809864044189e-01,-5.736890435218811035e-01,4.020000000000000000e+02
-4.384892138822979177e+02,-4.512890583023818181e+02,-2.787988984550852365e+02,-3.473397230311024941e+02,-4.491797983804131036e+02,-4.449644444533587375e+02,-3.314812309030603501e+02,-3.133432033953349674e+02,9.523238182067871094e+00,-4.971971809864044189e-01,-5.736890435218811035e-01,4.030000000000000000e+02
-4.372753623162961958e+02,-4.500275753941623407e+02,-2.770994421026221062e+02,-3.472058030425573634e+02,-4.485226813871604463e+02,-4.450025686131543807e+02,-3.300000959494636845e+02,-3.140934117127576428e+02,9.523238182067871094e+00,-4.971971809864044189e-01,-5.736890435218811035e-01,4.040000000000000000e+02
-4.356982303825316194e+02,-4.503633336434095327e+02,-2.736328593505577373e+02,-3.483715966622276028e+02,-4.471005242957767223e+02,-4.451504916640951706e+02,-3.285600718717309974e+02,-3.145511828820726805e+02,9.523238182067871094e+00,-4.971971809864044189e-01,-5.736890435218811035e-01,4.050000000000000000e+02
-4.336094093178071489e+02,-4.510085051756636858e+02,-2.702025484357727692e+02,-3.503029133190607354e+02,-4.453097018519179073e+02,-4.452735432632644006e+02,-3.275474803793695173e+02,-3.148769374193529984e+02,9.523238182067871094e+00,-4.971971809864044189e-01,-5.736890435218811035e-01,4.060000000000000000e+02
-4.312860450093021427e+02,-4.507984616919552536e+02,-2.682550038162457895e+02,-3.517744513059133169e+02,-4.437207032385990715e+02,-4.450453992677889801e+02,-3.269170333599172409e+02,-3.148833557167263280e+02,9.523238182067871094e+00,-4.971971809864044189e-01,-5.736890435218811035e-01,4.070000000000000000e+02
-4.293043002944950786e+02,-4.494575442888435646e+02,-2.678591637648869437e+02,-3.519786751705837560e+02,-4.428233490917696145e+02,-4.442604568358269717e+02,-3.265531810787438189e+02,-3.144679770809721049e+02,9.523238182067871094e+00,-4.971971809864044189e-01,-5.736890435218811035e-01,4.080000000000000000e+02
-4.280285668857932251e+02,-4.475912218029980068e+02,-2.679521010952612414e+02,-3.511387903699705930e+02,-4.426355120349744539e+02,-4.429952489753468399e+02,-3.264147248283270528e+02,-3.137598590254847295e+02,9.523238182067871094e+00,-4.971971809864044189e-01,-5.736890435218811035e-01,4.090000000000000000e+02
-4.273136979222354057e+02,-4.461038749570184336e+02,-2.672435273782484728e+02,-3.501486610478768853e+02,-4.425138757495678874e+02,-4.414708857928530961e+02,-3.263837420074892179e+02,-3.128565299429069455e+02,9.523238182067871094e+00,-4.971971809864044189e-01,-5.736890435218811035e-01,4.100000000000000000e+02
-4.267674318642439175e+02,-4.455568843723117425e+02,-2.649701642338741294e+02,-3.496710828853842941e+02,-4.414256399274154319e+02,-4.397642511882563667e+02,-3.261065034592297707e+02,-3.115468136926410807e+02,9.523238182067871094e+00,-4.971971809864044189e-01,-5.736890435218811035e-01,4.110000000000000000e+02
-4.262557045781486522e+02,-4.458484520202464410e+02,-2.612424064644787904e+02,-3.495558330078802101e+02,-4.385843380398296176e+02,-4.376671215687138101e+02,-3.251159163054157943e+02,-3.094430795507014409e+02,9.523238182067871094e+00,-4.971971809864044189e-01,-5.736890435218811035e-01,4.120000000000000000e+02
-4.260514498091683890e+02,-4.463111442618228466e+02,-2.570678291081931093e+02,-3.490784051801629175e+02,-4.340616734176342106e+02,-4.348886071428787545e+02,-3.232142561085101988e+02,-3.064974062496276019e+02,9.523238182067871094e+00,-4.971971809864044189e-01,-5.736890435218811035e-01,4.130000000000000000e+02
-4.264413485074251184e+02,-4.461195796483875711e+02,-2.539780756835903048e+02,-3.477258370110262149e+02,-4.289505509289338079e+02,-4.314704279730935923e+02,-3.207943685723234921e+02,-3.034074094736679399e+02,9.523238182067871094e+00,-4.971971809864044189e-01,-5.736890435218811035e-01,4.140000000000000000e+02
-4.272288122129834846e+02,-4.448072620756774995e+02,-2.531234138291665658e+02,-3.458024341238947272e+02,-4.248988816510150173e+02,-4.280277763401336415e+02,-3.187932128487273076e+02,-3.014334915701765567e+02,9.523238182067871094e+00,-4.971971809864044189e-01,-5.736890435218811035e-01,4.150000000000000000e+02
-4.277086130778852748e+02,-4.426286211507567714e+02,-2.542316819633138039e+02,-3.443317522555253163e+02,-4.232289812969142986e+02,-4.255172265806777432e+02,-3.182494881836678360e+02,-3.016701410238547396e+02,9.446745872497558594e+00,-5.736890435218811035e-01,-6.119350194931030273e-01,4.160000000000000000e+02
-4.271800755415574713e+02,-4.404823745742100982e+02,-2.554005202461912631e+02,-3.443232604059703590e+02,-4.241574576728071406e+02,-4.246060675306430312e+02,-3.196996684698201534e+02,-3.043234676579718325e+02,9.446745872497558594e+00,-5.736890435218811035e-01,-6.119350194931030273e-01,4.170000000000000000e+02
-4.254919889718717059e+02,-4.393323401820975960e+02,-2.543844201002561931e+02,-3.459877594404774754e+02,-4.266515686435536736e+02,-4.251316971714650208e+02,-3.227942059555225569e+02,-3.085950543838362137e+02,9.446745872497558594e+00,-5.736890435218811035e-01,-6.119350194931030273e-01,4.180000000000000000e+02
-4.230853136570517563e+02,-4.394874391532407572e+02,-2.507016079985442047e+02,-3.485185857746687361e+02,-4.290814089877130755e+02,-4.261416646603083791e+02,-3.264059917984359345e+02,-3.132721970309321478e+02,9.446745872497558594e+00,-5.736890435218811035e-01,-6.119350194931030273e-01,4.190000000000000000e+02
-4.205444053229730343e+02,-4.403263170559289392e+02,-2.467333220040413835e+02,-3.506088701873441096e+02,-4.302344574408766675e+02,-4.265347303136627488e+02,-3.291749693841511544e+02,-3.174977210448410005e+02,9.446745872497558594e+00,-5.736890435218811035e-01,-6.119350194931030273e-01,4.200000000000000000e+02
-4.181756981998873925e+02,-4.407646246403919577e+02,-2.464882781130886542e+02,-3.513148931426480885e+02,-4.299538961512553215e+02,-4.257921115897634081e+02,-3.301556571137075480e+02,-3.210655322464508572e+02,9.446745872497558594e+00,-5.736890435218811035e-01,-6.119350194931030273e-01,4.210000000000000000e+02
-4.160231461804573883e+02,-4.401259909354639603e+02,-2.527060067873844673e+02,-3.506210149176718005e+02,-4.289435462681885838e+02,-4.241948793125948214e+02,-3.291593309927538940e+02,-3.240795363348793217e+02,9.446745872497558594e+00,-5.736890435218811035e-01,-6.119350194931030273e-01,4.220000000000000000e+02
-4.141791646686415334e+02,-4.386746515087734224e+02,-2.646453021153020018e+02,-3.493137939564380758e+02,-4.279856974134754637e+02,-4.223905059048629482e+02,-3.266134715515054268e+02,-3.264363547074472081e+02,9.446745872497558594e+00,-5.736890435218811035e-01,-6.119350194931030273e-01,4.230000000000000000e+02
-4.129021847609242286e+02,-4.373282995648532960e+02,-2.784831205657496866e+02,-3.483052671476339128e+02,-4.273001658906823650e+02,-4.207549401724813833e+02,-3.231423109291313267e+02,-3.277378592041864067e+02,9.446745872497558594e+00,-5.736890435218811035e-01,-6.119350194931030273e-01,4.240000000000000000e+02
-4.123127499847346371e+02,-4.368183987371235162e+02,-2.899929212764000113e+02,-3.479697189698822513e+02,-4.265604029794749295e+02,-4.191390935886902298e+02,-3.192747632956620691e+02,-3.277494462634213050e+02,9.446745872497558594e+00,-5.736890435218811035e-01,-6.119350194931030273e-01,4.250000000000000000e+02
-4.120014016600148352e+02,-4.370620829952590611e+02,-2.972111182736775845e+02,-3.480024033935615080e+02,-4.254113358675649579e+02,-4.171644748519101995e+02,-3.155036732474968630e+02,-3.268987450068261751e+02,9.446745872497558594e+00,-5.736890435218811035e-01,-6.119350194931030273e-01,4.260000000000000000e+02
-4.110826199422522222e+02,-4.372714478071884514e+02,-3.009954372607239748e+02,-3.478273452318740055e+02,-4.238850078280029265e+02,-4.146898023237031339e+02,-3.124938067650437006e+02,-3.262018207220107797e+02,9.446745872497558594e+00,-5.736890435218811035e-01,-6.119350194931030273e-01,4.270000000000000000e+02
-4.087966435210150848e+02,-4.366062342632285436e+02,-3.034361380779391766e+02,-3.471207341519007059e+02,-4.223194305349957176e+02,-4.119641767450825682e+02,-3.110226757209179596e+02,-3.265685613094601649e+02,9.446745872497558594e+00,-5.736890435218811035e-01,-6.119350194931030273e-01,4.280000000000000000e+02
-4.051572150243323449e+02,-4.347208707100130596e+02,-3.059193021759851945e+02,-3.459833324664073189e+02,-4.209722116922052919e+02,-4.093705632876385607e+02,-3.115010117306696884e+02,-3.280928971804014509e+02,9.446745872497558594e+00,-5.736890435218811035e-01,-6.119350194931030273e-01,4.290000000000000000e+02
-4.010284134251669457e+02,-4.318022233740230149e+02,-3.085533392067104614e+02,-3.446859597998509344e+02,-4.198171174896879165e+02,-4.070788912541274840e+02,-3.134372964391441201e+02,-3.300036444467259571e+02,9.446745872497558594e+00,-5.736890435218811035e-01,-6.119350194931030273e-01,4.300000000000000000e+02
-3.975272607083397816e+02,-4.282732090041245101e+02,-3.109859669230277177e+02,-3.433294240472764614e+02,-4.186949010168318637e+02,-4.049623258027968404e+02,-3.154322444821227691e+02,-3.313245321540953228e+02,9.446745872497558594e+00,-5.736890435218811035e-01,-6.119350194931030273e-01,4.310000000000000000e+02
-3.952628467267941232e+02,-4.245852547088102256e+02,-3.132711151145067561e+02,-3.417827805429274122e+02,-4.175274890935997973e+02,-4.027930062635014110e+02,-3.159050753206024638e+02,-3.316104737684240717e+02,9.446745872497558594e+00,-5.736890435218811035e-01,-6.119350194931030273e-01,4.320000000000000000e+02
-3.940369278428179314e+02,-4.212252772375909444e+02,-3.157166490749691548e+02,-3.399085577358555383e+02,-4.162543638579932122e+02,-4.004366930723363112e+02,-3.140692046997310172e+02,-3.310820675016561836e+02,9.446745872497558594e+00,-5.736890435218811035e-01,-6.119350194931030273e-01,4.330000000000000000e+02
-3.931624018173274635e+02,-4.186716885460573394e+02,-3.180216756050658660e+02,-3.377604574175888956e+02,-4.145647487691076094e+02,-3.978395353718956358e+02,-3.103926089661295009e+02,-3.301222424901202430e+02,9.446745872497558594e+00,-5.736890435218811035e-01,-6.119350194931030273e-01,4.340000000000000000e+02
-3.920206203049879150e+02,-4.170976314827375973e+02,-3.188692254106244945e+02,-3.355243667022950831e+02,-4.118665398366556474e+02,-3.949200060445687086e+02,-3.061924648880221866e+02,-3.287749033160412182e+02,9.446745872497558594e+00,-5.736890435218811035e-01,-6.119350194931030273e-01,4.350000000000000000e+02
-3.903742860363831824e+02,-4.160685511545229929e+02,-3.165850166024620194e+02,-3.333098660028604172e+02,-4.077284641154242308e+02,-3.916022250717041970e+02,-3.027403895479733364e+02,-3.268299046413681026e+02,9.446745872497558594e+00,-5.736890435218811035e-01,-6.119350194931030273e-01,4.360000000000000000e+02
-3.882989630538918391e+02,-4.147110670903439313e+02,-3.102885430004225782e+02,-3.310906178815785097e+02,-4.024363963511996189e+02,-3.880243567977349812e+02,-3.006075474999374819e+02,-3.243804830479502925e+02,9.446745872497558594e+00,-5.736890435218811035e-01,-6.119350194931030273e-01,4.370000000000000000e+02
-3.859684961876660054e+02,-4.124043106969143082e+02,-3.004806427850085129e+02,-3.288745806031947723e+02,-3.970566348533347991e+02,-3.846578768221243081e+02,-2.996473700005085448e+02,-3.221633051121548306e+02,9.446745872497558594e+00,-5.736890435218811035e-01,-6.119350194931030273e-01,4.380000000000000000e+02
-3.835338114910500735e+02,-4.093738655610704882e+02,-2.886614213937323257e+02,-3.268272899944895471e+02,-3.928028979270820855e+02,-3.820670526272606367e+02,-2.993900330558853966e+02,-3.211664884829901894e+02,9.446745872497558594e+00,-5.736890435218811035e-01,-6.119350194931030273e-01,4.390000000000000000e+02
-3.811003752268657081e+02,-4.064909833448114114e+02,-2.765227655006524401e+02,-3.250741059635897727e+02,-3.901979957485282284e+02,-3.804015517927418841e+02,-2.993697931108263219e+02,-3.217764891578681272e+02,9.446745872497558594e+00,-5.736890435218811035e-01,-6.119350194931030273e-01,4.400000000000000000e+02
-3.786659569336943605e+02,-4.043248198541095917e+02,-2.653990640596548474e+02,-3.233131189788373376e+02,-3.887586647044745405e+02,-3.790763960059316560e+02,-2.991882716708510088e+02,-3.232834520583696758e+02,9.446745872497558594e+00,-5.736890435218811035e-01,-6.119350194931030273e-01,4.410000000000000000e+02
-3.759997363432676138e+02,-4.023541497905098367e+02,-2.560575360054067460e+02,-3.207307999951308375e+02,-3.874436267905011846e+02,-3.770267735349448230e+02,-2.985005186921898712e+02,-3.242807225345454754e+02,9.446745872497558594e+00,-5.736890435218811035e-01,-6.119350194931030273e-01,4.420000000000000000e+02
-3.726373675316926892e+02,-3.992186705684480330e+02,-2.484981125489057376e+02,-3.165185024070096915e+02,-3.854097482341094292e+02,-3.734296891080243768e+02,-2.971288774042191108e+02,-3.236336303733173736e+02,9.446745872497558594e+00,-5.736890435218811035e-01,-6.119350194931030273e-01,4.430000000000000000e+02
-3.681233457767125401e+02,-3.938993573639800161e+02,-2.417544316895764496e+02,-3.106370511806717332e+02,-3.824113290745772247e+02,-3.683153187331804475e+02,-2.951941135366951130e+02,-3.211497303926767017e+02,9.446745872497558594e+00,-5.736890435218811035e-01,-6.119350194931030273e-01,4.440000000000000000e+02
-3.623920585812734316e+02,-3.867343459930634708e+02,-2.342286371288669216e+02,-3.040768403404390483e+02,-3.786338588290318512e+02,-3.625374044508907900e+02,-2.929954758950070755e+02,-3.174136050842453187e+02,9.446745872497558594e+00,-5.736890435218811035e-01,-6.119350194931030273e-01,4.450000000000000000e+02
-3.559775383400028659e+02,-3.792752733198040005e+02,-2.248991081909225613e+02,-2.982449779692469747e+02,-3.743271377898277024e+02,-3.571373571532685673e+02,-2.906543568639367550e+02,-3.131009601772634596e+02,9.446745872497558594e+00,-5.736890435218811035e-01,-6.119350194931030273e-01,4.460000000000000000e+02
-3.498204026281596271e+02,-3.731216584680728374e+02,-2.147500451308906122e+02,-2.939720377282151276e+02,-3.696843392244845745e+02,-3.526785862880683453e+02,-2.879017921514282534e+02,-3.085545000439929026e+02,9.484992027282714844e+00,-4.971971809864044189e-01,-5.736890435218811035e-01,4.470000000000000000e+02
-3.447533066233067984e+02,-3.688567504641728192e+02,-2.070210782412518711e+02,-2.910498106267932599e+02,-3.649953032668699962e+02,-3.491071032805666619e+02,-2.843487551779653586e+02,-3.039951213930380618e+02,9.484992027282714844e+00,-4.971971809864044189e-01,-5.736890435218811035e-01,4.480000000000000000e+02
-3.410116637330929734e+02,-3.660245285155560850e+02,-2.054754793421707291e+02,-2.887036367996779518e+02,-3.607124287623855707e+02,-3.461293880675984838e+02,-2.800436061940972650e+02,-2.999318731264834241e+02,9.484992027282714844e+00,-4.971971809864044189e-01,-5.736890435218811035e-01,4.490000000000000000e+02
-3.381051800885770717e+02,-3.639498705220312331e+02,-2.116450263262545377e+02,-2.864541478288624603e+02,-3.571784331871108407e+02,-3.435944905878309328e+02,-2.756929630001027363e+02,-2.970677464182053882e+02,9.484992027282714844e+00,-4.971971809864044189e-01,-5.736890435218811035e-01,4.500000000000000000e+02
-3.351397378897045201e+02,-3.623813466422047895e+02,-2.232672382752684825e+02,-2.844446341583284266e+02,-3.542506826076587458e+02,-3.414607658447453105e+02,-2.721725109486114889e+02,-2.956098218403790270e+02,9.484992027282714844e+00,-4.971971809864044189e-01,-5.736890435218811035e-01,4.510000000000000000e+02
-3.313865517057010948e+02,-3.612813061751085115e+02,-2.354542386015664306e+02,-2.829255007430078876e+02,-3.512956440689945339e+02,-3.394694971928547602e+02,-2.697164452520510167e+02,-2.947121135978304665e+02,9.484992027282714844e+00,-4.971971809864044189e-01,-5.736890435218811035e-01,4.520000000000000000e+02
-3.267553982229101166e+02,-3.601761920049743821e+02,-2.438739959768690824e+02,-2.815535081970861029e+02,-3.476977961661095833e+02,-3.370363917715399111e+02,-2.676272118023389339e+02,-2.928498860847121250e+02,9.484992027282714844e+00,-4.971971809864044189e-01,-5.736890435218811035e-01,4.530000000000000000e+02
-3.218769392758485992e+02,-3.580440869184371877e+02,-2.474344953147297019e+02,-2.793940486390915794e+02,-3.434391985391221169e+02,-3.336365658660647568e+02,-2.649009725454766340e+02,-2.890399952882598882e+02,9.484992027282714844e+00,-4.971971809864044189e-01,-5.736890435218811035e-01,4.540000000000000000e+02
-3.177185553687518222e+02,-3.540984101217541138e+02,-2.483552983433519330e+02,-2.757507060970610837e+02,-3.391529908562379205e+02,-3.293430083620205551e+02,-2.612468403110151485e+02,-2.838580149006083957e+02,9.484992027282714844e+00,-4.971971809864044189e-01,-5.736890435218811035e-01,4.550000000000000000e+02
-3.149630739577082750e+02,-3.487272695686219777e+02,-2.497906557878727654e+02,-2.709867127637198791e+02,-3.355553960338420438e+02,-3.249018421789187414e+02,-2.574945858010778466e+02,-2.792016530362461708e+02,9.484992027282714844e+00,-4.971971809864044189e-01,-5.736890435218811035e-01,4.560000000000000000e+02
-3.135674376120607576e+02,-3.435191286181998294e+02,-2.531975174368942589e+02,-2.664260619080746437e+02,-3.328140715056510999e+02,-3.211630838979649525e+02,-2.549205780512274941e+02,-2.768520777162234481e+02,9.484992027282714844e+00,-4.971971809864044189e-01,-5.736890435218811035e-01,4.570000000000000000e+02
-3.128176432829427540e+02,-3.401605787616772432e+02,-2.576004661801007387e+02,-2.633343716279177897e+02,-3.304975101100571919e+02,-3.183876623504288546e+02,-2.540858892902278967e+02,-2.770458947295746839e+02,9.484992027282714844e+00,-4.971971809864044189e-01,-5.736890435218811035e-01,4.580000000000000000e+02
-3.118354179603018110e+02,-3.391670487159572076e+02,-2.609997618256563783e+02,-2.619440638702965316e+02,-3.281339038643982349e+02,-3.161385603529433865e+02,-2.542832719236894263e+02,-2.783332898400299200e+02,9.484992027282714844e+00,-4.971971809864044189e-01,-5.736890435218811035e-01,4.590000000000000000e+02
-3.101349080358877472e+02,-3.396045922724320008e+02,-2.622975977344447074e+02,-2.614563996644005783e+02,-3.257551025426114393e+02,-3.138725169114768505e+02,-2.541277959559656665e+02,-2.788465340391326208e+02,9.484992027282714844e+00,-4.971971809864044189e-01,-5.736890435218811035e-01,4.600000000000000000e+02
-3.077933971062957426e+02,-3.399716545537603452e+02,-2.619783622417303377e+02,-2.609392016599936142e+02,-3.238264833614334748e+02,-3.115948720057176615e+02,-2.527403840650911206e+02,-2.778045364982817773e+02,9.484992027282714844e+00,-4.971971809864044189e-01,-5.736890435218811035e-01,4.610000000000000000e+02
-3.051704603575060446e+02,-3.393169952159166769e+02,-2.612569828513521770e+02,-2.601600408754229647e+02,-3.226673442848477862e+02,-3.098669458535878221e+02,-2.504408983626681220e+02,-2.759195361675733693e+02,9.484992027282714844e+00,-4.971971809864044189e-01,-5.736890435218811035e-01,4.620000000000000000e+02
-3.025203860295755476e+02,-3.375774891365224448e+02,-2.608785208225931456e+02,-2.595305858884407826e+02,-3.220485395393652652e+02,-3.091489923857316171e+02,-2.483616893159089614e+02,-2.744616781567819999e+02,9.484992027282714844e+00,-4.971971809864044189e-01,-5.736890435218811035e-01,4.630000000000000000e+02
-2.998879626303205441e+02,-3.350565504721769230e+02,-2.607904097368550538e+02,-2.593293176535189559e+02,-3.214374735337160018e+02,-3.091819774677860551e+02,-2.474000549348943423e+02,-2.739736613571010366e+02,9.484992027282714844e+00,-4.971971809864044189e-01,-5.736890435218811035e-01,4.640000000000000000e+02
-2.973276970992133101e+02,-3.318426516164615805e+02,-2.607474033949019940e+02,-2.591273685855242093e+02,-3.206015104040870938e+02,-3.090669357171198044e+02,-2.474752018601848249e+02,-2.738402120405337428e+02,9.484992027282714844e+00,-4.971971809864044189e-01,-5.736890435218811035e-01,4.650000000000000000e+02
-2.950992704374411915e+02,-3.278729876940976737e+02,-2.609124642139322532e+02,-2.580788572107480832e+02,-3.198409320519485846e+02,-3.079723332682913224e+02,-2.476887925568753417e+02,-2.729846558785413890e+02,9.484992027282714844e+00,-4.971971809864044189e-01,-5.736890435218811035e-01,4.660000000000000000e+02
-2.935359626251815826e+02,-3.234705275809005798e+02,-2.617054764236613664e+02,-2.557868807435179406e+02,-3.195369588326439043e+02,-3.057671849162472881e+02,-2.471568555252688384e+02,-2.708862581087337276e+02,9.484992027282714844e+00,-4.971971809864044189e-01,-5.736890435218811035e-01,4.670000000000000000e+02
-2.926982779841600859e+02,-3.195674742126848287e+02,-2.631461885481792251e+02,-2.528305478208376371e+02,-3.195064617465932315e+02,-3.030012680255986197e+02,-2.457377442797480853e+02,-2.679236999518579978e+02,9.484992027282714844e+00,-4.207052886486053467e-01,-5.736890435218811035e-01,4.680000000000000000e+02
-2.922290488681383067e+02,-3.171861745836592945e+02,-2.645342561205859511e+02,-2.503869124674411069e+02,-3.189295650591238882e+02,-3.003511633176979103e+02,-2.440532793359882362e+02,-2.648364941548779825e+02,9.484992027282714844e+00,-4.207052886486053467e-01,-5.736890435218811035e-01,4.690000000000000000e+02
-2.916247675935462667e+02,-3.166082191217924446e+02,-2.649032392478361544e+02,-2.492846130674604410e+02,-3.169900369326778673e+02,-2.981072424918938850e+02,-2.428494176056249216e+02,-2.619432005523933640e+02,9.484992027282714844e+00,-4.207052886486053467e-01,-5.736890435218811035e-01,4.700000000000000000e+02
-2.906488252820167872e+02,-3.170488014150200797e+02,-2.638160112867581120e+02,-2.493431672308722682e+02,-3.135666303165767204e+02,-2.960973093825389242e+02,-2.422755363063868117e+02,-2.588863974236862759e+02,9.484992027282714844e+00,-4.207052886486053467e-01,-5.736890435218811035e-01,4.710000000000000000e+02
-2.894051123185952292e+02,-3.171457541555355419e+02,-2.616971403451725564e+02,-2.495136506887301948e+02,-3.092408997300499323e+02,-2.939200798877177476e+02,-2.416669728440720064e+02,-2.550460055992652997e+02,9.484992027282714844e+00,-4.207052886486053467e-01,-5.736890435218811035e-01,4.720000000000000000e+02
-2.879603908244007471e+02,-3.157824755311980880e+02,-2.593740827046694903e+02,-2.485803319236651987e+02,-3.046267570905226876e+02,-2.911321647264060175e+02,-2.399800555630872623e+02,-2.501146154596619908e+02,9.484992027282714844e+00,-4.207052886486053467e-01,-5.736890435218811035e-01,4.730000000000000000e+02
-2.859415223835045481e+02,-3.125482106486638259e+02,-2.572791634838769141e+02,-2.457827367404966026e+02,-2.997422564525593316e+02,-2.872811785169612904e+02,-2.364954757762934605e+02,-2.442751119945833125e+02,9.484992027282714844e+00,-4.207052886486053467e-01,-5.736890435218811035e-01,4.740000000000000000e+02
-2.826298215526130662e+02,-3.076293860910714102e+02,-2.550347728407406294e+02,-2.409838911425962351e+02,-2.940599296214868446e+02,-2.819893413653385323e+02,-2.312220696736927721e+02,-2.379218950059738518e+02,9.484992027282714844e+00,-4.207052886486053467e-01,-5.736890435218811035e-01,4.750000000000000000e+02
-2.775718196997090672e+02,-3.015208593334365332e+02,-2.517508808071040676e+02,-2.345249704319236344e+02,-2.871381972685569508e+02,-2.752306015739027316e+02,-2.247386910649521496e+02,-2.313435644835469702e+02,9.484992027282714844e+00,-4.207052886486053467e-01,-5.736890435218811035e-01,4.760000000000000000e+02
-2.711327897321773435e+02,-2.949429087349005840e+02,-2.467435906910426411e+02,-2.270923452448359967e+02,-2.791749761967698760e+02,-2.675956279251819296e+02,-2.177090689997769459e+02,-2.247284821761303419e+02,9.484992027282714844e+00,-4.207052886486053467e-01,-5.736890435218811035e-01,4.770000000000000000e+02
-2.644200558901802651e+02,-2.888805077389688449e+02,-2.401223980304780525e+02,-2.196884870367629219e+02,-2.710133693785251126e+02,-2.602045670475270072e+02,-2.105776325669515927e+02,-2.184493195135230508e+02,9.484992027282714844e+00,-4.207052886486053467e-01,-5.736890435218811035e-01,4.780000000000000000e+02
-2.586085703175700701e+02,-2.843789121255849750e+02,-2.328833177256980207e+02,-2.135023413182511831e+02,-2.637286766796671600e+02,-2.541974951824590789e+02,-2.037282040561271970e+02,-2.132471438296707902e+02,9.484992027282714844e+00,-4.207052886486053467e-01,-5.736890435218811035e-01,4.790000000000000000e+02
-2.542743457815647048e+02,-2.820176523461755096e+02,-2.265240437232442332e+02,-2.095182436721935915e+02,-2.582326184346235323e+02,-2.501608808053128996e+02,-1.978614158347990610e+02,-2.100052187466511668e+02,9.484992027282714844e+00,-4.207052886486053467e-01,-5.736890435218811035e-01,4.800000000000000000e+02
-2.513015803165131956e+02,-2.814845532290735264e+02,-2.224202027666264030e+02,-2.080200549903482852e+02,-2.550912606393474107e+02,-2.479260085114580079e+02,-1.940488651725535192e+02,-2.091986524769394009e+02,9.484992027282714844e+00,-4.207052886486053467e-01,-5.736890435218811035e-01,4.810000000000000000e+02
-2.493290198280653840e+02,-2.817470188909754256e+02,-2.212636630169334921e+02,-2.083842341231508613e+02,-2.544212185206783374e+02,-2.468469537685670048e+02,-1.932148775804687943e+02,-2.104620841948837437e+02,9.484992027282714844e+00,-4.207052886486053467e-01,-5.736890435218811035e-01,4.820000000000000000e+02
-2.481797968374125389e+02,-2.817910324262209656e+02,-2.228038554948768706e+02,-2.094088241631582150e+02,-2.557554614817489664e+02,-2.462691702802985674e+02,-1.954092633587608248e+02,-2.126741960598770333e+02,9.484992027282714844e+00,-4.207052886486053467e-01,-5.736890435218811035e-01,4.830000000000000000e+02
-2.478360004121587394e+02,-2.813193744690995572e+02,-2.260232120927791186e+02,-2.100114200868756029e+02,-2.580468770829947402e+02,-2.458289879994729290e+02,-1.995380766614179890e+02,-2.145736262435687536e+02,9.484992027282714844e+00,-4.207052886486053467e-01,-5.736890435218811035e-01,4.840000000000000000e+02
-2.480912091801091037e+02,-2.808128687778291805e+02,-2.296500401307266088e+02,-2.098221548518396276e+02,-2.600224191022539344e+02,-2.454636164239420282e+02,-2.038651652206892209e+02,-2.154663065263503654e+02,9.484992027282714844e+00,-4.207052886486053467e-01,-5.736890435218811035e-01,4.850000000000000000e+02
-2.483795366015063451e+02,-2.809386168484369364e+02,-2.326794862197291138e+02,-2.092593176901118852e+02,-2.607528964474211080e+02,-2.452570374850107555e+02,-2.069021228625817344e+02,-2.154644202797986736e+02,9.484992027282714844e+00,-4.207052886486053467e-01,-5.736890435218811035e-01,4.860000000000000000e+02
-2.480441332502272758e+02,-2.818541911567908755e+02,-2.345827265464740776e+02,-2.090477732741051398e+02,-2.599815729365410562e+02,-2.452660535893925271e+02,-2.079618735659487356e+02,-2.150535267576902925e+02,9.484992027282714844e+00,-4.207052886486053467e-01,-5.736890435218811035e-01,4.870000000000000000e+02
-2.467698278909613236e+02,-2.829596954810841680e+02,-2.351653475215385924e+02,-2.095221458429630843e+02,-2.579426629555657655e+02,-2.453622687113495999e+02,-2.070281920088048082e+02,-2.143683323253477511e+02,9.484992027282714844e+00,-4.207052886486053467e-01,-5.736890435218811035e-01,4.880000000000000000e+02
-2.447007887866526517e+02,-2.831942166575108786e+02,-2.343334423770483568e+02,-2.101974918713521561e+02,-2.549208211304353426e+02,-2.451184491870060356e+02,-2.042737420373175041e+02,-2.128625401018480261e+02,9.484992027282714844e+00,-4.207052886486053467e-01,-5.736890435218811035e-01,4.890000000000000000e+02
-2.421189417911514283e+02,-2.815593635172627955e+02,-2.320615185122117055e+02,-2.099232647418705255e+02,-2.510717801286878057e+02,-2.438703932577822115e+02,-1.998360572010425358e+02,-2.097512043628457832e+02,9.484992027282714844e+00,-4.207052886486053467e-01,-5.736890435218811035e-01,4.900000000000000000e+02
-2.390535205642877372e+02,-2.775334455131104505e+02,-2.285759679757322829e+02,-2.075542867071350202e+02,-2.466730180291717716e+02,-2.410518881153475377e+02,-1.940625103338346662e+02,-2.048864769639984615e+02,9.484992027282714844e+00,-4.207052886486053467e-01,-5.736890435218811035e-01,4.910000000000000000e+02
-2.352605129170228793e+02,-2.712623948149604303e+02,-2.244695076732384678e+02,-2.026960827088832957e+02,-2.423770916616615523e+02,-2.366324209155708331e+02,-1.878088492506614102e+02,-1.992161145138501297e+02,9.484992027282714844e+00,-4.207052886486053467e-01,-5.736890435218811035e-01,4.920000000000000000e+02
-2.305972855050031285e+02,-2.635490283617862133e+02,-2.204911937651932021e+02,-1.960047311263127767e+02,-2.389673112088910329e+02,-2.312694943213937222e+02,-1.822682469376661629e+02,-1.942631804948777017e+02,9.484992027282714844e+00,-5.354431271553039551e-01,-6.119350194931030273e-01,4.930000000000000000e+02
-2.253700471550887414e+02,-2.556365153624014965e+02,-2.170999370274704461e+02,-1.888241053789261059e+02,-2.366909439331975591e+02,-2.259333365226434580e+02,-1.783189659811823731e+02,-1.909692302435471447e+02,9.484992027282714844e+00,-5.354431271553039551e-01,-6.119350194931030273e-01,4.940000000000000000e+02
-2.202517907810813540e+02,-2.487781790624590030e+02,-2.141870164265244512e+02,-1.824274326521062903e+02,-2.348406710688796011e+02,-2.212459658535831295e+02,-1.759519931046161219e+02,-1.889288309991602546e+02,9.484992027282714844e+00,-5.354431271553039551e-01,-6.119350194931030273e-01,4.950000000000000000e+02
-2.158305577667440502e+02,-2.437360677865790421e+02,-2.112648937536116591e+02,-1.774196762919593766e+02,-2.321459453937409307e+02,-2.171212966460404914e+02,-1.743415407444599623e+02,-1.867791725723054697e+02,9.484992027282714844e+00,-5.354431271553039551e-01,-6.119350194931030273e-01,4.960000000000000000e+02
-2.122400544528641149e+02,-2.405091273348350569e+02,-2.079833469695149688e+02,-1.737023424546448496e+02,-2.277700558021222150e+02,-2.130852360385588327e+02,-1.725228341202171123e+02,-1.834653118509922933e+02,9.484992027282714844e+00,-5.354431271553039551e-01,-6.119350194931030273e-01,4.970000000000000000e+02
-2.092359891658056767e+02,-2.385072264672157871e+02,-2.045164508453938197e+02,-1.709251842114581450e+02,-2.220595074813081737e+02,-2.089982817652476115e+02,-1.700921451706535663e+02,-1.792391711703930923e+02,9.484992027282714844e+00,-5.354431271553039551e-01,-6.119350194931030273e-01,4.980000000000000000e+02
-2.066037930470447463e+02,-2.370496034866860100e+02,-2.014528786425055387e+02,-1.689583393299167255e+02,-2.163511054326163503e+02,-2.054497504952023519e+02,-1.673771571091895112e+02,-1.754560222369700568e+02,9.484992027282714844e+00,-5.354431271553039551e-01,-6.119350194931030273e-01,4.990000000000000000e+02
-2.044503118607169654e+02,-2.358061353744133157e+02,-1.992772634346542873e+02,-1.679732617033600945e+02,-2.119968421487865271e+02,-2.033555811787955463e+02,-1.650570243545644189e+02,-1.733534810302126061e+02,9.484992027282714844e+00,-5.354431271553039551e-01,-6.119350194931030273e-01,5.000000000000000000e+02
-2.030813805904690525e+02,-2.348582621538125750e+02,-1.978893941828025618e+02,-1.681289712605193927e+02,-2.094633350585577318e+02,-2.030669262656401770e+02,-1.636608897658966271e+02,-1.729540593774581794e+02,9.484992027282714844e+00,-5.354431271553039551e-01,-6.119350194931030273e-01,5.010000000000000000e+02
-2.026309710719260693e+02,-2.344079104836964689e+02,-1.965650070642900573e+02,-1.692222717202644162e+02,-2.082389354097090290e+02,-2.038512642869586671e+02,-1.633480281452634699e+02,-1.731021847948945833e+02,9.484992027282714844e+00,-5.354431271553039551e-01,-6.119350194931030273e-01,5.020000000000000000e+02
-2.028689105511543858e+02,-2.344587584162541134e+02,-1.943581272854435156e+02,-1.706483594706210170e+02,-2.075066503326538623e+02,-2.043143839291301447e+02,-1.639869014677396990e+02,-1.725389432811853112e+02,9.484992027282714844e+00,-5.354431271553039551e-01,-6.119350194931030273e-01,5.030000000000000000e+02
-2.034042988302699086e+02,-2.347474626386460841e+02,-1.905966309021396228e+02,-1.716900575964609743e+02,-2.068905714486554643e+02,-2.034421482819343510e+02,-1.652889469388483121e+02,-1.709427973527845097e+02,9.484992027282714844e+00,-5.354431271553039551e-01,-6.119350194931030273e-01,5.040000000000000000e+02
-2.040502684584876079e+02,-2.349165974738998557e+02,-1.851420205255126348e+02,-1.718718884618942866e+02,-2.066352748460203657e+02,-2.013365039066102327e+02,-1.668654418766777781e+02,-1.690083075947459292e+02,9.484992027282714844e+00,-5.354431271553039551e-01,-6.119350194931030273e-01,5.050000000000000000e+02
-2.049292356636901786e+02,-2.347318005494180397e+02,-1.783507937642643810e+02,-1.711408189105877682e+02,-2.071805260094010919e+02,-1.990112769305660549e+02,-1.682882686691232266e+02,-1.676449335170177619e+02,9.484992027282714844e+00,-5.354431271553039551e-01,-6.119350194931030273e-01,5.060000000000000000e+02
-2.061828419748480883e+02,-2.341692591247497148e+02,-1.708634904000919050e+02,-1.698328016039304202e+02,-2.086116593807505524e+02,-1.974876710424923658e+02,-1.692466612791613443e+02,-1.671755371649273911e+02,9.484992027282714844e+00,-5.354431271553039551e-01,-6.119350194931030273e-01,5.070000000000000000e+02
-2.075932327722894115e+02,-2.333649544448157940e+02,-1.633462914144738534e+02,-1.685236891452941563e+02,-2.104647082478218181e+02,-1.970448594552508439e+02,-1.697140661980733967e+02,-1.672654326846827644e+02,9.484992027282714844e+00,-5.354431271553039551e-01,-6.119350194931030273e-01,5.080000000000000000e+02
-2.085613635995018740e+02,-2.325192546482207945e+02,-1.562347272269657878e+02,-1.678347530391793043e+02,-2.119684610510566927e+02,-1.972458181873489593e+02,-1.699277407066347223e+02,-1.674672551404410115e+02,9.484992027282714844e+00,-5.354431271553039551e-01,-6.119350194931030273e-01,5.090000000000000000e+02
-2.085466682687811044e+02,-2.318008815791981760e+02,-1.495438787073157982e+02,-1.681713312111060077e+02,-2.124477075263857841e+02,-1.975373548327679600e+02,-1.701314177993508565e+02,-1.676527396035694437e+02,9.484992027282714844e+00,-5.354431271553039551e-01,-6.119350194931030273e-01,5.100000000000000000e+02
-2.075703369919519901e+02,-2.312399688020377653e+02,-1.429025025283053765e+02,-1.694386503822674968e+02,-2.115811203040284454e+02,-1.977069596799747160e+02,-1.702857659511250858e+02,-1.678695178222465074e+02,9.484992027282714844e+00,-5.354431271553039551e-01,-6.119350194931030273e-01,5.110000000000000000e+02
-2.062544252022294131e+02,-2.306100256473246191e+02,-1.358921089763775853e+02,-1.709076285777327939e+02,-2.094227649755384846e+02,-1.977455211144915665e+02,-1.699979373360274622e+02,-1.678867231184631237e+02,9.484992027282714844e+00,-5.354431271553039551e-01,-6.119350194931030273e-01,5.120000000000000000e+02
-2.052858673764535524e+02,-2.293880123835588165e+02,-1.285150586863283024e+02,-1.714317452981531460e+02,-2.062947698688694800e+02,-1.973922376085529322e+02,-1.687084843720367644e+02,-1.670530684928608025e+02,9.484992027282714844e+00,-5.354431271553039551e-01,-6.119350194931030273e-01,5.130000000000000000e+02
-2.047569475141390285e+02,-2.269155031955224331e+02,-1.213870428790851292e+02,-1.699907013489764722e+02,-2.026543616128292342e+02,-1.959925931526813656e+02,-1.659588988712594073e+02,-1.647190825467423565e+02,9.484992027282714844e+00,-5.354431271553039551e-01,-6.119350194931030273e-01,5.140000000000000000e+02
-2.039993148409457717e+02,-2.227481075788073213e+02,-1.153744185870464207e+02,-1.662420772668738209e+02,-1.989493379237992485e+02,-1.929369309044714100e+02,-1.615848820654382507e+02,-1.608205789387939149e+02,9.484992027282714844e+00,-5.354431271553039551e-01,-6.119350194931030273e-01,5.150000000000000000e+02
-2.021026383447506305e+02,-2.170145107428124902e+02,-1.108751081527898350e+02,-1.607164053623473592e+02,-1.954765690531894506e+02,-1.882763303801712027e+02,-1.558297293194018494e+02,-1.560289390597681631e+02,9.484992027282714844e+00,-5.354431271553039551e-01,-6.119350194931030273e-01,5.160000000000000000e+02
-1.986927288644146756e+02,-2.105324732724047863e+02,-1.073626522969962025e+02,-1.545354129357747297e+02,-1.923138159424379410e+02,-1.828762650402177314e+02,-1.494084263180020571e+02,-1.513153005510957883e+02,9.484992027282714844e+00,-5.354431271553039551e-01,-6.119350194931030273e-01,5.170000000000000000e+02
-1.943158742954992704e+02,-2.045440344666521924e+02,-1.037215980673563536e+02,-1.488789856539369794e+02,-1.893958278011441507e+02,-1.779179147727336385e+02,-1.434391970844299067e+02,-1.473512698134800303e+02,9.484992027282714844e+00,-5.354431271553039551e-01,-6.119350194931030273e-01,5.180000000000000000e+02
-1.901221585454186425e+02,-2.001781895214744509e+02,-9.924729849038976681e+01,-1.445488095060036358e+02,-1.866906352362020698e+02,-1.741786131692924755e+02,-1.390878518177960359e+02,-1.442665065826595310e+02,9.484992027282714844e+00,-5.354431271553039551e-01,-6.119350194931030273e-01,5.190000000000000000e+02
-1.871418321573701178e+02,-1.979425903807459690e+02,-9.452218867729425256e+01,-1.418114452718527900e+02,-1.843052673945221613e+02,-1.716970893475254343e+02,-1.369862504144302875e+02,-1.418497235498725786e+02,9.446745872497558594e+00,-5.354431271553039551e-01,-5.736890435218811035e-01,5.200000000000000000e+02
-1.857360258220160176e+02,-1.975458918540907689e+02,-9.136832191904431966e+01,-1.404751436809792722e+02,-1.824044481929413450e+02,-1.700138669097314050e+02,-1.368160351328888282e+02,-1.398639227389485313e+02,9.446745872497558594e+00,-5.354431271553039551e-01,-5.736890435218811035e-01,5.210000000000000000e+02
-1.855687173462856663e+02,-1.981371962305001944e+02,-9.176771908625505603e+01,-1.400636932637789869e+02,-1.810339310419039975e+02,-1.686545774617507050e+02,-1.374714905718738009e+02,-1.381547605939449568e+02,9.446745872497558594e+00,-5.354431271553039551e-01,-5.736890435218811035e-01,5.220000000000000000e+02
-1.859734949368121306e+02,-1.987865373475287925e+02,-9.647348227618203964e+01,-1.400144955813466368e+02,-1.800543870207329746e+02,-1.673985057090703776e+02,-1.377628854289778246e+02,-1.365623454249816859e+02,9.446745872497558594e+00,-5.354431271553039551e-01,-5.736890435218811035e-01,5.230000000000000000e+02
-1.863404763952157737e+02,-1.988977141163441047e+02,-1.043276747802765385e+02,-1.398837635597919871e+02,-1.792753244776868087e+02,-1.661978282532991216e+02,-1.371131375502845913e+02,-1.348808283851112719e+02,9.446745872497558594e+00,-5.354431271553039551e-01,-5.736890435218811035e-01,5.240000000000000000e+02
-1.862711952585368635e+02,-1.983287111785275556e+02,-1.128095882798879757e+02,-1.394961263596014760e+02,-1.786409745254186419e+02,-1.649875008744693332e+02,-1.356903491053762991e+02,-1.330029036504747637e+02,9.446745872497558594e+00,-5.354431271553039551e-01,-5.736890435218811035e-01,5.250000000000000000e+02
-1.855452471184580645e+02,-1.972281121200767302e+02,-1.194464608807511468e+02,-1.389317884388765378e+02,-1.782424214695192859e+02,-1.636573467012549372e+02,-1.339662533136206548e+02,-1.311060707189981258e+02,9.446745872497558594e+00,-5.354431271553039551e-01,-5.736890435218811035e-01,5.260000000000000000e+02
-1.840917487351862292e+02,-1.957850015766589422e+02,-1.231284046322671202e+02,-1.383306956879760037e+02,-1.781307540630023141e+02,-1.621937965556153358e+02,-1.322429152670056283e+02,-1.296300003530541289e+02,9.446745872497558594e+00,-5.354431271553039551e-01,-5.736890435218811035e-01,5.270000000000000000e+02
-1.820371681535143580e+02,-1.940977137140862396e+02,-1.244677396931547264e+02,-1.376699831906771578e+02,-1.781557020688997000e+02,-1.607714185670301958e+02,-1.306292938790147673e+02,-1.289868988477610401e+02,9.446745872497558594e+00,-5.354431271553039551e-01,-5.736890435218811035e-01,5.280000000000000000e+02
-1.797265235959275742e+02,-1.922239904863745323e+02,-1.250376077716900909e+02,-1.367364534953767361e+02,-1.780408077261035942e+02,-1.596279794521669828e+02,-1.293558289153188525e+02,-1.292166724454800715e+02,9.446745872497558594e+00,-5.354431271553039551e-01,-5.736890435218811035e-01,5.290000000000000000e+02
-1.776099680960669502e+02,-1.903021223097439361e+02,-1.261124075573579830e+02,-1.353616384954975729e+02,-1.776372983199835289e+02,-1.588213642261016503e+02,-1.288725446136522805e+02,-1.298776122259623662e+02,9.446745872497558594e+00,-5.354431271553039551e-01,-5.736890435218811035e-01,5.300000000000000000e+02
-1.760230322155384783e+02,-1.885695921919232205e+02,-1.278500303842483845e+02,-1.337004805257456610e+02,-1.770712274272318609e+02,-1.581213720537998597e+02,-1.294173973782108078e+02,-1.302814299372239475e+02,9.446745872497558594e+00,-5.354431271553039551e-01,-5.736890435218811035e-01,5.310000000000000000e+02
-1.749994016152286349e+02,-1.872113895623933786e+02,-1.294582200230770468e+02,-1.322210012670766446e+02,-1.766046860649657901e+02,-1.571741770523167361e+02,-1.304450783570391650e+02,-1.299068462891736999e+02,9.446745872497558594e+00,-5.354431271553039551e-01,-5.736890435218811035e-01,5.320000000000000000e+02
-1.742281045220643136e+02,-1.861139439742546529e+02,-1.300663982154837868e+02,-1.312988236153978505e+02,-1.763366290541925991e+02,-1.557889206683175871e+02,-1.306177670990255137e+02,-1.286760435984597279e+02,9.446745872497558594e+00,-5.354431271553039551e-01,-5.736890435218811035e-01,5.330000000000000000e+02
-1.731669951642325032e+02,-1.847361394856634433e+02,-1.294665499226921384e+02,-1.307475083448262012e+02,-1.760522302354038402e+02,-1.540686796249647159e+02,-1.286090987143688835e+02,-1.269039884338271804e+02,9.446745872497558594e+00,-5.354431271553039551e-01,-5.736890435218811035e-01,5.340000000000000000e+02
-1.712578801825893606e+02,-1.822949838322783762e+02,-1.280812183589168853e+02,-1.297808519938953395e+02,-1.753635196304167039e+02,-1.522635963855063892e+02,-1.241312425368359982e+02,-1.249747720394752832e+02,9.446745872497558594e+00,-5.354431271553039551e-01,-5.736890435218811035e-01,5.350000000000000000e+02
-1.681788774972610554e+02,-1.782568578123118641e+02,-1.263115802834363421e+02,-1.275761613827380643e+02,-1.739779304474322998e+02,-1.504984836214152892e+02,-1.182729322118593700e+02,-1.230031246667913365e+02,9.446745872497558594e+00,-5.354431271553039551e-01,-5.736890435218811035e-01,5.360000000000000000e+02
-1.640710689014649688e+02,-1.728467156539572898e+02,-1.240736612067976239e+02,-1.240323942217473814e+02,-1.718437377653008298e+02,-1.486683507491816272e+02,-1.127959643142567074e+02,-1.207633045925722399e+02,9.446745872497558594e+00,-5.354431271553039551e-01,-5.736890435218811035e-01,5.370000000000000000e+02
-1.596002029541486991e+02,-1.671625373663246137e+02,-1.210965765718610783e+02,-1.200330228690909280e+02,-1.690986376838009164e+02,-1.466271562623096543e+02,-1.089629033355304273e+02,-1.179617294824947749e+02,9.446745872497558594e+00,-5.354431271553039551e-01,-5.736890435218811035e-01,5.380000000000000000e+02
-1.557010912448386080e+02,-1.626821631671009527e+02,-1.176321465709952463e+02,-1.168846665881501394e+02,-1.659482700547323475e+02,-1.444671365577341930e+02,-1.068383621550783573e+02,-1.146175334610652499e+02,9.446745872497558594e+00,-5.354431271553039551e-01,-5.736890435218811035e-01,5.390000000000000000e+02
-1.530304016449535993e+02,-1.603866895366318204e+02,-1.146198780042213912e+02,-1.153208386465958029e+02,-1.625945342035884096e+02,-1.425410733042535867e+02,-1.055148636034064111e+02,-1.111820221499056061e+02,9.446745872497558594e+00,-5.354431271553039551e-01,-5.736890435218811035e-01,5.400000000000000000e+02
-1.514339965631588711e+02,-1.600853096577429824e+02,-1.128455144924264459e+02,-1.149071845407434012e+02,-1.591888803581005050e+02,-1.411249978728865244e+02,-1.039151844020943827e+02,-1.082303225358227792e+02,9.446745872497558594e+00,-5.354431271553039551e-01,-5.736890435218811035e-01,5.410000000000000000e+02
-1.498633178773507098e+02,-1.604570494394538400e+02,-1.118194213747210597e+02,-1.143839749646213022e+02,-1.557447468312711862e+02,-1.400295237959999213e+02,-1.014529177685290051e+02,-1.059474768548388965e+02,9.446745872497558594e+00,-5.354431271553039551e-01,-5.736890435218811035e-01,5.420000000000000000e+02
-1.469453191549091571e+02,-1.598364105402615678e+02,-1.096669078401846491e+02,-1.126687995674164995e+02,-1.520734610841263930e+02,-1.385894105019815470e+02,-9.815110077200006344e+01,-1.038774253037790913e+02,9.446745872497558594e+00,-5.354431271553039551e-01,-5.736890435218811035e-01,5.430000000000000000e+02
-1.419107381731246278e+02,-1.572032175216481846e+02,-1.044649136918069416e+02,-1.096363858583154069e+02,-1.478955460012330150e+02,-1.361251076763237506e+02,-9.435174709865714249e+01,-1.012153489541105955e+02,9.446745872497558594e+00,-5.354431271553039551e-01,-5.736890435218811035e-01,5.440000000000000000e+02
-1.352286058497466001e+02,-1.526845759383959376e+02,-9.590869818450300954e+01,-1.060107984481437597e+02,-1.431209900974026823e+02,-1.324883404733100178e+02,-9.040226164493651595e+01,-9.743172428748948732e+01,9.446745872497558594e+00,-5.354431271553039551e-01,-5.736890435218811035e-01,5.450000000000000000e+02
-1.284360089678139047e+02,-1.472893816405467078e+02,-8.562787487989044166e+01,-1.025526018528234999e+02,-1.380492390272738703e+02,-1.281703472493227309e+02,-8.654135386475718406e+01,-9.269840092158847256e+01,9.446745872497558594e+00,-5.354431271553039551e-01,-5.736890435218811035e-01,5.460000000000000000e+02
-1.232366642201777722e+02,-1.421932128187891067e+02,-7.571991651286225533e+01,-9.938018075313993904e+01,-1.332461014679247455e+02,-1.238715858847044728e+02,-8.294424868626811076e+01,-8.776416887054074323e+01,9.446745872497558594e+00,-5.354431271553039551e-01,-5.736890435218811035e-01,5.470000000000000000e+02
-1.204935765853260818e+02,-1.381367656474922114e+02,-6.695258958979866293e+01,-9.608504885539332463e+01,-1.291617387347178010e+02,-1.199721361190731841e+02,-7.979758985801345261e+01,-8.342005777493068308e+01,9.446745872497558594e+00,-5.354431271553039551e-01,-5.736890435218811035e-01,5.480000000000000000e+02
-1.198007706765238254e+02,-1.352706090135470731e+02,-5.856253175518031640e+01,-9.244942012226420047e+01,-1.258475553226526245e+02,-1.164125147147206008e+02,-7.732639427453068492e+01,-8.002346084693090233e+01,9.446745872497558594e+00,-5.354431271553039551e-01,-5.736890435218811035e-01,5.490000000000000000e+02
-1.198606989357940620e+02,-1.333468188734295836e+02,-4.996127189221078879e+01,-8.893517830091514043e+01,-1.230433785635068489e+02,-1.130397211147283087e+02,-7.573783694451594783e+01,-7.742545130019425415e+01,9.446745872497558594e+00,-5.354431271553039551e-01,-5.736890435218811035e-01,5.500000000000000000e+02
-1.193327339766510704e+02,-1.319626492893239629e+02,-4.253543541083308810e+01,-8.636530235870668548e+01,-1.205225133794428984e+02,-1.099712155335473653e+02,-7.509476699336119054e+01,-7.525685426242125686e+01,9.484992027282714844e+00,-5.354431271553039551e-01,-5.354431271553039551e-01,5.510000000000000000e+02
-1.175842953457213298e+02,-1.307033566965092177e+02,-3.940539258353601326e+01,-8.509146970527035592e+01,-1.183247898421795981e+02,-1.075492543581713107e+02,-7.518651938208495267e+01,-7.325809862324786081e+01,9.484992027282714844e+00,-5.354431271553039551e-01,-5.354431271553039551e-01,5.520000000000000000e+02
-1.149440807103601401e+02,-1.292472503700300877e+02,-4.299875714709560270e+01,-8.453359151800214022e+01,-1.166592935431799560e+02,-1.059520379071254865e+02,-7.553861467374554195e+01,-7.140937065657635685e+01,9.484992027282714844e+00,-5.354431271553039551e-01,-5.354431271553039551e-01,5.530000000000000000e+02
-1.124203555726471677e+02,-1.275046775331375102e+02,-5.263392791345177102e+01,-8.364655640536875580e+01,-1.156454579876481148e+02,-1.049373064042883925e+02,-7.566500385292602004e+01,-6.986774579005577834e+01,9.484992027282714844e+00,-5.354431271553039551e-01,-5.354431271553039551e-01,5.540000000000000000e+02
-1.111075174548259383e+02,-1.256976056912899367e+02,-6.452767549485179188e+01,-8.191034361925994745e+01,-1.152184814060856297e+02,-1.040535827746280120e+02,-7.543698158211554983e+01,-6.885321134802143206e+01,9.484992027282714844e+00,-5.354431271553039551e-01,-5.354431271553039551e-01,5.550000000000000000e+02
-1.115811650051236938e+02,-1.242335674568312243e+02,-7.439405699614508194e+01,-7.987139726054738276e+01,-1.152863901429591351e+02,-1.031165879127111111e+02,-7.525145237216020178e+01,-6.856192474178533303e+01,9.484992027282714844e+00,-5.354431271553039551e-01,-5.354431271553039551e-01,5.560000000000000000e+02
-1.135664428462168871e+02,-1.234018809350818628e+02,-8.033425756428732711e+01,-7.868809064037850476e+01,-1.159086544637939369e+02,-1.024510952535747492e+02,-7.576945270974465529e+01,-6.909528452869199100e+01,9.484992027282714844e+00,-5.354431271553039551e-01,-5.354431271553039551e-01,5.570000000000000000e+02
-1.160702760246967955e+02,-1.231472922934954113e+02,-8.350328075176730636e+01,-7.909571732039330527e+01,-1.172330286951219023e+02,-1.026244753711507656e+02,-7.734483287827970344e+01,-7.038677899242611602e+01,9.484992027282714844e+00,-5.354431271553039551e-01,-5.354431271553039551e-01,5.580000000000000000e+02
-1.179615298472181166e+02,-1.231588669858429057e+02,-8.624071148891744087e+01,-8.076975568507623393e+01,-1.192277043707254052e+02,-1.039107192720221065e+02,-7.960960852256175713e+01,-7.218312515453726519e+01,9.484992027282714844e+00,-5.354431271553039551e-01,-5.354431271553039551e-01,5.590000000000000000e+02
-1.186819008420388855e+02,-1.232049237276878557e+02,-8.969500700496246282e+01,-8.263350384102159296e+01,-1.215122797131516563e+02,-1.059591553730169835e+02,-8.160603137929501827e+01,-7.410474715044983895e+01,9.484992027282714844e+00,-5.354431271553039551e-01,-5.354431271553039551e-01,5.600000000000000000e+02
-1.186002662887294719e+02,-1.233631044826979632e+02,-9.316225080156073091e+01,-8.373530103973462246e+01,-1.235121782808091666e+02,-1.079277494000671140e+02,-8.241503728364477865e+01,-7.574506079709681217e+01,9.484992027282714844e+00,-5.354431271553039551e-01,-5.354431271553039551e-01,5.610000000000000000e+02
-1.187292560227979266e+02,-1.239058351485546154e+02,-9.542886857987105031e+01,-8.388249361040288932e+01,-1.248430960254263482e+02,-1.089773905754336738e+02,-8.184153366736791213e+01,-7.678266697497019777e+01,9.484992027282714844e+00,-5.354431271553039551e-01,-5.354431271553039551e-01,5.620000000000000000e+02
-1.199944157866775640e+02,-1.249933156185252301e+02,-9.645347562280949205e+01,-8.360595256865417468e+01,-1.256176119671144988e+02,-1.088282423345008283e+02,-8.067687167197072995e+01,-7.714114594491184107e+01,9.484992027282714844e+00,-5.354431271553039551e-01,-5.354431271553039551e-01,5.630000000000000000e+02
-1.226131804028918850e+02,-1.265380922935146373e+02,-9.764524410953526967e+01,-8.371131070458795875e+01,-1.264334946927592682e+02,-1.080799490219433210e+02,-8.035708583744781208e+01,-7.717983445219215355e+01,9.484992027282714844e+00,-5.354431271553039551e-01,-5.354431271553039551e-01,5.640000000000000000e+02
-1.260343789742437366e+02,-1.283970862624191795e+02,-1.005905910743531422e+02,-8.490739580674926401e+01,-1.280426334824223886e+02,-1.080649361372124986e+02,-8.220131753740133718e+01,-7.773170879984536441e+01,9.484992027282714844e+00,-5.354431271553039551e-01,-5.354431271553039551e-01,5.650000000000000000e+02
-1.294091036723038997e+02,-1.306372005394114240e+02,-1.056062497249549779e+02,-8.765151331729066442e+01,-1.309006954242759093e+02,-1.101564998335306882e+02,-8.663328924593224656e+01,-7.973748155231442070e+01,9.484992027282714844e+00,-5.354431271553039551e-01,-5.354431271553039551e-01,5.660000000000000000e+02
-1.321389456168217293e+02,-1.334764241638258682e+02,-1.114643747887566860e+02,-9.197669320810746285e+01,-1.348428085418090632e+02,-1.147817935614402813e+02,-9.279589392295747530e+01,-8.349889420322142541e+01,9.484992027282714844e+00,-5.354431271553039551e-01,-5.354431271553039551e-01,5.670000000000000000e+02
-1.340873489857658569e+02,-1.368716973897571734e+02,-1.163915957005010569e+02,-9.721204390169441467e+01,-1.390702755720885762e+02,-1.207874106960989593e+02,-9.883936300985078560e+01,-8.809169210614709300e+01,9.484992027282714844e+00,-5.354431271553039551e-01,-5.354431271553039551e-01,5.680000000000000000e+02
-1.354522295657334325e+02,-1.402118985451452318e+02,-1.193444458675767237e+02,-1.019562075581998215e+02,-1.425134458077154704e+02,-1.258305394046656147e+02,-1.028626319799914199e+02,-9.163346088633988984e+01,9.484992027282714844e+00,-5.354431271553039551e-01,-5.354431271553039551e-01,5.690000000000000000e+02
-1.365741853297804482e+02,-1.425682501866358507e+02,-1.205675758376382873e+02,-1.047009892801361275e+02,-1.444362546986085363e+02,-1.278088710946103674e+02,-1.040451970429094217e+02,-9.251121512012468884e+01,9.484992027282714844e+00,-5.354431271553039551e-01,-5.354431271553039551e-01,5.700000000000000000e+02
-1.378363756930048112e+02,-1.433926653390444699e+02,-1.212158390037147910e+02,-1.048717253915092442e+02,-1.449099242810771102e+02,-1.263735776149442245e+02,-1.031802861888609186e+02,-9.070640174029904301e+01,9.484992027282714844e+00,-5.354431271553039551e-01,-5.354431271553039551e-01,5.710000000000000000e+02
-1.395393769267284370e+02,-1.429984338370923069e+02,-1.225012119325037929e+02,-1.033985557991982205e+02,-1.447633207130675146e+02,-1.232510264880293107e+02,-1.020738195169942628e+02,-8.799443368757783901e+01,9.484992027282714844e+00,-5.354431271553039551e-01,-6.119350194931030273e-01,5.720000000000000000e+02
-1.416253138053871226e+02,-1.422687169504024496e+02,-1.249223896010298631e+02,-1.021138760118774371e+02,-1.449406896328764560e+02,-1.209531791949739272e+02,-1.021182720264368982e+02,-8.661494487001255038e+01,9.484992027282714844e+00,-5.354431271553039551e-01,-6.119350194931030273e-01,5.730000000000000000e+02
-1.434271019450134190e+02,-1.417968667685854598e+02,-1.279027600902227277e+02,-1.023143002872930083e+02,-1.456999707366085204e+02,-1.208628921873096260e+02,-1.031418972581232083e+02,-8.741881037197890691e+01,9.484992027282714844e+00,-5.354431271553039551e-01,-6.119350194931030273e-01,5.740000000000000000e+02
-1.438321506230604427e+02,-1.413010977298254147e+02,-1.300204726278388989e+02,-1.037293523615589947e+02,-1.463159265369431523e+02,-1.223119168427765544e+02,-1.035627978680640808e+02,-8.913563047505886061e+01,9.484992027282714844e+00,-5.354431271553039551e-01,-6.119350194931030273e-01,5.750000000000000000e+02
-1.419916280658944743e+02,-1.399515789626857440e+02,-1.298101050281729840e+02,-1.048738389605605335e+02,-1.456067000615294091e+02,-1.234116872560916818e+02,-1.018119043613078247e+02,-8.948467772582807811e+01,9.484992027282714844e+00,-5.354431271553039551e-01,-6.119350194931030273e-01,5.760000000000000000e+02
-1.381192059763816360e+02,-1.373266599573653366e+02,-1.267545187949217507e+02,-1.044720089418187854e+02,-1.429028034666262101e+02,-1.228046883261340554e+02,-9.781009716802873299e+01,-8.716198798027835437e+01,9.484992027282714844e+00,-5.354431271553039551e-01,-6.119350194931030273e-01,5.770000000000000000e+02
-1.336440109061622934e+02,-1.340269955894400482e+02,-1.218094253442468471e+02,-1.025941372748529830e+02,-1.386473859296092996e+02,-1.207105661965724721e+02,-9.314900014265367645e+01,-8.289924615947893471e+01,9.484992027282714844e+00,-5.354431271553039551e-01,-6.119350194931030273e-01,5.780000000000000000e+02
-1.304200022831719252e+02,-1.312851964134279115e+02,-1.169465311258718430e+02,-1.004384933260043908e+02,-1.340971331233995443e+02,-1.184235623844215297e+02,-8.978025288012213423e+01,-7.867670322167759878e+01,9.484992027282714844e+00,-5.354431271553039551e-01,-6.119350194931030273e-01,5.790000000000000000e+02
-1.295345178253955964e+02,-1.299222639150757459e+02,-1.139268806943764503e+02,-9.906940898524771910e+01,-1.303833443402036210e+02,-1.169493282196926884e+02,-8.842537372520018835e+01,-7.594362484510929789e+01,9.484992027282714844e+00,-5.354431271553039551e-01,-6.119350194931030273e-01,5.800000000000000000e+02
-1.306653331386733043e+02,-1.296919471893670561e+02,-1.132371219036249386e+02,-9.847103737605357310e+01,-1.277704180650507624e+02,-1.162176314918506250e+02,-8.819385244664590573e+01,-7.459759853405557806e+01,9.484992027282714844e+00,-5.354431271553039551e-01,-6.119350194931030273e-01,5.810000000000000000e+02
-1.324868470663386688e+02,-1.296604260407402762e+02,-1.140221262389823096e+02,-9.788111558596938266e+01,-1.257627561876979598e+02,-1.155571354245512339e+02,-8.771646831803445821e+01,-7.359988060065006721e+01,9.484992027282714844e+00,-5.354431271553039551e-01,-6.119350194931030273e-01,5.820000000000000000e+02
-1.337199666551096016e+02,-1.291909053885356116e+02,-1.149916489973911666e+02,-9.695178088208922418e+01,-1.239026415601401823e+02,-1.147455873878934653e+02,-8.662364286775118671e+01,-7.241080348596369731e+01,9.484992027282714844e+00,-5.354431271553039551e-01,-6.119350194931030273e-01,5.830000000000000000e+02
-1.339203740969969658e+02,-1.284902173974041943e+02,-1.154576179677242180e+02,-9.638049726292956620e+01,-1.224319001583608042e+02,-1.143962919962214073e+02,-8.588519465636636596e+01,-7.165067427894973662e+01,9.484992027282714844e+00,-5.354431271553039551e-01,-6.119350194931030273e-01,5.840000000000000000e+02
-1.334558565264014760e+02,-1.281645892272681522e+02,-1.156249874222885410e+02,-9.722341237932050717e+01,-1.221122795736155240e+02,-1.152367008421570063e+02,-8.670030557953214156e+01,-7.228806871983397286e+01,9.484992027282714844e+00,-5.354431271553039551e-01,-6.119350194931030273e-01,5.850000000000000000e+02
-1.329224594116822118e+02,-1.283347962675834424e+02,-1.160506727838110237e+02,-9.958338166731118690e+01,-1.233338124910369515e+02,-1.170963087536583771e+02,-8.911396947220418951e+01,-7.428304950735764578e+01,9.484992027282714844e+00,-5.354431271553039551e-01,-6.119350194931030273e-01,5.860000000000000000e+02
