F3,F4,C3,C4,P3,P4,Cz,Pz,Accel_x,Accel_y,Accel_z,Sample
-6.457412382587790489e-11,-6.548361852765083313e-11,-6.002665031701326370e-11,-4.911271389573812485e-11,-8.913048077374696732e-11,-9.458744898438453674e-11,-4.911271389573812485e-11,-4.729372449219226837e-11,9.484992027282714844e+00,-6.884268522262573242e-01,-1.147378161549568176e-01,2.010000000000000000e+02
-3.177859861336764880e+01,-2.932278285242682614e+01,-1.874863214074321149e+01,-2.136105782925187668e+01,-2.013265691708693339e+01,-2.465793168389427592e+01,-1.643296723090315936e+01,-1.730080710040783742e+01,9.484992027282714844e+00,-6.884268522262573242e-01,-1.147378161549568176e-01,2.020000000000000000e+02
-6.188813573339484719e+01,-5.659309154316179047e+01,-3.857440912332640437e+01,-4.295412549126922386e+01,-4.511925799848540919e+01,-5.150585412115651707e+01,-3.478431528625696956e+01,-3.671177550883476215e+01,9.484992027282714844e+00,-6.884268522262573242e-01,-1.147378161549568176e-01,2.030000000000000000e+02
-8.967592225641510595e+01,-8.113465089754754445e+01,-5.940861144005793903e+01,-6.406497214143837482e+01,-7.580513246066220745e+01,-8.041863161383298575e+01,-5.563421842653679050e+01,-5.836881039452237019e+01,9.484992027282714844e+00,-6.884268522262573242e-01,-1.147378161549568176e-01,2.040000000000000000e+02
-1.157354245008555154e+02,-1.039998449344020628e+02,-8.006180792145823943e+01,-8.336428991234060959e+01,-1.087558734196354635e+02,-1.089872391624267038e+02,-7.807999843372272153e+01,-8.032736971937629278e+01,9.484992027282714844e+00,-6.884268522262573242e-01,-1.147378161549568176e-01,2.050000000000000000e+02
-1.412232339105221399e+02,-1.270924097248662292e+02,-9.932931114454640920e+01,-1.003326298510801280e+02,-1.396696655075884337e+02,-1.348360548383097921e+02,-1.006872782666105195e+02,-1.003266437660449810e+02,9.484992027282714844e+00,-6.884268522262573242e-01,-1.147378161549568176e-01,2.060000000000000000e+02
-1.668564226702819724e+02,-1.518006419599323635e+02,-1.169901440315506989e+02,-1.162856327679692185e+02,-1.669008695944703504e+02,-1.578971168904408842e+02,-1.223832148732699352e+02,-1.176585327713037259e+02,9.484992027282714844e+00,-6.884268522262573242e-01,-1.147378161549568176e-01,2.070000000000000000e+02
-1.923893564526015325e+02,-1.781467365568860259e+02,-1.337490239300896064e+02,-1.337311342034408881e+02,-1.918381673183921521e+02,-1.804178740947681945e+02,-1.424904504487894883e+02,-1.334402746136247515e+02,9.484992027282714844e+00,-7.266727685928344727e-01,-1.529837548732757568e-01,2.080000000000000000e+02
-2.169166121175330773e+02,-2.049319270162905013e+02,-1.503908045661919459e+02,-1.543999061313252241e+02,-2.164256454883361585e+02,-2.047989059162628109e+02,-1.603374419218234834e+02,-1.492893471812885764e+02,9.484992027282714844e+00,-7.266727685928344727e-01,-1.529837548732757568e-01,2.090000000000000000e+02
-2.396724536687570435e+02,-2.305999899883754551e+02,-1.671649516033703549e+02,-1.776683346943091237e+02,-2.408942637982854649e+02,-2.314288620384195383e+02,-1.754216988872103684e+02,-1.658712832320879897e+02,9.484992027282714844e+00,-7.266727685928344727e-01,-1.529837548732757568e-01,2.100000000000000000e+02
-2.606690886115247849e+02,-2.541471323624000433e+02,-1.839336418390603285e+02,-2.008259913494039210e+02,-2.639957350119129842e+02,-2.584833858304409659e+02,-1.882010136848330148e+02,-1.826269197441524739e+02,9.484992027282714844e+00,-7.266727685928344727e-01,-1.529837548732757568e-01,2.110000000000000000e+02
-2.807189586507029162e+02,-2.755436504506697020e+02,-2.006371466402815713e+02,-2.209752096903266647e+02,-2.849745614561334150e+02,-2.836055297294333286e+02,-2.004349968304759386e+02,-1.986074125276827544e+02,9.484992027282714844e+00,-7.266727685928344727e-01,-1.529837548732757568e-01,2.120000000000000000e+02
-3.008841666516946134e+02,-2.955526728785534942e+02,-2.173560491607422591e+02,-2.369291665274795378e+02,-3.047189360135162133e+02,-3.056926439903254504e+02,-2.141790286705108883e+02,-2.133341419860034875e+02,9.484992027282714844e+00,-7.266727685928344727e-01,-1.529837548732757568e-01,2.130000000000000000e+02
-3.217974631334463993e+02,-3.151649224090779171e+02,-2.339484390981615434e+02,-2.496177507321717712e+02,-3.248447785987809766e+02,-3.252797470497189352e+02,-2.300494034921421189e+02,-2.269209986882578960e+02,9.484992027282714844e+00,-7.266727685928344727e-01,-1.529837548732757568e-01,2.140000000000000000e+02
-3.433384912625879224e+02,-3.349966176917796474e+02,-2.499447917562938528e+02,-2.609752612471575048e+02,-3.460330657616059398e+02,-3.436304420008655143e+02,-2.465457027060920154e+02,-2.397312473608762957e+02,9.484992027282714844e+00,-7.266727685928344727e-01,-1.529837548732757568e-01,2.150000000000000000e+02
-3.648540143182608517e+02,-3.549798471069489096e+02,-2.650947649583458769e+02,-2.725702719743012494e+02,-3.676655516027913109e+02,-3.617814947856068102e+02,-2.614334923222977523e+02,-2.522675313466752414e+02,9.484992027282714844e+00,-7.266727685928344727e-01,-1.529837548732757568e-01,2.160000000000000000e+02
-3.857056489277401852e+02,-3.745336194581832387e+02,-2.800074365529453644e+02,-2.851626202346660648e+02,-3.890572507150454840e+02,-3.804090989257174442e+02,-2.740736023749841479e+02,-2.653910432240299997e+02,9.484992027282714844e+00,-7.266727685928344727e-01,-1.529837548732757568e-01,2.170000000000000000e+02
-4.057073639107602503e+02,-3.931334593630781455e+02,-2.959324247282092983e+02,-2.991690939394648012e+02,-4.105805773643787688e+02,-4.001805231355447177e+02,-2.863652592644575634e+02,-2.802500910723065317e+02,9.484992027282714844e+00,-7.266727685928344727e-01,-1.529837548732757568e-01,2.180000000000000000e+02
-4.251351913591443008e+02,-4.108828683400688533e+02,-3.135647729442925993e+02,-3.150845522978179361e+02,-4.331462339451109074e+02,-4.217331565502781814e+02,-3.011496575872306494e+02,-2.974827419107423339e+02,9.484992027282714844e+00,-7.266727685928344727e-01,-1.529837548732757568e-01,2.190000000000000000e+02
-4.443613753733070553e+02,-4.286140807046886039e+02,-3.319551780487827273e+02,-3.331613901076643742e+02,-4.565834167947950846e+02,-4.450762777447253029e+02,-3.194667502698084718e+02,-3.162362280438001108e+02,9.484992027282714844e+00,-7.266727685928344727e-01,-1.529837548732757568e-01,2.200000000000000000e+02
-4.634743864590582234e+02,-4.473486830088659190e+02,-3.487746237420642501e+02,-3.526846826789214902e+02,-4.789350584610911028e+02,-4.691086086581181007e+02,-3.393175166881837868e+02,-3.341322538934600743e+02,9.484992027282714844e+00,-7.266727685928344727e-01,-1.529837548732757568e-01,2.210000000000000000e+02
-4.822202006644665744e+02,-4.674673855300798095e+02,-3.619926745568009210e+02,-3.718347369676293965e+02,-4.977971669246071542e+02,-4.920062310529829119e+02,-3.572033970090606090e+02,-3.486399877937938072e+02,9.484992027282714844e+00,-7.266727685928344727e-01,-1.529837548732757568e-01,2.220000000000000000e+02
-5.002771216994042334e+02,-4.882454049797952393e+02,-3.715825550714453129e+02,-3.886024400805017649e+02,-5.125321669870882033e+02,-5.123396381076881880e+02,-3.710418166016261239e+02,-3.589340575853775590e+02,9.484992027282714844e+00,-7.266727685928344727e-01,-1.529837548732757568e-01,2.230000000000000000e+02
-5.175473025476503608e+02,-5.081899503825761713e+02,-3.797143599469636683e+02,-4.020968733457757480e+02,-5.250938137087359792e+02,-5.299701955857372013e+02,-3.817590886033876814e+02,-3.666369012490886234e+02,9.484992027282714844e+00,-7.266727685928344727e-01,-1.529837548732757568e-01,2.240000000000000000e+02
-5.341569919381381624e+02,-5.259847321875467969e+02,-3.892178389268474348e+02,-4.130750700702028553e+02,-5.385203198927574704e+02,-5.459395938907264281e+02,-3.922207685880766803e+02,-3.746828482533755960e+02,9.484992027282714844e+00,-7.266727685928344727e-01,-1.529837548732757568e-01,2.250000000000000000e+02
-5.501975849395048499e+02,-5.413432937021143516e+02,-4.016005277065787595e+02,-4.231830863789546129e+02,-5.544666604457570429e+02,-5.614995956094626308e+02,-4.047068807616269623e+02,-3.851594500919882194e+02,9.484992027282714844e+00,-7.266727685928344727e-01,-1.529837548732757568e-01,2.260000000000000000e+02
-5.655293508754648428e+02,-5.551353601639830231e+02,-4.162072669016861255e+02,-4.336118885795440292e+02,-5.720599706478942608e+02,-5.771989080897119493e+02,-4.193280952296390751e+02,-3.979120228706015041e+02,9.484992027282714844e+00,-7.266727685928344727e-01,-1.529837548732757568e-01,2.270000000000000000e+02
-5.799030272682357463e+02,-5.687106245581617259e+02,-4.310112055038998733e+02,-4.443966015225969386e+02,-5.889972102560423082e+02,-5.927773225932814967e+02,-4.345655535816722477e+02,-4.110168250375727439e+02,9.484992027282714844e+00,-7.266727685928344727e-01,-1.529837548732757568e-01,2.280000000000000000e+02
-5.932949513950234177e+02,-5.829662642937546480e+02,-4.441517534832337333e+02,-4.548997731187146201e+02,-6.036691389616580636e+02,-6.077780225090473323e+02,-4.489306249319633935e+02,-4.225706364020315959e+02,9.484992027282714844e+00,-7.266727685928344727e-01,-1.529837548732757568e-01,2.290000000000000000e+02
-6.060793626778540784e+02,-5.978815493876609253e+02,-4.549567178716470153e+02,-4.648296911763618482e+02,-6.163127972010415760e+02,-6.221492556012026398e+02,-4.618989052756542151e+02,-4.321585652879111876e+02,9.484992027282714844e+00,-7.266727685928344727e-01,-1.529837548732757568e-01,2.300000000000000000e+02
-6.188063366885353389e+02,-6.128155106692001937e+02,-4.638850643235164171e+02,-4.746604013158948874e+02,-6.283445136588907189e+02,-6.362397904637136890e+02,-4.734554863899738848e+02,-4.408012031899488647e+02,9.484992027282714844e+00,-7.266727685928344727e-01,-1.529837548732757568e-01,2.310000000000000000e+02
-6.317634716945767650e+02,-6.272222251826660795e+02,-4.718020363376272144e+02,-4.850207610364959692e+02,-6.408117862326762406e+02,-6.502882842826984415e+02,-4.832725165457650292e+02,-4.496638799112424749e+02,9.484992027282714844e+00,-7.266727685928344727e-01,-1.529837548732757568e-01,2.320000000000000000e+02
-6.447246832605133022e+02,-6.411252552695486884e+02,-4.793529160279686039e+02,-4.957655624691915364e+02,-6.535306461495683834e+02,-6.640181999461192390e+02,-4.908020418994956344e+02,-4.588909057867349475e+02,9.484992027282714844e+00,-6.501809358596801758e-01,-7.649187743663787842e-02,2.330000000000000000e+02
-6.571253272503226981e+02,-6.549592584571018961e+02,-4.868374635917716660e+02,-5.058247363514283279e+02,-6.655806965915044202e+02,-6.768087336699172738e+02,-4.962653844159585788e+02,-4.676612142857838990e+02,9.484992027282714844e+00,-6.501809358596801758e-01,-7.649187743663787842e-02,2.340000000000000000e+02
-6.684928303589913412e+02,-6.689980979264018970e+02,-4.944228405798767199e+02,-5.141531544282088362e+02,-6.764715083556566242e+02,-6.883156574164477206e+02,-5.012468789088306949e+02,-4.753038700706483723e+02,9.484992027282714844e+00,-6.501809358596801758e-01,-7.649187743663787842e-02,2.350000000000000000e+02
-6.787287760815570437e+02,-6.829767104116790506e+02,-5.023263959013138447e+02,-5.209320589943063169e+02,-6.867676133744962499e+02,-6.989439754985733089e+02,-5.078848026541791114e+02,-4.822893392057030724e+02,9.484992027282714844e+00,-6.501809358596801758e-01,-7.649187743663787842e-02,2.360000000000000000e+02
-6.880479939662027391e+02,-6.963247817756564473e+02,-5.107790797176576234e+02,-5.278091471294192161e+02,-6.976274734348571656e+02,-7.096982719532816191e+02,-5.172107309951843490e+02,-4.900887906779580590e+02,9.484992027282714844e+00,-6.501809358596801758e-01,-7.649187743663787842e-02,2.370000000000000000e+02
-6.967502231192052022e+02,-7.088129822234650419e+02,-5.198643652324544746e+02,-5.368039141815470430e+02,-7.097867855088488795e+02,-7.214953142880594896e+02,-5.282816784961278245e+02,-5.000382880417100750e+02,9.484992027282714844e+00,-6.501809358596801758e-01,-7.649187743663787842e-02,2.380000000000000000e+02
-7.051230704610698012e+02,-7.209398796721407052e+02,-5.294473035040759896e+02,-5.487432382861361475e+02,-7.229812712743250813e+02,-7.345225073775627607e+02,-5.390869455726879096e+02,-5.123069891513669063e+02,9.484992027282714844e+00,-6.501809358596801758e-01,-7.649187743663787842e-02,2.390000000000000000e+02
-7.135509083402871511e+02,-7.335659611324572325e+02,-5.393143380028150204e+02,-5.625457262180507314e+02,-7.363267874199791549e+02,-7.481904505704078474e+02,-5.484351764492266739e+02,-5.259211169660684391e+02,9.484992027282714844e+00,-6.501809358596801758e-01,-7.649187743663787842e-02,2.400000000000000000e+02
-7.225798332291951738e+02,-7.470395610970681446e+02,-5.494366918235682533e+02,-5.759278436944705390e+02,-7.492400734679722518e+02,-7.616627435114805849e+02,-5.569827442642417736e+02,-5.397177970190923588e+02,9.484992027282714844e+00,-6.501809358596801758e-01,-7.649187743663787842e-02,2.410000000000000000e+02
-7.326861847488971762e+02,-7.606451583184898482e+02,-5.601066458167365454e+02,-5.868887231553753736e+02,-7.619825832290189283e+02,-7.744299337373913659e+02,-5.663721749868227562e+02,-5.532027292556540488e+02,9.484992027282714844e+00,-6.501809358596801758e-01,-7.649187743663787842e-02,2.420000000000000000e+02
-7.438427808627916420e+02,-7.730294528969111525e+02,-5.717165018049290666e+02,-5.947782493934037120e+02,-7.752609148292503960e+02,-7.863921290238113215e+02,-5.773171263318035926e+02,-5.664587353524830178e+02,9.484992027282714844e+00,-6.501809358596801758e-01,-7.649187743663787842e-02,2.430000000000000000e+02
-7.552980832762882528e+02,-7.833750992752352431e+02,-5.842223465778565696e+02,-6.002828274295075062e+02,-7.892307281754274300e+02,-7.974821916106830031e+02,-5.885049382227530259e+02,-5.793126297946373597e+02,9.484992027282714844e+00,-6.501809358596801758e-01,-7.649187743663787842e-02,2.440000000000000000e+02
-7.659111261586149340e+02,-7.922939171888583587e+02,-5.967042931894657158e+02,-6.046576822199285743e+02,-8.028913082233348177e+02,-8.073820500992787856e+02,-5.974018741220138509e+02,-5.908032028495790655e+02,9.484992027282714844e+00,-6.501809358596801758e-01,-7.649187743663787842e-02,2.450000000000000000e+02
-7.748926569999052845e+02,-8.015097010927470365e+02,-6.075349217130592478e+02,-6.090192794947529364e+02,-8.145891456543831737e+02,-8.157923874733087359e+02,-6.022466729922994091e+02,-5.997106789931544881e+02,9.484992027282714844e+00,-6.501809358596801758e-01,-7.649187743663787842e-02,2.460000000000000000e+02
-7.823654040776418697e+02,-8.124386991198557553e+02,-6.152720823242957522e+02,-6.141647664580514174e+02,-8.233372702150172699e+02,-8.230524557992839618e+02,-6.035083870913408646e+02,-6.057840575212239855e+02,9.484992027282714844e+00,-6.501809358596801758e-01,-7.649187743663787842e-02,2.470000000000000000e+02
-7.892447062600376739e+02,-8.248423960610375616e+02,-6.197502680600346139e+02,-6.207164442630692065e+02,-8.298113860447197112e+02,-8.303846594188571544e+02,-6.036933324503161202e+02,-6.104790255342968521e+02,9.484992027282714844e+00,-6.501809358596801758e-01,-7.649187743663787842e-02,2.480000000000000000e+02
-7.965010967147659358e+02,-8.367979622167185880e+02,-6.224681849884605072e+02,-6.291092180968935281e+02,-8.360493367184035378e+02,-8.392807791241020823e+02,-6.058267207520884767e+02,-6.163253208210212506e+02,9.484992027282714844e+00,-6.501809358596801758e-01,-7.649187743663787842e-02,2.490000000000000000e+02
-8.044270072806375538e+02,-8.461661211687501236e+02,-6.257798588603486678e+02,-6.392830407493706844e+02,-8.439797969526975976e+02,-8.503831611770392556e+02,-6.118447369048753899e+02,-6.252503628932718129e+02,9.484992027282714844e+00,-6.501809358596801758e-01,-7.649187743663787842e-02,2.500000000000000000e+02
-8.125378085624665800e+02,-8.524270004490717838e+02,-6.313714703630344047e+02,-6.504491846538421669e+02,-8.539786300035048043e+02,-8.628440566365707127e+02,-6.218812091828622215e+02,-6.371886826120821752e+02,9.484992027282714844e+00,-6.501809358596801758e-01,-7.649187743663787842e-02,2.510000000000000000e+02
-8.201396256062471366e+02,-8.573528136974978224e+02,-6.391835144386122920e+02,-6.613372923000133596e+02,-8.646716753421378598e+02,-8.748182733117037060e+02,-6.345317931544691419e+02,-6.501137862452574154e+02,9.484992027282714844e+00,-6.501809358596801758e-01,-7.649187743663787842e-02,2.520000000000000000e+02
-8.269966558313144560e+02,-8.638876030659321259e+02,-6.476505896608773583e+02,-6.708748657632700088e+02,-8.741372104136808048e+02,-8.847472718188773797e+02,-6.476069594567247805e+02,-6.614697611821097780e+02,9.484992027282714844e+00,-6.501809358596801758e-01,-7.649187743663787842e-02,2.530000000000000000e+02
-8.334768304601407181e+02,-8.740551771679720332e+02,-6.550475807381685627e+02,-6.787701285732932774e+02,-8.814710181113255203e+02,-8.923521285773690579e+02,-6.589471968010889213e+02,-6.698575235367088681e+02,9.484992027282714844e+00,-6.501809358596801758e-01,-7.649187743663787842e-02,2.540000000000000000e+02
-8.400924956300618760e+02,-8.874848045865396671e+02,-6.608081615577330012e+02,-6.854904267758902279e+02,-8.874206501737980943e+02,-8.985256313592412880e+02,-6.671467190974590267e+02,-6.757130767821649897e+02,9.484992027282714844e+00,-6.501809358596801758e-01,-7.649187743663787842e-02,2.550000000000000000e+02
-8.469592441793611215e+02,-9.016313593122904422e+02,-6.657508190029025172e+02,-6.916615303187140853e+02,-8.936471422679014722e+02,-9.043224175207915323e+02,-6.720459273085712084e+02,-6.806186039671051731e+02,9.484992027282714844e+00,-6.501809358596801758e-01,-7.649187743663787842e-02,2.560000000000000000e+02
-8.537501208076814692e+02,-9.134474201772259221e+02,-6.711344427964668284e+02,-6.974271024521754043e+02,-9.013324733482431839e+02,-9.100123736063515025e+02,-6.747295636991893844e+02,-6.859531785207359462e+02,9.484992027282714844e+00,-6.501809358596801758e-01,-7.649187743663787842e-02,2.570000000000000000e+02
-8.601728923555615438e+02,-9.212378643009606094e+02,-6.774947393742077111e+02,-7.023468804775229728e+02,-9.103127516221784390e+02,-9.150218321375555206e+02,-6.768959245729020040e+02,-6.920044850285312350e+02,9.484992027282714844e+00,-6.501809358596801758e-01,-7.649187743663787842e-02,2.580000000000000000e+02
-8.664120039473805264e+02,-9.254525179834504343e+02,-6.843286826389294220e+02,-7.059336368701133324e+02,-9.193701691621390637e+02,-9.187180509064614853e+02,-6.799578899281582380e+02,-6.981601797590656133e+02,9.484992027282714844e+00,-6.501809358596801758e-01,-7.649187743663787842e-02,2.590000000000000000e+02
-8.730027205472815695e+02,-9.280813565830244443e+02,-6.908121838653542000e+02,-7.083457042775935406e+02,-9.273271298414406374e+02,-9.212578671313758605e+02,-6.845153336435155325e+02,-7.038582757357439732e+02,9.484992027282714844e+00,-7.266727685928344727e-01,-7.649187743663787842e-02,2.600000000000000000e+02
-8.802172650599081862e+02,-9.313014694131961733e+02,-6.967404298242113327e+02,-7.105882608736997099e+02,-9.339896273914559970e+02,-9.237398697533890299e+02,-6.905155400520188778e+02,-7.093773508105027759e+02,9.484992027282714844e+00,-7.266727685928344727e-01,-7.649187743663787842e-02,2.610000000000000000e+02
-8.876090119581322142e+02,-9.363584536000871594e+02,-7.027263296223336511e+02,-7.139679433036203591e+02,-9.401954615108484177e+02,-9.275540816649217959e+02,-6.977356750505159653e+02,-7.157202971315550712e+02,9.484992027282714844e+00,-7.266727685928344727e-01,-7.649187743663787842e-02,2.620000000000000000e+02
-8.942707126696677733e+02,-9.432316624589811909e+02,-7.094790658620859176e+02,-7.191526307691779039e+02,-9.470013324400188139e+02,-9.334682217213053264e+02,-7.059314049636254822e+02,-7.236429211891531850e+02,9.484992027282714844e+00,-7.266727685928344727e-01,-7.649187743663787842e-02,2.630000000000000000e+02
-8.996508081804199719e+02,-9.509735138205135172e+02,-7.169142084081312305e+02,-7.255683550059364961e+02,-9.547379889509552413e+02,-9.411382923069925255e+02,-7.144728929961969470e+02,-7.326847888715838053e+02,9.484992027282714844e+00,-7.266727685928344727e-01,-7.649187743663787842e-02,2.640000000000000000e+02
-9.041475342679134428e+02,-9.582996279718940968e+02,-7.240160397288170770e+02,-7.316776551039598644e+02,-9.627193296737087849e+02,-9.493523814331084623e+02,-7.220189754846785490e+02,-7.411597262794889502e+02,9.484992027282714844e+00,-7.266727685928344727e-01,-7.649187743663787842e-02,2.650000000000000000e+02
-9.088388847159765191e+02,-9.641120916921152002e+02,-7.296189420767113916e+02,-7.360352384623809030e+02,-9.698183926341796450e+02,-9.567835897877412208e+02,-7.269244101665581184e+02,-7.472876853567457829e+02,9.484992027282714844e+00,-7.266727685928344727e-01,-7.649187743663787842e-02,2.660000000000000000e+02
-9.145225276381452204e+02,-9.678941757882272441e+02,-7.333885658661502021e+02,-7.383963436385520254e+02,-9.753880545033284761e+02,-9.627252664106965767e+02,-7.283655934725866246e+02,-7.506118288197774291e+02,9.484992027282714844e+00,-7.266727685928344727e-01,-7.649187743663787842e-02,2.670000000000000000e+02
-9.209363575727011266e+02,-9.699968786243332488e+02,-7.360769387224574984e+02,-7.400418742725188395e+02,-9.796972050498750377e+02,-9.673326871090191617e+02,-7.272517918247901889e+02,-7.524297850095379090e+02,9.484992027282714844e+00,-7.266727685928344727e-01,-7.649187743663787842e-02,2.680000000000000000e+02
-9.269022659664783532e+02,-9.716975084858463561e+02,-7.388103650106477289e+02,-7.430095747256182221e+02,-9.834988557401950402e+02,-9.712671453901918994e+02,-7.259147501396009829e+02,-7.547154067208956576e+02,9.484992027282714844e+00,-7.266727685928344727e-01,-7.649187743663787842e-02,2.690000000000000000e+02
-9.312814619184734966e+02,-9.748022841236157774e+02,-7.420744416510272004e+02,-7.487185969318512662e+02,-9.871555013446942439e+02,-9.750521495551355429e+02,-7.265641365679484807e+02,-7.583648388165524921e+02,9.484992027282714844e+00,-7.266727685928344727e-01,-7.649187743663787842e-02,2.700000000000000000e+02
-9.338649089602622553e+02,-9.807627192475729316e+02,-7.453130052461231116e+02,-7.569284751799697233e+02,-9.901837552940937712e+02,-9.786376755618881589e+02,-7.296745528553475424e+02,-7.623266258766925603e+02,9.484992027282714844e+00,-7.266727685928344727e-01,-7.649187743663787842e-02,2.710000000000000000e+02
-9.353934748671182433e+02,-9.896940266615938526e+02,-7.474703589503460535e+02,-7.657447627215326520e+02,-9.917144746888450300e+02,-9.814940844521875078e+02,-7.336765035957675991e+02,-7.645185159625085589e+02,9.484992027282714844e+00,-7.266727685928344727e-01,-7.649187743663787842e-02,2.720000000000000000e+02
-9.367580044881187860e+02,-9.999512230868865572e+02,-7.479820258131567243e+02,-7.726544443278634162e+02,-9.915133548604189855e+02,-9.831505385979151015e+02,-7.362688133050431816e+02,-7.638520648482376600e+02,9.484992027282714844e+00,-7.266727685928344727e-01,-7.649187743663787842e-02,2.730000000000000000e+02
-9.382115100445421376e+02,-1.008712307698338236e+03,-7.473640524892422263e+02,-7.758952163875017050e+02,-9.906323596989967655e+02,-9.837459910001338130e+02,-7.362816493229925072e+02,-7.616076563518288367e+02,9.484992027282714844e+00,-7.266727685928344727e-01,-7.649187743663787842e-02,2.740000000000000000e+02
-9.393632654753564566e+02,-1.013390220044628904e+03,-7.469583971661843407e+02,-7.753210816831876855e+02,-9.910283011830119904e+02,-9.841618778555243807e+02,-7.345556808195744907e+02,-7.608832828806866928e+02,9.484992027282714844e+00,-7.266727685928344727e-01,-7.649187743663787842e-02,2.750000000000000000e+02
-9.399136493510970922e+02,-1.013064189611923439e+03,-7.481053676813872926e+02,-7.723319466897554548e+02,-9.943500330224675281e+02,-9.856138017655607655e+02,-7.331697902612622784e+02,-7.644698445385226933e+02,9.484992027282714844e+00,-7.266727685928344727e-01,-7.649187743663787842e-02,2.760000000000000000e+02
-9.403238717903708448e+02,-1.009008309238715356e+03,-7.513759884339619930e+02,-7.690185667469213513e+02,-1.000792918187171608e+03,-9.889348701106314365e+02,-7.337572433633110904e+02,-7.728211281067693790e+02,9.484992027282714844e+00,-7.266727685928344727e-01,-7.649187743663787842e-02,2.770000000000000000e+02
-9.416765800026721536e+02,-1.003939126963139074e+03,-7.563283396794329292e+02,-7.670555940641704638e+02,-1.008856800216136890e+03,-9.939624250033734825e+02,-7.363213391708148947e+02,-7.836424730754849861e+02,9.484992027282714844e+00,-7.266727685928344727e-01,-7.649187743663787842e-02,2.780000000000000000e+02
-9.447945690983450504e+02,-1.000447142989723488e+03,-7.618094202636651744e+02,-7.669213422161794824e+02,-1.016150494490251504e+03,-9.993781640568440707e+02,-7.394225902498994856e+02,-7.932655368897715107e+02,9.484992027282714844e+00,-7.266727685928344727e-01,-7.649187743663787842e-02,2.790000000000000000e+02
-9.494301968768827464e+02,-9.996040344000119831e+02,-7.665260906595226515e+02,-7.677992827647792637e+02,-1.020678329481690639e+03,-1.003144830975435411e+03,-7.413955784216982465e+02,-7.986720720994300109e+02,9.484992027282714844e+00,-7.266727685928344727e-01,-7.649187743663787842e-02,2.800000000000000000e+02
-9.542993548082496318e+02,-1.000628402111679293e+03,-7.695668049869227616e+02,-7.681866642899747148e+02,-1.021804377749123432e+03,-1.003422149953460917e+03,-7.414826349978881126e+02,-7.988162273967768670e+02,9.484992027282714844e+00,-7.266727685928344727e-01,-7.649187743663787842e-02,2.810000000000000000e+02
-9.579434475861907003e+02,-1.001780860920619716e+03,-7.706862011233336034e+02,-7.669077917441964019e+02,-1.020395948446236503e+03,-9.995833373716586721e+02,-7.400744369463003522e+02,-7.947109384226705515e+02,9.484992027282714844e+00,-7.266727685928344727e-01,-7.649187743663787842e-02,2.820000000000000000e+02
-9.596723993597551043e+02,-1.001809993422978437e+03,-7.702850663393028299e+02,-7.639712423042903993e+02,-1.018181749240093723e+03,-9.927823397299658836e+02,-7.381358152773478878e+02,-7.886440969372758900e+02,9.484992027282714844e+00,-7.266727685928344727e-01,-7.649187743663787842e-02,2.830000000000000000e+02
-9.598262536673141767e+02,-1.000906662841946854e+03,-7.691162450474274692e+02,-7.607154177965298913e+02,-1.016772226970686688e+03,-9.856185285129612339e+02,-7.364922217820419519e+02,-7.831479172452304738e+02,9.484992027282714844e+00,-7.266727685928344727e-01,-7.649187743663787842e-02,2.840000000000000000e+02
-9.592603389715711728e+02,-1.000483423376100518e+03,-7.678825329451332209e+02,-7.590652916259098220e+02,-1.016920464261065604e+03,-9.809237783918844116e+02,-7.355574352237387075e+02,-7.800977732820406345e+02,9.484992027282714844e+00,-7.266727685928344727e-01,-7.649187743663787842e-02,2.850000000000000000e+02
-9.586349738343326408e+02,-1.001957066659979773e+03,-7.669629209989091123e+02,-7.603192072544043185e+02,-1.018402801816878537e+03,-9.803146428368459055e+02,-7.354843815601018377e+02,-7.801018217310111140e+02,9.484992027282714844e+00,-7.266727685928344727e-01,-7.649187743663787842e-02,2.860000000000000000e+02
-9.581359260881541786e+02,-1.005474721194506401e+03,-7.664151594300165016e+02,-7.642801087832391431e+02,-1.020490706798179417e+03,-9.834202985310409986e+02,-7.363276069336577621e+02,-7.823799203900667862e+02,9.484992027282714844e+00,-7.266727685928344727e-01,-7.649187743663787842e-02,2.870000000000000000e+02
-9.577257395630888368e+02,-1.009597186695777282e+03,-7.661706273620968659e+02,-7.693704277713443389e+02,-1.022601708924605873e+03,-9.883264639203716797e+02,-7.379530008409842594e+02,-7.853174005990903197e+02,9.484992027282714844e+00,-7.266727685928344727e-01,-7.649187743663787842e-02,2.880000000000000000e+02
-9.575116139072481474e+02,-1.012225684611380757e+03,-7.661707750867126379e+02,-7.736585860990003312e+02,-1.024610401309512781e+03,-9.929131210438571316e+02,-7.398773760761256426e+02,-7.874802375993017449e+02,9.484992027282714844e+00,-7.266727685928344727e-01,-7.649187743663787842e-02,2.890000000000000000e+02
-9.577826888917516044e+02,-1.012071171323359749e+03,-7.663103556629058630e+02,-7.760506180735492308e+02,-1.026625700675042026e+03,-9.961176876712549983e+02,-7.413986608111792975e+02,-7.884447924277129687e+02,9.484992027282714844e+00,-7.266727685928344727e-01,-7.649187743663787842e-02,2.900000000000000000e+02
-9.587133272663519392e+02,-1.009540544469139377e+03,-7.663121989264175227e+02,-7.768016568644425206e+02,-1.028526837798643555e+03,-9.982356847227222261e+02,-7.420598528675138823e+02,-7.888031401298909486e+02,9.484992027282714844e+00,-6.501809358596801758e-01,-3.824593871831893921e-02,2.910000000000000000e+02
-9.601127498397534055e+02,-1.006380731403940217e+03,-7.657805537935777238e+02,-7.770557936689386906e+02,-1.029771181868000667e+03,-1.000153153899789572e+03,-7.420432382334997783e+02,-7.893508880223880624e+02,9.484992027282714844e+00,-6.501809358596801758e-01,-3.824593871831893921e-02,2.920000000000000000e+02
-9.615297378331556502e+02,-1.004421664867988511e+03,-7.644990438642511208e+02,-7.778550991650034803e+02,-1.029704756707403249e+03,-1.002258152454514175e+03,-7.420543597258090358e+02,-7.901853589227539487e+02,9.484992027282714844e+00,-6.501809358596801758e-01,-3.824593871831893921e-02,2.930000000000000000e+02
-9.626328777681708289e+02,-1.004431328443021698e+03,-7.627171964850426775e+02,-7.793783448766774882e+02,-1.028099264543310710e+03,-1.003964459538668052e+03,-7.427023231159013221e+02,-7.905074335848337341e+02,9.484992027282714844e+00,-6.501809358596801758e-01,-3.824593871831893921e-02,2.940000000000000000e+02
-9.634736042123806783e+02,-1.005879627582838793e+03,-7.610999617048082655e+02,-7.808914319353630162e+02,-1.025416109661253813e+03,-1.004196396398879756e+03,-7.438839446671810265e+02,-7.892718590198879838e+02,9.484992027282714844e+00,-6.501809358596801758e-01,-3.824593871831893921e-02,2.950000000000000000e+02
-9.643404639268691199e+02,-1.007581161644130134e+03,-7.603016926940532585e+02,-7.813311995902903391e+02,-1.022555858977617845e+03,-1.002344590605660869e+03,-7.447345407468444591e+02,-7.860920565467872621e+02,9.484992027282714844e+00,-6.501809358596801758e-01,-3.824593871831893921e-02,2.960000000000000000e+02
-9.653152184955733901e+02,-1.008518796762354214e+03,-7.604963354689035668e+02,-7.800551902385445828e+02,-1.020330502537817210e+03,-9.988491002373913261e+02,-7.442446143078352634e+02,-7.816473109110037285e+02,9.484992027282714844e+00,-6.501809358596801758e-01,-3.824593871831893921e-02,2.970000000000000000e+02
-9.659563770105978620e+02,-1.008208671802710228e+03,-7.612603890264208530e+02,-7.772798282203094686e+02,-1.019120401633060737e+03,-9.949506411238755845e+02,-7.420881723244840487e+02,-7.773381892609982060e+02,9.484992027282714844e+00,-6.501809358596801758e-01,-3.824593871831893921e-02,2.980000000000000000e+02
-9.654702509734424893e+02,-1.006567292758504436e+03,-7.618953000072028772e+02,-7.739831803092937434e+02,-1.018938556938708984e+03,-9.918712681725038465e+02,-7.390249254756522532e+02,-7.745389278984530392e+02,9.484992027282714844e+00,-6.501809358596801758e-01,-3.824593871831893921e-02,2.990000000000000000e+02
-9.633131294489695620e+02,-1.003707203292636564e+03,-7.618965505271769416e+02,-7.713413100233226487e+02,-1.019693267743375372e+03,-9.901150717154216636e+02,-7.365581086843524190e+02,-7.739642779851103569e+02,9.484992027282714844e+00,-6.501809358596801758e-01,-3.824593871831893921e-02,3.000000000000000000e+02
-9.597544574134693676e+02,-9.999755646207206610e+02,-7.611930748149696910e+02,-7.700105336914548388e+02,-1.021278425933747940e+03,-9.893723002719884789e+02,-7.360831636388894594e+02,-7.754121098546820576e+02,9.484992027282714844e+00,-6.501809358596801758e-01,-3.824593871831893921e-02,3.010000000000000000e+02
-9.558971975499362088e+02,-9.960939594731997886e+02,-7.600377942398524738e+02,-7.696876396997287202e+02,-1.023375489755162107e+03,-9.889367166278453851e+02,-7.380657863240019196e+02,-7.778694688976296447e+02,9.484992027282714844e+00,-6.501809358596801758e-01,-3.824593871831893921e-02,3.020000000000000000e+02
-9.530486631565227071e+02,-9.930356538362423180e+02,-7.587242886391370575e+02,-7.693089524040724427e+02,-1.025239642612916214e+03,-9.881934551452914093e+02,-7.417278908131866046e+02,-7.798967575641140684e+02,9.484992027282714844e+00,-6.501809358596801758e-01,-3.824593871831893921e-02,3.030000000000000000e+02
-9.518665053928947373e+02,-9.915609982256590911e+02,-7.573801070852698558e+02,-7.678685555517663488e+02,-1.025842377265643563e+03,-9.868564529833453207e+02,-7.454043304702745445e+02,-7.802319932252743229e+02,9.484992027282714844e+00,-6.501809358596801758e-01,-3.824593871831893921e-02,3.040000000000000000e+02
-9.519196151066275888e+02,-9.917506507063468462e+02,-7.559422248197060981e+02,-7.653264895472648277e+02,-1.024414300939500208e+03,-9.849743104631090773e+02,-7.473727362989325229e+02,-7.784240649396430172e+02,9.484992027282714844e+00,-6.501809358596801758e-01,-3.824593871831893921e-02,3.050000000000000000e+02
-9.520163571840854502e+02,-9.929504354260244554e+02,-7.542639484991500467e+02,-7.628542426332817286e+02,-1.020992234310376602e+03,-9.828840468636575451e+02,-7.467316535404861497e+02,-7.751194009419007216e+02,9.484992027282714844e+00,-6.501809358596801758e-01,-3.824593871831893921e-02,3.060000000000000000e+02
-9.510640695387374990e+02,-9.941534299753116102e+02,-7.522766327160229594e+02,-7.620558677811601456e+02,-1.016483166831439576e+03,-9.811313707868995380e+02,-7.438668663045953053e+02,-7.716985026650544341e+02,9.484992027282714844e+00,-6.501809358596801758e-01,-3.824593871831893921e-02,3.070000000000000000e+02
-9.487732558018574309e+02,-9.944500090247714752e+02,-7.501475266781478695e+02,-7.636445153857310970e+02,-1.012137705716419532e+03,-9.802261628396079232e+02,-7.402302199593123078e+02,-7.694032908177683794e+02,9.484992027282714844e+00,-6.501809358596801758e-01,-3.824593871831893921e-02,3.080000000000000000e+02
-9.456600711288232333e+02,-9.932064277996981900e+02,-7.483213814022089991e+02,-7.666269326814370970e+02,-1.008820840007754555e+03,-9.802201206013287447e+02,-7.375084248972302703e+02,-7.685503041369158836e+02,9.484992027282714844e+00,-6.501809358596801758e-01,-3.824593871831893921e-02,3.090000000000000000e+02
-9.424222031402533730e+02,-9.900398442415132649e+02,-7.473119232315668796e+02,-7.687629575556979944e+02,-1.006625200425525918e+03,-9.804031580002418877e+02,-7.366467975640431405e+02,-7.684164145393128820e+02,9.484992027282714844e+00,-6.501809358596801758e-01,-3.824593871831893921e-02,3.100000000000000000e+02
-9.392950612276795255e+02,-9.849054137369853379e+02,-7.472724626419710603e+02,-7.680506169767563733e+02,-1.005042391671472160e+03,-9.795167512591252716e+02,-7.373167892398922731e+02,-7.678606105599669718e+02,9.484992027282714844e+00,-6.501809358596801758e-01,-3.824593871831893921e-02,3.110000000000000000e+02
-9.359721615141388611e+02,-9.783760149304258675e+02,-7.476503508114521992e+02,-7.640794623726662849e+02,-1.003421848209234099e+03,-9.764894430921856383e+02,-7.381557170397786649e+02,-7.661373782643292998e+02,9.446745872497558594e+00,-6.501809358596801758e-01,0.000000000000000000e+00,3.120000000000000000e+02
-9.321076786782751924e+02,-9.717682321986379748e+02,-7.473210689027102944e+02,-7.581779974153643025e+02,-1.001303105283158175e+03,-9.711950197985493105e+02,-7.376024687882755870e+02,-7.632612925067926426e+02,9.446745872497558594e+00,-6.501809358596801758e-01,0.000000000000000000e+00,3.130000000000000000e+02
-9.278462922442488434e+02,-9.666856886259206476e+02,-7.452723768337572210e+02,-7.522891893970146384e+02,-9.984619744972526405e+02,-9.645942561636621804e+02,-7.347729939010979479e+02,-7.597228666512162363e+02,9.446745872497558594e+00,-6.501809358596801758e-01,0.000000000000000000e+00,3.140000000000000000e+02
-9.238270973234590429e+02,-9.640775208060181285e+02,-7.413615653431060082e+02,-7.475756233690115096e+02,-9.948423009604912295e+02,-9.581067899972208579e+02,-7.298538923658948079e+02,-7.559342188254736357e+02,9.446745872497558594e+00,-6.501809358596801758e-01,0.000000000000000000e+00,3.150000000000000000e+02
-9.206483566964982401e+02,-9.635231122018006999e+02,-7.365094490219030376e+02,-7.439236224357849778e+02,-9.905969223558706744e+02,-9.527399631854891595e+02,-7.238821545559268316e+02,-7.519767657658354665e+02,9.446745872497558594e+00,-6.501809358596801758e-01,0.000000000000000000e+00,3.160000000000000000e+02
-9.183124407440485584e+02,-9.634389587344588790e+02,-7.321086632922130093e+02,-7.406154625533163198e+02,-9.861818618620230836e+02,-9.486795266481516364e+02,-7.181668111984969300e+02,-7.478455773477726325e+02,9.446745872497558594e+00,-6.501809358596801758e-01,0.000000000000000000e+00,3.170000000000000000e+02
-9.161890493550768042e+02,-9.621678406551289982e+02,-7.291100213972099482e+02,-7.373680393142279854e+02,-9.822594637426485633e+02,-9.455792681744889023e+02,-7.137282123150783946e+02,-7.438676787415489571e+02,9.446745872497558594e+00,-6.501809358596801758e-01,0.000000000000000000e+00,3.180000000000000000e+02
-9.135220079023331436e+02,-9.591090474166828699e+02,-7.275327858725698889e+02,-7.346886734906464653e+02,-9.793340670329585009e+02,-9.431363437670544272e+02,-7.109878253723132957e+02,-7.407805997982819690e+02,9.446745872497558594e+00,-6.501809358596801758e-01,0.000000000000000000e+00,3.190000000000000000e+02
-9.100133696373973180e+02,-9.549729219841472059e+02,-7.267140497794101748e+02,-7.332257803327845522e+02,-9.773589250037675811e+02,-9.413117501641856961e+02,-7.097240643503085948e+02,-7.392416185281240359e+02,9.446745872497558594e+00,-6.501809358596801758e-01,0.000000000000000000e+00,3.200000000000000000e+02
-9.059990300384024522e+02,-9.510078477541742359e+02,-7.259175449024596674e+02,-7.327920375102191883e+02,-9.756623390571032814e+02,-9.399861043040406230e+02,-7.092059092977543742e+02,-7.390757332705965155e+02,9.446745872497558594e+00,-6.501809358596801758e-01,0.000000000000000000e+00,3.210000000000000000e+02
-9.021249049093719350e+02,-9.479358169440298525e+02,-7.246939129529578167e+02,-7.320788220619205049e+02,-9.732919621580969078e+02,-9.384883816656713407e+02,-7.084467232436046515e+02,-7.389450081478787524e+02,9.446745872497558594e+00,-6.501809358596801758e-01,0.000000000000000000e+00,3.220000000000000000e+02
-8.988292557434033370e+02,-9.454944997388499814e+02,-7.227898492093453342e+02,-7.294522068912781378e+02,-9.695221932274039318e+02,-9.356309630234713950e+02,-7.065762604093106347e+02,-7.369331087558578020e+02,9.446745872497558594e+00,-6.501809358596801758e-01,0.000000000000000000e+00,3.230000000000000000e+02
-8.960027247359308831e+02,-9.428351997017140320e+02,-7.199546886119877627e+02,-7.242320088851221271e+02,-9.642087431244957543e+02,-9.304507510279483995e+02,-7.032660463317673702e+02,-7.318647916490446050e+02,9.446745872497558594e+00,-6.501809358596801758e-01,0.000000000000000000e+00,3.240000000000000000e+02
-8.930033991927232364e+02,-9.392604238124366702e+02,-7.160557472063687783e+02,-7.173875001520624437e+02,-9.578723608467893200e+02,-9.231462493251049182e+02,-6.989802218424564444e+02,-7.244725585321923518e+02,9.446745872497558594e+00,-6.501809358596801758e-01,0.000000000000000000e+00,3.250000000000000000e+02
-8.889922771746233821e+02,-9.346253746159848106e+02,-7.114291360337889500e+02,-7.110338571903597540e+02,-9.515657968838405623e+02,-9.153700408593887232e+02,-6.947828634941582777e+02,-7.173797017959907407e+02,9.446745872497558594e+00,-6.501809358596801758e-01,0.000000000000000000e+00,3.260000000000000000e+02
-8.834333013751147519e+02,-9.292174975985943775e+02,-7.069794518440821776e+02,-7.070708906336432165e+02,-9.465542088116368404e+02,-9.094271714688740076e+02,-6.916839222330554549e+02,-7.136068529031106209e+02,9.446745872497558594e+00,-6.501809358596801758e-01,0.000000000000000000e+00,3.270000000000000000e+02
-8.765357132271404907e+02,-9.234392953622118512e+02,-7.037211110487006636e+02,-7.059512364774701609e+02,-9.437896354069512199e+02,-9.068007607038903188e+02,-6.898972694291036305e+02,-7.144862518452237055e+02,9.446745872497558594e+00,-6.501809358596801758e-01,0.000000000000000000e+00,3.280000000000000000e+02
-8.693556698616029053e+02,-9.176537766696856124e+02,-7.020554246993233392e+02,-7.064264824609074367e+02,-9.433112027357357192e+02,-9.070398087955136361e+02,-6.885806868003438694e+02,-7.185059029469516645e+02,9.446745872497558594e+00,-6.501809358596801758e-01,0.000000000000000000e+00,3.290000000000000000e+02
-8.633466353238948159e+02,-9.122035645002902129e+02,-7.014021574061245019e+02,-7.063651063530986676e+02,-9.439583431107176921e+02,-9.078872718889940643e+02,-6.863480763714304658e+02,-7.220521734766887221e+02,9.446745872497558594e+00,-6.501809358596801758e-01,0.000000000000000000e+00,3.300000000000000000e+02
-8.594864364206068785e+02,-9.073727204277579403e+02,-7.005092034723597862e+02,-7.040135785807168531e+02,-9.437812164735812530e+02,-9.066431709876223977e+02,-6.822642213716408151e+02,-7.216250760751418056e+02,9.446745872497558594e+00,-6.501809358596801758e-01,0.000000000000000000e+00,3.310000000000000000e+02
-8.575249607019518407e+02,-9.032029033415598178e+02,-6.981590198854596565e+02,-6.988776406404105046e+02,-9.410390394107057546e+02,-9.018106511878736455e+02,-6.765781263147941900e+02,-7.159330531231541954e+02,9.446745872497558594e+00,-6.501809358596801758e-01,0.000000000000000000e+00,3.320000000000000000e+02
-8.559802888360719635e+02,-8.993628947644918981e+02,-6.937055509404864324e+02,-6.917632018220934924e+02,-9.351237416110129743e+02,-8.938473016505490705e+02,-6.705748841942121317e+02,-7.063700918639676729e+02,9.446745872497558594e+00,-6.501809358596801758e-01,0.000000000000000000e+00,3.330000000000000000e+02
-8.530306234582930074e+02,-8.953223352209199675e+02,-6.871869871308340407e+02,-6.841334899384700066e+02,-9.267398085109823569e+02,-8.845726626850162120e+02,-6.656466663807476607e+02,-6.957118656301116744e+02,9.446745872497558594e+00,-6.501809358596801758e-01,0.000000000000000000e+00,3.340000000000000000e+02
-8.477113860461590775e+02,-8.907695090120821533e+02,-6.791815252972049848e+02,-6.773288163352721085e+02,-9.172765479715540096e+02,-8.758545446658604305e+02,-6.623501477356213627e+02,-6.862475565980073497e+02,9.446745872497558594e+00,-6.501809358596801758e-01,0.000000000000000000e+00,3.350000000000000000e+02
-8.405030020770436749e+02,-8.858912400755907584e+02,-6.706391605899676733e+02,-6.721088465233817715e+02,-9.079522108966248197e+02,-8.686409747826712646e+02,-6.601950499610200040e+02,-6.787925772170090113e+02,9.446745872497558594e+00,-6.501809358596801758e-01,0.000000000000000000e+00,3.360000000000000000e+02
-8.328542208276667225e+02,-8.812075390326365323e+02,-6.626736239431809281e+02,-6.686383773498539540e+02,-8.993975120331597282e+02,-8.629436276490869204e+02,-6.582572501008237396e+02,-6.730601321860572170e+02,9.523238182067871094e+00,-6.119350194931030273e-01,-3.824593871831893921e-02,3.370000000000000000e+02
-8.260490621232881949e+02,-8.770557567465618831e+02,-6.561775504946688216e+02,-6.667094769164336867e+02,-8.918139498302089123e+02,-8.584679370533197016e+02,-6.559856525982004314e+02,-6.686508712551792541e+02,9.523238182067871094e+00,-6.119350194931030273e-01,-3.824593871831893921e-02,3.380000000000000000e+02
-8.203486431090856286e+02,-8.731948408990665484e+02,-6.513777095799426888e+02,-6.659453964416804865e+02,-8.853093917579358276e+02,-8.551162881967252360e+02,-6.534798198813070940e+02,-6.655762238672339208e+02,9.523238182067871094e+00,-6.119350194931030273e-01,-3.824593871831893921e-02,3.390000000000000000e+02
-8.150703736691139056e+02,-8.689340525102031734e+02,-6.477159273450480441e+02,-6.658869432919984774e+02,-8.799843313511696579e+02,-8.529095798644302704e+02,-6.510816599902482267e+02,-6.639273069785540429e+02,9.523238182067871094e+00,-6.119350194931030273e-01,-3.824593871831893921e-02,3.400000000000000000e+02
-8.094373209727593803e+02,-8.637329470780475731e+02,-6.442698931903697712e+02,-6.660029123445153800e+02,-8.757488354277932103e+02,-8.515591464150245429e+02,-6.487912924055026451e+02,-6.632207116586866960e+02,9.523238182067871094e+00,-6.119350194931030273e-01,-3.824593871831893921e-02,3.410000000000000000e+02
-8.033937503004783593e+02,-8.577731159242027843e+02,-6.404107369647774703e+02,-6.657035585771591286e+02,-8.721652823164292840e+02,-8.502487871535070099e+02,-6.461324014680988057e+02,-6.622181410383827824e+02,9.523238182067871094e+00,-6.119350194931030273e-01,-3.824593871831893921e-02,3.420000000000000000e+02
-7.976739166433571881e+02,-8.519629663045664074e+02,-6.361023210032840325e+02,-6.643890604482683102e+02,-8.685434012116186295e+02,-8.479032778134619548e+02,-6.425807226904771596e+02,-6.594723857785770633e+02,9.523238182067871094e+00,-6.119350194931030273e-01,-3.824593871831893921e-02,3.430000000000000000e+02
-7.931029783731692078e+02,-8.472607768310028860e+02,-6.316031026446228225e+02,-6.615366183868532062e+02,-8.642355415246324810e+02,-8.437199115052601428e+02,-6.380831366103466280e+02,-6.541589858870579519e+02,9.523238182067871094e+00,-6.119350194931030273e-01,-3.824593871831893921e-02,3.440000000000000000e+02
-7.897709772597338542e+02,-8.437689433653617925e+02,-6.269825327929229388e+02,-6.568371260850681210e+02,-8.589367951253916544e+02,-8.375494865486286926e+02,-6.331492603828403389e+02,-6.465649509328450222e+02,9.523238182067871094e+00,-6.119350194931030273e-01,-3.824593871831893921e-02,3.450000000000000000e+02
-7.868063317041110167e+02,-8.403296969181542408e+02,-6.220702549015845761e+02,-6.503613344291081830e+02,-8.528635972090010000e+02,-8.299124066257311370e+02,-6.284522472134899544e+02,-6.379542104468082471e+02,9.523238182067871094e+00,-6.119350194931030273e-01,-3.824593871831893921e-02,3.460000000000000000e+02
-7.829419057780783078e+02,-8.350622968469378975e+02,-6.169037366213747191e+02,-6.426488169657770868e+02,-8.467552724838162703e+02,-8.217179708165683678e+02,-6.243476944531880690e+02,-6.299824901757788211e+02,9.523238182067871094e+00,-6.119350194931030273e-01,-3.824593871831893921e-02,3.470000000000000000e+02
-7.773978970681846477e+02,-8.266130036509330239e+02,-6.120366158145527606e+02,-6.345973248175087065e+02,-8.416149916975846281e+02,-8.138714485946554760e+02,-6.207100473635816797e+02,-6.239956576120280261e+02,9.523238182067871094e+00,-6.119350194931030273e-01,-3.824593871831893921e-02,3.480000000000000000e+02
-7.703687830854312324e+02,-8.152723006993282979e+02,-6.081229272524331009e+02,-6.271230254944939588e+02,-8.381542347577228611e+02,-8.069147567151348994e+02,-6.171116577240466086e+02,-6.204623654472570706e+02,9.523238182067871094e+00,-6.119350194931030273e-01,-3.824593871831893921e-02,3.490000000000000000e+02
-7.627682078622672179e+02,-8.030650353265407375e+02,-6.050509469869525674e+02,-6.207621197057828795e+02,-8.361938335729307710e+02,-8.008309726902023158e+02,-6.131001936735995059e+02,-6.187378202986728866e+02,9.523238182067871094e+00,-6.119350194931030273e-01,-3.824593871831893921e-02,3.500000000000000000e+02
-7.555237501862993668e+02,-7.925997740794846322e+02,-6.016079782870747295e+02,-6.154840202529419457e+02,-8.345070027304864198e+02,-7.951369458622471029e+02,-6.083547789914473469e+02,-6.173095760705191424e+02,9.523238182067871094e+00,-6.119350194931030273e-01,-3.824593871831893921e-02,3.510000000000000000e+02
-7.490543530848503906e+02,-7.854169272985734551e+02,-5.962967033598424678e+02,-6.108562996537043546e+02,-8.314052473373385510e+02,-7.892587595841132497e+02,-6.027462778420317591e+02,-6.145252299430524090e+02,9.523238182067871094e+00,-6.119350194931030273e-01,-3.824593871831893921e-02,3.520000000000000000e+02
-7.433201775996831202e+02,-7.810590926428471903e+02,-5.887279472669422375e+02,-6.064254661258903525e+02,-8.257718542584152601e+02,-7.829608486992879079e+02,-5.964306605515273532e+02,-6.094879443316481229e+02,9.523238182067871094e+00,-6.119350194931030273e-01,-3.824593871831893921e-02,3.530000000000000000e+02
-7.382477191156901881e+02,-7.775852260282060797e+02,-5.802303050147377235e+02,-6.020015997941461592e+02,-8.177611587545629845e+02,-7.764862289051995958e+02,-5.899390061392125517e+02,-6.025510925414091616e+02,9.523238182067871094e+00,-6.119350194931030273e-01,-3.824593871831893921e-02,3.540000000000000000e+02
-7.339721960133022094e+02,-7.731135228758005269e+02,-5.729004956398996455e+02,-5.976541434888933964e+02,-8.085722086423215842e+02,-7.702846250734683053e+02,-5.840768588554697089e+02,-5.950138461683206970e+02,9.523238182067871094e+00,-6.119350194931030273e-01,-3.824593871831893921e-02,3.550000000000000000e+02
-7.305696869031846745e+02,-7.671385035504208645e+02,-5.678270889604527838e+02,-5.934922549292120948e+02,-7.995023876871871380e+02,-7.645902715877109586e+02,-5.795444810981052797e+02,-5.882001722460599922e+02,9.523238182067871094e+00,-6.119350194931030273e-01,-3.824593871831893921e-02,3.560000000000000000e+02
-7.275788309652239150e+02,-7.605789078744855942e+02,-5.641398579884075843e+02,-5.894730451188163443e+02,-7.911274221847995705e+02,-7.592624750326708636e+02,-5.765043106884293138e+02,-5.826187678905664598e+02,9.523238182067871094e+00,-6.119350194931030273e-01,-3.824593871831893921e-02,3.570000000000000000e+02
-7.239496425221811933e+02,-7.546369651698237249e+02,-5.598366295847770289e+02,-5.854142246827732379e+02,-7.832835602261945951e+02,-7.540258129526446282e+02,-5.744640740615038794e+02,-5.778481265970522145e+02,9.523238182067871094e+00,-6.119350194931030273e-01,-3.824593871831893921e-02,3.580000000000000000e+02
-7.186970326213827320e+02,-7.495746063084050093e+02,-5.536485177135025424e+02,-5.811562196561617384e+02,-7.757159791903750374e+02,-7.488091159327573223e+02,-5.725934689941252600e+02,-5.731551481050039456e+02,9.523238182067871094e+00,-6.119350194931030273e-01,-3.824593871831893921e-02,3.590000000000000000e+02
-7.117937434993552870e+02,-7.444971994878828809e+02,-5.461891202015942781e+02,-5.766786226806443665e+02,-7.686275247154949284e+02,-7.437681453683894688e+02,-5.701837927126589420e+02,-5.682211455236374604e+02,9.523238182067871094e+00,-6.119350194931030273e-01,-3.824593871831893921e-02,3.600000000000000000e+02
-7.044492511371333876e+02,-7.382416080790990236e+02,-5.393326053614041484e+02,-5.720450697666369706e+02,-7.625385275631012973e+02,-7.389367655643711714e+02,-5.668532727821177559e+02,-5.633061718054048015e+02,9.523238182067871094e+00,-6.119350194931030273e-01,-3.824593871831893921e-02,3.610000000000000000e+02
-6.983755400015354553e+02,-7.304577232640112925e+02,-5.344907240076613562e+02,-5.672496803937228833e+02,-7.576503050547266866e+02,-7.339128670874322324e+02,-5.624237420090917112e+02,-5.587799394074479551e+02,9.523238182067871094e+00,-6.119350194931030273e-01,-3.824593871831893921e-02,3.620000000000000000e+02
-6.945557919391485484e+02,-7.218770582012177783e+02,-5.314782140935894859e+02,-5.621563976587151501e+02,-7.534504146707126893e+02,-7.280144760506627790e+02,-5.567905068856716753e+02,-5.545931159722551911e+02,9.523238182067871094e+00,-6.119350194931030273e-01,-3.824593871831893921e-02,3.630000000000000000e+02
-6.925399526270171009e+02,-7.136273249791211128e+02,-5.289650238363956305e+02,-5.566337901757729014e+02,-7.490375130417003220e+02,-7.208781675470552273e+02,-5.500844662267093099e+02,-5.502833352985337569e+02,9.523238182067871094e+00,-6.884268522262573242e-01,-1.147378161549568176e-01,3.640000000000000000e+02
-6.908637104396184441e+02,-7.063607306897738454e+02,-5.258968810451440277e+02,-5.507862790117292207e+02,-7.438810313156400298e+02,-7.129676062976109279e+02,-5.429899582852879121e+02,-5.455131883299563924e+02,9.523238182067871094e+00,-6.884268522262573242e-01,-1.147378161549568176e-01,3.650000000000000000e+02
-6.881875126060599541e+02,-7.000195194176092173e+02,-5.223672751497447280e+02,-5.450680971485803639e+02,-7.382715011595059877e+02,-7.054381112773785389e+02,-5.367263131310407971e+02,-5.405366900595727202e+02,9.523238182067871094e+00,-6.884268522262573242e-01,-1.147378161549568176e-01,3.660000000000000000e+02
-6.841569849946272370e+02,-6.942999223916292522e+02,-5.191179057486351667e+02,-5.401278597961922969e+02,-7.330115426218098946e+02,-6.993471551297202495e+02,-5.324152995838931020e+02,-5.360348573699957342e+02,9.523238182067871094e+00,-6.884268522262573242e-01,-1.147378161549568176e-01,3.670000000000000000e+02
-6.793276136504230180e+02,-6.891596093019966247e+02,-5.163641556080349346e+02,-5.364370303534906270e+02,-7.286440273887578769e+02,-6.948205287265022889e+02,-5.302293737935046920e+02,-5.324139355038728354e+02,9.523238182067871094e+00,-6.884268522262573242e-01,-1.147378161549568176e-01,3.680000000000000000e+02
-6.744084873620579401e+02,-6.847807884708342954e+02,-5.133356629931313364e+02,-5.339487510376159207e+02,-7.249545223087895920e+02,-6.908978767381122452e+02,-5.291182248067966611e+02,-5.292662336716095979e+02,9.523238182067871094e+00,-6.884268522262573242e-01,-1.147378161549568176e-01,3.690000000000000000e+02
-6.696449477348066921e+02,-6.811025215636982466e+02,-5.090781128988737692e+02,-5.320543735788742197e+02,-7.211823734322995278e+02,-6.862483830070618751e+02,-5.274818745940378903e+02,-5.255884490529087998e+02,9.523238182067871094e+00,-6.884268522262573242e-01,-1.147378161549568176e-01,3.700000000000000000e+02
-6.648694646599085445e+02,-6.775443917817135571e+02,-5.036322794275351953e+02,-5.299074196682520324e+02,-7.166816864288471152e+02,-6.802091655272474782e+02,-5.242808854512668404e+02,-5.206210337482730210e+02,9.523238182067871094e+00,-6.884268522262573242e-01,-1.147378161549568176e-01,3.710000000000000000e+02
-6.599909919407848520e+02,-6.732981264636109699e+02,-4.982381215117907232e+02,-5.268985119963842862e+02,-7.113744827588875523e+02,-6.733002996344307576e+02,-5.196228151773816535e+02,-5.145423357776712692e+02,9.523238182067871094e+00,-6.884268522262573242e-01,-1.147378161549568176e-01,3.720000000000000000e+02
-6.552738778387072216e+02,-6.678915406128105587e+02,-4.942298528701185205e+02,-5.229432164520178503e+02,-7.056243962034141077e+02,-6.667992403045777792e+02,-5.143662626195134635e+02,-5.083677328313083308e+02,9.523238182067871094e+00,-6.884268522262573242e-01,-1.147378161549568176e-01,3.730000000000000000e+02
-6.510731370346047697e+02,-6.614179484078351834e+02,-4.917237329578092613e+02,-5.183881837609096692e+02,-6.997785407488977398e+02,-6.617386428136205723e+02,-5.092316797239375319e+02,-5.031593759949760170e+02,9.523238182067871094e+00,-6.884268522262573242e-01,-1.147378161549568176e-01,3.740000000000000000e+02
-6.473401257763828198e+02,-6.542513461118301166e+02,-4.894716361825294371e+02,-5.136514825432602720e+02,-6.939105683372376916e+02,-6.581452335855728961e+02,-5.043344108197268270e+02,-4.992821394484931261e+02,9.523238182067871094e+00,-6.884268522262573242e-01,-1.147378161549568176e-01,3.750000000000000000e+02
-6.434765598073477122e+02,-6.466673868024524836e+02,-4.860617936268843096e+02,-5.089274816059921704e+02,-6.879890911580873762e+02,-6.550960127250946243e+02,-4.995125306290522076e+02,-4.963343915659984305e+02,9.523238182067871094e+00,-6.884268522262573242e-01,-1.147378161549568176e-01,3.760000000000000000e+02
-6.387457475193448317e+02,-6.388638724123493375e+02,-4.812500185949727438e+02,-5.042071717446890489e+02,-6.821702495135787103e+02,-6.514638018177847698e+02,-4.949160296406810176e+02,-4.936787799223061484e+02,9.523238182067871094e+00,-6.884268522262573242e-01,-1.147378161549568176e-01,3.770000000000000000e+02
-6.328757125522977276e+02,-6.313203747973475402e+02,-4.760560999954432191e+02,-4.995429233899742485e+02,-6.767681770728045194e+02,-6.466813940526867555e+02,-4.910598907846622296e+02,-4.909419557297958363e+02,9.523238182067871094e+00,-6.884268522262573242e-01,-1.147378161549568176e-01,3.780000000000000000e+02
-6.262975356659121644e+02,-6.249134228423431523e+02,-4.715553569757328205e+02,-4.952470361443163256e+02,-6.718643810008143191e+02,-6.409468048507033018e+02,-4.882154202823205651e+02,-4.880048840072636267e+02,9.523238182067871094e+00,-6.884268522262573242e-01,-1.147378161549568176e-01,3.790000000000000000e+02
-6.198233081664127440e+02,-6.204048510789011743e+02,-4.676666741412934698e+02,-4.917762716079662368e+02,-6.669963232825102750e+02,-6.348377734963032708e+02,-4.858467098535386413e+02,-4.846241915032833276e+02,9.523238182067871094e+00,-6.884268522262573242e-01,-1.147378161549568176e-01,3.800000000000000000e+02
-6.140720543437046217e+02,-6.176802170276278048e+02,-4.632304338483424999e+02,-4.893511011500327186e+02,-6.613467055552873717e+02,-6.287613870675922954e+02,-4.828329510181974911e+02,-4.802228972993998468e+02,9.523238182067871094e+00,-6.884268522262573242e-01,-1.147378161549568176e-01,3.810000000000000000e+02
-6.091140239037356423e+02,-6.155567916292629889e+02,-4.572968799424884310e+02,-4.876330330174519077e+02,-6.543609909167212209e+02,-6.226913351647044692e+02,-4.783814543094481451e+02,-4.741796950889729487e+02,9.523238182067871094e+00,-6.884268522262573242e-01,-1.147378161549568176e-01,3.820000000000000000e+02
-6.045417808487686671e+02,-6.125300345610653494e+02,-4.502752535229876685e+02,-4.857699204201744578e+02,-6.462658928016930986e+02,-6.163055380083351338e+02,-4.727189645451462638e+02,-4.663901041875824376e+02,9.523238182067871094e+00,-6.884268522262573242e-01,-1.147378161549568176e-01,3.830000000000000000e+02
-5.998107339703412890e+02,-6.078734454736022599e+02,-4.437421605957304109e+02,-4.828342688410571100e+02,-6.380209639863228404e+02,-6.093260268116828229e+02,-4.668296485069108712e+02,-4.575707165584667564e+02,9.523238182067871094e+00,-6.884268522262573242e-01,-1.147378161549568176e-01,3.840000000000000000e+02
-5.945596735436604376e+02,-6.020758978667236079e+02,-4.391068820275795588e+02,-4.783828996363249644e+02,-6.307657872199752092e+02,-6.018206671852503860e+02,-4.615405204489143216e+02,-4.490277312578705278e+02,9.523238182067871094e+00,-6.884268522262573242e-01,-1.147378161549568176e-01,3.850000000000000000e+02
-5.887541255150999859e+02,-5.962213776733633495e+02,-4.364719682450036089e+02,-4.727623896574737046e+02,-6.252288713340030881e+02,-5.943242729059538760e+02,-4.569544117081204604e+02,-4.420875672147540172e+02,9.523238182067871094e+00,-6.884268522262573242e-01,-1.147378161549568176e-01,3.860000000000000000e+02
-5.826644731998903808e+02,-5.909507104745916877e+02,-4.347655009476782197e+02,-4.669480132984217562e+02,-6.214903024698260197e+02,-5.877076367589770598e+02,-4.528168057397056145e+02,-4.375923325128915167e+02,9.523238182067871094e+00,-6.884268522262573242e-01,-1.147378161549568176e-01,3.870000000000000000e+02
-5.767420268052819665e+02,-5.860206915462013058e+02,-4.328681929587271497e+02,-4.620031519537183158e+02,-6.190945140609637747e+02,-5.827745005596739247e+02,-4.492845571309130719e+02,-4.356697356584450063e+02,9.523238182067871094e+00,-6.884268522262573242e-01,-1.147378161549568176e-01,3.880000000000000000e+02
-5.714264607488962611e+02,-5.807988802278123330e+02,-4.304946992990935541e+02,-4.584743425690080585e+02,-6.172831998822325659e+02,-5.797410596048403022e+02,-4.470115200193185956e+02,-4.357378498890407172e+02,9.523238182067871094e+00,-6.884268522262573242e-01,-1.147378161549568176e-01,3.890000000000000000e+02
-5.669340208559156054e+02,-5.750589025991134804e+02,-4.280068520235781762e+02,-4.560783498220680485e+02,-6.152238960702516124e+02,-5.779441648635993261e+02,-4.462116772480103464e+02,-4.366684647819483871e+02,9.523238182067871094e+00,-6.884268522262573242e-01,-1.147378161549568176e-01,3.900000000000000000e+02
-5.631458402945049784e+02,-5.692044890995593960e+02,-4.255706269464872094e+02,-4.538874653510742974e+02,-6.122804525677656784e+02,-5.760910312139994858e+02,-4.456580937980379531e+02,-4.371177054250074434e+02,9.523238182067871094e+00,-6.884268522262573242e-01,-1.147378161549568176e-01,3.910000000000000000e+02
-5.596802360108185894e+02,-5.637616670024317500e+02,-4.227204953073278375e+02,-4.509190972145670457e+02,-6.082834436423950137e+02,-5.729788406786519772e+02,-4.429577874560613964e+02,-4.359940340705334165e+02,9.523238182067871094e+00,-6.884268522262573242e-01,-1.147378161549568176e-01,3.920000000000000000e+02
-5.561044051055141608e+02,-5.588123711000125695e+02,-4.188275972595688472e+02,-4.467702882907706226e+02,-6.035773650117971556e+02,-5.681819852795715633e+02,-4.363077446891174986e+02,-4.328576073385861491e+02,9.523238182067871094e+00,-6.884268522262573242e-01,-1.147378161549568176e-01,3.930000000000000000e+02
-5.521207996734642620e+02,-5.540575343780160438e+02,-4.138586834197089956e+02,-4.418862582282431504e+02,-5.986700358886073445e+02,-5.621739347260167960e+02,-4.263218176509594741e+02,-4.279503781182584135e+02,9.523238182067871094e+00,-6.884268522262573242e-01,-1.147378161549568176e-01,3.940000000000000000e+02
-5.476070869589871108e+02,-5.494037194454167548e+02,-4.084682249071802289e+02,-4.372708681467906899e+02,-5.936912962943224557e+02,-5.558283605826040912e+02,-4.160961346591293477e+02,-4.218140760995725032e+02,9.446745872497558594e+00,-6.884268522262573242e-01,-1.529837548732757568e-01,3.950000000000000000e+02
-5.425609140823926282e+02,-5.453169748880382031e+02,-4.032625878433982507e+02,-4.338321948596235416e+02,-5.881781686139092926e+02,-5.497945918120394708e+02,-4.091167923114071527e+02,-4.148650352288495924e+02,9.446745872497558594e+00,-6.884268522262573242e-01,-1.529837548732757568e-01,3.960000000000000000e+02
-5.370953848535436919e+02,-5.424145076136778698e+02,-3.980909509974549110e+02,-4.318216711842360382e+02,-5.815007637339249413e+02,-5.443005529247120649e+02,-4.066182201654173696e+02,-4.073721157036993645e+02,9.446745872497558594e+00,-6.884268522262573242e-01,-1.529837548732757568e-01,3.970000000000000000e+02
-5.315316592455096725e+02,-5.406492914708187527e+02,-3.922638653075864568e+02,-4.307396428838674183e+02,-5.736252354062507948e+02,-5.394211578017389002e+02,-4.066692259154374369e+02,-3.998365244146866644e+02,9.446745872497558594e+00,-6.884268522262573242e-01,-1.529837548732757568e-01,3.980000000000000000e+02
-5.264490358409398141e+02,-5.390062934589027464e+02,-3.855785253986477983e+02,-4.297362594107976292e+02,-5.655011563105276764e+02,-5.353649597987728157e+02,-4.058581516844374164e+02,-3.932719183242402323e+02,9.446745872497558594e+00,-6.884268522262573242e-01,-1.529837548732757568e-01,3.990000000000000000e+02
-5.225105853959007618e+02,-5.361715749958066226e+02,-3.790589768395288957e+02,-4.281887578256155393e+02,-5.586359079066728555e+02,-5.323805722934162077e+02,-4.021836782283980938e+02,-3.888885669904075257e+02,9.446745872497558594e+00,-6.884268522262573242e-01,-1.529837548732757568e-01,4.000000000000000000e+02
-5.200742122322621981e+02,-5.316264203129917405e+02,-3.744693455735996395e+02,-4.260430417602642592e+02,-5.541447933360213938e+02,-5.303868319773810072e+02,-3.966794701315184284e+02,-3.872794252373842028e+02,9.446745872497558594e+00,-6.884268522262573242e-01,-1.529837548732757568e-01,4.010000000000000000e+02
-5.188536929249958121e+02,-5.261276452329184394e+02,-3.728690019194200431e+02,-4.237300757478251398e+02,-5.520432585452499552e+02,-5.288110760406752888e+02,-3.924332093388238718e+02,-3.878241449707379616e+02,9.446745872497558594e+00,-6.884268522262573242e-01,-1.529837548732757568e-01,4.020000000000000000e+02
-5.179399957307200566e+02,-5.210716917584923067e+02,-3.735256544619942360e+02,-4.217721246076298485e+02,-5.513160967090971099e+02,-5.269007346247672103e+02,-3.919231650917895422e+02,-3.889330186217930532e+02,9.446745872497558594e+00,-6.884268522262573242e-01,-1.529837548732757568e-01,4.030000000000000000e+02
-5.162613835628330889e+02,-5.172902248933496594e+02,-3.742633383202328332e+02,-4.203708516223146034e+02,-5.506099473219155698e+02,-5.242393892442196375e+02,-3.949652145952213687e+02,-3.889959858641641404e+02,9.446745872497558594e+00,-6.884268522262573242e-01,-1.529837548732757568e-01,4.040000000000000000e+02
-5.132093094082897551e+02,-5.143581117084258949e+02,-3.730216589774572640e+02,-4.192199324762368633e+02,-5.489333849534268666e+02,-5.209539707620274385e+02,-3.988718176829906952e+02,-3.872233517356821721e+02,9.446745872497558594e+00,-6.884268522262573242e-01,-1.529837548732757568e-01,4.050000000000000000e+02
-5.090110750972967253e+02,-5.110186118934288970e+02,-3.692906587631009643e+02,-4.176284947754365930e+02,-5.458956122591716849e+02,-5.174169028329292814e+02,-4.004584926042366533e+02,-3.836978298187414111e+02,9.446745872497558594e+00,-6.884268522262573242e-01,-1.529837548732757568e-01,4.060000000000000000e+02
-5.045873265880959480e+02,-5.063146002955213589e+02,-3.642251135402075306e+02,-4.148746044161575810e+02,-5.415053400989595502e+02,-5.137642837911785136e+02,-3.980971870833445792e+02,-3.787521146085100554e+02,9.446745872497558594e+00,-6.884268522262573242e-01,-1.529837548732757568e-01,4.070000000000000000e+02
-5.009754308321857934e+02,-5.004264783889184400e+02,-3.594702136230698670e+02,-4.106062949721604127e+02,-5.359035360854300052e+02,-5.097338072135630682e+02,-3.922719628599370481e+02,-3.724567785676281346e+02,9.446745872497558594e+00,-6.884268522262573242e-01,-1.529837548732757568e-01,4.080000000000000000e+02
-4.986756840970238045e+02,-4.945329827153077531e+02,-3.558274440523787234e+02,-4.050823782333059171e+02,-5.293088663810176513e+02,-5.049691261196053347e+02,-3.846111750780505645e+02,-3.648055318164197161e+02,9.446745872497558594e+00,-6.884268522262573242e-01,-1.529837548732757568e-01,4.090000000000000000e+02
-4.973159595291976984e+02,-4.898699845162782367e+02,-3.528949595027038413e+02,-3.991034791744568793e+02,-5.221371976605528289e+02,-4.994648321061195020e+02,-3.766142617416580833e+02,-3.563553717930276434e+02,9.446745872497558594e+00,-6.884268522262573242e-01,-1.529837548732757568e-01,4.100000000000000000e+02
-4.958401641079140063e+02,-4.867781117377389819e+02,-3.498073382086527090e+02,-3.936394293985331387e+02,-5.150615860278476248e+02,-4.937125826879337183e+02,-3.691948270749921903e+02,-3.485039157757942121e+02,9.446745872497558594e+00,-6.884268522262573242e-01,-1.529837548732757568e-01,4.110000000000000000e+02
-4.931048006570499638e+02,-4.844571630776526945e+02,-3.462084450172005745e+02,-3.893500170938759766e+02,-5.088426208342339123e+02,-4.884328727588663241e+02,-3.630533899968618243e+02,-3.428888086803326587e+02,9.446745872497558594e+00,-6.884268522262573242e-01,-1.529837548732757568e-01,4.120000000000000000e+02
-4.885197267528856173e+02,-4.815500984699638138e+02,-3.425416148106178298e+02,-3.863061005976937849e+02,-5.040009427006039004e+02,-4.841716204851600196e+02,-3.590125349420900420e+02,-3.403041806295086644e+02,9.446745872497558594e+00,-6.884268522262573242e-01,-1.529837548732757568e-01,4.130000000000000000e+02
-4.823411216466811311e+02,-4.770863929544293569e+02,-3.395192325407779208e+02,-3.840951874131897057e+02,-5.005693167203844496e+02,-4.811067579271029899e+02,-3.576575021213398031e+02,-3.400902408111469413e+02,9.446745872497558594e+00,-6.884268522262573242e-01,-1.529837548732757568e-01,4.140000000000000000e+02
-4.754540264671354635e+02,-4.711263998770145918e+02,-3.374183084259975658e+02,-3.822183664909052823e+02,-4.981146296434330907e+02,-4.791537029501910183e+02,-3.586057229470479797e+02,-3.405909898775325928e+02,9.446745872497558594e+00,-6.884268522262573242e-01,-1.529837548732757568e-01,4.150000000000000000e+02
-4.688417647437372580e+02,-4.647118117858467485e+02,-3.358965295619186691e+02,-3.804556850803564885e+02,-4.959954491398339087e+02,-4.781555183388409205e+02,-3.603144871357044394e+02,-3.402964330428535504e+02,9.561484336853027344e+00,-6.119350194931030273e-01,-7.649187743663787842e-02,4.160000000000000000e+02
-4.631411298268785686e+02,-4.591977175475412878e+02,-3.344064950818719808e+02,-3.788920325019935262e+02,-4.936461164140032452e+02,-4.779042917573947307e+02,-3.608777963865441052e+02,-3.386823948340061179e+02,9.561484336853027344e+00,-6.119350194931030273e-01,-7.649187743663787842e-02,4.170000000000000000e+02
-4.585445665332708813e+02,-4.554278472828304984e+02,-3.326897175946173775e+02,-3.776144277496860013e+02,-4.906977087246127667e+02,-4.779946808576087278e+02,-3.592374038123143691e+02,-3.360998296189254688e+02,9.561484336853027344e+00,-6.119350194931030273e-01,-7.649187743663787842e-02,4.180000000000000000e+02
-4.549776533528611253e+02,-4.532769045231998462e+02,-3.308551199654380071e+02,-3.764021636832917466e+02,-4.869360053128784784e+02,-4.777517224584371434e+02,-3.557316153531946838e+02,-3.330095393552469432e+02,9.561484336853027344e+00,-6.119350194931030273e-01,-7.649187743663787842e-02,4.190000000000000000e+02
-4.522588488825172135e+02,-4.518275476749599875e+02,-3.290744182899857151e+02,-3.747463496765954005e+02,-4.822779503854053473e+02,-4.764415267949284498e+02,-3.514995885372668454e+02,-3.294475563879982474e+02,9.561484336853027344e+00,-6.119350194931030273e-01,-7.649187743663787842e-02,4.200000000000000000e+02
-4.500582344343547447e+02,-4.500205267600431398e+02,-3.273346913442410369e+02,-3.722265166461179433e+02,-4.768980404941034976e+02,-4.736959491238649207e+02,-3.473746224964511384e+02,-3.252727113746891519e+02,9.561484336853027344e+00,-6.119350194931030273e-01,-7.649187743663787842e-02,4.210000000000000000e+02
-4.477920379048705399e+02,-4.472917767661574544e+02,-3.255560199360838851e+02,-3.688848258908114985e+02,-4.713766836113700265e+02,-4.697940921078979954e+02,-3.433559588991493001e+02,-3.208450399214370918e+02,9.561484336853027344e+00,-6.119350194931030273e-01,-7.649187743663787842e-02,4.220000000000000000e+02
-4.447480049209743811e+02,-4.437612029865003933e+02,-3.238912044636995233e+02,-3.651891742131670071e+02,-4.665651202577514596e+02,-4.654649413702736638e+02,-3.390874139190741516e+02,-3.172326485897833663e+02,9.561484336853027344e+00,-6.119350194931030273e-01,-7.649187743663787842e-02,4.230000000000000000e+02
-4.405030973825109868e+02,-4.399082351825491060e+02,-3.227418429480380837e+02,-3.615548693638561417e+02,-4.630330553561511806e+02,-4.612594228440739244e+02,-3.346845369482130081e+02,-3.154682433417815446e+02,9.561484336853027344e+00,-6.119350194931030273e-01,-7.649187743663787842e-02,4.240000000000000000e+02
-4.353071001502985382e+02,-4.360817266554727212e+02,-3.223199455061812841e+02,-3.578517826113338742e+02,-4.604397001982060829e+02,-4.569866825131430232e+02,-3.309134498908802016e+02,-3.154178206500268971e+02,9.561484336853027344e+00,-6.119350194931030273e-01,-7.649187743663787842e-02,4.250000000000000000e+02
-4.300025277348809141e+02,-4.322865373554909638e+02,-3.221561913525829368e+02,-3.534219387235079921e+02,-4.574437967063736323e+02,-4.517640174564735389e+02,-3.284587847522238917e+02,-3.154279161541344365e+02,9.561484336853027344e+00,-6.119350194931030273e-01,-7.649187743663787842e-02,4.260000000000000000e+02
-4.254140402882767376e+02,-4.283927341344146953e+02,-3.211612235539250833e+02,-3.477059684632963581e+02,-4.524720410151016949e+02,-4.447755037919364440e+02,-3.270695889925304982e+02,-3.133992326979318932e+02,9.561484336853027344e+00,-6.119350194931030273e-01,-7.649187743663787842e-02,4.270000000000000000e+02
-4.216705176846962786e+02,-4.244709001834644369e+02,-3.183934362156705902e+02,-3.409719602822119668e+02,-4.449421859190547366e+02,-4.361920829495152248e+02,-3.255866030909819528e+02,-3.086406332561291492e+02,9.561484336853027344e+00,-6.119350194931030273e-01,-7.649187743663787842e-02,4.280000000000000000e+02
-4.180726308161929410e+02,-4.208410577093336542e+02,-3.139415940388562376e+02,-3.344477350134370681e+02,-4.359963077959328075e+02,-4.274555070037336009e+02,-3.229486291016673931e+02,-3.029220034575787395e+02,9.561484336853027344e+00,-6.119350194931030273e-01,-7.649187743663787842e-02,4.290000000000000000e+02
-4.136753460692043518e+02,-4.177497142271795383e+02,-3.090841637188618733e+02,-3.296163357846971849e+02,-4.280317561232131993e+02,-4.205737045459695764e+02,-3.192245879171432534e+02,-2.996114033197613935e+02,9.561484336853027344e+00,-6.119350194931030273e-01,-7.649187743663787842e-02,4.300000000000000000e+02
-4.081135763374204544e+02,-4.150377570591085714e+02,-3.054479991273183259e+02,-3.271846467542204664e+02,-4.232213040827023178e+02,-4.168757063281314004e+02,-3.156179109229037749e+02,-3.013230917727687483e+02,9.561484336853027344e+00,-6.119350194931030273e-01,-7.649187743663787842e-02,4.310000000000000000e+02
-4.019686304936221859e+02,-4.122520092948871024e+02,-3.037938452224934736e+02,-3.265851062827764508e+02,-4.220468434109166083e+02,-4.161460676055639851e+02,-3.133677647333838650e+02,-3.078408927582477190e+02,9.561484336853027344e+00,-6.119350194931030273e-01,-7.649187743663787842e-02,4.320000000000000000e+02
-3.963702460138160859e+02,-4.091867604474236941e+02,-3.034523057251058162e+02,-3.264285802731433250e+02,-4.229255304424996211e+02,-4.167767542001347465e+02,-3.125882130759937354e+02,-3.160051832698773069e+02,9.561484336853027344e+00,-6.119350194931030273e-01,-7.649187743663787842e-02,4.330000000000000000e+02
-3.921846141666978838e+02,-4.063045944415221129e+02,-3.028948713660061003e+02,-3.255105152913429265e+02,-4.232088948191085365e+02,-4.167784165827265497e+02,-3.121635965901391501e+02,-3.217139366163078193e+02,9.561484336853027344e+00,-6.119350194931030273e-01,-7.649187743663787842e-02,4.340000000000000000e+02
-3.894505637497859425e+02,-4.044690732665208088e+02,-3.009292587050072143e+02,-3.235043753330000982e+02,-4.208248503183508546e+02,-4.148790872667432268e+02,-3.107806648777122973e+02,-3.225008465915789202e+02,9.561484336853027344e+00,-6.119350194931030273e-01,-7.649187743663787842e-02,4.350000000000000000e+02
-3.874549127612081065e+02,-4.040740638986226259e+02,-2.974844088038175869e+02,-3.208236866179527169e+02,-4.154062917868595832e+02,-4.109707133665301626e+02,-3.080862707396900078e+02,-3.187680197634035721e+02,9.561484336853027344e+00,-6.119350194931030273e-01,-7.649187743663787842e-02,4.360000000000000000e+02
-3.852858039665698016e+02,-4.043703791481375447e+02,-2.933991513496798689e+02,-3.179394235896606915e+02,-4.082184242281200568e+02,-4.057768012378578533e+02,-3.048759903236041282e+02,-3.129615906808671753e+02,9.561484336853027344e+00,-6.119350194931030273e-01,-7.649187743663787842e-02,4.370000000000000000e+02
-3.823814772761083987e+02,-4.037745859635588204e+02,-2.895705700783605607e+02,-3.149113268028090715e+02,-4.011148394798760819e+02,-4.002036674319410849e+02,-3.022216565651256133e+02,-3.076512268606807083e+02,9.561484336853027344e+00,-6.119350194931030273e-01,-7.649187743663787842e-02,4.380000000000000000e+02
-3.787208364237208116e+02,-4.010760550680679444e+02,-2.863346076570996956e+02,-3.115809544840599301e+02,-3.953825861474338126e+02,-3.949147755200087886e+02,-3.004655520661349328e+02,-3.041165761868878690e+02,9.561484336853027344e+00,-6.119350194931030273e-01,-7.649187743663787842e-02,4.390000000000000000e+02
-3.746718380339361829e+02,-3.965141856121244928e+02,-2.835789229856559359e+02,-3.081024379961831983e+02,-3.912414701512529973e+02,-3.902817875346800065e+02,-2.990368564275122480e+02,-3.022637999399194086e+02,9.561484336853027344e+00,-6.119350194931030273e-01,-7.649187743663787842e-02,4.400000000000000000e+02
-3.707402919007545279e+02,-3.916772633165910520e+02,-2.812671266345064396e+02,-3.050989760303145886e+02,-3.881209833482830618e+02,-3.864698774096486886e+02,-2.971529164465860049e+02,-3.013916756023127164e+02,9.446745872497558594e+00,-6.501809358596801758e-01,-1.529837548732757568e-01,4.410000000000000000e+02
-3.673819148963925727e+02,-3.882043683551150934e+02,-2.796628030786091585e+02,-3.031497443211824248e+02,-3.852649264249857879e+02,-3.833885300382207788e+02,-2.946034455893441191e+02,-3.007985375198809379e+02,9.446745872497558594e+00,-6.501809358596801758e-01,-1.529837548732757568e-01,4.420000000000000000e+02
-3.648653903210561111e+02,-3.864289970299369088e+02,-2.789703511635857467e+02,-3.020958986135210580e+02,-3.821581905480197747e+02,-3.805672323359494840e+02,-2.918366430459786898e+02,-2.998295230506078042e+02,9.446745872497558594e+00,-6.501809358596801758e-01,-1.529837548732757568e-01,4.430000000000000000e+02
-3.631330313239127463e+02,-3.851989170063843630e+02,-2.788407278203717397e+02,-3.009419011643672093e+02,-3.786214786740310956e+02,-3.772596065577386071e+02,-2.893500538585076356e+02,-2.978149056678084889e+02,9.446745872497558594e+00,-6.501809358596801758e-01,-1.529837548732757568e-01,4.440000000000000000e+02
-3.617177817201395555e+02,-3.830084534244679162e+02,-2.783969075357244947e+02,-2.985848556297819414e+02,-3.747663077214720033e+02,-3.729222677779894184e+02,-2.870840294014133178e+02,-2.944474589865740199e+02,9.446745872497558594e+00,-6.501809358596801758e-01,-1.529837548732757568e-01,4.450000000000000000e+02
-3.598537184441083809e+02,-3.793476342900148666e+02,-2.768831731116761148e+02,-2.947607203519805807e+02,-3.709847275345391608e+02,-3.677725305108006069e+02,-2.844393096528806382e+02,-2.904107097963519664e+02,9.446745872497558594e+00,-6.501809358596801758e-01,-1.529837548732757568e-01,4.460000000000000000e+02
-3.568252711507957429e+02,-3.749976980765241024e+02,-2.743293519286594346e+02,-2.903166969607759711e+02,-3.678843749802263119e+02,-3.628876259826010937e+02,-2.808571807796197390e+02,-2.874322519854054008e+02,9.446745872497558594e+00,-6.501809358596801758e-01,-1.529837548732757568e-01,4.470000000000000000e+02
-3.524001945110940142e+02,-3.711046222942591157e+02,-2.715405398249608879e+02,-2.865314084478823133e+02,-3.659922045313874150e+02,-3.595889786939533224e+02,-2.763763228142447588e+02,-2.872827185987221128e+02,9.446745872497558594e+00,-6.501809358596801758e-01,-1.529837548732757568e-01,4.480000000000000000e+02
-3.470649174194950319e+02,-3.680572620583584467e+02,-2.693834418864089457e+02,-2.841061718050564195e+02,-3.653144079853682342e+02,-3.584789803999251490e+02,-2.716782202209187744e+02,-2.903133605478296886e+02,9.446745872497558594e+00,-6.501809358596801758e-01,-1.529837548732757568e-01,4.490000000000000000e+02
-3.418670076736652845e+02,-3.653005262534961730e+02,-2.680356585892959629e+02,-2.827314856825250899e+02,-3.651400234341926989e+02,-3.588891818121683173e+02,-2.676223916547519366e+02,-2.948022746978249415e+02,9.446745872497558594e+00,-6.501809358596801758e-01,-1.529837548732757568e-01,4.500000000000000000e+02
-3.379149423460166872e+02,-3.621627418362081698e+02,-2.669099335728587903e+02,-2.815309935597342701e+02,-3.643866207352625679e+02,-3.592312982290031869e+02,-2.646775421190773159e+02,-2.978692869168894504e+02,9.446745872497558594e+00,-6.501809358596801758e-01,-1.529837548732757568e-01,4.510000000000000000e+02
-3.358065311642371853e+02,-3.587087227361716941e+02,-2.652978628364476208e+02,-2.798385862669524613e+02,-3.623104202448566866e+02,-3.580028565466827786e+02,-2.626349355249785731e+02,-2.973710530945609207e+02,9.446745872497558594e+00,-6.501809358596801758e-01,-1.529837548732757568e-01,4.520000000000000000e+02
-3.353005878176381884e+02,-3.556795228304804368e+02,-2.630780987892576377e+02,-2.775422423765130588e+02,-3.589971048204811268e+02,-3.546681229789805911e+02,-2.607180238002561055e+02,-2.932853046011864535e+02,9.446745872497558594e+00,-6.501809358596801758e-01,-1.529837548732757568e-01,4.530000000000000000e+02
-3.354108884353008762e+02,-3.536053388110553897e+02,-2.608003955600065638e+02,-2.747908370848354025e+02,-3.551937100051150082e+02,-3.497829638419634648e+02,-2.579954314243750559e+02,-2.875106281214125374e+02,9.446745872497558594e+00,-6.501809358596801758e-01,-1.529837548732757568e-01,4.540000000000000000e+02
-3.348817627978069140e+02,-3.520833576844697745e+02,-2.591047587728057806e+02,-2.715497988436804917e+02,-3.516346147326298706e+02,-3.443889517868929033e+02,-2.539172899756063089e+02,-2.823508180801263734e+02,9.446745872497558594e+00,-6.501809358596801758e-01,-1.529837548732757568e-01,4.550000000000000000e+02
-3.327962575479896259e+02,-3.500260576672526440e+02,-2.580565078862250630e+02,-2.675913289795525998e+02,-3.484771132318765012e+02,-3.392733120202378814e+02,-2.487252642343228217e+02,-2.789909719701095128e+02,9.446745872497558594e+00,-6.501809358596801758e-01,-1.529837548732757568e-01,4.560000000000000000e+02
-3.289785693709904990e+02,-3.466377609493897580e+02,-2.570066840055499142e+02,-2.629556191206788753e+02,-3.453261703892449077e+02,-3.346791779308232435e+02,-2.434622900772565117e+02,-2.771111794568296318e+02,9.446745872497558594e+00,-6.501809358596801758e-01,-1.529837548732757568e-01,4.570000000000000000e+02
-3.239646640725231919e+02,-3.421374765945029139e+02,-2.550771104669772740e+02,-2.583286294812669439e+02,-3.417347913117746430e+02,-3.305545547911924587e+02,-2.394626273310900615e+02,-2.756880445502456496e+02,9.446745872497558594e+00,-6.501809358596801758e-01,-1.529837548732757568e-01,4.580000000000000000e+02
-3.185880654526281432e+02,-3.375491631715303811e+02,-2.518183885014591397e+02,-2.548171580096382058e+02,-3.376403144769187747e+02,-3.269465474957128208e+02,-2.375761079500282449e+02,-2.740663675621581206e+02,9.446745872497558594e+00,-6.501809358596801758e-01,-1.529837548732757568e-01,4.590000000000000000e+02
-3.134935419645307775e+02,-3.338325977134331879e+02,-2.474984984284358234e+02,-2.531984631695420376e+02,-3.333407802869178340e+02,-3.241034394566140691e+02,-2.376363788056360136e+02,-2.723371979685712176e+02,9.446745872497558594e+00,-6.501809358596801758e-01,-1.529837548732757568e-01,4.600000000000000000e+02
-3.089320613936076825e+02,-3.312299396919652281e+02,-2.428653394107764143e+02,-2.532675315026522185e+02,-3.291201566788395212e+02,-3.222011811294692052e+02,-2.385689007448420398e+02,-2.708553062193202550e+02,9.446745872497558594e+00,-6.501809358596801758e-01,-1.529837548732757568e-01,4.610000000000000000e+02
-3.049212892951479716e+02,-3.293558219589708642e+02,-2.386453844837117231e+02,-2.538464874443316148e+02,-3.249481809946919384e+02,-3.209727290767232262e+02,-2.390597455430695391e+02,-2.695316525390571769e+02,9.446745872497558594e+00,-6.501809358596801758e-01,-1.529837548732757568e-01,4.620000000000000000e+02
-3.015147691332729210e+02,-3.277304669434563493e+02,-2.351726764549725885e+02,-2.534646370133016262e+02,-3.205453991851943556e+02,-3.196059899963947828e+02,-2.382668234166128514e+02,-2.676481297472446386e+02,9.446745872497558594e+00,-6.501809358596801758e-01,-1.529837548732757568e-01,4.630000000000000000e+02
-2.988435473849237951e+02,-3.260905772984224313e+02,-2.323564977627909229e+02,-2.511824110092011324e+02,-3.157021009382510783e+02,-3.170580211960764245e+02,-2.360901242255508805e+02,-2.643750087850539785e+02,9.446745872497558594e+00,-6.501809358596801758e-01,-1.529837548732757568e-01,4.640000000000000000e+02
-2.968584680296867191e+02,-3.242354552081537804e+02,-2.299116486636994523e+02,-2.469969923681394448e+02,-3.105228853575356425e+02,-3.126415477424181972e+02,-2.329700160604988923e+02,-2.595284021468253286e+02,9.446745872497558594e+00,-6.501809358596801758e-01,-1.529837548732757568e-01,4.650000000000000000e+02
-2.950748896962459185e+02,-3.217957385327567863e+02,-2.276249951553634219e+02,-2.416675017057298192e+02,-3.053953125572309091e+02,-3.065302392151652384e+02,-2.295477078544124652e+02,-2.539217406506641055e+02,9.446745872497558594e+00,-6.501809358596801758e-01,-1.529837548732757568e-01,4.660000000000000000e+02
-2.926949470945694429e+02,-3.183871638732205156e+02,-2.254627955271328119e+02,-2.362161705756568608e+02,-3.007481692969581673e+02,-2.998208703589878041e+02,-2.264502498824538179e+02,-2.490073394302464749e+02,9.446745872497558594e+00,-6.501809358596801758e-01,-1.529837548732757568e-01,4.670000000000000000e+02
-2.891382097239711584e+02,-3.140639140386947474e+02,-2.234839428225225220e+02,-2.314698249877346825e+02,-2.968185961306464833e+02,-2.940231202424056391e+02,-2.241508973081163276e+02,-2.460507556806924185e+02,9.523238182067871094e+00,-5.736890435218811035e-01,-7.649187743663787842e-02,4.680000000000000000e+02
-2.845574118976089721e+02,-3.095080033081926558e+02,-2.216776965090348313e+02,-2.278229426949073968e+02,-2.935834637488130738e+02,-2.902246092423990831e+02,-2.227470801348911209e+02,-2.453930391937135482e+02,9.523238182067871094e+00,-5.736890435218811035e-01,-7.649187743663787842e-02,4.690000000000000000e+02
-2.798514574286741663e+02,-3.055971512449536931e+02,-2.199027716278551452e+02,-2.252019449044719295e+02,-2.908514882897729876e+02,-2.884567287975469299e+02,-2.217409917992467854e+02,-2.462546615945720987e+02,9.523238182067871094e+00,-5.736890435218811035e-01,-7.649187743663787842e-02,4.700000000000000000e+02
-2.761129447650164366e+02,-3.026818236616513786e+02,-2.180095995104816211e+02,-2.231630869876512406e+02,-2.883978727644071114e+02,-2.877006488268366411e+02,-2.201589857054443655e+02,-2.471558602275970316e+02,9.523238182067871094e+00,-5.736890435218811035e-01,-7.649187743663787842e-02,4.710000000000000000e+02
-2.739370201699250629e+02,-3.003076320767981997e+02,-2.160226099145472745e+02,-2.211036173011689243e+02,-2.860233496675448350e+02,-2.865471164919306375e+02,-2.171565883995895092e+02,-2.466536255713463106e+02,9.523238182067871094e+00,-5.736890435218811035e-01,-7.649187743663787842e-02,4.720000000000000000e+02
-2.731294189029963491e+02,-2.977214469650616593e+02,-2.141639347292866660e+02,-2.185532355367517994e+02,-2.835251322685667219e+02,-2.840518368321463640e+02,-2.127323190393385630e+02,-2.439699638722172494e+02,9.523238182067871094e+00,-5.736890435218811035e-01,-7.649187743663787842e-02,4.730000000000000000e+02
-2.729732320583945011e+02,-2.946851256498321163e+02,-2.126352752955408505e+02,-2.154346955290141068e+02,-2.806823734354129556e+02,-2.801943716358166512e+02,-2.079005197803354577e+02,-2.392230474451282589e+02,9.523238182067871094e+00,-5.736890435218811035e-01,-7.649187743663787842e-02,4.740000000000000000e+02
-2.727481274291625368e+02,-2.917574344330699887e+02,-2.113235136447497098e+02,-2.121244516657516215e+02,-2.773601883127319070e+02,-2.756885698400483307e+02,-2.040444974539146870e+02,-2.332339039551752649e+02,9.523238182067871094e+00,-5.736890435218811035e-01,-7.649187743663787842e-02,4.750000000000000000e+02
-2.720690420147842588e+02,-2.897235524962054569e+02,-2.097373835522503214e+02,-2.092122707739650878e+02,-2.737044573138649639e+02,-2.713935838338413760e+02,-2.019282589611881349e+02,-2.271078168532114887e+02,9.523238182067871094e+00,-5.736890435218811035e-01,-7.649187743663787842e-02,4.760000000000000000e+02
-2.709023565985635287e+02,-2.887313426202682649e+02,-2.073394278384532754e+02,-2.070810216602411629e+02,-2.702413533237993306e+02,-2.678145275600259083e+02,-2.012286810657425349e+02,-2.218593631153252090e+02,9.523238182067871094e+00,-5.736890435218811035e-01,-7.649187743663787842e-02,4.770000000000000000e+02
-2.694306947172819946e+02,-2.880174600588353542e+02,-2.040654329630280017e+02,-2.056047240409101278e+02,-2.676881453998787492e+02,-2.649920291533251202e+02,-2.009832096169764100e+02,-2.182150945409629230e+02,9.523238182067871094e+00,-5.736890435218811035e-01,-7.649187743663787842e-02,4.780000000000000000e+02
-2.679509966987890266e+02,-2.865455716277072042e+02,-2.005721054666389591e+02,-2.042388247433887045e+02,-2.665127216138749873e+02,-2.627223048321933447e+02,-2.004828091098895584e+02,-2.165517161535557307e+02,9.523238182067871094e+00,-5.736890435218811035e-01,-7.649187743663787842e-02,4.790000000000000000e+02
-2.667969146172159185e+02,-2.839724869174997366e+02,-1.979160579845932943e+02,-2.024924720160703941e+02,-2.665547275304937784e+02,-2.608310992928406904e+02,-1.997444204319467644e+02,-2.168391994906176024e+02,9.523238182067871094e+00,-5.736890435218811035e-01,-7.649187743663787842e-02,4.800000000000000000e+02
-2.661731477612362937e+02,-2.810078814254815143e+02,-1.968297985919848543e+02,-2.004261553383521459e+02,-2.670442533951835458e+02,-2.592784729205824306e+02,-1.991469471753939047e+02,-2.185360273254705135e+02,9.523238182067871094e+00,-5.736890435218811035e-01,-7.649187743663787842e-02,4.810000000000000000e+02
-2.659362164222789602e+02,-2.788193402978531594e+02,-1.971368393523018767e+02,-1.987238891937518019e+02,-2.670372423657246372e+02,-2.580676822548530254e+02,-1.986906267619900746e+02,-2.205580172519157713e+02,9.523238182067871094e+00,-5.736890435218811035e-01,-7.649187743663787842e-02,4.820000000000000000e+02
-2.655584013983930731e+02,-2.780263221386296095e+02,-1.977985965240658288e+02,-1.981789420056209110e+02,-2.659311574326214895e+02,-2.570949081982788584e+02,-1.977303040349407297e+02,-2.215268756720391536e+02,9.523238182067871094e+00,-5.736890435218811035e-01,-7.649187743663787842e-02,4.830000000000000000e+02
-2.644447348763110881e+02,-2.781876927049048618e+02,-1.976205973009947172e+02,-1.989482273107617516e+02,-2.636822582976850526e+02,-2.561038199111725362e+02,-1.955370364070304845e+02,-2.203511040472215541e+02,9.523238182067871094e+00,-5.736890435218811035e-01,-7.649187743663787842e-02,4.840000000000000000e+02
-2.624224804868741217e+02,-2.782010291793414467e+02,-1.961176988917989092e+02,-2.002220326742681777e+02,-2.606645806610806062e+02,-2.548301802573135433e+02,-1.921679681955722572e+02,-2.168762358995115846e+02,9.523238182067871094e+00,-5.736890435218811035e-01,-7.649187743663787842e-02,4.850000000000000000e+02
-2.599681519565149301e+02,-2.772085770040451962e+02,-1.938890129450903714e+02,-2.006886552551655996e+02,-2.574251337131283321e+02,-2.532501212869384517e+02,-1.887517397889513404e+02,-2.121266158087051394e+02,9.523238182067871094e+00,-5.736890435218811035e-01,-7.649187743663787842e-02,4.860000000000000000e+02
-2.578984862866763592e+02,-2.752174284394959614e+02,-1.922037629551983287e+02,-1.995049551784576920e+02,-2.545575781562496331e+02,-2.517005626239759977e+02,-1.868021852634691982e+02,-2.078224863934661926e+02,9.523238182067871094e+00,-5.736890435218811035e-01,-7.649187743663787842e-02,4.870000000000000000e+02
-2.567231959668739023e+02,-2.729653329342709185e+02,-1.920715370910338606e+02,-1.969857276240329043e+02,-2.526340447903879749e+02,-2.506880032430080973e+02,-1.870727705009830970e+02,-2.053659300856941741e+02,9.523238182067871094e+00,-5.736890435218811035e-01,-7.649187743663787842e-02,4.880000000000000000e+02
-2.561994449834817829e+02,-2.712476489351378746e+02,-1.934735709782871140e+02,-1.943904568405881719e+02,-2.520093054841908042e+02,-2.504565043702505136e+02,-1.889243401182777689e+02,-2.049687795927468414e+02,9.523238182067871094e+00,-5.736890435218811035e-01,-7.649187743663787842e-02,4.890000000000000000e+02
-2.554933096442937313e+02,-2.703313954800208876e+02,-1.953365217261359703e+02,-1.929475533327938592e+02,-2.525308705380342644e+02,-2.506672221967678524e+02,-1.907656504320589193e+02,-2.055944417033997524e+02,9.523238182067871094e+00,-5.736890435218811035e-01,-7.649187743663787842e-02,4.900000000000000000e+02
-2.538504711145405963e+02,-2.699082876093327741e+02,-1.963005740409123518e+02,-1.929458903837621619e+02,-2.534657446539501962e+02,-2.505448751468643422e+02,-1.912255926394479957e+02,-2.057908755509661205e+02,9.523238182067871094e+00,-5.736890435218811035e-01,-7.649187743663787842e-02,4.910000000000000000e+02
-2.512385394675734460e+02,-2.695165821582201033e+02,-1.957264869938442189e+02,-1.936657047182643510e+02,-2.538834130080090290e+02,-2.494588952279023033e+02,-1.901154484446692550e+02,-2.047763887797659663e+02,9.523238182067871094e+00,-5.736890435218811035e-01,-7.649187743663787842e-02,4.920000000000000000e+02
-2.484361369519967866e+02,-2.689815341763103334e+02,-1.941635814563160238e+02,-1.941450591555665142e+02,-2.532853130484620578e+02,-2.474578946441474727e+02,-1.884435214564344960e+02,-2.029114635290163733e+02,9.523238182067871094e+00,-5.736890435218811035e-01,-7.649187743663787842e-02,4.930000000000000000e+02
-2.464875161194158864e+02,-2.684699929514090400e+02,-1.928855216301924429e+02,-1.940067477035886441e+02,-2.519345913281865705e+02,-2.452470409019633735e+02,-1.875166492464913972e+02,-2.011983038812898030e+02,9.523238182067871094e+00,-5.736890435218811035e-01,-7.649187743663787842e-02,4.940000000000000000e+02
-2.459341693916439908e+02,-2.681336866343262955e+02,-1.928284691955177550e+02,-1.935643325855942294e+02,-2.505401673081792069e+02,-2.435786997242244070e+02,-1.878782734178755618e+02,-2.002718487481822649e+02,9.523238182067871094e+00,-5.736890435218811035e-01,-7.649187743663787842e-02,4.950000000000000000e+02
-2.463835844950767751e+02,-2.677173677122109439e+02,-1.937735274987298908e+02,-1.931876245386993105e+02,-2.495390189202776128e+02,-2.425889911794488398e+02,-1.889091535389443379e+02,-1.997638695132479825e+02,9.523238182067871094e+00,-5.736890435218811035e-01,-7.649187743663787842e-02,4.960000000000000000e+02
-2.467208850740835260e+02,-2.665483566310404058e+02,-1.944602649106184344e+02,-1.926560618344246905e+02,-2.486452546416576297e+02,-2.416824212435403751e+02,-1.893481070742500378e+02,-1.985746248871948865e+02,9.523238182067871094e+00,-5.736890435218811035e-01,-7.649187743663787842e-02,4.970000000000000000e+02
-2.458087501210509345e+02,-2.639968782032638046e+02,-1.935741443949132190e+02,-1.912151888908610999e+02,-2.471019053127879488e+02,-2.400478918362905461e+02,-1.882657945633811778e+02,-1.957905611432167916e+02,9.523238182067871094e+00,-5.736890435218811035e-01,-7.649187743663787842e-02,4.980000000000000000e+02
-2.431826166171379100e+02,-2.600503359725478276e+02,-1.908115591209511877e+02,-1.883006665151883681e+02,-2.443988195780038950e+02,-2.373142293605351369e+02,-1.857031639348770113e+02,-1.914597650078076185e+02,9.484992027282714844e+00,-6.501809358596801758e-01,-1.147378161549568176e-01,4.990000000000000000e+02
-2.392683587007122696e+02,-2.554710217559440935e+02,-1.871378930220594157e+02,-1.841759729705331665e+02,-2.407746370939835288e+02,-2.337584497588682098e+02,-1.825127657194161657e+02,-1.866068273409039193e+02,9.484992027282714844e+00,-6.501809358596801758e-01,-1.147378161549568176e-01,5.000000000000000000e+02
-2.350086613333792229e+02,-2.513198992516190629e+02,-1.840219508083978326e+02,-1.798158457056583757e+02,-2.370419771483157092e+02,-2.299516182542324714e+02,-1.796424120054834930e+02,-1.825278665794608060e+02,9.484992027282714844e+00,-6.501809358596801758e-01,-1.147378161549568176e-01,5.010000000000000000e+02
-2.312009232473501470e+02,-2.481907066986400423e+02,-1.822954419995994613e+02,-1.761476884951462125e+02,-2.339123162775167657e+02,-2.262519902966905647e+02,-1.775388148327147064e+02,-1.799549344422998729e+02,9.484992027282714844e+00,-6.501809358596801758e-01,-1.147378161549568176e-01,5.020000000000000000e+02
-2.280423013388126492e+02,-2.458194553282614834e+02,-1.815801073236666525e+02,-1.734014716242168106e+02,-2.314419238857053642e+02,-2.226214823698546752e+02,-1.761453548706613219e+02,-1.787037591444609461e+02,9.484992027282714844e+00,-6.501809358596801758e-01,-1.147378161549568176e-01,5.030000000000000000e+02
-2.252002128078074747e+02,-2.434472571518899713e+02,-1.807079395384134841e+02,-1.711800069659102519e+02,-2.290735865506430855e+02,-2.188567360639085564e+02,-1.753494936806159785e+02,-1.779580974377267921e+02,9.484992027282714844e+00,-6.501809358596801758e-01,-1.147378161549568176e-01,5.040000000000000000e+02
-2.222826385739490433e+02,-2.406304796365066068e+02,-1.787079233896306505e+02,-1.690914006273824270e+02,-2.261917145999059358e+02,-2.149250408286143283e+02,-1.752871388138573820e+02,-1.768725274164635266e+02,9.484992027282714844e+00,-6.501809358596801758e-01,-1.147378161549568176e-01,5.050000000000000000e+02
-2.192688500244730676e+02,-2.377303624621126801e+02,-1.755006424817393054e+02,-1.672108841818717337e+02,-2.226689951880125591e+02,-2.110649341033886230e+02,-1.760977410283021527e+02,-1.750419034766291588e+02,9.484992027282714844e+00,-6.501809358596801758e-01,-1.147378161549568176e-01,5.060000000000000000e+02
-2.165408880153318023e+02,-2.355653328797970971e+02,-1.718008653917008814e+02,-1.658792129765502068e+02,-2.189590343363033753e+02,-2.076124922037406577e+02,-1.773901288451661458e+02,-1.726034666272967115e+02,9.484992027282714844e+00,-6.501809358596801758e-01,-1.147378161549568176e-01,5.070000000000000000e+02
-2.145268872784690757e+02,-2.345022996674624665e+02,-1.684643900959245002e+02,-1.651111758558263318e+02,-2.157266550339904825e+02,-2.047874164790309806e+02,-1.781080972115173608e+02,-1.700399919655746999e+02,9.484992027282714844e+00,-6.501809358596801758e-01,-1.147378161549568176e-01,5.080000000000000000e+02
-2.133120568971357898e+02,-2.338525820994636888e+02,-1.659300871870655101e+02,-1.643346080971437004e+02,-2.133878138082845908e+02,-2.026526055773811095e+02,-1.771625760825459110e+02,-1.678914519595618913e+02,9.484992027282714844e+00,-6.501809358596801758e-01,-1.147378161549568176e-01,5.090000000000000000e+02
-2.125731602748360274e+02,-2.322447762624215102e+02,-1.641760885052294725e+02,-1.628358065386864837e+02,-2.119350822422675265e+02,-2.012337666263629217e+02,-1.743739009563919353e+02,-1.665246011270974122e+02,9.484992027282714844e+00,-6.501809358596801758e-01,-1.147378161549568176e-01,5.100000000000000000e+02
-2.118665474161880411e+02,-2.287712706090437678e+02,-1.630375055071340284e+02,-1.605015833213146834e+02,-2.111028230016745511e+02,-2.006111967221422674e+02,-1.708092096766863506e+02,-1.660125947118140175e+02,9.484992027282714844e+00,-6.501809358596801758e-01,-1.147378161549568176e-01,5.110000000000000000e+02
-2.109685764903670133e+02,-2.239261058681340728e+02,-1.624265987037620107e+02,-1.580763463502130435e+02,-2.106254058215272380e+02,-2.008376896599365864e+02,-1.680559187336657487e+02,-1.661155619647852291e+02,9.484992027282714844e+00,-6.501809358596801758e-01,-1.147378161549568176e-01,5.120000000000000000e+02
-2.099542815950180739e+02,-2.194382008753354967e+02,-1.622170455672621756e+02,-1.565993255449902790e+02,-2.103342662385239237e+02,-2.017409784228175340e+02,-1.670008472458030155e+02,-1.663660570123311118e+02,9.484992027282714844e+00,-6.501809358596801758e-01,-1.147378161549568176e-01,5.130000000000000000e+02
-2.089867955334975704e+02,-2.170197198290697997e+02,-1.620212743635197512e+02,-1.565016484871312059e+02,-2.100896646427218002e+02,-2.028302677523761304e+02,-1.672407295023986080e+02,-1.662820461440906001e+02,9.484992027282714844e+00,-6.501809358596801758e-01,-1.147378161549568176e-01,5.140000000000000000e+02
-2.080635797803097375e+02,-2.170038344686154232e+02,-1.612384112114241361e+02,-1.571918242500250926e+02,-2.097264247005105062e+02,-2.034598336341441609e+02,-1.676609086894841312e+02,-1.656233512855615118e+02,9.484992027282714844e+00,-6.501809358596801758e-01,-1.147378161549568176e-01,5.150000000000000000e+02
-2.069740324741578661e+02,-2.180090204567395631e+02,-1.594292363751083030e+02,-1.574951325536712829e+02,-2.091281198798651531e+02,-2.031713495019121183e+02,-1.675725654789903274e+02,-1.645242589260278692e+02,9.484992027282714844e+00,-6.501809358596801758e-01,-1.147378161549568176e-01,5.160000000000000000e+02
-2.054883995174841402e+02,-2.179388355260507524e+02,-1.566742268363232142e+02,-1.565253836730589683e+02,-2.083340682866582938e+02,-2.019462872789381436e+02,-1.672415942523703052e+02,-1.633579364109664311e+02,9.484992027282714844e+00,-6.501809358596801758e-01,-1.147378161549568176e-01,5.170000000000000000e+02
-2.035738357959671703e+02,-2.155476174409204759e+02,-1.535361385423166212e+02,-1.542469718284964983e+02,-2.074992370871977982e+02,-2.001558131763649726e+02,-1.673019579105739467e+02,-1.623932943707977756e+02,9.484992027282714844e+00,-6.501809358596801758e-01,-1.147378161549568176e-01,5.180000000000000000e+02
-2.014463327477515122e+02,-2.113585230361977665e+02,-1.506417565166311761e+02,-1.513613852378002775e+02,-2.067033687795383230e+02,-1.982562919259717091e+02,-1.677579830070017124e+02,-1.615198863918440111e+02,9.484992027282714844e+00,-6.501809358596801758e-01,-1.147378161549568176e-01,5.190000000000000000e+02
-1.994454182431682057e+02,-2.072493935978800437e+02,-1.482800704030842098e+02,-1.487694784892355528e+02,-2.058223396091634640e+02,-1.964994169186084036e+02,-1.677229523566484204e+02,-1.603001981000870728e+02,9.484992027282714844e+00,-6.119350194931030273e-01,-2.677215635776519775e-01,5.200000000000000000e+02
-1.978618437558752703e+02,-2.050746497095133236e+02,-1.463775023479556694e+02,-1.471023171459137302e+02,-2.046360954620995471e+02,-1.948988387287681689e+02,-1.662518202927994935e+02,-1.583423877019204156e+02,9.484992027282714844e+00,-6.119350194931030273e-01,-2.677215635776519775e-01,5.210000000000000000e+02
-1.968497552161661588e+02,-2.053897740139273083e+02,-1.448000283987521470e+02,-1.465477504136888456e+02,-2.030723461781190053e+02,-1.934080048579980939e+02,-1.634166781732501477e+02,-1.556653630110822633e+02,9.484992027282714844e+00,-6.119350194931030273e-01,-2.677215635776519775e-01,5.220000000000000000e+02
-1.964395713563990284e+02,-2.071734477702821096e+02,-1.436145607386943084e+02,-1.468505411662190454e+02,-2.012978120523948746e+02,-1.920324585817788829e+02,-1.604552307079375169e+02,-1.526932704216415004e+02,9.484992027282714844e+00,-6.119350194931030273e-01,-2.677215635776519775e-01,5.230000000000000000e+02
-1.965963576304402523e+02,-2.086306079501791828e+02,-1.430389732629719219e+02,-1.473315309344534398e+02,-1.995198787372428342e+02,-1.906963853101060522e+02,-1.587827769681744030e+02,-1.498632558604522274e+02,9.484992027282714844e+00,-6.119350194931030273e-01,-2.677215635776519775e-01,5.240000000000000000e+02
-1.972591353601810624e+02,-2.083866151516658647e+02,-1.431835651333203714e+02,-1.470235976855856279e+02,-1.977152179140048247e+02,-1.890277457248193969e+02,-1.588514394207631995e+02,-1.472234784097190641e+02,9.484992027282714844e+00,-6.119350194931030273e-01,-2.677215635776519775e-01,5.250000000000000000e+02
-1.983311616886176125e+02,-2.062240815623899834e+02,-1.439106027456646189e+02,-1.451020989815788198e+02,-1.956452336933753031e+02,-1.864226409205384698e+02,-1.599714294320820045e+02,-1.444441586105267561e+02,9.484992027282714844e+00,-6.119350194931030273e-01,-2.677215635776519775e-01,5.260000000000000000e+02
-1.996287154089068281e+02,-2.029919890251821926e+02,-1.449643168275497374e+02,-1.414942220167158666e+02,-1.932199576861112291e+02,-1.825225809016901621e+02,-1.611819390820846820e+02,-1.412853258477780400e+02,9.484992027282714844e+00,-6.119350194931030273e-01,-2.677215635776519775e-01,5.270000000000000000e+02
-2.008294243505388295e+02,-1.999368362177956442e+02,-1.461786513330425805e+02,-1.371856036546423638e+02,-1.908401402459858218e+02,-1.777447927931771119e+02,-1.621731799930666966e+02,-1.380752825384097378e+02,9.484992027282714844e+00,-6.119350194931030273e-01,-2.677215635776519775e-01,5.280000000000000000e+02
-2.015043673705640686e+02,-1.980041006057454069e+02,-1.474913396426027248e+02,-1.338189171980729952e+02,-1.893093368321715388e+02,-1.733117973622229329e+02,-1.633138058137546977e+02,-1.357043091879831991e+02,9.484992027282714844e+00,-6.119350194931030273e-01,-2.677215635776519775e-01,5.290000000000000000e+02
-2.013003002964396728e+02,-1.974955346060596639e+02,-1.487729187556833494e+02,-1.327463059589026670e+02,-1.893226422254429053e+02,-1.706137805534526706e+02,-1.648993923489051667e+02,-1.350846410515223397e+02,9.484992027282714844e+00,-6.119350194931030273e-01,-2.677215635776519775e-01,5.300000000000000000e+02
-2.002120195637135112e+02,-1.981106136364269332e+02,-1.497590738398384929e+02,-1.342194979920786864e+02,-1.909862954948075640e+02,-1.703647552558086318e+02,-1.666088611339928320e+02,-1.365486536710996006e+02,9.484992027282714844e+00,-6.119350194931030273e-01,-2.677215635776519775e-01,5.310000000000000000e+02
-1.987315514774727490e+02,-1.992096376264544233e+02,-1.503070229094801107e+02,-1.373586890823717113e+02,-1.938084403893208219e+02,-1.722484073379509937e+02,-1.678707784434955101e+02,-1.397147306141505396e+02,9.484992027282714844e+00,-6.119350194931030273e-01,-2.677215635776519775e-01,5.320000000000000000e+02
-1.976672076151407964e+02,-2.001464061069746094e+02,-1.507561864005838288e+02,-1.408975843238640664e+02,-1.971142959239732591e+02,-1.753191633152091526e+02,-1.687164470203042583e+02,-1.438687099181952362e+02,9.484992027282714844e+00,-6.119350194931030273e-01,-2.677215635776519775e-01,5.330000000000000000e+02
-1.976687907112627727e+02,-2.006017422827844712e+02,-1.519169140107733256e+02,-1.440651707326669566e+02,-2.004345149459059030e+02,-1.787330590255678544e+02,-1.700464941863228887e+02,-1.484125921451195609e+02,9.484992027282714844e+00,-6.119350194931030273e-01,-2.677215635776519775e-01,5.340000000000000000e+02
-1.987991139203149942e+02,-2.008233374751143856e+02,-1.544955562487211864e+02,-1.469247176342487364e+02,-2.035280812857654382e+02,-1.821381357339632814e+02,-1.728405830635692837e+02,-1.529468180162384670e+02,9.484992027282714844e+00,-6.119350194931030273e-01,-2.677215635776519775e-01,5.350000000000000000e+02
-2.005257706031206908e+02,-2.015917830648922973e+02,-1.583543178721301956e+02,-1.500169160943332827e+02,-2.061556726771668764e+02,-1.854724656422968110e+02,-1.770166655664652353e+02,-1.570203473826313711e+02,9.484992027282714844e+00,-6.119350194931030273e-01,-2.677215635776519775e-01,5.360000000000000000e+02
-2.021589128590385371e+02,-2.037907093802823510e+02,-1.623097748788277386e+02,-1.537256851966358226e+02,-2.079885379039023974e+02,-1.885345026639315620e+02,-1.811399435704352072e+02,-1.599854267604750930e+02,9.484992027282714844e+00,-6.119350194931030273e-01,-2.677215635776519775e-01,5.370000000000000000e+02
-2.033534016510693618e+02,-2.077283883171112393e+02,-1.648000103640588350e+02,-1.578885780499877001e+02,-2.088311030929216940e+02,-1.908675548820065160e+02,-1.834065939975735091e+02,-1.612729556572594447e+02,9.484992027282714844e+00,-6.119350194931030273e-01,-2.677215635776519775e-01,5.380000000000000000e+02
-2.042300527098232124e+02,-2.126723167277850735e+02,-1.649791350805444381e+02,-1.618438618098825827e+02,-2.088968990825542278e+02,-1.920825164324596699e+02,-1.830525939633444068e+02,-1.608778652424462052e+02,9.484992027282714844e+00,-6.119350194931030273e-01,-2.677215635776519775e-01,5.390000000000000000e+02
-2.050548066291466967e+02,-2.170309959903934214e+02,-1.633396876057777263e+02,-1.647464075744446745e+02,-2.087621817644539988e+02,-1.922226315435491415e+02,-1.809081883181988815e+02,-1.595098054024492740e+02,9.484992027282714844e+00,-6.119350194931030273e-01,-2.677215635776519775e-01,5.400000000000000000e+02
-2.058579021122441191e+02,-2.191903219240557519e+02,-1.613244487861011294e+02,-1.659036224249630322e+02,-2.089391507184373040e+02,-1.917238682327224524e+02,-1.786400504625271424e+02,-1.581273434952272510e+02,9.484992027282714844e+00,-6.119350194931030273e-01,-2.677215635776519775e-01,5.410000000000000000e+02
-2.064108909697515628e+02,-2.184812904689788411e+02,-1.602386581622286030e+02,-1.650141784155021014e+02,-2.094267120728745795e+02,-1.909765680037635320e+02,-1.774325284119931894e+02,-1.571939998312336684e+02,9.484992027282714844e+00,-6.119350194931030273e-01,-2.677215635776519775e-01,5.420000000000000000e+02
-2.065453407481145405e+02,-2.155622328408480826e+02,-1.603334056444327871e+02,-1.622894048289854254e+02,-2.096463165806035249e+02,-1.899252673603714356e+02,-1.772691157802146336e+02,-1.563118978703787434e+02,9.484992027282714844e+00,-6.119350194931030273e-01,-2.677215635776519775e-01,5.430000000000000000e+02
-2.063695941313908406e+02,-2.118924318943190883e+02,-1.607301422777709377e+02,-1.583956830490515131e+02,-2.088037478280348296e+02,-1.881132376993919024e+02,-1.772632711440855928e+02,-1.545645718923024106e+02,9.484992027282714844e+00,-6.119350194931030273e-01,-2.677215635776519775e-01,5.440000000000000000e+02
-2.060425153140295151e+02,-2.086871945386665175e+02,-1.601350638892527058e+02,-1.541766637793734844e+02,-2.063705524255383352e+02,-1.851459687457700056e+02,-1.765283719023482263e+02,-1.512818438817739661e+02,9.446745872497558594e+00,-6.501809358596801758e-01,-2.677215635776519775e-01,5.450000000000000000e+02
-2.053034662264453800e+02,-2.061651927202146908e+02,-1.577141776594162366e+02,-1.502696225934396352e+02,-2.023468590981447051e+02,-1.811380295232811477e+02,-1.747663482111620397e+02,-1.465899548857014452e+02,9.446745872497558594e+00,-6.501809358596801758e-01,-2.677215635776519775e-01,5.460000000000000000e+02
-2.033570349009223719e+02,-2.036396823222021339e+02,-1.535204310059652926e+02,-1.468747654217695526e+02,-1.972229047354576323e+02,-1.767351179136276187e+02,-1.722359237163891521e+02,-1.413477449938436621e+02,9.446745872497558594e+00,-6.501809358596801758e-01,-2.677215635776519775e-01,5.470000000000000000e+02
-1.994439696100853325e+02,-2.002936607906940480e+02,-1.483311819674036087e+02,-1.438295835264543712e+02,-1.917715950263700506e+02,-1.726896548201621044e+02,-1.693765308366455429e+02,-1.365878018773200893e+02,9.446745872497558594e+00,-6.501809358596801758e-01,-2.677215635776519775e-01,5.480000000000000000e+02
-1.936846383786742081e+02,-1.959330044439775520e+02,-1.431683365331482491e+02,-1.408758835015487421e+02,-1.868051929337634647e+02,-1.693406245246733306e+02,-1.665100729094701819e+02,-1.329212877147347172e+02,9.446745872497558594e+00,-6.501809358596801758e-01,-2.677215635776519775e-01,5.490000000000000000e+02
-1.873589801573980367e+02,-1.911009125652744842e+02,-1.388469350769428274e+02,-1.378364385665900045e+02,-1.829311218412804010e+02,-1.664017341182006930e+02,-1.637455197623803542e+02,-1.302747315314663865e+02,9.446745872497558594e+00,-6.501809358596801758e-01,-2.677215635776519775e-01,5.500000000000000000e+02
-1.821857797552765987e+02,-1.865520388609602378e+02,-1.357146867715891858e+02,-1.345854118856168498e+02,-1.803273544910734927e+02,-1.632034487820492359e+02,-1.609624958829499519e+02,-1.280243609693698090e+02,9.446745872497558594e+00,-6.501809358596801758e-01,-2.677215635776519775e-01,5.510000000000000000e+02
-1.790919349508076266e+02,-1.826411757168352779e+02,-1.336081944798661425e+02,-1.310010440968999319e+02,-1.786630470105665154e+02,-1.592146152192217414e+02,-1.578257496643618651e+02,-1.253992073333647568e+02,9.446745872497558594e+00,-6.501809358596801758e-01,-2.677215635776519775e-01,5.520000000000000000e+02
-1.775164917964048072e+02,-1.791821024653818313e+02,-1.320219401812628348e+02,-1.271281259361858247e+02,-1.773107450291063287e+02,-1.545080370272080472e+02,-1.539545522355492722e+02,-1.219697185788318166e+02,9.446745872497558594e+00,-6.501809358596801758e-01,-2.677215635776519775e-01,5.530000000000000000e+02
-1.758835150446757325e+02,-1.758179060294023657e+02,-1.304413500085593114e+02,-1.234573739583192946e+02,-1.757837561039414140e+02,-1.498669400976832549e+02,-1.492723720956964826e+02,-1.179978979416209768e+02,9.446745872497558594e+00,-6.501809358596801758e-01,-2.677215635776519775e-01,5.540000000000000000e+02
-1.728432335883480846e+02,-1.724652927693277888e+02,-1.286555500779631984e+02,-1.209251419820757292e+02,-1.740785908470315917e+02,-1.464338411793614796e+02,-1.442651757373914734e+02,-1.144061310826964473e+02,9.446745872497558594e+00,-6.501809358596801758e-01,-2.677215635776519775e-01,5.550000000000000000e+02
-1.682115787151305994e+02,-1.693982182113504678e+02,-1.268037340126084018e+02,-1.203786318899110483e+02,-1.725986872604225937e+02,-1.450720307671654155e+02,-1.397966480182803934e+02,-1.122523569607037643e+02,9.446745872497558594e+00,-6.501809358596801758e-01,-2.677215635776519775e-01,5.560000000000000000e+02
-1.628894739922907320e+02,-1.669443485012743622e+02,-1.251087901641858480e+02,-1.218074322344182292e+02,-1.716881634017954639e+02,-1.458097042685694760e+02,-1.365048576953413431e+02,-1.119661686869949335e+02,9.446745872497558594e+00,-6.501809358596801758e-01,-2.677215635776519775e-01,5.570000000000000000e+02
-1.580131397286386346e+02,-1.651475197541913076e+02,-1.235796673608911078e+02,-1.240483372890339524e+02,-1.712051897212695621e+02,-1.477362429273525777e+02,-1.342820141241099918e+02,-1.129018011972111708e+02,9.446745872497558594e+00,-6.501809358596801758e-01,-2.677215635776519775e-01,5.580000000000000000e+02
-1.541959997429530631e+02,-1.637285611586157756e+02,-1.220150620484400861e+02,-1.253702443436959584e+02,-1.705588722407628666e+02,-1.494479026454791892e+02,-1.323370785947336117e+02,-1.136317849159167963e+02,9.446745872497558594e+00,-6.501809358596801758e-01,-2.677215635776519775e-01,5.590000000000000000e+02
-1.514617867216875311e+02,-1.623354537365048600e+02,-1.203185766344668082e+02,-1.245642577361977601e+02,-1.692089245136885438e+02,-1.497643017279006017e+02,-1.298146359050297178e+02,-1.128377593130608147e+02,9.446745872497558594e+00,-6.501809358596801758e-01,-2.677215635776519775e-01,5.600000000000000000e+02
-1.496773265726551472e+02,-1.607947821096058760e+02,-1.187458996094137547e+02,-1.216656553182328935e+02,-1.671498851272481261e+02,-1.482399041271310125e+02,-1.264119723076291848e+02,-1.101174823391811515e+02,9.446745872497558594e+00,-6.501809358596801758e-01,-2.677215635776519775e-01,5.610000000000000000e+02
-1.488324273684957006e+02,-1.591496407891536364e+02,-1.177136989013524726e+02,-1.177504794373853656e+02,-1.648842460614068841e+02,-1.451720560799258237e+02,-1.224702011254812533e+02,-1.060767422354983864e+02,9.446745872497558594e+00,-6.501809358596801758e-01,-2.677215635776519775e-01,5.620000000000000000e+02
-1.488452422177033441e+02,-1.575539049710350810e+02,-1.172966175318506430e+02,-1.141044204115169123e+02,-1.629068983700381068e+02,-1.412354101886085118e+02,-1.185963804672792321e+02,-1.017216963265345839e+02,9.446745872497558594e+00,-6.501809358596801758e-01,-2.677215635776519775e-01,5.630000000000000000e+02
-1.492255791213428893e+02,-1.562010428298890474e+02,-1.169745350203629641e+02,-1.115430285607071710e+02,-1.612406531688611722e+02,-1.371173383781861048e+02,-1.152988155933453527e+02,-9.777262498495474574e+01,9.446745872497558594e+00,-6.501809358596801758e-01,-2.677215635776519775e-01,5.640000000000000000e+02
-1.491439944386365823e+02,-1.553313014157902217e+02,-1.160135941450134851e+02,-1.103520777330741112e+02,-1.595172762393303856e+02,-1.334080218383787724e+02,-1.129415460528798576e+02,-9.449183370107493829e+01,9.446745872497558594e+00,-6.501809358596801758e-01,-2.677215635776519775e-01,5.650000000000000000e+02
-1.479921966912843345e+02,-1.551732807527514524e+02,-1.141945821331573825e+02,-1.105858722963275795e+02,-1.575167359314255009e+02,-1.306482094785460504e+02,-1.118094908790080808e+02,-9.199799074988914072e+01,9.446745872497558594e+00,-6.501809358596801758e-01,-2.677215635776519775e-01,5.660000000000000000e+02
-1.459171569286954764e+02,-1.557185114881976915e+02,-1.121383057301281951e+02,-1.121361588386862422e+02,-1.555533234266586078e+02,-1.292434075993551232e+02,-1.119054778499448730e+02,-9.051700327434082283e+01,9.446745872497558594e+00,-6.501809358596801758e-01,-2.677215635776519775e-01,5.670000000000000000e+02
-1.437558804883374250e+02,-1.564960795437946217e+02,-1.108109187842273968e+02,-1.144406808644453122e+02,-1.542348718747925886e+02,-1.291728759154466388e+02,-1.125493088183975487e+02,-9.018290612194687128e+01,9.446745872497558594e+00,-6.501809358596801758e-01,-2.677215635776519775e-01,5.680000000000000000e+02
-1.423811114590389479e+02,-1.566648744496342260e+02,-1.106369768481999927e+02,-1.163392064970321371e+02,-1.538042929108742101e+02,-1.298036533696940751e+02,-1.123659492228034651e+02,-9.062656994318967918e+01,9.446745872497558594e+00,-6.501809358596801758e-01,-2.677215635776519775e-01,5.690000000000000000e+02
-1.420736749701354711e+02,-1.555414069042271876e+02,-1.111103340238078090e+02,-1.165820251700752124e+02,-1.537651117368768610e+02,-1.301649239790822321e+02,-1.100784482105191273e+02,-9.094982199645528453e+01,9.446745872497558594e+00,-6.501809358596801758e-01,-2.677215635776519775e-01,5.700000000000000000e+02
-1.424854937678537681e+02,-1.532104686390521238e+02,-1.113139279450697359e+02,-1.147673229713545879e+02,-1.532316637608018937e+02,-1.296113516443037952e+02,-1.056502655752628925e+02,-9.031184780050898553e+01,9.446745872497558594e+00,-6.501809358596801758e-01,-2.677215635776519775e-01,5.710000000000000000e+02
-1.431377415586975985e+02,-1.506336338945657189e+02,-1.108259624096499465e+02,-1.118233577695973509e+02,-1.516985975328752829e+02,-1.283169310947960184e+02,-1.006816147764002380e+02,-8.863794681860599667e+01,9.523238182067871094e+00,-5.354431271553039551e-01,-1.529837548732757568e-01,5.720000000000000000e+02
-1.438670021532016108e+02,-1.490088458652535337e+02,-1.100851100680520176e+02,-1.093911391820329300e+02,-1.494788609608986008e+02,-1.270773848069948144e+02,-9.742500055618074839e+01,-8.671839737924892688e+01,9.523238182067871094e+00,-5.354431271553039551e-01,-1.529837548732757568e-01,5.730000000000000000e+02
-1.447585460556583712e+02,-1.488107275034162740e+02,-1.098533690227195621e+02,-1.084956951094754913e+02,-1.473994302135579346e+02,-1.265222983013918565e+02,-9.706080159432531218e+01,-8.552897241814935114e+01,9.523238182067871094e+00,-5.354431271553039551e-01,-1.529837548732757568e-01,5.740000000000000000e+02
-1.457360198450332973e+02,-1.493326945280168729e+02,-1.103711258571129292e+02,-1.086976153797804727e+02,-1.460946201161386853e+02,-1.264714466898512910e+02,-9.872981584183071391e+01,-8.537842763022490544e+01,9.523238182067871094e+00,-5.354431271553039551e-01,-1.529837548732757568e-01,5.750000000000000000e+02
-1.463708131265557313e+02,-1.492156474396288104e+02,-1.111008980459846498e+02,-1.085778470715158619e+02,-1.455813508296414511e+02,-1.261014169174231938e+02,-1.002590561967517715e+02,-8.569083181515816250e+01,9.523238182067871094e+00,-5.354431271553039551e-01,-1.529837548732757568e-01,5.760000000000000000e+02
-1.462008633007462777e+02,-1.476003143437592371e+02,-1.113033943685513805e+02,-1.071575662682444090e+02,-1.454276428924749780e+02,-1.248195792743354104e+02,-9.997886738043962396e+01,-8.560747155822900822e+01,9.523238182067871094e+00,-5.354431271553039551e-01,-1.529837548732757568e-01,5.770000000000000000e+02
-1.452139057584317925e+02,-1.449300045817326463e+02,-1.107981351328453457e+02,-1.049126489184745878e+02,-1.451967118584616401e+02,-1.230000182533767656e+02,-9.798475925456659752e+01,-8.478785195613090764e+01,9.523238182067871094e+00,-5.354431271553039551e-01,-1.529837548732757568e-01,5.780000000000000000e+02
-1.439159594986849697e+02,-1.426625809578945336e+02,-1.100829477149272861e+02,-1.033907384673548222e+02,-1.446646803415897011e+02,-1.218010970580544381e+02,-9.573599397771977237e+01,-8.363407507423471543e+01,9.523238182067871094e+00,-5.354431271553039551e-01,-1.529837548732757568e-01,5.790000000000000000e+02
-1.428387205559265567e+02,-1.420840784516149142e+02,-1.096960876758166705e+02,-1.037601706750829180e+02,-1.437025784788238525e+02,-1.221486863011632522e+02,-9.448768831276902347e+01,-8.278190604303017608e+01,9.523238182067871094e+00,-5.354431271553039551e-01,-1.529837548732757568e-01,5.800000000000000000e+02
-1.419848025089922885e+02,-1.432244959557428956e+02,-1.095272447577663115e+02,-1.056483926371147390e+02,-1.421418278046367050e+02,-1.238002535125524446e+02,-9.414186706606051303e+01,-8.242931420122840791e+01,9.523238182067871094e+00,-5.354431271553039551e-01,-1.529837548732757568e-01,5.810000000000000000e+02
-1.408327979761452298e+02,-1.448185626884551311e+02,-1.088294746932515409e+02,-1.073630490949799423e+02,-1.398843725272963638e+02,-1.253730351316480665e+02,-9.359507606880288222e+01,-8.217160745695582591e+01,9.523238182067871094e+00,-5.354431271553039551e-01,-1.529837548732757568e-01,5.820000000000000000e+02
-1.389461225599552563e+02,-1.453428902797750197e+02,-1.069473098669914179e+02,-1.072846624248450098e+02,-1.371301865394416382e+02,-1.253591117151954677e+02,-9.211117379768984392e+01,-8.145809115753218066e+01,9.523238182067871094e+00,-5.354431271553039551e-01,-1.529837548732757568e-01,5.830000000000000000e+02
-1.365676868868940801e+02,-1.442273706790183496e+02,-1.040563521869844408e+02,-1.051581458479922730e+02,-1.343911426792619750e+02,-1.232707473490809207e+02,-9.023930873335848446e+01,-8.017118439794649021e+01,9.523238182067871094e+00,-5.354431271553039551e-01,-1.529837548732757568e-01,5.840000000000000000e+02
-1.345547343229809485e+02,-1.422091875823389273e+02,-1.011910345074793440e+02,-1.021790009371798078e+02,-1.321930357579112751e+02,-1.199593991301080678e+02,-8.930817742830186035e+01,-7.874491195311929914e+01,9.523238182067871094e+00,-5.354431271553039551e-01,-1.529837548732757568e-01,5.850000000000000000e+02
-1.336614144470768224e+02,-1.405987560289686371e+02,-9.952660465597728034e+01,-9.991658387144707376e+01,-1.307356488447840093e+02,-1.169017421271710191e+02,-9.000605762727354886e+01,-7.774554305482524796e+01,9.523238182067871094e+00,-5.354431271553039551e-01,-1.529837548732757568e-01,5.860000000000000000e+02
-1.338463137377802923e+02,-1.401791954321961384e+02,-9.953167156372728641e+01,-9.912054766692745034e+01,-1.298297341867000796e+02,-1.151182860916305799e+02,-9.148465848308478598e+01,-7.736176792309197481e+01,9.523238182067871094e+00,-5.354431271553039551e-01,-1.529837548732757568e-01,5.870000000000000000e+02
