F3,F4,C3,C4,P3,P4,Cz,Pz,Accel_x,Accel_y,Accel_z,Sample
-4.365574568510055542e-11,-3.183231456205248833e-11,-3.456079866737127304e-11,-4.820321919396519661e-11,-4.274625098332762718e-11,-5.820766091346740723e-11,-3.728928277269005775e-11,-2.546585164964199066e-11,9.484992027282714844e+00,-1.109132170677185059e+00,-4.207052886486053467e-01,2.260000000000000000e+02
-8.125323427579132840e+00,-1.863647458420928160e+00,-2.554031807075261895e+00,4.899824427312523767e+00,-6.957689327220577979e+00,-9.634826712574067642e+00,-1.492252772292886220e+00,-1.770106673216105264e+00,9.484992027282714844e+00,-1.109132170677185059e+00,-4.207052886486053467e-01,2.270000000000000000e+02
-1.501219502122876293e+01,-3.811181107620541297e+00,-4.411965009087907674e+00,8.467265247729301336e+00,-1.296922565726163157e+01,-1.766023497215792304e+01,-2.309571705035523337e+00,-2.709902662441891152e+00,9.484992027282714844e+00,-1.109132170677185059e+00,-4.207052886486053467e-01,2.280000000000000000e+02
-2.041979549837287777e+01,-6.232087902010789549e+00,-5.387391777954690042e+00,1.047369686522506527e+01,-1.765407929799857811e+01,-2.366642631225295190e+01,-2.328069624209092581e+00,-2.551984285572871158e+00,9.484992027282714844e+00,-1.109132170677185059e+00,-4.589512646198272705e-01,2.290000000000000000e+02
-2.517704851074631733e+01,-9.668974872317448899e+00,-5.896566376343798765e+00,1.189621870303926698e+01,-2.136091047160607559e+01,-2.856769088114742772e+01,-2.066222035793543910e+00,-1.707958046669773466e+00,9.484992027282714844e+00,-1.109132170677185059e+00,-4.589512646198272705e-01,2.300000000000000000e+02
-3.032854966982813494e+01,-1.427411189853319229e+01,-6.577446886924008140e+00,1.397879853065023781e+01,-2.484441617658922041e+01,-3.364362009400065290e+01,-2.248789947791919985e+00,-8.766141061923917732e-01,9.484992027282714844e+00,-1.109132170677185059e+00,-4.589512646198272705e-01,2.310000000000000000e+02
-3.623601323359525850e+01,-1.944112642875825259e+01,-7.750174236929524341e+00,1.717882959577946167e+01,-2.872652347586517863e+01,-3.948813326746312669e+01,-3.215803521022280620e+00,-4.982762655954502407e-01,9.484992027282714844e+00,-1.109132170677185059e+00,-4.589512646198272705e-01,2.320000000000000000e+02
-4.247772734850332199e+01,-2.409479507657124486e+01,-9.180560779102052038e+00,2.095987788445836486e+01,-3.316234531212285219e+01,-4.577960039854224306e+01,-4.688209149874637660e+00,-5.054145432959558093e-01,9.484992027282714844e+00,-1.109132170677185059e+00,-4.589512646198272705e-01,2.330000000000000000e+02
-4.850497632423412142e+01,-2.750269520899473719e+01,-1.033792529127549642e+01,2.450266985290545563e+01,-3.791926133619472239e+01,-5.185432092436349194e+01,-6.080261693629836373e+00,-5.255311876817359007e-01,9.484992027282714844e+00,-1.109132170677185059e+00,-4.589512646198272705e-01,2.340000000000000000e+02
-5.424816065895902284e+01,-2.991688520657862682e+01,-1.087891155214128958e+01,2.752487536918670230e+01,-4.270953881257537432e+01,-5.734677214031398762e+01,-7.046648663224914344e+00,-2.957699395601594006e-01,9.484992027282714844e+00,-1.109132170677185059e+00,-4.589512646198272705e-01,2.350000000000000000e+02
-6.001255935515018791e+01,-3.242376901154966617e+01,-1.089700329981133109e+01,3.040187797151338600e+01,-4.742178802339640242e+01,-6.232833641042270756e+01,-7.723251973481637833e+00,9.049888334084243979e-02,9.484992027282714844e+00,-1.109132170677185059e+00,-4.589512646198272705e-01,2.360000000000000000e+02
-6.586079797575075645e+01,-3.605156289237947931e+01,-1.071869476100346219e+01,3.358733798557295813e+01,-5.203270669205812737e+01,-6.704259154683586530e+01,-8.421939516731072217e+00,3.100738839393670787e-01,9.484992027282714844e+00,-1.109132170677185059e+00,-4.589512646198272705e-01,2.370000000000000000e+02
-7.127865715842290228e+01,-4.088596840130958299e+01,-1.049316200304747326e+01,3.703247531138094928e+01,-5.633637503851059591e+01,-7.168932820452937449e+01,-9.120567574441338365e+00,1.524411462469288381e-01,9.484992027282714844e+00,-1.109132170677185059e+00,-4.589512646198272705e-01,2.380000000000000000e+02
-7.560251711180990242e+01,-4.596368226932554535e+01,-1.005757276252279553e+01,4.023291303647238237e+01,-5.986162010499901953e+01,-7.644241874042108975e+01,-9.347913625276305538e+00,-2.444185929452942219e-01,9.484992027282714844e+00,-1.109132170677185059e+00,-4.589512646198272705e-01,2.390000000000000000e+02
-7.882928565131442156e+01,-5.003218777805614081e+01,-9.297688616429695685e+00,4.281748083485854295e+01,-6.220395178108628897e+01,-8.148750714601283107e+01,-8.689417232808409608e+00,-4.736850868794135749e-01,9.484992027282714844e+00,-1.109132170677185059e+00,-4.589512646198272705e-01,2.400000000000000000e+02
-8.194451926260535402e+01,-5.252341702694320702e+01,-8.662478059940440289e+00,4.500679299276362144e+01,-6.355985603316821653e+01,-8.688324403552724107e+01,-7.452491390364230028e+00,-1.982147987610005657e-01,9.484992027282714844e+00,-1.109132170677185059e+00,-4.589512646198272705e-01,2.410000000000000000e+02
-8.631096949234688509e+01,-5.393095809308670141e+01,-9.196247728501475649e+00,4.743822741078474792e+01,-6.492035537004448997e+01,-9.239093657663579506e+01,-6.761302611972496379e+00,5.288038162107113749e-01,9.484992027282714844e+00,-1.109132170677185059e+00,-4.589512646198272705e-01,2.420000000000000000e+02
-9.257006282620295678e+01,-5.535323588919618487e+01,-1.182570576406578766e+01,5.050899007143834751e+01,-6.758217398989017966e+01,-9.757785826778399496e+01,-7.829306911516141554e+00,1.217854919765159138e+00,9.484992027282714844e+00,-1.109132170677185059e+00,-4.589512646198272705e-01,2.430000000000000000e+02
-1.000320192497583776e+02,-5.767345165996448486e+01,-1.639060137285014207e+01,5.386152703060270142e+01,-7.223445606241966743e+01,-1.021943611411552411e+02,-1.095695855282974662e+01,1.233664897809831018e+00,9.484992027282714844e+00,-1.109132170677185059e+00,-4.589512646198272705e-01,2.440000000000000000e+02
-1.071170049477932480e+02,-6.107730254200669151e+01,-2.134130936747169471e+01,5.649713196110405988e+01,-7.835931272423567862e+01,-1.064630016054279622e+02,-1.514476981015013735e+01,2.231353070674231276e-01,9.484992027282714844e+00,-1.109132170677185059e+00,-4.589512646198272705e-01,2.450000000000000000e+02
-1.124692760571651888e+02,-6.518380911024723900e+01,-2.458787827973628737e+01,5.744960078238727874e+01,-8.450400879064636683e+01,-1.109379759547464346e+02,-1.869243491913675825e+01,-1.606496984270961548e+00,9.484992027282714844e+00,-1.109132170677185059e+00,-4.589512646198272705e-01,2.460000000000000000e+02
-1.158305426813285521e+02,-6.948186222910226206e+01,-2.497019485365399305e+01,5.651153369482017297e+01,-8.924847001615762565e+01,-1.160098626695644271e+02,-2.029651729192028142e+01,-3.538029134939279174e+00,9.484992027282714844e+00,-1.109132170677185059e+00,-4.589512646198272705e-01,2.470000000000000000e+02
-1.180490184822383526e+02,-7.358325390830214019e+01,-2.314909725553025055e+01,5.451641184971504117e+01,-9.206484547750733327e+01,-1.214859961522452068e+02,-1.977653519759223855e+01,-4.685978265469202597e+00,9.484992027282714844e+00,-1.109132170677185059e+00,-4.589512646198272705e-01,2.480000000000000000e+02
-1.203492896488123733e+02,-7.715552597382429667e+01,-2.109237353069693199e+01,5.300109608305774600e+01,-9.338918639165240165e+01,-1.266265665675064156e+02,-1.796913350258728315e+01,-4.421732178720048978e+00,9.484992027282714844e+00,-1.109132170677185059e+00,-4.589512646198272705e-01,2.490000000000000000e+02
-1.235217401347617852e+02,-7.981398057069054630e+01,-2.050249477349461813e+01,5.344649402118011494e+01,-9.398691428007441573e+01,-1.306257004934213910e+02,-1.603448706878225494e+01,-2.642618770441004017e+00,9.484992027282714844e+00,-1.109132170677185059e+00,-4.589512646198272705e-01,2.500000000000000000e+02
-1.275909295568899324e+02,-8.127947869011950388e+01,-2.148156381592434627e+01,5.649074506517808913e+01,-9.431912303259468899e+01,-1.331792236985875206e+02,-1.477299690789277520e+01,2.294323660071313498e-01,9.484992027282714844e+00,-1.109132170677185059e+00,-4.589512646198272705e-01,2.510000000000000000e+02
-1.320332663099788988e+02,-8.174008679035068781e+01,-2.256028112822241383e+01,6.153228057758042269e+01,-9.449327661326333327e+01,-1.347383587890526542e+02,-1.432983003464050853e+01,3.462927602106901759e+00,9.484992027282714844e+00,-1.109132170677185059e+00,-4.589512646198272705e-01,2.520000000000000000e+02
-1.362167593800386385e+02,-8.200933179343792290e+01,-2.205622228280299169e+01,6.700122038477002206e+01,-9.468131591498058697e+01,-1.362782740591483162e+02,-1.427658172972860484e+01,6.306874441704167111e+00,9.484992027282714844e+00,-1.109132170677185059e+00,-4.589512646198272705e-01,2.530000000000000000e+02
-1.397229133841146904e+02,-8.317541267042815889e+01,-1.958627235359472252e+01,7.123219596995477332e+01,-9.538726349367880175e+01,-1.387237451447390413e+02,-1.390694430306939466e+01,8.241937956291621958e+00,9.523238182067871094e+00,-1.032640218734741211e+00,-3.824593424797058105e-01,2.540000000000000000e+02
-1.424597594101096547e+02,-8.591114721779922547e+01,-1.645589844509231625e+01,7.344129557052019663e+01,-9.717308793754818907e+01,-1.423913986246161585e+02,-1.265489118412824610e+01,9.128827268801614991e+00,9.523238182067871094e+00,-1.032640218734741211e+00,-3.824593424797058105e-01,2.550000000000000000e+02
-1.446488261178601533e+02,-8.997923276440451446e+01,-1.464101695750832732e+01,7.415098954714176216e+01,-1.001279283132480487e+02,-1.468203966282062538e+02,-1.053902844765525515e+01,9.212932454766814772e+00,9.523238182067871094e+00,-1.032640218734741211e+00,-3.824593424797058105e-01,2.560000000000000000e+02
-1.467523316974320551e+02,-9.434393468203688826e+01,-1.526660681374687556e+01,7.474901346800652391e+01,-1.036907513679561816e+02,-1.511160503146511473e+02,-8.355078098181365931e+00,8.978196431177821069e+00,9.523238182067871094e+00,-1.032640218734741211e+00,-3.824593424797058105e-01,2.570000000000000000e+02
-1.493209638088865177e+02,-9.781040796023717121e+01,-1.783371986350812222e+01,7.651240787647384423e+01,-1.070533290822386334e+02,-1.545524204617204305e+02,-7.308938254646818677e+00,8.901956286584209010e+00,9.523238182067871094e+00,-1.032640218734741211e+00,-3.824593424797058105e-01,2.580000000000000000e+02
-1.527474472781273107e+02,-9.971560859829878609e+01,-2.071739638597955491e+01,7.982116512828815758e+01,-1.097325971146128722e+02,-1.569792247318455338e+02,-8.164151529354057857e+00,9.232788179403542017e+00,9.523238182067871094e+00,-1.032640218734741211e+00,-3.824593424797058105e-01,2.590000000000000000e+02
-1.570193760769197979e+02,-1.002069978178360543e+02,-2.237932323652057676e+01,8.409772844967574201e+01,-1.117344089749049090e+02,-1.587492908172862371e+02,-1.051583675768233661e+01,9.931477498262211157e+00,9.523238182067871094e+00,-1.032640218734741211e+00,-3.824593424797058105e-01,2.600000000000000000e+02
-1.616433227906400134e+02,-1.000241280264535817e+02,-2.226592038775652327e+01,8.837810817042009148e+01,-1.132023800220385965e+02,-1.603111071717257801e+02,-1.289218457323568146e+01,1.080325407966483908e+01,9.523238182067871094e+00,-1.032640218734741211e+00,-3.824593424797058105e-01,2.610000000000000000e+02
-1.658520527079322164e+02,-1.000285304806793647e+02,-2.081527180098009921e+01,9.194752068836260150e+01,-1.140263789504597298e+02,-1.618890620349566234e+02,-1.376004527976874670e+01,1.169267787924991353e+01,9.523238182067871094e+00,-1.032640218734741211e+00,-3.824593424797058105e-01,2.620000000000000000e+02
-1.690225656564489327e+02,-1.007848923691017262e+02,-1.883888021189113715e+01,9.457985399519566272e+01,-1.138982739195262184e+02,-1.635123867614320261e+02,-1.265870407161492039e+01,1.257611085290136543e+01,9.523238182067871094e+00,-1.032640218734741211e+00,-3.824593424797058105e-01,2.630000000000000000e+02
-1.710617621963142483e+02,-1.023572011697519883e+02,-1.697497927526683270e+01,9.640440776518516941e+01,-1.127696684856819047e+02,-1.652452887489134810e+02,-1.049119403309305198e+01,1.348235831344936742e+01,9.523238182067871094e+00,-1.032640218734741211e+00,-3.824593424797058105e-01,2.640000000000000000e+02
-1.725043625092594084e+02,-1.043497927864668782e+02,-1.563481611249972048e+01,9.770637478371281759e+01,-1.112271433620053358e+02,-1.672922564161490300e+02,-8.755288354389449523e+00,1.431653544933124067e+01,9.523238182067871094e+00,-1.032640218734741211e+00,-3.824593424797058105e-01,2.650000000000000000e+02
-1.742292166400143287e+02,-1.061622298660508932e+02,-1.524680326248289930e+01,9.883677362607159012e+01,-1.103756226775913092e+02,-1.698559887143555898e+02,-8.446962939940476645e+00,1.475812919209920437e+01,9.523238182067871094e+00,-1.032640218734741211e+00,-3.824593424797058105e-01,2.660000000000000000e+02
-1.769449981716279581e+02,-1.073663596157725806e+02,-1.629509572535289408e+01,1.001339333295727556e+02,-1.113007622666291354e+02,-1.729558991505218728e+02,-9.587689665192556276e+00,1.434737462503608185e+01,9.523238182067871094e+00,-1.032640218734741211e+00,-3.824593424797058105e-01,2.670000000000000000e+02
-1.807734248793290135e+02,-1.080200316739501432e+02,-1.896096553689403663e+01,1.017142017817413944e+02,-1.145316865704558040e+02,-1.764664690804684142e+02,-1.163328487234412023e+01,1.272169301459689450e+01,9.523238182067871094e+00,-1.032640218734741211e+00,-3.824593424797058105e-01,2.680000000000000000e+02
-1.852132854661572310e+02,-1.086874011088893894e+02,-2.272718503426767711e+01,1.032534156935353167e+02,-1.198409917589051474e+02,-1.803345769092584305e+02,-1.414309099660886204e+01,9.860769476642872178e+00,9.523238182067871094e+00,-1.032640218734741211e+00,-3.824593424797058105e-01,2.690000000000000000e+02
-1.895135856685487852e+02,-1.100940560636354348e+02,-2.646553346569498899e+01,1.040588367607297187e+02,-1.263868610252247890e+02,-1.846721195367481414e+02,-1.697524729941733312e+01,6.192011747576088965e+00,9.523238182067871094e+00,-1.032640218734741211e+00,-3.824593424797058105e-01,2.700000000000000000e+02
-1.931739398576310123e+02,-1.126163919697237361e+02,-2.907629645128190532e+01,1.035341146762948483e+02,-1.329771037699301814e+02,-1.895277731444011806e+02,-1.992647622764116022e+01,2.491534184804095275e+00,9.523238182067871094e+00,-1.032640218734741211e+00,-3.824593424797058105e-01,2.710000000000000000e+02
-1.961818600999454247e+02,-1.159660352954465452e+02,-3.015931065062886773e+01,1.017203080841827614e+02,-1.383521600821504762e+02,-1.945459738183799345e+02,-2.240077433712940547e+01,-3.887402464993101603e-01,9.523238182067871094e+00,-1.032640218734741211e+00,-3.824593424797058105e-01,2.720000000000000000e+02
-1.988048003959761445e+02,-1.192937710240603337e+02,-3.008405320725705678e+01,9.945133096628160274e+01,-1.415316060239301805e+02,-1.989153403462578353e+02,-2.362257060311912937e+01,-1.838942942464655061e+00,9.523238182067871094e+00,-1.032640218734741211e+00,-3.824593424797058105e-01,2.730000000000000000e+02
-2.011696087723398705e+02,-1.216268086882482748e+02,-2.941121521860759458e+01,9.794799996990150248e+01,-1.422138792008800010e+02,-2.017663960018162470e+02,-2.325090824163999059e+01,-1.713070633350525895e+00,9.523238182067871094e+00,-1.032640218734741211e+00,-3.824593424797058105e-01,2.740000000000000000e+02
-2.030760538315507802e+02,-1.223594328223362027e+02,-2.830119916456987994e+01,9.814009663227625424e+01,-1.410343559392385941e+02,-2.027371409516890708e+02,-2.176641346938367860e+01,-3.605424554775709112e-01,9.523238182067871094e+00,-1.032640218734741211e+00,-3.824593424797058105e-01,2.750000000000000000e+02
-2.042495147008985441e+02,-1.215336080575016240e+02,-2.655091535724795904e+01,1.002024727973334848e+02,-1.393766879281533875e+02,-2.022323069674603175e+02,-2.018746215070405015e+01,1.556845066940240940e+00,9.523238182067871094e+00,-1.032640218734741211e+00,-3.824593424797058105e-01,2.760000000000000000e+02
-2.047733980677085128e+02,-1.198204637684821137e+02,-2.419265066327307068e+01,1.035455123460433242e+02,-1.386665620223034239e+02,-2.011660120161950545e+02,-1.933902220067921007e+01,3.386614391993134632e+00,9.523238182067871094e+00,-1.032640218734741211e+00,-3.824593424797058105e-01,2.770000000000000000e+02
-2.052204282840816632e+02,-1.182573940338920693e+02,-2.190768630917864357e+01,1.071510600181336486e+02,-1.395221120210399022e+02,-2.004192444322552547e+02,-1.932844041165890303e+01,4.782024097952671582e+00,9.523238182067871094e+00,-1.032640218734741211e+00,-3.824593424797058105e-01,2.780000000000000000e+02
-2.062709289614981572e+02,-1.178272043542692700e+02,-2.063562110481325362e+01,1.099867278335063929e+02,-1.413679020182030399e+02,-2.004256667072568234e+02,-1.964900762120987565e+01,5.824938091271633311e+00,9.523238182067871094e+00,-1.032640218734741211e+00,-3.824593424797058105e-01,2.790000000000000000e+02
-2.081381818673139605e+02,-1.190157008371834308e+02,-2.065780697715945280e+01,1.113482704398938949e+02,-1.428783737475041562e+02,-2.011156539002499812e+02,-1.972989453690934170e+01,6.912873634222250985e+00,9.523238182067871094e+00,-1.032640218734741211e+00,-3.824593424797058105e-01,2.800000000000000000e+02
-2.103563335883623040e+02,-1.215755187981371819e+02,-2.114459712928555746e+01,1.111102518112506914e+02,-1.429947634758600543e+02,-2.021390925855480418e+02,-1.940207345825956509e+01,8.453437337093873793e+00,9.561484336853027344e+00,-1.070886254310607910e+00,-2.677215635776519775e-01,2.810000000000000000e+02
-2.121443339684528837e+02,-1.246835711935814288e+02,-2.082062382425738178e+01,1.098298220911092358e+02,-1.417481640531423182e+02,-2.031252267452418891e+02,-1.891980305242759641e+01,1.053427360630576004e+01,9.561484336853027344e+00,-1.070886254310607910e+00,-2.677215635776519775e-01,2.820000000000000000e+02
-2.129970933046042774e+02,-1.274265173033763858e+02,-1.924318826596118015e+01,1.085668127255139552e+02,-1.402162900669204646e+02,-2.038199467486601861e+02,-1.861790099544077748e+01,1.279111769394239673e+01,9.561484336853027344e+00,-1.070886254310607910e+00,-2.677215635776519775e-01,2.830000000000000000e+02
-2.129543236286654064e+02,-1.292735075405275893e+02,-1.740366393920203336e+01,1.083834090731579636e+02,-1.396223489385988614e+02,-2.040966753131606310e+02,-1.857477109472256416e+01,1.461161084349168959e+01,9.561484336853027344e+00,-1.070886254310607910e+00,-2.677215635776519775e-01,2.840000000000000000e+02
-2.123672895012450681e+02,-1.301793709180524274e+02,-1.691455438256070920e+01,1.097650787163215682e+02,-1.403217393125687522e+02,-2.039315360912255528e+02,-1.858205888068459899e+01,1.557191575866272615e+01,9.561484336853027344e+00,-1.070886254310607910e+00,-2.677215635776519775e-01,2.850000000000000000e+02
-2.115213272392106774e+02,-1.303182337177695445e+02,-1.846538383610140954e+01,1.123595781967746916e+02,-1.415634902591127684e+02,-2.034114458203434879e+02,-1.841520707324207251e+01,1.576631937971023945e+01,9.561484336853027344e+00,-1.070886254310607910e+00,-2.677215635776519775e-01,2.860000000000000000e+02
-2.105848472883662907e+02,-1.298131522869416585e+02,-2.106048766993990284e+01,1.152615674959697571e+02,-1.422216893334721135e+02,-2.027467639437936668e+02,-1.811039303854749960e+01,1.573796168209446478e+01,9.561484336853027344e+00,-1.070886254310607910e+00,-2.677215635776519775e-01,2.870000000000000000e+02
-2.099045981233398379e+02,-1.287893393242625280e+02,-2.287091916530835078e+01,1.176458159924054598e+02,-1.418147211015370885e+02,-2.022163854201839968e+02,-1.794555916858325872e+01,1.602970370641060072e+01,9.561484336853027344e+00,-1.070886254310607910e+00,-2.677215635776519775e-01,2.880000000000000000e+02
-2.101808628373303236e+02,-1.276345005246813571e+02,-2.291841310422933020e+01,1.192680597973126169e+02,-1.408823079902672362e+02,-2.020348994161117844e+02,-1.809221117744232288e+01,1.673670924156112960e+01,9.561484336853027344e+00,-1.070886254310607910e+00,-2.677215635776519775e-01,2.890000000000000000e+02
-2.121270561709708318e+02,-1.270279686695678265e+02,-2.195653724547469210e+01,1.204586937080771349e+02,-1.404272794850089667e+02,-2.022299405005221615e+02,-1.825840513186540193e+01,1.746805359154427606e+01,9.561484336853027344e+00,-1.070886254310607910e+00,-2.677215635776519775e-01,2.900000000000000000e+02
-2.157960037914170925e+02,-1.275219281595249186e+02,-2.170986820721645927e+01,1.216522380837711808e+02,-1.410410106354838717e+02,-2.026648626332985259e+02,-1.776090302305510704e+01,1.774797896115342155e+01,9.561484336853027344e+00,-1.070886254310607910e+00,-2.677215635776519775e-01,2.910000000000000000e+02
-2.202217119014220543e+02,-1.290223339846776298e+02,-2.325304236323245277e+01,1.228952542716942844e+02,-1.425791174831358603e+02,-2.032316830802667482e+02,-1.613214121163309756e+01,1.744894436260369730e+01,9.561484336853027344e+00,-1.070886254310607910e+00,-2.677215635776519775e-01,2.920000000000000000e+02
-2.238466719570320720e+02,-1.307665975106399401e+02,-2.613092936134648880e+01,1.237687417939939678e+02,-1.446276356901405507e+02,-2.040560826919440842e+02,-1.381159997072381884e+01,1.680940161656849341e+01,9.561484336853027344e+00,-1.070886254310607910e+00,-2.677215635776519775e-01,2.930000000000000000e+02
-2.255017778983938115e+02,-1.319476396971448366e+02,-2.899292640199428206e+01,1.237939228549828385e+02,-1.471357486742747369e+02,-2.054726589521219466e+02,-1.220363750912770229e+01,1.605772875764341734e+01,9.561484336853027344e+00,-1.070886254310607910e+00,-2.677215635776519775e-01,2.940000000000000000e+02
-2.251875621398743306e+02,-1.324234755152341450e+02,-3.094924408536508054e+01,1.229640934092258249e+02,-1.504413689897071436e+02,-2.077018467512132247e+02,-1.278874449730346896e+01,1.512009501987063231e+01,9.561484336853027344e+00,-1.070886254310607910e+00,-2.677215635776519775e-01,2.950000000000000000e+02
-2.240322969796745838e+02,-1.327705690713648892e+02,-3.221986904489017434e+01,1.219127311446586646e+02,-1.546261617232362369e+02,-2.104734175532566951e+02,-1.585466609607897226e+01,1.382105986354213201e+01,9.561484336853027344e+00,-1.070886254310607910e+00,-2.677215635776519775e-01,2.960000000000000000e+02
-2.234911462858510731e+02,-1.336018128007492578e+02,-3.351373206722132636e+01,1.215193235592832934e+02,-1.589385994048977864e+02,-2.129808077087348011e+02,-1.995784791147298165e+01,1.239378403925411476e+01,9.561484336853027344e+00,-1.070886254310607910e+00,-2.677215635776519775e-01,2.970000000000000000e+02
-2.244257793701546007e+02,-1.348807809150978301e+02,-3.495859228774452276e+01,1.222292508925982020e+02,-1.620328965785579385e+02,-2.143212199104077627e+02,-2.276262522728757176e+01,1.166137881295048828e+01,9.561484336853027344e+00,-1.070886254310607910e+00,-2.677215635776519775e-01,2.980000000000000000e+02
-2.266790869208912227e+02,-1.360003801163996968e+02,-3.581338228032836923e+01,1.236516647979342451e+02,-1.629348808714114512e+02,-2.141250961718108101e+02,-2.270676142502657058e+01,1.249634439437477340e+01,9.561484336853027344e+00,-1.070886254310607910e+00,-2.677215635776519775e-01,2.990000000000000000e+02
-2.293180664515592753e+02,-1.365726897935772968e+02,-3.526107655558439546e+01,1.248108959255635000e+02,-1.618496517565067734e+02,-2.128528464281939705e+02,-2.013942766590957945e+01,1.494154993876850313e+01,9.561484336853027344e+00,-1.070886254310607910e+00,-2.677215635776519775e-01,3.000000000000000000e+02
-2.312654362246255459e+02,-1.370449682195605874e+02,-3.338603465920687086e+01,1.249075119058140899e+02,-1.600143903606716549e+02,-2.114636833713025226e+02,-1.696184531209337365e+01,1.788453746265395239e+01,9.561484336853027344e+00,-1.070886254310607910e+00,-2.677215635776519775e-01,3.010000000000000000e+02
-2.319065439390503798e+02,-1.384036233345963183e+02,-3.129017740509834766e+01,1.239694043075023728e+02,-1.587406313648709784e+02,-2.107144492019465360e+02,-1.512892252016263228e+01,1.974351467780661551e+01,9.561484336853027344e+00,-1.070886254310607910e+00,-2.677215635776519775e-01,3.020000000000000000e+02
-2.313883240090725621e+02,-1.412127853151750969e+02,-3.025917548471556984e+01,1.228033057454372283e+02,-1.585775096953501588e+02,-2.107023873408634245e+02,-1.535958524008697168e+01,1.960974407449873524e+01,9.561484336853027344e+00,-1.070886254310607910e+00,-2.677215635776519775e-01,3.030000000000000000e+02
-2.305075350023373630e+02,-1.450097253162931565e+02,-3.086127723560548475e+01,1.222312351335488074e+02,-1.593652102664059385e+02,-2.110584866762972069e+02,-1.709993375867497889e+01,1.776047834135101766e+01,9.561484336853027344e+00,-1.070886254310607910e+00,-2.677215635776519775e-01,3.040000000000000000e+02
-2.302530116307339085e+02,-1.487319013626520245e+02,-3.282175510209526692e+01,1.222628060384267883e+02,-1.609859988250352671e+02,-2.115686301699834075e+02,-1.951065520303677658e+01,1.505564126231399769e+01,9.561484336853027344e+00,-1.070886254310607910e+00,-2.677215635776519775e-01,3.050000000000000000e+02
-2.312292802870877040e+02,-1.517511455032323511e+02,-3.558575027203801255e+01,1.219905356774538632e+02,-1.638634737002531665e+02,-2.125712478086395549e+02,-2.230483687817218197e+01,1.189146877077314457e+01,9.561484336853027344e+00,-1.070886254310607910e+00,-2.677215635776519775e-01,3.060000000000000000e+02
-2.333159125228908124e+02,-1.544239008674583147e+02,-3.877816864878604974e+01,1.203931799746317211e+02,-1.685305451846796814e+02,-2.146773523146641764e+02,-2.558829692142739987e+01,7.858677442769703703e+00,9.561484336853027344e+00,-1.070886254310607910e+00,-2.677215635776519775e-01,3.070000000000000000e+02
-2.358184803554856899e+02,-1.575660709362419993e+02,-4.206141072997206720e+01,1.173795141008597511e+02,-1.746287127961105625e+02,-2.180342446437537092e+02,-2.904623003083270305e+01,2.507487298696446487e+00,9.561484336853027344e+00,-1.070886254310607910e+00,-2.677215635776519775e-01,3.080000000000000000e+02
-2.379998566074630162e+02,-1.614254057265734446e+02,-4.475139367875613061e+01,1.140981329931655637e+02,-1.804632870452562656e+02,-2.218646240700918497e+02,-3.156922834129727562e+01,-3.631377906092666308e+00,9.561484336853027344e+00,-1.070886254310607910e+00,-2.677215635776519775e-01,3.090000000000000000e+02
-2.395443093243744670e+02,-1.652848834606952551e+02,-4.591163443477853434e+01,1.121225277067978823e+02,-1.838469648523342812e+02,-2.248375916223775448e+02,-3.193560516364300383e+01,-9.007274880009049411e+00,9.561484336853027344e+00,-1.070886254310607910e+00,-2.677215635776519775e-01,3.100000000000000000e+02
-2.405592507787339400e+02,-1.681480814665079606e+02,-4.508758509314270668e+01,1.121434088561816225e+02,-1.837252345560683580e+02,-2.260669994766784612e+02,-2.998007564124668534e+01,-1.225408934226470592e+01,9.561484336853027344e+00,-1.070886254310607910e+00,-2.677215635776519775e-01,3.110000000000000000e+02
-2.411713963087933053e+02,-1.697790197320057359e+02,-4.299310669898909509e+01,1.133217876215373963e+02,-1.811748847447437356e+02,-2.258729017035682318e+02,-2.705233838305048266e+01,-1.352943917279526431e+01,9.446745872497558594e+00,-1.070886254310607910e+00,-4.207052886486053467e-01,3.120000000000000000e+02
-2.412047332529308505e+02,-1.709886528578078924e+02,-4.129477074474925757e+01,1.139209939791580837e+02,-1.787579497767846988e+02,-2.255763295030974405e+02,-2.519291929287294352e+01,-1.459030517565167884e+01,9.446745872497558594e+00,-1.070886254310607910e+00,-4.207052886486053467e-01,3.130000000000000000e+02
-2.403512040631089803e+02,-1.728437354392573297e+02,-4.146177856050087485e+01,1.127126430697262549e+02,-1.786314033619253223e+02,-2.264349209784138566e+02,-2.566235086419737854e+01,-1.735895591733856236e+01,9.446745872497558594e+00,-1.070886254310607910e+00,-4.207052886486053467e-01,3.140000000000000000e+02
-2.386789499713107716e+02,-1.756191248005937950e+02,-4.360669902899508088e+01,1.099272275289461049e+02,-1.809554336769285783e+02,-2.286310601030945691e+02,-2.806020505587366642e+01,-2.222831456104279368e+01,9.446745872497558594e+00,-1.070886254310607910e+00,-4.207052886486053467e-01,3.150000000000000000e+02
-2.368842648816506653e+02,-1.785532943651334108e+02,-4.635170829567937290e+01,1.069332279988107075e+02,-1.839292892325393041e+02,-2.311958198070196886e+02,-3.070102279142702173e+01,-2.766266405751468938e+01,9.446745872497558594e+00,-1.070886254310607910e+00,-4.207052886486053467e-01,3.160000000000000000e+02
-2.358974083009767355e+02,-1.805921489056413520e+02,-4.787020236599630607e+01,1.050067698846960411e+02,-1.853605761080722232e+02,-2.328892171143355654e+02,-3.182157630918015911e+01,-3.144600902380398111e+01,9.446745872497558594e+00,-1.070886254310607910e+00,-4.207052886486053467e-01,3.170000000000000000e+02
-2.361378800802031037e+02,-1.813123641285246777e+02,-4.722649572697616804e+01,1.043387979319768419e+02,-1.843802801132653713e+02,-2.332107360228101243e+02,-3.063509102137504669e+01,-3.243923555848505202e+01,9.446745872497558594e+00,-1.070886254310607910e+00,-4.207052886486053467e-01,3.180000000000000000e+02
-2.371490573631156167e+02,-1.811156811809689771e+02,-4.496020647431714679e+01,1.041253097019177858e+02,-1.819161120103433404e+02,-2.326598787604891641e+02,-2.759729501291917586e+01,-3.136076696664417796e+01,9.446745872497558594e+00,-1.070886254310607910e+00,-4.207052886486053467e-01,3.190000000000000000e+02
-2.380204901950788781e+02,-1.806323486533059395e+02,-4.257731726548729512e+01,1.035194832679405863e+02,-1.797374075363668453e+02,-2.321342988708757957e+02,-2.397106072639667218e+01,-3.010665971882770009e+01,9.446745872497558594e+00,-1.070886254310607910e+00,-4.207052886486053467e-01,3.200000000000000000e+02
-2.382079991423822776e+02,-1.800929667375814915e+02,-4.149229975950174776e+01,1.024487998701615652e+02,-1.790864429854095761e+02,-2.321436204515021018e+02,-2.115703071849793560e+01,-3.039418848052321209e+01,9.446745872497558594e+00,-1.070886254310607910e+00,-4.207052886486053467e-01,3.210000000000000000e+02
-2.379263782503697939e+02,-1.793447769774434164e+02,-4.223632117137401565e+01,1.015348075365834575e+02,-1.800254506282050215e+02,-2.325655560979189431e+02,-2.012549943222222737e+01,-3.286976212328215752e+01,9.446745872497558594e+00,-1.070886254310607910e+00,-4.207052886486053467e-01,3.220000000000000000e+02
-2.377243258576581866e+02,-1.783612138513636864e+02,-4.433579757450581837e+01,1.013172455880969665e+02,-1.817588967477000779e+02,-2.330117858449390269e+02,-2.104018184829476468e+01,-3.710096355614234653e+01,9.446745872497558594e+00,-1.070886254310607910e+00,-4.207052886486053467e-01,3.230000000000000000e+02
-2.377360438880590436e+02,-1.775266446337041089e+02,-4.671173700715291943e+01,1.016458101040614110e+02,-1.833475673449667056e+02,-2.332610713185458735e+02,-2.316423421933984628e+01,-4.205544549517901487e+01,9.446745872497558594e+00,-1.070886254310607910e+00,-4.207052886486053467e-01,3.240000000000000000e+02
-2.374916518112108861e+02,-1.773037984311712307e+02,-4.825424481834932067e+01,1.018440796376680737e+02,-1.841803843057323320e+02,-2.332973582575937144e+02,-2.520459193810052057e+01,-4.655347255294748265e+01,9.446745872497558594e+00,-1.070886254310607910e+00,-4.207052886486053467e-01,3.250000000000000000e+02
-2.365446296001339306e+02,-1.776727232656477327e+02,-4.832776475263062821e+01,1.014177910675653038e+02,-1.840804946465444800e+02,-2.330556807100938386e+02,-2.605064879662222666e+01,-4.958696397686446744e+01,9.446745872497558594e+00,-1.070886254310607910e+00,-4.207052886486053467e-01,3.260000000000000000e+02
-2.352376296924201142e+02,-1.780579952609161865e+02,-4.706384108890540574e+01,1.005297966803270810e+02,-1.832835134206386556e+02,-2.323244347232210885e+02,-2.545479563088724717e+01,-5.065964225276911748e+01,9.446745872497558594e+00,-1.070886254310607910e+00,-4.207052886486053467e-01,3.270000000000000000e+02
-2.346753282648367076e+02,-1.779096989754468723e+02,-4.529739283156573038e+01,9.977519312440972499e+01,-1.823687180230133436e+02,-2.309738434270410607e+02,-2.408599221772067267e+01,-5.005909585445385801e+01,9.446745872497558594e+00,-1.070886254310607910e+00,-4.207052886486053467e-01,3.280000000000000000e+02
-2.357478704258941207e+02,-1.773182413841283278e+02,-4.409169984099833073e+01,9.954639489168289401e+01,-1.819796444467342553e+02,-2.292009951029301646e+02,-2.287468086098249387e+01,-4.871832301427537004e+01,9.446745872497558594e+00,-1.070886254310607910e+00,-4.207052886486053467e-01,3.290000000000000000e+02
-2.381023378760504556e+02,-1.769522758935925140e+02,-4.407665187980057908e+01,9.965502842401451744e+01,-1.823181777132022034e+02,-2.274116518504216629e+02,-2.223866342966061893e+01,-4.756113520832423092e+01,9.446745872497558594e+00,-1.070886254310607910e+00,-4.207052886486053467e-01,3.300000000000000000e+02
-2.401622351392624068e+02,-1.773388848675039071e+02,-4.506532790530218335e+01,9.955658997940940935e+01,-1.828159733676895939e+02,-2.258160484609068135e+02,-2.191320684790775886e+01,-4.682027943641128331e+01,9.446745872497558594e+00,-1.070886254310607910e+00,-4.207052886486053467e-01,3.310000000000000000e+02
-2.403393491344837685e+02,-1.782619403687046997e+02,-4.627706257105262466e+01,9.888300116740788326e+01,-1.824413300961765572e+02,-2.242261572724303278e+02,-2.150348007174386566e+01,-4.602792483423661452e+01,9.446745872497558594e+00,-1.070886254310607910e+00,-4.207052886486053467e-01,3.320000000000000000e+02
-2.383928342239995573e+02,-1.789712986846883496e+02,-4.700782850256200618e+01,9.772198051331042734e+01,-1.805603610527257388e+02,-2.223690980713415684e+02,-2.111439238718389788e+01,-4.476654203916177721e+01,9.446745872497558594e+00,-1.109132170677185059e+00,-4.589512646198272705e-01,3.330000000000000000e+02
-2.356589586066742186e+02,-1.790057977603920563e+02,-4.716320114879090397e+01,9.643130001755389458e+01,-1.776085809143064580e+02,-2.204116687076968901e+02,-2.132619628541533530e+01,-4.341887238045887898e+01,9.446745872497558594e+00,-1.109132170677185059e+00,-4.589512646198272705e-01,3.340000000000000000e+02
-2.338932807055127796e+02,-1.787473676577400283e+02,-4.716077660953692430e+01,9.527716796239974428e+01,-1.748467954167506377e+02,-2.190650963128313151e+02,-2.250794789629253501e+01,-4.303826355164437700e+01,9.446745872497558594e+00,-1.109132170677185059e+00,-4.589512646198272705e-01,3.350000000000000000e+02
-2.337759410172852768e+02,-1.790757572999275453e+02,-4.733019471872637496e+01,9.430514404254245164e+01,-1.733124317459129315e+02,-2.190303544845157830e+02,-2.422626803648870464e+01,-4.434143277198518263e+01,9.446745872497558594e+00,-1.109132170677185059e+00,-4.589512646198272705e-01,3.360000000000000000e+02
-2.344347952060852549e+02,-1.804386302891925880e+02,-4.745998777671172775e+01,9.351658949906118323e+01,-1.729165456543695427e+02,-2.202742975666916436e+02,-2.546684119096278209e+01,-4.682137516094837792e+01,9.446745872497558594e+00,-1.109132170677185059e+00,-4.589512646198272705e-01,3.370000000000000000e+02
-2.343796697816650294e+02,-1.822857252509558066e+02,-4.698898451165962342e+01,9.305488626840053712e+01,-1.725710318785486379e+02,-2.219065399930178728e+02,-2.554163051784962590e+01,-4.898233733431573000e+01,9.446745872497558594e+00,-1.109132170677185059e+00,-4.589512646198272705e-01,3.380000000000000000e+02
-2.329300869203200364e+02,-1.834389005088416980e+02,-4.566712396021944187e+01,9.312289800850362553e+01,-1.712558908217728231e+02,-2.228670804752168806e+02,-2.477655919406663543e+01,-4.959481965458348895e+01,9.446745872497558594e+00,-1.109132170677185059e+00,-4.589512646198272705e-01,3.390000000000000000e+02
-2.308126942249543845e+02,-1.830108695434137189e+02,-4.399193044287358134e+01,9.372715191714075900e+01,-1.690211922105789881e+02,-2.228014247655712552e+02,-2.422586635885022588e+01,-4.876371329436540236e+01,9.446745872497558594e+00,-1.109132170677185059e+00,-4.589512646198272705e-01,3.400000000000000000e+02
-2.294419667066545117e+02,-1.809686101227667905e+02,-4.292305739428707057e+01,9.460219430024392295e+01,-1.669876016159106484e+02,-2.222671260466225931e+02,-2.461325593157903313e+01,-4.772120767339458780e+01,9.446745872497558594e+00,-1.109132170677185059e+00,-4.589512646198272705e-01,3.410000000000000000e+02
-2.296184017632276664e+02,-1.779041278466484073e+02,-4.309411628668090088e+01,9.547751220629152158e+01,-1.663687119614481844e+02,-2.220491598242402915e+02,-2.551112519285049984e+01,-4.753860660639429625e+01,9.446745872497558594e+00,-1.109132170677185059e+00,-4.589512646198272705e-01,3.420000000000000000e+02
-2.308375942870316067e+02,-1.744160559975462093e+02,-4.426775591843886559e+01,9.641883436303578492e+01,-1.674340495383222560e+02,-2.222604297142737551e+02,-2.558799986249380254e+01,-4.805693560834208711e+01,9.446745872497558594e+00,-1.109132170677185059e+00,-4.589512646198272705e-01,3.430000000000000000e+02
-2.317624561573107940e+02,-1.708188239830785733e+02,-4.555656466338791688e+01,9.780784271826894383e+01,-1.693339229638987717e+02,-2.221410237203215274e+02,-2.378437007473166886e+01,-4.812321740640334156e+01,9.446745872497558594e+00,-1.109132170677185059e+00,-4.589512646198272705e-01,3.440000000000000000e+02
-2.313521291030785960e+02,-1.673902187240105377e+02,-4.619387451758711904e+01,9.985481998767784262e+01,-1.708580892896710566e+02,-2.207959354883054175e+02,-2.041686612756529939e+01,-4.689564827603658159e+01,9.446745872497558594e+00,-1.109132170677185059e+00,-4.589512646198272705e-01,3.450000000000000000e+02
-2.296234062914427341e+02,-1.646512818616920413e+02,-4.610706711763543808e+01,1.020989050738345441e+02,-1.713593987820493112e+02,-2.181618664613116607e+02,-1.720706307364980603e+01,-4.485111029949143813e+01,9.446745872497558594e+00,-1.109132170677185059e+00,-4.589512646198272705e-01,3.460000000000000000e+02
-2.274641056274983839e+02,-1.631489574720028486e+02,-4.575492189258852704e+01,1.034879279774944507e+02,-1.710165534562738685e+02,-2.152218452769204760e+02,-1.610243488058836192e+01,-4.341575172426678364e+01,9.446745872497558594e+00,-1.109132170677185059e+00,-4.589512646198272705e-01,3.470000000000000000e+02
-2.257919786769076609e+02,-1.628835075788440463e+02,-4.545919051220062101e+01,1.031150654978659986e+02,-1.703377647667801966e+02,-2.132033487687939441e+02,-1.778475045872028204e+01,-4.357227632193132649e+01,9.446745872497558594e+00,-1.109132170677185059e+00,-4.589512646198272705e-01,3.480000000000000000e+02
-2.248514432127321925e+02,-1.630711460240114548e+02,-4.497798215744455774e+01,1.009989819547558909e+02,-1.695242049035640548e+02,-2.124942291673709178e+02,-2.105456587032631433e+01,-4.484635679172754408e+01,9.446745872497558594e+00,-1.109132170677185059e+00,-4.589512646198272705e-01,3.490000000000000000e+02
-2.241814060673738140e+02,-1.626591997312564217e+02,-4.378658099918015978e+01,9.816068277834438049e+01,-1.683351572400383702e+02,-2.123106624338024631e+02,-2.359495366178202858e+01,-4.567768206534958608e+01,9.446745872497558594e+00,-1.109132170677185059e+00,-4.589512646198272705e-01,3.500000000000000000e+02
-2.231355060852014276e+02,-1.611937351865258279e+02,-4.175770909011987442e+01,9.585500030076934763e+01,-1.664966586447621921e+02,-2.114492152220342405e+02,-2.355716418976135174e+01,-4.479824712502170314e+01,9.446745872497558594e+00,-1.109132170677185059e+00,-4.589512646198272705e-01,3.510000000000000000e+02
-2.214407550343523781e+02,-1.592012120895809630e+02,-3.949991279217533702e+01,9.461266137917857577e+01,-1.641320021421710180e+02,-2.094148272700435882e+02,-2.079387080246237929e+01,-4.227754824900819131e+01,9.446745872497558594e+00,-1.109132170677185059e+00,-4.589512646198272705e-01,3.520000000000000000e+02
-2.193559651127654888e+02,-1.576862371180079663e+02,-3.795044333149655813e+01,9.395975151564880434e+01,-1.617411427443826142e+02,-2.068533085118194776e+02,-1.685805786305218135e+01,-3.930387307717217027e+01,9.446745872497558594e+00,-1.109132170677185059e+00,-4.589512646198272705e-01,3.530000000000000000e+02
-2.174081990562377769e+02,-1.572153532830562881e+02,-3.759330435718800345e+01,9.305702770326047357e+01,-1.597722720068455828e+02,-2.048883180183643162e+02,-1.383753319137838389e+01,-3.702819586717021139e+01,9.446745872497558594e+00,-1.109132170677185059e+00,-4.589512646198272705e-01,3.540000000000000000e+02
-2.160115175116106911e+02,-1.574505508572971166e+02,-3.808664832957106228e+01,9.162163965333047599e+01,-1.582857161521934586e+02,-2.040377450383350606e+02,-1.295320074234302865e+01,-3.566196748418326479e+01,9.446745872497558594e+00,-1.109132170677185059e+00,-4.589512646198272705e-01,3.550000000000000000e+02
-2.152449260267823092e+02,-1.575126500488059946e+02,-3.865653204485761307e+01,9.023594624828660926e+01,-1.570813868238217310e+02,-2.037779347050171737e+02,-1.394257314051628782e+01,-3.462023604152193457e+01,9.446745872497558594e+00,-1.109132170677185059e+00,-4.589512646198272705e-01,3.560000000000000000e+02
-2.148636453372454298e+02,-1.567227772764199472e+02,-3.882653905503320857e+01,8.977449620841821343e+01,-1.561077971463098493e+02,-2.031478785158052460e+02,-1.553277209947896154e+01,-3.337201998067541808e+01,9.446745872497558594e+00,-1.109132170677185059e+00,-4.589512646198272705e-01,3.570000000000000000e+02
-2.144701472355712895e+02,-1.549933964093036138e+02,-3.874680936715230928e+01,9.054132912857130577e+01,-1.556445345527706650e+02,-2.017542344176769120e+02,-1.646012045561701598e+01,-3.202924730792949504e+01,9.446745872497558594e+00,-1.070886254310607910e+00,-4.589512646198272705e-01,3.580000000000000000e+02
-2.137330967521103275e+02,-1.526338994486586671e+02,-3.884695302387217453e+01,9.196801723964131270e+01,-1.559928193823243419e+02,-2.001548488211965378e+02,-1.620568882403983935e+01,-3.109975159266684841e+01,9.446745872497558594e+00,-1.070886254310607910e+00,-4.589512646198272705e-01,3.590000000000000000e+02
-2.125877904979450932e+02,-1.499576136081032018e+02,-3.926667149290847192e+01,9.312652996416431961e+01,-1.569898751812439741e+02,-1.992579251763529555e+02,-1.503923311998642021e+01,-3.078167817164512599e+01,9.446745872497558594e+00,-1.070886254310607910e+00,-4.589512646198272705e-01,3.600000000000000000e+02
-2.113304983314839092e+02,-1.471671017485688253e+02,-3.973008563368648538e+01,9.352020331174162493e+01,-1.579132611738540390e+02,-1.993528542349824875e+02,-1.360801901540639847e+01,-3.062300873595916073e+01,9.446745872497558594e+00,-1.070886254310607910e+00,-4.589512646198272705e-01,3.610000000000000000e+02
-2.105005743013934989e+02,-1.445326013706047661e+02,-3.999283427959755954e+01,9.339398207322960843e+01,-1.579687588402193796e+02,-1.997344913699510016e+02,-1.254337231226770655e+01,-2.992170308382321764e+01,9.446745872497558594e+00,-1.070886254310607910e+00,-4.589512646198272705e-01,3.620000000000000000e+02
-2.105467001188671929e+02,-1.424648837535480652e+02,-4.029789851750695107e+01,9.332149123476960995e+01,-1.569392407466533541e+02,-1.992732460756678847e+02,-1.229093762014144886e+01,-2.842889938924588478e+01,9.446745872497558594e+00,-1.070886254310607910e+00,-4.589512646198272705e-01,3.630000000000000000e+02
-2.114680710616864872e+02,-1.412419076196808874e+02,-4.124028602188604964e+01,9.354358831513604855e+01,-1.553713466396994818e+02,-1.973802146634850487e+02,-1.303874312847233341e+01,-2.663863381557609955e+01,9.446745872497558594e+00,-1.070886254310607910e+00,-4.589512646198272705e-01,3.640000000000000000e+02
-2.127203786223791440e+02,-1.406582995310629940e+02,-4.309520282023686377e+01,9.371757880658333306e+01,-1.541105747336420109e+02,-1.945041453098397142e+02,-1.461729317974482001e+01,-2.539675204281593324e+01,9.446745872497558594e+00,-1.070886254310607910e+00,-4.589512646198272705e-01,3.650000000000000000e+02
-2.135035662425367491e+02,-1.400601824795718358e+02,-4.528356878209388015e+01,9.329266104659677694e+01,-1.535963801440708494e+02,-1.917742125285644761e+02,-1.646484254871484154e+01,-2.519892985402293561e+01,9.446745872497558594e+00,-1.070886254310607910e+00,-4.589512646198272705e-01,3.660000000000000000e+02
-2.132415179254934401e+02,-1.388595924180368684e+02,-4.658226008911515237e+01,9.212486260533773930e+01,-1.535096225904881067e+02,-1.901443247837250965e+02,-1.783161324277125459e+01,-2.578344435280735070e+01,9.446745872497558594e+00,-1.070886254310607910e+00,-4.589512646198272705e-01,3.670000000000000000e+02
-2.118877369614550616e+02,-1.370770172446849529e+02,-4.597531691171980128e+01,9.074749535348564677e+01,-1.530059944975922690e+02,-1.897312391810380632e+02,-1.817370142197205496e+01,-2.629685055940956317e+01,9.446745872497558594e+00,-1.070886254310607910e+00,-4.589512646198272705e-01,3.680000000000000000e+02
-2.098501394062965346e+02,-1.353600189616777243e+02,-4.343532363425902076e+01,9.005007942984616420e+01,-1.512954297415773226e+02,-1.897918927845107646e+02,-1.742789978718246857e+01,-2.585239441814906058e+01,9.446745872497558594e+00,-1.070886254310607910e+00,-4.589512646198272705e-01,3.690000000000000000e+02
-2.076636184624603629e+02,-1.344313558144831404e+02,-3.999703903350427936e+01,9.062083833281894840e+01,-1.481632562625940182e+02,-1.892877460276204147e+02,-1.593562152889307981e+01,-2.410295248947738855e+01,9.446745872497558594e+00,-1.070886254310607910e+00,-4.589512646198272705e-01,3.700000000000000000e+02
-2.057206693136173499e+02,-1.344887119027829385e+02,-3.710054508347809588e+01,9.225549319409265081e+01,-1.441693992026123396e+02,-1.876188692093346617e+02,-1.414024007882767364e+01,-2.151506959581070078e+01,9.446745872497558594e+00,-1.070886254310607910e+00,-4.589512646198272705e-01,3.710000000000000000e+02
-2.042142581195798812e+02,-1.351029210487664614e+02,-3.573068223617440253e+01,9.399236715525421459e+01,-1.404541097487276602e+02,-1.850495222619683773e+02,-1.239087904607822566e+01,-1.920629086011399522e+01,9.446745872497558594e+00,-1.070886254310607910e+00,-4.589512646198272705e-01,3.720000000000000000e+02
-2.031841321085006484e+02,-1.356593345334051719e+02,-3.592898665096424793e+01,9.465391593503932199e+01,-1.382059575083885647e+02,-1.825536414308660369e+02,-1.100692085704292822e+01,-1.838107502571449459e+01,9.446745872497558594e+00,-1.070886254310607910e+00,-4.589512646198272705e-01,3.730000000000000000e+02
-2.025091539812891597e+02,-1.358715032982105413e+02,-3.692873240555411485e+01,9.353101020690564837e+01,-1.380002638111518536e+02,-1.811545898401654995e+02,-1.040057546803132027e+01,-1.962321404698059268e+01,9.446745872497558594e+00,-1.070886254310607910e+00,-4.589512646198272705e-01,3.740000000000000000e+02
-2.018705137388021740e+02,-1.358759694362722712e+02,-3.775171795133576325e+01,9.076987572727534825e+01,-1.393957281987891292e+02,-1.811934228080447156e+02,-1.095038943654571995e+01,-2.247531818266509163e+01,9.446745872497558594e+00,-1.070886254310607910e+00,-4.589512646198272705e-01,3.750000000000000000e+02
-2.008701805797040834e+02,-1.359007173658816328e+02,-3.788160401850393555e+01,8.723379974547833626e+01,-1.411768787036389767e+02,-1.820765350197111729e+02,-1.264553210287840557e+01,-2.567624633767456999e+01,9.446745872497558594e+00,-1.070886254310607910e+00,-4.589512646198272705e-01,3.760000000000000000e+02
-1.993385621211573380e+02,-1.359119926875152942e+02,-3.759287891448002483e+01,8.398753774848819376e+01,-1.421858953849045974e+02,-1.827183901288840389e+02,-1.487661542171781548e+01,-2.795968904730534632e+01,9.446745872497558594e+00,-1.070886254310607910e+00,-4.589512646198272705e-01,3.770000000000000000e+02
-1.975702785872317691e+02,-1.356034499430670621e+02,-3.767659849629444579e+01,8.179391474121030114e+01,-1.421214262160999624e+02,-1.823313067385292925e+02,-1.667879933721587804e+01,-2.880947375507571451e+01,9.446745872497558594e+00,-1.070886254310607910e+00,-4.589512646198272705e-01,3.780000000000000000e+02
-1.961714769662464732e+02,-1.346982064558364982e+02,-3.868682706297840923e+01,8.092597395092116130e+01,-1.416026861014797760e+02,-1.809071006783633493e+02,-1.728190393199497521e+01,-2.855987642588570452e+01,9.446745872497558594e+00,-1.070886254310607910e+00,-4.589512646198272705e-01,3.790000000000000000e+02
-1.955343659968939392e+02,-1.331942014075441421e+02,-4.025950323273900722e+01,8.130280366183092156e+01,-1.414002825667482739e+02,-1.789976399245633729e+02,-1.648955697461929049e+01,-2.777838829308529967e+01,9.446745872497558594e+00,-1.070886254310607910e+00,-4.589512646198272705e-01,3.800000000000000000e+02
-1.953935554088584468e+02,-1.312939930644799915e+02,-4.113927891960906891e+01,8.270461889691432589e+01,-1.415720138274293731e+02,-1.770582821716602666e+02,-1.456876346001831735e+01,-2.655628799459327638e+01,9.446745872497558594e+00,-1.070886254310607910e+00,-4.589512646198272705e-01,3.810000000000000000e+02
-1.949443927655674997e+02,-1.291474929466589856e+02,-4.007123273542674724e+01,8.484463979799511435e+01,-1.413813177359338624e+02,-1.750216695073754636e+02,-1.184858650187925377e+01,-2.444444661318425460e+01,9.446745872497558594e+00,-1.070886254310607910e+00,-4.589512646198272705e-01,3.820000000000000000e+02
-1.935140955363449393e+02,-1.267333578335440052e+02,-3.693722983602629029e+01,8.731680247095232517e+01,-1.401084572576758092e+02,-1.725058715909644889e+02,-8.525678801527192263e+00,-2.112504690535615737e+01,9.446745872497558594e+00,-1.070886254310607910e+00,-4.589512646198272705e-01,3.830000000000000000e+02
-1.912061947557431267e+02,-1.240366128225746252e+02,-3.311409890795130195e+01,8.961390901188747193e+01,-1.379151085142061675e+02,-1.693876142129440723e+02,-4.879029477890981070e+00,-1.710359508675173856e+01,9.446745872497558594e+00,-1.070886254310607910e+00,-4.589512646198272705e-01,3.840000000000000000e+02
-1.888862880736940042e+02,-1.213386758926631046e+02,-3.059065798917890788e+01,9.130226913335445715e+01,-1.358235728299478069e+02,-1.661018133366233087e+02,-1.561430093829585530e+00,-1.362512041320678691e+01,9.484992027282714844e+00,-1.070886254310607910e+00,-4.971971809864044189e-01,3.850000000000000000e+02
-1.874773437651979293e+02,-1.192680690915447030e+02,-3.047999673430717849e+01,9.218605880652899032e+01,-1.347778911966433952e+02,-1.633403695844024242e+02,5.230030396683105209e-01,-1.178559906146756475e+01,9.484992027282714844e+00,-1.070886254310607910e+00,-4.971971809864044189e-01,3.860000000000000000e+02
-1.871820132947245838e+02,-1.184569196899299186e+02,-3.216742626455561549e+01,9.226421009301566301e+01,-1.347283711195391334e+02,-1.614664572156123086e+02,8.233103341835885658e-01,-1.166684233736395981e+01,9.484992027282714844e+00,-1.070886254310607910e+00,-4.971971809864044189e-01,3.870000000000000000e+02
-1.873110792811830834e+02,-1.190343907574460900e+02,-3.382984181613801411e+01,9.152937011189146688e+01,-1.346877599948677471e+02,-1.602504102018319827e+02,-2.991723174068283697e-01,-1.233255120350827383e+01,9.484992027282714844e+00,-1.070886254310607910e+00,-4.971971809864044189e-01,3.880000000000000000e+02
-1.868412438935074533e+02,-1.203902458781171845e+02,-3.387240872360735011e+01,8.988807775623877205e+01,-1.337190799419315681e+02,-1.591719693522522903e+02,-1.672025735186252859e+00,-1.269144108028740447e+01,9.484992027282714844e+00,-1.070886254310607910e+00,-4.971971809864044189e-01,3.890000000000000000e+02
-1.851866024968758211e+02,-1.214589724673958244e+02,-3.205514295228636001e+01,8.737710013879063808e+01,-1.318764427460414481e+02,-1.579546408726762365e+02,-2.134162131874745683e+00,-1.239272319320366478e+01,9.484992027282714844e+00,-1.070886254310607910e+00,-4.971971809864044189e-01,3.900000000000000000e+02
-1.825472238973586627e+02,-1.213592652608829212e+02,-2.943907260371543089e+01,8.447525249977616113e+01,-1.301726345549609505e+02,-1.567909216538741930e+02,-1.434380040983796789e+00,-1.191684942400479486e+01,9.484992027282714844e+00,-1.070886254310607910e+00,-4.971971809864044189e-01,3.910000000000000000e+02
-1.796356062116317389e+02,-1.199182534379924618e+02,-2.736005669565975040e+01,8.209406496256724495e+01,-1.296104053665280844e+02,-1.560621828038356398e+02,-4.033932472113974654e-01,-1.184897365829692717e+01,9.484992027282714844e+00,-1.070886254310607910e+00,-4.971971809864044189e-01,3.920000000000000000e+02
-1.771154836545415492e+02,-1.176837389895870274e+02,-2.642253277383952081e+01,8.108798531872821513e+01,-1.302357749793181938e+02,-1.558623185970377563e+02,-2.127938648570761870e-01,-1.212954789649438680e+01,9.484992027282714844e+00,-1.070886254310607910e+00,-4.971971809864044189e-01,3.930000000000000000e+02
-1.752323736685034419e+02,-1.154472791958867219e+02,-2.630980373806278294e+01,8.162485479126280552e+01,-1.311154948815960779e+02,-1.558120116920590590e+02,-1.347620965980695473e+00,-1.206464775325503069e+01,9.484992027282714844e+00,-1.070886254310607910e+00,-4.971971809864044189e-01,3.940000000000000000e+02
-1.738265474933230053e+02,-1.136942724110463132e+02,-2.635836585982474389e+01,8.298293103814489768e+01,-1.312344675563476812e+02,-1.553468419357218409e+02,-3.189893218808720121e+00,-1.108096735834669744e+01,9.484992027282714844e+00,-1.070886254310607910e+00,-4.971971809864044189e-01,3.950000000000000000e+02
-1.725666041535312161e+02,-1.124300368759832054e+02,-2.620815214454091802e+01,8.400464158582917662e+01,-1.304469061757974941e+02,-1.542094640515365427e+02,-4.577796920411856263e+00,-9.451211293546748493e+00,9.484992027282714844e+00,-1.070886254310607910e+00,-4.971971809864044189e-01,3.960000000000000000e+02
-1.711628920181649391e+02,-1.114519736832223771e+02,-2.595979627063798034e+01,8.386153816349178669e+01,-1.296016160535930339e+02,-1.526887685188528394e+02,-4.826531318285333327e+00,-8.236938144572832243e+00,9.484992027282714844e+00,-1.070886254310607910e+00,-4.971971809864044189e-01,3.970000000000000000e+02
-1.694583821837375126e+02,-1.106815505105996635e+02,-2.586037859402085815e+01,8.254721076815712877e+01,-1.297368544931746328e+02,-1.513690885122600776e+02,-4.277979146292636869e+00,-8.431060330107129630e+00,9.484992027282714844e+00,-1.070886254310607910e+00,-4.971971809864044189e-01,3.980000000000000000e+02
-1.674479413227486475e+02,-1.101579005133762621e+02,-2.595458960981432028e+01,8.078435242349587497e+01,-1.310701448897402770e+02,-1.505851142023554985e+02,-3.890825929240236292e+00,-1.004017774622070647e+01,9.484992027282714844e+00,-1.070886254310607910e+00,-4.971971809864044189e-01,3.990000000000000000e+02
-1.652765115334968868e+02,-1.096960586170068837e+02,-2.604416372965010851e+01,7.954324897889569002e+01,-1.326678277726591659e+02,-1.500379712905403267e+02,-4.241452730356968459e+00,-1.189745790372217016e+01,9.484992027282714844e+00,-1.070886254310607910e+00,-4.971971809864044189e-01,4.000000000000000000e+02
-1.631851603355853513e+02,-1.086546576500711581e+02,-2.589728439901909951e+01,7.957244528363844438e+01,-1.330674068752125550e+02,-1.489228971324496342e+02,-4.856365897231626150e+00,-1.237706597549458820e+01,9.484992027282714844e+00,-1.070886254310607910e+00,-4.971971809864044189e-01,4.010000000000000000e+02
-1.613823676004942627e+02,-1.062434944035426270e+02,-2.543240716210925711e+01,8.114639498338192425e+01,-1.313220299069951125e+02,-1.465135213531798399e+02,-4.523222968374284392e+00,-1.046719717775226854e+01,9.484992027282714844e+00,-1.070886254310607910e+00,-4.971971809864044189e-01,4.020000000000000000e+02
-1.599107519099911769e+02,-1.022434672822319044e+02,-2.470713611079645489e+01,8.399150656656252067e+01,-1.276283421606415232e+02,-1.427586791717039887e+02,-2.360769888533013727e+00,-6.420265820701615667e+00,9.484992027282714844e+00,-1.070886254310607910e+00,-4.971971809864044189e-01,4.030000000000000000e+02
-1.586309175395704187e+02,-9.747530179283648977e+01,-2.379270162373177300e+01,8.732191260130616683e+01,-1.231024502908617251e+02,-1.384193299388125524e+02,1.245228928594769968e+00,-1.572755689743871699e+00,9.484992027282714844e+00,-1.070886254310607910e+00,-4.971971809864044189e-01,4.040000000000000000e+02
-1.573448746254250636e+02,-9.344452291693050938e+01,-2.271145216561171765e+01,9.004684600561995467e+01,-1.189669118449410234e+02,-1.346259295964159719e+02,4.670741932088731119e+00,2.466522020035199603e+00,9.484992027282714844e+00,-1.070886254310607910e+00,-4.971971809864044189e-01,4.050000000000000000e+02
-1.559421837293391491e+02,-9.132441176807924421e+01,-2.148958269504487362e+01,9.120829011914929652e+01,-1.158247467000974211e+02,-1.322017579447965545e+02,6.102996442568382918e+00,4.682200524296831645e+00,9.484992027282714844e+00,-1.070886254310607910e+00,-4.971971809864044189e-01,4.060000000000000000e+02
-1.544259770927401405e+02,-9.111253369874862074e+01,-2.022754844729547585e+01,9.047987843856299151e+01,-1.135322963157213962e+02,-1.312534948062648255e+02,4.823854601432685740e+00,5.052159591110239489e+00,9.484992027282714844e+00,-1.070886254310607910e+00,-4.971971809864044189e-01,4.070000000000000000e+02
-1.528316143352972176e+02,-9.171730053591409160e+01,-1.908021228354573395e+01,8.835897916796989193e+01,-1.116441691583293050e+02,-1.312770310086280006e+02,1.726032147584874110e+00,4.330198679356726643e+00,9.484992027282714844e+00,-1.070886254310607910e+00,-4.971971809864044189e-01,4.080000000000000000e+02
-1.511787470628014489e+02,-9.190600669038826709e+01,-1.816216014601218376e+01,8.583519537537722499e+01,-1.099491911744328263e+02,-1.315879425687089679e+02,-1.330462571186671994e+00,3.467974761869754730e+00,9.484992027282714844e+00,-1.070886254310607910e+00,-4.971971809864044189e-01,4.090000000000000000e+02
-1.495117327920827393e+02,-9.123500938448933084e+01,-1.746599428951230948e+01,8.376922321373467639e+01,-1.086309470496207723e+02,-1.316759842216006291e+02,-2.779762799870240997e+00,3.119720777703378189e+00,9.484992027282714844e+00,-1.070886254310607910e+00,-4.971971809864044189e-01,4.100000000000000000e+02
-1.479384006462205434e+02,-9.014167031718943690e+01,-1.684267726873304127e+01,8.249276804855048795e+01,-1.079714909854956204e+02,-1.312613207140257146e+02,-2.230912686415649659e+00,3.521356713822115125e+00,9.484992027282714844e+00,-1.070886254310607910e+00,-4.971971809864044189e-01,4.110000000000000000e+02
-1.465516587903246091e+02,-8.921788733046014386e+01,-1.603797196043342410e+01,8.192725375379177422e+01,-1.079071362115164447e+02,-1.301618427760358827e+02,-3.693571428950690461e-01,4.693486073757185295e+00,9.484992027282714844e+00,-1.070886254310607910e+00,-4.971971809864044189e-01,4.120000000000000000e+02
-1.452682514872817592e+02,-8.847128785053155298e+01,-1.476779343332032113e+01,8.199132584419976411e+01,-1.078611520972651761e+02,-1.282314207476119918e+02,1.850938730116922670e+00,6.645676907686720369e+00,9.484992027282714844e+00,-1.070886254310607910e+00,-4.971971809864044189e-01,4.130000000000000000e+02
-1.437991935672719137e+02,-8.734345104962130790e+01,-1.285613333583114581e+01,8.277327649602602833e+01,-1.070429892835509236e+02,-1.254811990829775823e+02,3.891826010556087567e+00,9.307708260030267411e+00,9.484992027282714844e+00,-1.070886254310607910e+00,-4.971971809864044189e-01,4.140000000000000000e+02
-1.418867367042807928e+02,-8.542778884441963783e+01,-1.042290651515099853e+01,8.423615875542805043e+01,-1.050349662853966493e+02,-1.222589454967414895e+02,5.613450344575767303e+00,1.223980555007324256e+01,9.484992027282714844e+00,-1.070886254310607910e+00,-4.971971809864044189e-01,4.150000000000000000e+02
-1.396440377739704672e+02,-8.309416205378511222e+01,-8.009274261827158625e+00,8.579827891966851894e+01,-1.022271469389954746e+02,-1.192608969666907797e+02,6.780832069250209315e+00,1.449988295458274479e+01,9.446745872497558594e+00,-1.109132170677185059e+00,-4.971971809864044189e-01,4.160000000000000000e+02
-1.376186006619761883e+02,-8.131518422202611873e+01,-6.464750691216295309e+00,8.638786048830615982e+01,-9.971229616599043766e+01,-1.172665616702774969e+02,6.845592049108290666e+00,1.500635478326239536e+01,9.446745872497558594e+00,-1.109132170677185059e+00,-4.971971809864044189e-01,4.170000000000000000e+02
-1.363949475040576544e+02,-8.081804345754972019e+01,-6.518543064043569757e+00,8.514827266083693758e+01,-9.859693660754646771e+01,-1.167167957911269696e+02,5.426918820951414091e+00,1.330260892958131080e+01,9.446745872497558594e+00,-1.109132170677185059e+00,-4.971971809864044189e-01,4.180000000000000000e+02
-1.360174439581305705e+02,-8.136352181223969637e+01,-8.217626284792231672e+00,8.226654488743224647e+01,-9.912961605760710881e+01,-1.173863954026305692e+02,3.064603876571709407e+00,1.016389404719234335e+01,9.446745872497558594e+00,-1.109132170677185059e+00,-4.971971809864044189e-01,4.190000000000000000e+02
-1.357963922081651162e+02,-8.183218767204493815e+01,-1.065448492804171110e+01,7.913211037088603916e+01,-1.003128362622528584e+02,-1.183891863192325218e+02,1.322222663197862857e+00,7.427062747891795880e+00,9.446745872497558594e+00,-1.109132170677185059e+00,-4.971971809864044189e-01,4.200000000000000000e+02
-1.347927481452234133e+02,-8.106023514419507592e+01,-1.231966473859893085e+01,7.752703953805485071e+01,-1.004257395299596283e+02,-1.185878197353590622e+02,1.823518344551757764e+00,6.950349867656768765e+00,9.446745872497558594e+00,-1.109132170677185059e+00,-4.971971809864044189e-01,4.210000000000000000e+02
-1.326329909509349818e+02,-7.870338452923806472e+01,-1.199155607587454142e+01,7.839297276135130232e+01,-9.823054893875951166e+01,-1.172457128005671620e+02,4.889446722686443536e+00,9.324848168504786372e+00,9.446745872497558594e+00,-1.109132170677185059e+00,-4.971971809864044189e-01,4.220000000000000000e+02
-1.299232366688709135e+02,-7.543505551383100283e+01,-9.611776917071892967e+00,8.113722389071745056e+01,-9.403067077934861118e+01,-1.145401472690123228e+02,9.022608604966762869e+00,1.328685466736305898e+01,9.446745872497558594e+00,-1.109132170677185059e+00,-4.971971809864044189e-01,4.230000000000000000e+02
-1.278361313495020113e+02,-7.239697359702131507e+01,-6.476495028279487087e+00,8.403255809117672470e+01,-8.970888156716591766e+01,-1.115588586181688697e+02,1.185633829860103106e+01,1.637091349562501819e+01,9.446745872497558594e+00,-1.109132170677185059e+00,-4.971971809864044189e-01,4.240000000000000000e+02
-1.271880484226785484e+02,-7.040593070816521504e+01,-4.499984560793791388e+00,8.538419073931027015e+01,-8.758434570544477538e+01,-1.096856180283139111e+02,1.188024620551891530e+01,1.646076850217309584e+01,9.446745872497558594e+00,-1.109132170677185059e+00,-4.971971809864044189e-01,4.250000000000000000e+02
-1.278062561090287090e+02,-6.951842703426314074e+01,-4.970819360309860713e+00,8.457109771643172280e+01,-8.882779071465256493e+01,-1.097099785983955371e+02,9.518338983020839805e+00,1.321813616952044868e+01,9.446745872497558594e+00,-1.109132170677185059e+00,-4.971971809864044189e-01,4.260000000000000000e+02
-1.287137306262629863e+02,-6.916104213408198120e+01,-7.637862025616641404e+00,8.226237430969285924e+01,-9.256256387536632246e+01,-1.112532326028576790e+02,6.712219387921777525e+00,8.417152383787197323e+00,9.446745872497558594e+00,-1.109132170677185059e+00,-4.971971809864044189e-01,4.270000000000000000e+02
-1.289280295830187697e+02,-6.861357945077111253e+01,-1.078360486553651754e+01,7.980432552276079150e+01,-9.631354920699277500e+01,-1.129417660448757488e+02,5.461978361558522010e+00,4.945072934955987876e+00,9.446745872497558594e+00,-1.109132170677185059e+00,-4.971971809864044189e-01,4.280000000000000000e+02
-1.281587115044928851e+02,-6.746064853901975766e+01,-1.228484788950095208e+01,7.834955839081203521e+01,-9.749384385814573761e+01,-1.132364188534497771e+02,6.576978695613888704e+00,5.108418698514469725e+00,9.446745872497558594e+00,-1.109132170677185059e+00,-4.971971809864044189e-01,4.290000000000000000e+02
-1.268204953507129176e+02,-6.573542603316263921e+01,-1.094848865079211464e+01,7.834881155861376101e+01,-9.490435008062877387e+01,-1.113545913511879917e+02,9.514560878713382408e+00,9.335859866968348797e+00,9.446745872497558594e+00,-1.109132170677185059e+00,-4.971971809864044189e-01,4.300000000000000000e+02
-1.254630789294317310e+02,-6.374904776375478832e+01,-7.218320996164948156e+00,7.958846616624396120e+01,-8.928852666800639781e+01,-1.076677323806025015e+02,1.310291486786945825e+01,1.604920304515758289e+01,9.446745872497558594e+00,-1.109132170677185059e+00,-4.971971809864044189e-01,4.310000000000000000e+02
-1.242266179446457954e+02,-6.179137956375211616e+01,-2.816501127862693465e+00,8.154449448520745136e+01,-8.271065506350396390e+01,-1.033382996826944691e+02,1.629479983671080845e+01,2.269720310468005664e+01,9.446745872497558594e+00,-1.109132170677185059e+00,-4.971971809864044189e-01,4.320000000000000000e+02
-1.228152569134772421e+02,-5.991901591933924465e+01,3.775828619473031722e-01,8.372194598177338776e+01,-7.729974436994007192e+01,-9.950259014696257509e+01,1.842434539477380895e+01,2.723639140149975901e+01,9.446745872497558594e+00,-1.109132170677185059e+00,-4.971971809864044189e-01,4.330000000000000000e+02
-1.209203761937096715e+02,-5.795743120484712563e+01,1.423640287372563762e+00,8.581734550421288077e+01,-7.419388990498600833e+01,-9.658632131626291084e+01,1.915925213910577440e+01,2.913042156684150541e+01,9.446745872497558594e+00,-1.109132170677185059e+00,-4.971971809864044189e-01,4.340000000000000000e+02
-1.186243962643263785e+02,-5.570084270686811578e+01,7.086573349395166588e-01,8.771936692822373516e+01,-7.324393141165046472e+01,-9.419460124847319094e+01,1.856244056735749837e+01,2.932389833402248769e+01,9.446745872497558594e+00,-1.109132170677185059e+00,-4.971971809864044189e-01,4.350000000000000000e+02
-1.163821691687351176e+02,-5.315580716362910607e+01,-4.914425480374120525e-01,8.941754527283137577e+01,-7.345267272728779062e+01,-9.158441539515706609e+01,1.725709307688794070e+01,2.933392693616383440e+01,9.446745872497558594e+00,-1.109132170677185059e+00,-4.971971809864044189e-01,4.360000000000000000e+02
-1.146102255943033015e+02,-5.064109731093390110e+01,-8.438993315071456891e-01,9.088285711447315407e+01,-7.369737424005825233e+01,-8.831737972065775466e+01,1.629114078224984041e+01,3.015916363953510881e+01,9.446745872497558594e+00,-1.032640218734741211e+00,-4.589512646198272705e-01,4.370000000000000000e+02
-1.132874986944075317e+02,-4.865313116059473941e+01,3.876366313520520634e-01,9.197938634802267188e+01,-7.325591428927145898e+01,-8.460587597959556660e+01,1.651556405248902593e+01,3.175439518395160121e+01,9.446745872497558594e+00,-1.032640218734741211e+00,-4.589512646198272705e-01,4.380000000000000000e+02
-1.119346116945071117e+02,-4.758926256328572890e+01,3.158336352308197092e+00,9.248787173504751991e+01,-7.194092454409201309e+01,-8.113112491526908343e+01,1.790813251078679968e+01,3.333149462570577271e+01,9.446745872497558594e+00,-1.032640218734741211e+00,-4.589512646198272705e-01,4.390000000000000000e+02
-1.099943117032221380e+02,-4.750632148951581257e+01,6.840153628178995859e+00,9.227003040180443350e+01,-6.994474229869229021e+01,-7.852606416800063016e+01,1.953988650248265913e+01,3.414328833198123903e+01,9.446745872497558594e+00,-1.032640218734741211e+00,-4.589512646198272705e-01,4.400000000000000000e+02
-1.073039501659964117e+02,-4.805794126856471848e+01,1.055038611061831944e+01,9.146293045303082181e+01,-6.761822389663666399e+01,-7.695466405291199408e+01,2.034494034188537626e+01,3.408623643275268478e+01,9.446745872497558594e+00,-1.032640218734741211e+00,-4.589512646198272705e-01,4.410000000000000000e+02
-1.042826911708589250e+02,-4.864988361659698057e+01,1.345703480597944690e+01,9.052522783992208133e+01,-6.529872950934577602e+01,-7.609348400926592149e+01,2.002814954120094626e+01,3.367736007164489820e+01,9.446745872497558594e+00,-1.032640218734741211e+00,-4.589512646198272705e-01,4.420000000000000000e+02
-1.016848058178129577e+02,-4.872260250202134557e+01,1.504769989901251392e+01,9.003806513051858929e+01,-6.318626764836153598e+01,-7.547593810038233642e+01,1.924913224040801651e+01,3.352146620652047204e+01,9.446745872497558594e+00,-1.032640218734741211e+00,-4.589512646198272705e-01,4.430000000000000000e+02
-1.000970296438440528e+02,-4.800896180468726016e+01,1.532913149220689775e+01,9.035344593437594085e+01,-6.127551868884438591e+01,-7.488337679776759614e+01,1.890841173886065008e+01,3.377803617378322087e+01,9.446745872497558594e+00,-1.032640218734741211e+00,-4.589512646198272705e-01,4.440000000000000000e+02
-9.953293599347261988e+01,-4.665296474299339025e+01,1.480778904493786285e+01,9.133133717216242076e+01,-5.942003858380712700e+01,-7.447142804606937716e+01,1.924402922037324970e+01,3.407455739378474391e+01,9.446745872497558594e+00,-1.032640218734741211e+00,-4.589512646198272705e-01,4.450000000000000000e+02
-9.942264156511009787e+01,-4.515377413854093902e+01,1.415687880098766982e+01,9.235091729945179395e+01,-5.756166017276655111e+01,-7.457578319426102098e+01,1.962285199235793698e+01,3.387319977746892619e+01,9.446745872497558594e+00,-1.032640218734741211e+00,-4.589512646198272705e-01,4.460000000000000000e+02
-9.902354450162238209e+01,-4.416323807774324450e+01,1.371834945638852332e+01,9.259218536137450428e+01,-5.597017324024773188e+01,-7.539753997502612037e+01,1.918673775051320263e+01,3.290317044656285361e+01,9.446745872497558594e+00,-1.032640218734741211e+00,-4.589512646198272705e-01,4.470000000000000000e+02
-9.796820973710055114e+01,-4.421284848615960072e+01,1.322645993786454710e+01,9.141540021461287324e+01,-5.522396798164618303e+01,-7.683268604478007546e+01,1.766849659026138397e+01,3.126918056494196207e+01,9.446745872497558594e+00,-1.032640218734741211e+00,-4.589512646198272705e-01,4.480000000000000000e+02
-9.653576619104705969e+01,-4.546371326860753470e+01,1.207315570021455642e+01,8.865999584808196232e+01,-5.581966914669010293e+01,-7.854306302843087906e+01,1.560515762660179462e+01,2.923148214578304760e+01,9.446745872497558594e+00,-1.032640218734741211e+00,-4.589512646198272705e-01,4.490000000000000000e+02
-9.542284359241693892e+01,-4.756201877696776137e+01,9.981051711562713535e+00,8.478692934585296825e+01,-5.765291904084460839e+01,-8.014794345436575895e+01,1.385035679093743965e+01,2.699044668373153399e+01,9.446745872497558594e+00,-1.032640218734741211e+00,-4.589512646198272705e-01,4.500000000000000000e+02
-9.517145124587523242e+01,-4.969163850022732731e+01,7.511860588295576235e+00,8.081929010929707147e+01,-5.983278440535696063e+01,-8.135559558178283623e+01,1.295107382409196362e+01,2.472796517656570359e+01,9.446745872497558594e+00,-1.032640218734741211e+00,-4.589512646198272705e-01,4.510000000000000000e+02
-9.570089008308286793e+01,-5.087447745484769257e+01,5.898552601514438720e+00,7.804038630719105640e+01,-6.107663797112627435e+01,-8.195830213988529067e+01,1.296749696261531426e+01,2.282534677602598094e+01,9.446745872497558594e+00,-1.032640218734741211e+00,-4.589512646198272705e-01,4.520000000000000000e+02
-9.632460915536921675e+01,-5.044439288259763998e+01,6.231328451323861373e+00,7.746073812959139104e+01,-6.045490724568981022e+01,-8.176418621357788652e+01,1.374123911581136781e+01,2.191710582000587237e+01,9.446745872497558594e+00,-1.032640218734741211e+00,-4.589512646198272705e-01,4.530000000000000000e+02
-9.624891522026837265e+01,-4.847048293644320438e+01,8.617057280242988782e+00,7.923580939428484271e+01,-5.792748806069766943e+01,-8.059732058450299519e+01,1.515476237587927244e+01,2.258531461091160963e+01,9.446745872497558594e+00,-1.032640218734741211e+00,-4.589512646198272705e-01,4.540000000000000000e+02
-9.515481349563606273e+01,-4.581098640569416602e+01,1.202833529485064901e+01,8.241356739768207262e+01,-5.428130626561778627e+01,-7.841193165114054864e+01,1.706774591624116511e+01,2.489989424631812653e+01,9.446745872497558594e+00,-1.032640218734741211e+00,-4.589512646198272705e-01,4.550000000000000000e+02
-9.338625152186750711e+01,-4.364951360339364328e+01,1.500371982498541001e+01,8.532779295240470674e+01,-5.057328324702302780e+01,-7.543599760089864503e+01,1.911209827351740387e+01,2.823517339095405987e+01,9.446745872497558594e+00,-1.032640218734741211e+00,-4.589512646198272705e-01,4.560000000000000000e+02
-9.160706012138871301e+01,-4.274163466735899419e+01,1.666068593210025028e+01,8.655387326115123869e+01,-4.751899293564747495e+01,-7.217190685377454429e+01,2.075555846707584351e+01,3.161376935471389515e+01,9.446745872497558594e+00,-1.032640218734741211e+00,-4.589512646198272705e-01,4.570000000000000000e+02
-9.023979874946962809e+01,-4.286943246883447500e+01,1.723483748634225776e+01,8.584831396639765444e+01,-4.520373631205848142e+01,-6.917360270028621017e+01,2.172541413853514314e+01,3.435331609128161290e+01,9.446745872497558594e+00,-1.032640218734741211e+00,-4.589512646198272705e-01,4.580000000000000000e+02
-8.917751246004581844e+01,-4.294252448920269671e+01,1.775431140549153497e+01,8.434724248525708390e+01,-4.320278897983916977e+01,-6.672973922616847631e+01,2.238227610385092703e+01,3.648023811991788534e+01,9.446745872497558594e+00,-1.032640218734741211e+00,-4.589512646198272705e-01,4.590000000000000000e+02
-8.798853951713363131e+01,-4.173095377836148145e+01,1.915873401162821210e+01,8.376707695471850457e+01,-4.093820858939761820e+01,-6.470712876052675711e+01,2.357282169576910746e+01,3.856617658045843200e+01,9.446745872497558594e+00,-1.032640218734741211e+00,-4.589512646198272705e-01,4.600000000000000000e+02
-8.638344650128738067e+01,-3.871959922731571169e+01,2.158419567885607648e+01,8.514031092514278498e+01,-3.804306277821387994e+01,-6.270663462542825073e+01,2.597165243894187370e+01,4.114682585944819948e+01,9.446745872497558594e+00,-1.032640218734741211e+00,-4.589512646198272705e-01,4.610000000000000000e+02
-8.449599053056590492e+01,-3.447527058908804065e+01,2.431910732009646381e+01,8.802712670318305754e+01,-3.459633392554314923e+01,-6.043314499793632422e+01,2.944185701704600433e+01,4.419671703168364729e+01,9.446745872497558594e+00,-1.109132170677185059e+00,-4.207052886486053467e-01,4.620000000000000000e+02
-8.271829881086659952e+01,-3.028415565511068053e+01,2.638906897056676826e+01,9.081834921795234550e+01,-3.112949543148442899e+01,-5.798210543859340760e+01,3.298050157359739387e+01,4.707045885014986197e+01,9.446745872497558594e+00,-1.109132170677185059e+00,-4.207052886486053467e-01,4.630000000000000000e+02
-8.127153440986330679e+01,-2.736028506087359347e+01,2.726946131283762043e+01,9.188690991202474834e+01,-2.836160713588924409e+01,-5.580070811777341078e+01,3.531976613750703109e+01,4.892789070749313396e+01,9.446745872497558594e+00,-1.109132170677185059e+00,-4.207052886486053467e-01,4.640000000000000000e+02
-7.995475829396423251e+01,-2.620620843253573184e+01,2.719510431880166834e+01,9.068062425743391941e+01,-2.678123498862805718e+01,-5.437091398898655825e+01,3.570511532730051840e+01,4.928535548378545172e+01,9.446745872497558594e+00,-1.109132170677185059e+00,-4.207052886486053467e-01,4.650000000000000000e+02
-7.835081186561956201e+01,-2.651480638570933479e+01,2.687398308852334594e+01,8.794390768914490764e+01,-2.634493777829766259e+01,-5.390041820486567303e+01,3.427445576161198915e+01,4.828387312522795582e+01,9.446745872497558594e+00,-1.109132170677185059e+00,-4.207052886486053467e-01,4.660000000000000000e+02
-7.630608761767689430e+01,-2.754999811424727341e+01,2.687548945782418741e+01,8.501424752777847971e+01,-2.654466136403289056e+01,-5.426044566417613169e+01,3.184175509133547166e+01,4.653121495029017751e+01,9.446745872497558594e+00,-1.109132170677185059e+00,-4.207052886486053467e-01,4.670000000000000000e+02
-7.418739612149533968e+01,-2.864433851738021986e+01,2.719896690061705158e+01,8.287199065530421649e+01,-2.680822180293353085e+01,-5.515552471516775768e+01,2.936082006602146066e+01,4.469364685302161888e+01,9.446745872497558594e+00,-1.109132170677185059e+00,-4.207052886486053467e-01,4.680000000000000000e+02
-7.260980040482058939e+01,-2.946925458493797123e+01,2.735943088678800450e+01,8.169809266048559948e+01,-2.688926283985983900e+01,-5.631640669423813961e+01,2.748156385619950015e+01,4.314403694471593553e+01,9.446745872497558594e+00,-1.109132170677185059e+00,-4.207052886486053467e-01,4.690000000000000000e+02
-7.185312934167018284e+01,-2.998344779418926009e+01,2.690699472725464148e+01,8.113094216987974505e+01,-2.690663572729545194e+01,-5.755268788317198414e+01,2.640474221681438394e+01,4.187362135117655271e+01,9.446745872497558594e+00,-1.109132170677185059e+00,-4.207052886486053467e-01,4.700000000000000000e+02
-7.152159107663237592e+01,-3.021256255406069613e+01,2.594686932315494232e+01,8.080484572197838133e+01,-2.701080555118096527e+01,-5.868768905813794845e+01,2.599377629480295582e+01,4.068872723709546335e+01,9.446745872497558594e+00,-1.109132170677185059e+00,-4.207052886486053467e-01,4.710000000000000000e+02
-7.082564081583313964e+01,-3.007895613944583602e+01,2.519489510785979292e+01,8.064158705614954670e+01,-2.703225478208105415e+01,-5.950675505555955169e+01,2.600190177338481590e+01,3.953097051959002783e+01,9.446745872497558594e+00,-1.109132170677185059e+00,-4.207052886486053467e-01,4.720000000000000000e+02
-6.930141816671607558e+01,-2.939986342669567421e+01,2.545391350653426343e+01,8.073246957383844347e+01,-2.651576081161829279e+01,-5.979395336368270364e+01,2.627422351055406580e+01,3.866497138822910529e+01,9.446745872497558594e+00,-1.109132170677185059e+00,-4.207052886486053467e-01,4.730000000000000000e+02
-6.732126164645069366e+01,-2.802414295135872635e+01,2.690179281621453811e+01,8.107828543988944148e+01,-2.515651428194860273e+01,-5.942125491908200274e+01,2.681725511900594938e+01,3.856508737196918446e+01,9.446745872497558594e+00,-1.109132170677185059e+00,-4.207052886486053467e-01,4.740000000000000000e+02
-6.587962883777345269e+01,-2.598891544261095987e+01,2.879409287441649212e+01,8.151880029953008489e+01,-2.324616819400694112e+01,-5.842706579242849330e+01,2.767344877276354964e+01,3.951998484599425865e+01,9.446745872497558594e+00,-1.109132170677185059e+00,-4.207052886486053467e-01,4.750000000000000000e+02
-6.576900287662306255e+01,-2.356919971310890105e+01,2.990529371219918175e+01,8.190456836764360560e+01,-2.165179611995290543e+01,-5.703275170809729389e+01,2.869018147977772060e+01,4.125214737717010394e+01,9.446745872497558594e+00,-1.109132170677185059e+00,-4.207052886486053467e-01,4.760000000000000000e+02
-6.684178150412071773e+01,-2.117828940888853140e+01,2.942574681303608486e+01,8.227547888642675389e+01,-2.124509752407743690e+01,-5.557237114520921750e+01,2.941574208985866790e+01,4.290680183789754665e+01,9.446745872497558594e+00,-1.109132170677185059e+00,-4.207052886486053467e-01,4.770000000000000000e+02
-6.802236813583226649e+01,-1.918805964603598113e+01,2.761577044391992786e+01,8.280985851315926993e+01,-2.221612024775322425e+01,-5.434308453652556636e+01,2.931928325455533013e+01,4.352617598160395573e+01,9.446745872497558594e+00,-1.109132170677185059e+00,-4.207052886486053467e-01,4.780000000000000000e+02
-6.810131547301079991e+01,-1.779307954514661105e+01,2.568038664115147185e+01,8.358434240066071652e+01,-2.385257165345865360e+01,-5.342813954079701944e+01,2.825637543041148092e+01,4.274261787904788434e+01,9.446745872497558594e+00,-1.109132170677185059e+00,-4.207052886486053467e-01,4.790000000000000000e+02
-6.667060046229744330e+01,-1.700992449297132225e+01,2.493917142862574110e+01,8.440491283815890711e+01,-2.501439841464821257e+01,-5.264078574696486612e+01,2.677980058841399114e+01,4.116123966619989005e+01,9.446745872497558594e+00,-1.109132170677185059e+00,-4.207052886486053467e-01,4.800000000000000000e+02
-6.441700355338684858e+01,-1.675362285541405072e+01,2.594402323436179358e+01,8.493747095955654913e+01,-2.491968640739196417e+01,-5.169148738673857224e+01,2.593404208683114121e+01,4.008027362858115339e+01,9.446745872497558594e+00,-1.109132170677185059e+00,-4.207052886486053467e-01,4.810000000000000000e+02
-6.252705063617463566e+01,-1.685625419428561145e+01,2.821463781354759703e+01,8.507077996913312745e+01,-2.357543610817970148e+01,-5.047693024335103473e+01,2.659164401974680914e+01,4.070322827611244065e+01,9.446745872497558594e+00,-1.109132170677185059e+00,-4.207052886486053467e-01,4.820000000000000000e+02
-6.172228160139911779e+01,-1.698988039958794616e+01,3.072080475435654989e+01,8.517478759530172283e+01,-2.152194208614832860e+01,-4.919854282812138990e+01,2.884332181316722199e+01,4.341763857393470971e+01,9.446745872497558594e+00,-1.109132170677185059e+00,-4.207052886486053467e-01,4.830000000000000000e+02
-6.171989362502154108e+01,-1.659656575833378156e+01,3.265841973143460564e+01,8.595862174760918606e+01,-1.918269791286888903e+01,-4.810596662875013863e+01,3.198187499910909537e+01,4.768209451244456432e+01,9.446745872497558594e+00,-1.109132170677185059e+00,-4.207052886486053467e-01,4.840000000000000000e+02
-6.153158627394873292e+01,-1.501209599366484326e+01,3.391185815619564892e+01,8.794757878236237048e+01,-1.646502991577222019e+01,-4.705239005936346075e+01,3.509593711595994137e+01,5.254606764055961321e+01,9.446745872497558594e+00,-1.109132170677185059e+00,-4.207052886486053467e-01,4.850000000000000000e+02
-6.030209427988961579e+01,-1.185174545731820217e+01,3.494245074874652346e+01,9.096914240742125912e+01,-1.298755639193882416e+01,-4.535745336239233438e+01,3.771271021312350058e+01,5.730006882138377478e+01,9.446745872497558594e+00,-1.109132170677185059e+00,-4.207052886486053467e-01,4.860000000000000000e+02
-5.795780081777684245e+01,-7.436093645041864875e+00,3.632093486029862106e+01,9.412080321269058913e+01,-8.673629891816517556e+00,-4.227582470440211182e+01,3.990255480457699377e+01,6.168820351268072955e+01,9.446745872497558594e+00,-1.109132170677185059e+00,-4.207052886486053467e-01,4.870000000000000000e+02
-5.515167512558696217e+01,-2.881196114452905022e+00,3.831300901116742352e+01,9.633055864960738290e+01,-4.087317521800969189e+00,-3.776719198650062026e+01,4.179556502919376726e+01,6.557054148717247699e+01,9.446745872497558594e+00,-1.109132170677185059e+00,-4.207052886486053467e-01,4.880000000000000000e+02
-5.262157437706264318e+01,3.579495932515328604e-01,4.074318720743349331e+01,9.710306078807934682e+01,-1.544436075837438693e-01,-3.284510327195221180e+01,4.306073145620507603e+01,6.847247762812912697e+01,9.446745872497558594e+00,-1.032640218734741211e+00,-4.971971809864044189e-01,4.890000000000000000e+02
-5.056549725886179658e+01,1.288544660692878097e+00,4.309278100214601182e+01,9.681930633414208387e+01,2.461311213555973154e+00,-2.905038444510500995e+01,4.294492556215368495e+01,6.957357122418466133e+01,9.446745872497558594e+00,-1.032640218734741211e+00,-4.971971809864044189e-01,4.900000000000000000e+02
-4.857156352886568129e+01,-1.415372862379626895e-02,4.470608122744920365e+01,9.628727429606578880e+01,3.729275072083964915e+00,-2.739890812239559637e+01,4.090204474133452095e+01,6.824657536760855692e+01,9.446745872497558594e+00,-1.032640218734741211e+00,-4.971971809864044189e-01,4.910000000000000000e+02
-4.612285773202279415e+01,-2.461842619489971185e+00,4.505655986783790468e+01,9.591403003545656247e+01,4.080060552943677976e+00,-2.768968253139928493e+01,3.724297195367421409e+01,6.469454297068614324e+01,9.446745872497558594e+00,-1.032640218734741211e+00,-4.971971809864044189e-01,4.920000000000000000e+02
-4.319230782898875987e+01,-4.672350692314921616e+00,4.403088329686852376e+01,9.526662718349234638e+01,3.958881058614679205e+00,-2.877171514816427589e+01,3.318234070187691032e+01,6.008513694561929697e+01,9.446745872497558594e+00,-1.032640218734741211e+00,-4.971971809864044189e-01,4.930000000000000000e+02
-4.039667808999888621e+01,-5.845716073132052770e+00,4.208721787542435777e+01,9.348479470267875513e+01,3.579163992370922642e+00,-2.951423720236562076e+01,3.018046836687449286e+01,5.597866372599878559e+01,9.446745872497558594e+00,-1.032640218734741211e+00,-4.971971809864044189e-01,4.940000000000000000e+02
-3.859326420624347520e+01,-6.165963109572658141e+00,4.009504565342876958e+01,9.022081355313730455e+01,3.037446443210683356e+00,-2.961637890060615064e+01,2.908869199097944147e+01,5.345056499359520785e+01,9.446745872497558594e+00,-1.032640218734741211e+00,-4.971971809864044189e-01,4.950000000000000000e+02
-3.826674865239112933e+01,-6.457144742838977436e+00,3.886975665346551523e+01,8.624741059075040539e+01,2.536680493149560789e+00,-2.959193252588943324e+01,2.974804981275042337e+01,5.259167868821384673e+01,9.446745872497558594e+00,-1.032640218734741211e+00,-4.971971809864044189e-01,4.960000000000000000e+02
-3.919661592625880076e+01,-7.397092400498877396e+00,3.870595700949206730e+01,8.312637622990860109e+01,2.411439952878481563e+00,-3.003652217925582590e+01,3.128167695317301877e+01,5.275498941213959370e+01,9.446745872497558594e+00,-1.032640218734741211e+00,-4.971971809864044189e-01,4.970000000000000000e+02
-4.063680414719351575e+01,-8.912640424807591444e+00,3.926883651792513774e+01,8.216285460147901176e+01,2.945481940740705795e+00,-3.090877385951512224e+01,3.276637742446450829e+01,5.328556866482392707e+01,9.446745872497558594e+00,-1.032640218734741211e+00,-4.971971809864044189e-01,4.980000000000000000e+02
-4.181425500161685704e+01,-1.021244165085522582e+01,3.991672949524536307e+01,8.352017417638330699e+01,4.217929312682031195e+00,-3.146390001730787844e+01,3.375004547815194655e+01,5.408284470312764824e+01,9.446745872497558594e+00,-1.032640218734741211e+00,-4.971971809864044189e-01,4.990000000000000000e+02
-4.234649226282033396e+01,-1.041439235332916269e+01,4.014294612508592763e+01,8.621504878511973402e+01,6.120451428580622633e+00,-3.084081497069769284e+01,3.431448075561581845e+01,5.551658770941185139e+01,9.446745872497558594e+00,-1.032640218734741211e+00,-4.971971809864044189e-01,5.000000000000000000e+02
-4.230069681246675373e+01,-9.282041950204416025e+00,3.975968032619755377e+01,8.891129054968132550e+01,8.423220631751860310e+00,-2.876683561538857248e+01,3.477972994908964210e+01,5.779508038746087095e+01,9.446745872497558594e+00,-1.032640218734741211e+00,-4.971971809864044189e-01,5.010000000000000000e+02
-4.192091522523583080e+01,-7.532078198452722972e+00,3.878330147633835168e+01,9.077462908792881535e+01,1.075996041404846437e+01,-2.580572845337815124e+01,3.538819658101976984e+01,6.040343158092002795e+01,9.446745872497558594e+00,-1.032640218734741211e+00,-4.971971809864044189e-01,5.020000000000000000e+02
-4.131063744711093477e+01,-6.477835424429486011e+00,3.729033073901848638e+01,9.170087925767916204e+01,1.260172457388569001e+01,-2.301166397173460609e+01,3.620630162053953427e+01,6.218469559302491234e+01,9.446745872497558594e+00,-1.032640218734741211e+00,-4.971971809864044189e-01,5.030000000000000000e+02
-4.037016176134011403e+01,-7.243819182859738248e+00,3.545097623585985502e+01,9.189552955059002670e+01,1.341059199591461493e+01,-2.130924209128670554e+01,3.721146007180936977e+01,6.207744306022595993e+01,9.446745872497558594e+00,-1.032640218734741211e+00,-4.971971809864044189e-01,5.040000000000000000e+02
-3.903907130299046457e+01,-1.007457923345833706e+01,3.361830331884340239e+01,9.136258328624217029e+01,1.296159864463055555e+01,-2.104646276640960423e+01,3.838204918298259827e+01,5.990935120694007310e+01,9.446745872497558594e+00,-1.032640218734741211e+00,-4.971971809864044189e-01,5.050000000000000000e+02
-3.758240794398363960e+01,-1.417454995856314781e+01,3.220648478690179672e+01,8.983893722181881003e+01,1.152383682198154702e+01,-2.196365245631267271e+01,3.966920839819442790e+01,5.655289622140946904e+01,9.446745872497558594e+00,-1.032640218734741211e+00,-4.971971809864044189e-01,5.060000000000000000e+02
-3.657398739228011664e+01,-1.816653977452136814e+01,3.136834471386623591e+01,8.720900699112007715e+01,9.661665921177018390e+00,-2.347626974784907361e+01,4.092503738519963008e+01,5.328835536116559979e+01,9.446745872497558594e+00,-1.032640218734741211e+00,-4.971971809864044189e-01,5.070000000000000000e+02
-3.649706416836346534e+01,-2.085172812916943030e+01,3.081966095112545645e+01,8.393958134362640067e+01,7.801415625929109865e+00,-2.500124195455236986e+01,4.192344126601136622e+01,5.089214630933713579e+01,9.446745872497558594e+00,-1.032640218734741211e+00,-4.971971809864044189e-01,5.080000000000000000e+02
-3.726954251447966726e+01,-2.178028222026209448e+01,3.008985327163796342e+01,8.107522693899755950e+01,5.999600715996137978e+00,-2.611071470899398150e+01,4.251019137712719953e+01,4.921457617759180891e+01,9.446745872497558594e+00,-1.032640218734741211e+00,-4.971971809864044189e-01,5.090000000000000000e+02
-3.816788572558213843e+01,-2.130855484302782799e+01,2.902526254466577882e+01,7.974427846321046331e+01,4.150342087012624859e+00,-2.650498398088555518e+01,4.276027358614948071e+01,4.756559904284529239e+01,9.446745872497558594e+00,-1.032640218734741211e+00,-4.971971809864044189e-01,5.100000000000000000e+02
-3.830745091340291708e+01,-2.020023667556316838e+01,2.801525919790067576e+01,8.052241079089750997e+01,2.364638578852549244e+00,-2.596032850926073365e+01,4.296835888946981186e+01,4.548467326678239431e+01,9.446745872497558594e+00,-1.032640218734741211e+00,-4.971971809864044189e-01,5.110000000000000000e+02
-3.733712586625853191e+01,-1.916551717678419209e+01,2.762288611258652793e+01,8.305238277561353755e+01,1.030984603982801673e+00,-2.440697552238935941e+01,4.341582389567207656e+01,4.312565088655156842e+01,9.446745872497558594e+00,-1.032640218734741211e+00,-4.971971809864044189e-01,5.120000000000000000e+02
-3.573123323190739598e+01,-1.866340798588331040e+01,2.793670223882583059e+01,8.612728025377379026e+01,4.157575368231505308e-01,-2.210989930815867410e+01,4.407115760315417674e+01,4.089858971553664446e+01,9.446745872497558594e+00,-1.032640218734741211e+00,-4.971971809864044189e-01,5.130000000000000000e+02
-3.437195654143681622e+01,-1.897024744895816184e+01,2.832709870907075356e+01,8.820254735875090546e+01,2.326372524636326489e-01,-1.975696291173881036e+01,4.449563223142445167e+01,3.878875899171720221e+01,9.446745872497558594e+00,-1.032640218734741211e+00,-4.971971809864044189e-01,5.140000000000000000e+02
-3.378334437095583098e+01,-2.025476404858159185e+01,2.791819526020742614e+01,8.811192681545918504e+01,-2.827885321420922082e-01,-1.826190764349576057e+01,4.411146811921287281e+01,3.615032406040648993e+01,9.446745872497558594e+00,-1.032640218734741211e+00,-4.971971809864044189e-01,5.150000000000000000e+02
-3.371925598928532963e+01,-2.244705362668605630e+01,2.635400855884461180e+01,8.567369621668490254e+01,-1.749958285330649232e+00,-1.829675690550061518e+01,4.271264684261819866e+01,3.233027492449798501e+01,9.446745872497558594e+00,-1.032640218734741211e+00,-4.971971809864044189e-01,5.160000000000000000e+02
-3.347153177977907035e+01,-2.503225707426054214e+01,2.412613611674021286e+01,8.185550749418609939e+01,-4.009475699535414606e+00,-1.983389243442991301e+01,4.084143701593291098e+01,2.758654660445154150e+01,9.446745872497558594e+00,-1.032640218734741211e+00,-4.971971809864044189e-01,5.170000000000000000e+02
-3.256761969187618888e+01,-2.712087347280976246e+01,2.216666852899425066e+01,7.831420966002042405e+01,-6.081420103091204510e+00,-2.204683264386289920e+01,3.965321272135452091e+01,2.333695371714452449e+01,9.446745872497558594e+00,-1.032640218734741211e+00,-4.971971809864044189e-01,5.180000000000000000e+02
-3.116381427667874959e+01,-2.793643410482684430e+01,2.112896891982427405e+01,7.647411033719970419e+01,-6.807676658326727193e+00,-2.371661723757324580e+01,4.021214035771106410e+01,2.127328150778384952e+01,9.446745872497558594e+00,-1.032640218734741211e+00,-4.971971809864044189e-01,5.190000000000000000e+02
-2.978241364554082793e+01,-2.738694806523324132e+01,2.102166430836666677e+01,7.668773416067369908e+01,-5.673280307456934679e+00,-2.393594056597112285e+01,4.264049155381883338e+01,2.195446938598706765e+01,9.446745872497558594e+00,-1.032640218734741211e+00,-4.207052886486053467e-01,5.200000000000000000e+02
-2.871997835732349813e+01,-2.617569479893279549e+01,2.143421178164942376e+01,7.808054965667406577e+01,-3.180473644123821941e+00,-2.265009974660233638e+01,4.580029938375787424e+01,2.411849409937030941e+01,9.446745872497558594e+00,-1.032640218734741211e+00,-4.207052886486053467e-01,5.210000000000000000e+02
-2.775184036507516794e+01,-2.525416090678982073e+01,2.200764181244585416e+01,7.923803383194558592e+01,-5.230471753025085491e-01,-2.064516826743829370e+01,4.790526592262654049e+01,2.545879160923095696e+01,9.446745872497558594e+00,-1.032640218734741211e+00,-4.207052886486053467e-01,5.220000000000000000e+02
-2.640322698021782344e+01,-2.505092741032353842e+01,2.267689892264843365e+01,7.925957748483551768e+01,1.181249599990451316e+00,-1.897324488317849500e+01,4.775610585905974403e+01,2.436952768610626663e+01,9.446745872497558594e+00,-1.032640218734741211e+00,-4.207052886486053467e-01,5.230000000000000000e+02
-2.447222198335475696e+01,-2.519043189081662604e+01,2.354958176369973444e+01,7.835917123630633796e+01,1.586079180415936207e+00,-1.823949198434956998e+01,4.569327273601857087e+01,2.124099004591107587e+01,9.446745872497558594e+00,-1.032640218734741211e+00,-4.207052886486053467e-01,5.240000000000000000e+02
-2.228563780056401811e+01,-2.498956382029359702e+01,2.465905943345524065e+01,7.752649225924074017e+01,1.302414202533327625e+00,-1.828213846208200266e+01,4.343828398574805760e+01,1.818432308600108627e+01,9.446745872497558594e+00,-1.032640218734741211e+00,-4.207052886486053467e-01,5.250000000000000000e+02
-2.050815855721998560e+01,-2.426870890462782882e+01,2.584558442310594728e+01,7.755708311230546315e+01,1.455498274488036259e+00,-1.846094372200241196e+01,4.283276990644299076e+01,1.736919065059578315e+01,9.446745872497558594e+00,-1.032640218734741211e+00,-4.207052886486053467e-01,5.260000000000000000e+02
-1.974915756581981441e+01,-2.365445654543418641e+01,2.680292611756840415e+01,7.830446061003453906e+01,2.904195098410355058e+00,-1.826451061309035140e+01,4.444421656285453537e+01,1.934918757776040366e+01,9.446745872497558594e+00,-1.032640218734741211e+00,-4.207052886486053467e-01,5.270000000000000000e+02
-2.028638241613316495e+01,-2.401585978145885747e+01,2.721119895457877647e+01,7.881159602109482876e+01,5.642951392015675083e+00,-1.770159534676076873e+01,4.718459696648073987e+01,2.274160071086589596e+01,9.446745872497558594e+00,-1.032640218734741211e+00,-4.207052886486053467e-01,5.280000000000000000e+02
-2.198249852514663871e+01,-2.553939996570125004e+01,2.690468309312109341e+01,7.819680557599576787e+01,8.812872722109659662e+00,-1.716314731464171928e+01,4.924740854086962827e+01,2.544691722570178172e+01,9.446745872497558594e+00,-1.032640218734741211e+00,-4.207052886486053467e-01,5.290000000000000000e+02
-2.429591808786199181e+01,-2.735030791276176387e+01,2.604481246651494075e+01,7.650142988438437897e+01,1.132497834029709338e+01,-1.695131951117400604e+01,4.952615945648813067e+01,2.629022360422686688e+01,9.446745872497558594e+00,-1.032640218734741211e+00,-4.207052886486053467e-01,5.300000000000000000e+02
-2.637259321597002781e+01,-2.811205315173720010e+01,2.515210650777953560e+01,7.475630870031500308e+01,1.262478317835984853e+01,-1.696916798305528573e+01,4.829694525161266938e+01,2.571075900829691818e+01,9.446745872497558594e+00,-1.032640218734741211e+00,-4.207052886486053467e-01,5.310000000000000000e+02
-2.734329567948134354e+01,-2.712230816014744050e+01,2.481939111211841009e+01,7.421845703659255378e+01,1.300285832339523040e+01,-1.685263625345760374e+01,4.668606360576904990e+01,2.507370165945258123e+01,9.446745872497558594e+00,-1.032640218734741211e+00,-4.207052886486053467e-01,5.320000000000000000e+02
-2.680957993895754043e+01,-2.493398757760633089e+01,2.518240840065345765e+01,7.544796391677527936e+01,1.322621227641457153e+01,-1.635120549713974469e+01,4.558468916395531778e+01,2.539209529787876818e+01,9.446745872497558594e+00,-1.032640218734741211e+00,-4.207052886486053467e-01,5.330000000000000000e+02
-2.517012945913711519e+01,-2.292354683348094113e+01,2.559866593840615678e+01,7.798426142361586244e+01,1.385119224734125964e+01,-1.552032414377299574e+01,4.510383353368843018e+01,2.661574460449219259e+01,9.446745872497558594e+00,-1.032640218734741211e+00,-4.207052886486053467e-01,5.340000000000000000e+02
-2.340709511715704139e+01,-2.217412263332971634e+01,2.498918520878760319e+01,8.078451472233928143e+01,1.478663243630307988e+01,-1.455647923450669623e+01,4.495530913939001039e+01,2.791334435055341601e+01,9.446745872497558594e+00,-1.032640218734741211e+00,-4.207052886486053467e-01,5.350000000000000000e+02
-2.238763403871871560e+01,-2.263029602101732962e+01,2.274602088044593984e+01,8.295700233618981656e+01,1.540604565111425472e+01,-1.352772191188614670e+01,4.513113591152523441e+01,2.843336201706370048e+01,9.446745872497558594e+00,-1.032640218734741211e+00,-4.207052886486053467e-01,5.360000000000000000e+02
-2.225473171082057888e+01,-2.321777965883666184e+01,1.944108777133942567e+01,8.418174375187800251e+01,1.502887835264118621e+01,-1.235997445324937871e+01,4.599470230897486545e+01,2.775283947588150113e+01,9.446745872497558594e+00,-1.032640218734741211e+00,-4.207052886486053467e-01,5.370000000000000000e+02
-2.248503488243432002e+01,-2.277967929034912231e+01,1.656914770453704477e+01,8.460548972250398947e+01,1.336659557955090349e+01,-1.110652614714399533e+01,4.765090433080422372e+01,2.578696096635212598e+01,9.446745872497558594e+00,-1.032640218734741211e+00,-4.207052886486053467e-01,5.380000000000000000e+02
-2.253794264812813708e+01,-2.101666644841407106e+01,1.538686856478761911e+01,8.448371094859930963e+01,1.066132878875305323e+01,-1.014527817899124784e+01,4.936552852902377708e+01,2.257861586957960753e+01,9.446745872497558594e+00,-1.032640218734741211e+00,-4.207052886486053467e-01,5.390000000000000000e+02
-2.240310912398444998e+01,-1.868824104834220634e+01,1.582607716172014989e+01,8.396599365194651909e+01,7.548461903321367572e+00,-9.987762790048691386e+00,4.984317677328408536e+01,1.840120164326981467e+01,9.446745872497558594e+00,-1.032640218734741211e+00,-4.207052886486053467e-01,5.400000000000000000e+02
-2.246315174961137018e+01,-1.698724117788060539e+01,1.651791836097800115e+01,8.315115042475008522e+01,4.816147720038316038e+00,-1.081228545451631362e+01,4.828056886217791543e+01,1.404418175737282581e+01,9.446745872497558594e+00,-1.032640218734741211e+00,-4.971971809864044189e-01,5.410000000000000000e+02
-2.284302529735032294e+01,-1.664551334298630536e+01,1.598213989091073017e+01,8.221510442728049384e+01,3.158062505015550414e+00,-1.220045819372171536e+01,4.521030139476761178e+01,1.074178579203908157e+01,9.446745872497558594e+00,-1.032640218734741211e+00,-4.971971809864044189e-01,5.420000000000000000e+02
-2.301814296779775759e+01,-1.745867014820487384e+01,1.395105790777097354e+01,8.138497705622557987e+01,2.955877682535174245e+00,-1.340044136825054011e+01,4.226422513491343125e+01,9.529124347692231822e+00,9.446745872497558594e+00,-1.032640218734741211e+00,-4.971971809864044189e-01,5.430000000000000000e+02
-2.219722935152367427e+01,-1.852240545934319016e+01,1.165263415878234809e+01,8.077425506411964307e+01,4.160919669175200397e+00,-1.391239336657599779e+01,4.100694551275319100e+01,1.051068972818393377e+01,9.446745872497558594e+00,-1.032640218734741211e+00,-4.971971809864044189e-01,5.440000000000000000e+02
-2.014720901882537873e+01,-1.892961662324614736e+01,1.079775767582714252e+01,8.028440956823942543e+01,6.348571189017093275e+00,-1.385729854065448308e+01,4.185554026406771300e+01,1.275396190954052145e+01,9.446745872497558594e+00,-1.032640218734741211e+00,-4.971971809864044189e-01,5.450000000000000000e+02
-1.759578684754887945e+01,-1.839243325861662015e+01,1.215392711547428917e+01,7.970340675665465824e+01,8.918051127591752447e+00,-1.378888568087495514e+01,4.396830955404220731e+01,1.496661578343355359e+01,9.446745872497558594e+00,-1.032640218734741211e+00,-4.971971809864044189e-01,5.460000000000000000e+02
-1.572848603777674725e+01,-1.736081427393673948e+01,1.491893613586125866e+01,7.893113566444844764e+01,1.129407274563345709e+01,-1.414342368222696678e+01,4.604688126838755124e+01,1.636333295702206669e+01,9.446745872497558594e+00,-1.032640218734741211e+00,-4.971971809864044189e-01,5.470000000000000000e+02
-1.522970248085857747e+01,-1.659264279298258771e+01,1.734898388049259665e+01,7.812424369206019037e+01,1.299501814703580749e+01,-1.484104752949315298e+01,4.721203833880281309e+01,1.695412250899244100e+01,9.446745872497558594e+00,-1.032640218734741211e+00,-4.971971809864044189e-01,5.480000000000000000e+02
-1.579327903167904879e+01,-1.650725335953939066e+01,1.804776079773000674e+01,7.762045774385114782e+01,1.360779348519099585e+01,-1.536875840234642965e+01,4.725660114687707392e+01,1.710309691162001400e+01,9.446745872497558594e+00,-1.032640218734741211e+00,-4.971971809864044189e-01,5.490000000000000000e+02
-1.653698909539070883e+01,-1.681692599916914332e+01,1.687534154244258389e+01,7.768585136374895228e+01,1.283069280850122595e+01,-1.522638710709634324e+01,4.632928727643957245e+01,1.693286280083066231e+01,9.446745872497558594e+00,-1.032640218734741211e+00,-4.971971809864044189e-01,5.500000000000000000e+02
-1.683780100117292022e+01,-1.674625912902138225e+01,1.488178800813420821e+01,7.826633723425402422e+01,1.065706970074370474e+01,-1.432657713879962103e+01,4.461934533586190810e+01,1.621643092343219905e+01,9.446745872497558594e+00,-1.032640218734741211e+00,-4.971971809864044189e-01,5.510000000000000000e+02
-1.674622136894504365e+01,-1.569939568646896078e+01,1.346282714270364522e+01,7.894505643046431942e+01,7.543016172663556063e+00,-1.304892463925352786e+01,4.242253820798669040e+01,1.478241741200145043e+01,9.446745872497558594e+00,-1.032640218734741211e+00,-4.971971809864044189e-01,5.520000000000000000e+02
-1.667317337249187403e+01,-1.382692544064411777e+01,1.343250400685246859e+01,7.917626958099754120e+01,4.304855370050063357e+00,-1.197945130413881998e+01,4.036632791749525495e+01,1.290174995807592495e+01,9.446745872497558594e+00,-1.032640218734741211e+00,-4.971971809864044189e-01,5.530000000000000000e+02
-1.679062237478228781e+01,-1.195205646721842641e+01,1.464861679160549102e+01,7.869014413442528166e+01,1.748289068907070032e+00,-1.155424219785163586e+01,3.934690957531256572e+01,1.123857743137614307e+01,9.446745872497558594e+00,-1.032640218734741211e+00,-4.971971809864044189e-01,5.540000000000000000e+02
-1.681241826003497408e+01,-1.085221745457693032e+01,1.635208648755087779e+01,7.779593205335368111e+01,3.193167286672178307e-01,-1.182199874355865177e+01,4.006110480036477384e+01,1.047064838257028896e+01,9.446745872497558594e+00,-1.032640218734741211e+00,-4.971971809864044189e-01,5.550000000000000000e+02
-1.633114352637494449e+01,-1.051974879855424660e+01,1.788067958111241751e+01,7.729294232165375433e+01,6.993304393108701333e-02,-1.242312231087817054e+01,4.251382230535000417e+01,1.097141077686865174e+01,9.446745872497558594e+00,-1.032640218734741211e+00,-4.971971809864044189e-01,5.560000000000000000e+02
-1.528092426927833003e+01,-1.013815745304509619e+01,1.919090345507902384e+01,7.792743237801187206e+01,9.212368302505637985e-01,-1.277399951960069302e+01,4.595769811111858871e+01,1.275164968746048544e+01,9.446745872497558594e+00,-1.032640218734741211e+00,-4.971971809864044189e-01,5.570000000000000000e+02
-1.403405045547697227e+01,-8.890603236313836533e+00,2.077822611390911334e+01,7.971084521899865649e+01,2.863392168103018776e+00,-1.239910464816057356e+01,4.931131501551499241e+01,1.549342016039918235e+01,9.446745872497558594e+00,-1.032640218734741211e+00,-4.971971809864044189e-01,5.580000000000000000e+02
-1.309232359166253445e+01,-6.872164358745067148e+00,2.304347506674730539e+01,8.166177175813118083e+01,5.791656289984530304e+00,-1.125596521546685835e+01,5.169342357229652407e+01,1.850979121099499025e+01,9.446745872497558594e+00,-1.032640218734741211e+00,-4.971971809864044189e-01,5.590000000000000000e+02
-1.274006171029213874e+01,-5.149661167969497910e+00,2.565483283944286086e+01,8.234021131027839147e+01,9.149128377688612090e+00,-9.813691065366583643e+00,5.272028703288378892e+01,2.082719495668789023e+01,9.446745872497558594e+00,-1.032640218734741211e+00,-4.971971809864044189e-01,5.600000000000000000e+02
-1.295914957809236512e+01,-4.767931800010046572e+00,2.754780788969765126e+01,8.091107912367442623e+01,1.187184642514694133e+01,-8.755145719731444842e+00,5.251540420791388897e+01,2.164727222111559968e+01,9.446745872497558594e+00,-1.032640218734741211e+00,-4.971971809864044189e-01,5.610000000000000000e+02
-1.354701371882492822e+01,-5.589491462833393598e+00,2.770982205203927151e+01,7.793053193136438495e+01,1.293548204337093921e+01,-8.449063397958525456e+00,5.159023313350007811e+01,2.102079110369777482e+01,9.446745872497558594e+00,-1.032640218734741211e+00,-4.971971809864044189e-01,5.620000000000000000e+02
-1.420742120182512735e+01,-6.172120209774220712e+00,2.614258932897701015e+01,7.512718806076009059e+01,1.216310721798981831e+01,-8.598433944393036654e+00,5.067027116410099552e+01,2.007318813848905847e+01,9.446745872497558594e+00,-1.032640218734741211e+00,-4.971971809864044189e-01,5.630000000000000000e+02
-1.455764064109098399e+01,-4.993448401103705692e+00,2.409085723670250445e+01,7.421327552408911288e+01,1.052885966459143674e+01,-8.433631734760638210e+00,5.038178709357271146e+01,2.028187872242688172e+01,9.446745872497558594e+00,-1.032640218734741211e+00,-4.971971809864044189e-01,5.640000000000000000e+02
-1.420593316481608781e+01,-1.985042640725623642e+00,2.319002216791704996e+01,7.560828082473926770e+01,9.532194698209423223e+00,-7.382094919052178739e+00,5.082758755885697610e+01,2.220955307483018260e+01,9.446745872497558594e+00,-1.032640218734741211e+00,-4.971971809864044189e-01,5.650000000000000000e+02
-1.299404573700849141e+01,1.102408766346343327e+00,2.414841570247244817e+01,7.809925974881116417e+01,1.005783617934503127e+01,-5.674822547802250483e+00,5.136055827538621088e+01,2.481779702547828492e+01,9.446745872497558594e+00,-1.070886254310607910e+00,-4.971971809864044189e-01,5.660000000000000000e+02
-1.121089866767397325e+01,2.001245696535988827e+00,2.611324840556517302e+01,7.974450059933042212e+01,1.170412303978628188e+01,-4.297277205723730731e+00,5.094128785171233176e+01,2.616721690879421658e+01,9.446745872497558594e+00,-1.070886254310607910e+00,-4.971971809864044189e-01,5.670000000000000000e+02
-9.492733809105629916e+00,-1.565398787715821527e-01,2.735215970223725890e+01,7.929532007216221245e+01,1.320256615221842367e+01,-4.225512445818822016e+00,4.901394150555279339e+01,2.505071884512290126e+01,9.446745872497558594e+00,-1.070886254310607910e+00,-4.971971809864044189e-01,5.680000000000000000e+02
-8.402213104984184611e+00,-4.020280395097870496e+00,2.671134095077286474e+01,7.700499674029379094e+01,1.355517701980352285e+01,-5.556134419859517948e+00,4.622756661412131507e+01,2.212591887995404250e+01,9.446745872497558594e+00,-1.070886254310607910e+00,-4.971971809864044189e-01,5.690000000000000000e+02
-8.038475217135783168e+00,-7.059954798200124060e+00,2.459138963126679300e+01,7.426226428246809519e+01,1.284214378009892243e+01,-7.320121814742378774e+00,4.424253849653177895e+01,1.946805630417838984e+01,9.446745872497558594e+00,-1.070886254310607910e+00,-4.971971809864044189e-01,5.700000000000000000e+02
-8.047046138457517372e+00,-7.549454862022685120e+00,2.260520613272819901e+01,7.247231476980596199e+01,1.198971780120882613e+01,-8.210887294568237849e+00,4.456715954721948947e+01,1.889460533113924612e+01,9.446745872497558594e+00,-1.070886254310607910e+00,-4.971971809864044189e-01,5.710000000000000000e+02
-8.008077269203567994e+00,-5.765727687181424699e+00,2.225489116244898469e+01,7.214383993042429211e+01,1.180827952704748895e+01,-7.630811364391774987e+00,4.728668807321082568e+01,2.054412593856068270e+01,9.446745872497558594e+00,-1.070886254310607910e+00,-4.971971809864044189e-01,5.720000000000000000e+02
-7.802390422852113261e+00,-3.457518993254780071e+00,2.377922537449194351e+01,7.280594249161003972e+01,1.229695644532694132e+01,-6.140651902111130767e+00,5.079887064791182638e+01,2.294482700361913885e+01,9.446745872497558594e+00,-1.070886254310607910e+00,-4.971971809864044189e-01,5.730000000000000000e+02
-7.611683046756297699e+00,-2.231982861871074419e+00,2.608775105991117016e+01,7.358643072776612826e+01,1.286863892337350990e+01,-4.917006799751106882e+00,5.288792548748460831e+01,2.440818457235582173e+01,9.446745872497558594e+00,-1.070886254310607910e+00,-4.971971809864044189e-01,5.740000000000000000e+02
-7.615261236382139032e+00,-2.376015440077026142e+00,2.770288842465561174e+01,7.383558115119012655e+01,1.316262191371788504e+01,-4.727156513388763415e+00,5.232950715462357039e+01,2.442623958115291316e+01,9.446745872497558594e+00,-1.070886254310607910e+00,-4.971971809864044189e-01,5.750000000000000000e+02
-7.754165012787780142e+00,-3.035125824897477287e+00,2.784360664021551202e+01,7.337646810312253365e+01,1.352594625509664183e+01,-5.336195730538747739e+00,4.975628286293613201e+01,2.389256292720710917e+01,9.446745872497558594e+00,-1.070886254310607910e+00,-4.971971809864044189e-01,5.760000000000000000e+02
-7.800494084602178191e+00,-3.306300359296074021e+00,2.683435659937640594e+01,7.242985667199536692e+01,1.464720299060900288e+01,-5.824222161223588046e+00,4.712304368853256165e+01,2.413634530800118227e+01,9.446745872497558594e+00,-1.070886254310607910e+00,-4.971971809864044189e-01,5.770000000000000000e+02
-7.605069076131258043e+00,-3.041797103460339713e+00,2.568945204265946813e+01,7.146227111165535462e+01,1.674187397179048276e+01,-5.455817107911570929e+00,4.625471840052159678e+01,2.575780856687015330e+01,9.446745872497558594e+00,-1.070886254310607910e+00,-4.971971809864044189e-01,5.780000000000000000e+02
-7.217101115424156887e+00,-2.667706687574536772e+00,2.533694375559571199e+01,7.104042692572693340e+01,1.917161714339817991e+01,-4.297212932156980969e+00,4.763989815562854346e+01,2.824547125779645285e+01,9.446745872497558594e+00,-1.070886254310607910e+00,-4.971971809864044189e-01,5.790000000000000000e+02
-6.772564231441720040e+00,-2.427561790394975105e+00,2.605584818549687043e+01,7.158761033764676540e+01,2.091987014123515110e+01,-3.085654369235271588e+00,5.030624672337762604e+01,3.052046197639538150e+01,9.446745872497558594e+00,-1.070886254310607910e+00,-4.971971809864044189e-01,5.800000000000000000e+02
-6.351848696316665155e+00,-2.000707631999830483e+00,2.738918401100818301e+01,7.305256546878626978e+01,2.145341554814876872e+01,-2.563820387051237049e+00,5.269364710383342754e+01,3.177215045971934160e+01,9.446745872497558594e+00,-1.070886254310607910e+00,-4.971971809864044189e-01,5.810000000000000000e+02
-6.008369025144929765e+00,-9.249174366668739822e-01,2.847835251865762984e+01,7.476784131242129661e+01,2.112708293121613679e+01,-2.915403497394436272e+00,5.374411577486898750e+01,3.189396853372636542e+01,9.446745872497558594e+00,-1.070886254310607910e+00,-4.971971809864044189e-01,5.820000000000000000e+02
-5.888109063436786528e+00,6.862330755557195516e-01,2.859702984309660678e+01,7.576463449967013730e+01,2.076661310859526566e+01,-3.738602320667268941e+00,5.342988821747894690e+01,3.134870403430250008e+01,9.446745872497558594e+00,-1.070886254310607910e+00,-4.971971809864044189e-01,5.830000000000000000e+02
-6.194713322827738011e+00,1.992087139926297823e+00,2.759207259967115533e+01,7.542556736478582025e+01,2.086400761831828277e+01,-4.473378217033314286e+00,5.249329525161192578e+01,3.075054869140694791e+01,9.446745872497558594e+00,-1.070886254310607910e+00,-4.971971809864044189e-01,5.840000000000000000e+02
-6.923128131727935397e+00,2.112180743155477103e+00,2.597790090932357998e+01,7.398042608815558197e+01,2.116406739274680149e+01,-4.841905922588921385e+00,5.175789247529064596e+01,3.053109742104788893e+01,9.446745872497558594e+00,-1.070886254310607910e+00,-4.971971809864044189e-01,5.850000000000000000e+02
-7.637192356651212322e+00,1.010713870859035524e+00,2.461957847396661236e+01,7.240105898951878771e+01,2.100410736495905439e+01,-4.936013141679723049e+00,5.157428728114246042e+01,3.085659072970884154e+01,9.446745872497558594e+00,-1.070886254310607910e+00,-4.971971809864044189e-01,5.860000000000000000e+02
-7.659948513008203008e+00,-3.147343235141306650e-01,2.419677597254667489e+01,7.174685606828825257e+01,2.005003843316080747e+01,-4.946223956787434872e+00,5.174063781717086385e+01,3.173029117603437044e+01,9.446745872497558594e+00,-1.070886254310607910e+00,-4.971971809864044189e-01,5.870000000000000000e+02
-6.650969826227083104e+00,-5.786276451162848389e-01,2.482703478942130459e+01,7.250746495690327720e+01,1.873904562720417744e+01,-4.811541577088064514e+00,5.185209837154434354e+01,3.313325277354852005e+01,9.446745872497558594e+00,-1.070886254310607910e+00,-4.971971809864044189e-01,5.880000000000000000e+02
-5.064533712844422553e+00,7.827776930698746582e-01,2.610730968611824210e+01,7.443135573235485936e+01,1.802033124131412478e+01,-4.121515216033003526e+00,5.175326408739056205e+01,3.507462933091119339e+01,9.446745872497558594e+00,-1.070886254310607910e+00,-4.971971809864044189e-01,5.890000000000000000e+02
-3.964662792477611220e+00,3.262002976649455377e+00,2.748409364252256637e+01,7.686564054996779305e+01,1.861790984427170770e+01,-2.402619752323516877e+00,5.173245825266712927e+01,3.750711096549457579e+01,9.446745872497558594e+00,-1.070886254310607910e+00,-4.971971809864044189e-01,5.900000000000000000e+02
-4.226678293840450351e+00,5.865641011043408071e+00,2.859776906688057352e+01,7.923036567360395566e+01,2.043614670355964336e+01,3.953376202807703521e-01,5.230754932677882607e+01,4.017158327146717056e+01,9.446745872497558594e+00,-1.070886254310607910e+00,-4.971971809864044189e-01,5.910000000000000000e+02
-5.772209650544027681e+00,8.009175630591926165e+00,2.934519166398786183e+01,8.123833519091567723e+01,2.258962242010602495e+01,3.599241686973982723e+00,5.375425504513259511e+01,4.252682286877461593e+01,9.446745872497558594e+00,-1.070886254310607910e+00,-4.971971809864044189e-01,5.920000000000000000e+02
-7.535008915354410419e+00,9.851012445566084352e+00,2.974230161863670219e+01,8.281332977802230744e+01,2.401656377207837068e+01,6.015657695264962967e+00,5.574753336950016092e+01,4.391226399509832845e+01,9.484992027282714844e+00,-1.032640218734741211e+00,-4.589512646198272705e-01,5.930000000000000000e+02
-8.240677863384917146e+00,1.181819568331229675e+01,2.985205233962733473e+01,8.393329270282265497e+01,2.417992811130170594e+01,6.610430230233760085e+00,5.743082559138565557e+01,4.390561422875725839e+01,9.484992027282714844e+00,-1.032640218734741211e+00,-4.589512646198272705e-01,5.940000000000000000e+02
-7.358168130944250152e+00,1.389574422395162401e+01,2.986063906368508469e+01,8.457244587415698334e+01,2.331562356240465306e+01,5.210473407423705794e+00,5.790185430064229877e+01,4.262845361240397324e+01,9.484992027282714844e+00,-1.032640218734741211e+00,-4.589512646198272705e-01,5.950000000000000000e+02
-5.447288539722649148e+00,1.546310771123535233e+01,3.008962536750732397e+01,8.472505642224132316e+01,2.208783674006917863e+01,2.672386815240315627e+00,5.677667891856253846e+01,4.073719351109502895e+01,9.484992027282714844e+00,-1.032640218734741211e+00,-4.589512646198272705e-01,5.960000000000000000e+02
-3.666557173444743967e+00,1.585342991915604216e+01,3.075191816646110965e+01,8.442034185167722171e+01,2.101265341037287726e+01,3.374331251870898996e-01,5.441385954982251860e+01,3.906789658682828303e+01,9.484992027282714844e+00,-1.032640218734741211e+00,-4.589512646198272705e-01,5.970000000000000000e+02
-2.926678604781045578e+00,1.502065508914165548e+01,3.161813209972387995e+01,8.370380539766847505e+01,2.017564717871209723e+01,-8.432363192841876298e-01,5.163773897396094981e+01,3.819125407249885029e+01,9.484992027282714844e+00,-1.032640218734741211e+00,-4.589512646198272705e-01,5.980000000000000000e+02
-3.392685092741885455e+00,1.359179183992819162e+01,3.200100099402334308e+01,8.262659195638116216e+01,1.944338364882787573e+01,-8.487150799373921473e-01,4.918594951857812703e+01,3.818422808006653213e+01,9.484992027282714844e+00,-1.032640218734741211e+00,-4.589512646198272705e-01,5.990000000000000000e+02
-4.641167374829819892e+00,1.224955186145962216e+01,3.124186247221950907e+01,8.126551648837266839e+01,1.884882273276525666e+01,-4.137630791046831291e-01,4.730403927044972079e+01,3.870787050274157082e+01,9.484992027282714844e+00,-1.032640218734741211e+00,-4.589512646198272705e-01,6.000000000000000000e+02
-6.167831985916564008e+00,1.111804756614583312e+01,2.935803250209937687e+01,7.974809637721773470e+01,1.867704564951054635e+01,-3.583703728763794061e-01,4.577397951478633331e+01,3.925311845090254792e+01,9.484992027282714844e+00,-1.032640218734741211e+00,-4.589512646198272705e-01,6.010000000000000000e+02
-7.708371737575362204e+00,9.839771078852209030e+00,2.721789339967654087e+01,7.825727285892571672e+01,1.912264091823817580e+01,-9.954036587987502571e-01,4.432177373734884895e+01,3.937950344550336013e+01,9.484992027282714844e+00,-1.032640218734741211e+00,-4.589512646198272705e-01,6.020000000000000000e+02
-9.138508089377864962e+00,8.287185814380791271e+00,2.597559746399201686e+01,7.703407743264688179e+01,1.988852345017585321e+01,-2.037557160165306414e+00,4.305029252313033794e+01,3.888721501800682745e+01,9.484992027282714844e+00,-1.032640218734741211e+00,-4.589512646198272705e-01,6.030000000000000000e+02
-1.018668626344879158e+01,7.111829558372846805e+00,2.620784884428940131e+01,7.638924142822725116e+01,2.022295634921101737e+01,-2.951080366670794319e+00,4.252230737502031843e+01,3.794469975234460435e+01,9.484992027282714844e+00,-1.032640218734741211e+00,-4.589512646198272705e-01,6.040000000000000000e+02
-1.036220922644861275e+01,7.423879967955144821e+00,2.751735393678609398e+01,7.665055707223655190e+01,1.946986697882312001e+01,-3.376850319022196345e+00,4.338150829354708549e+01,3.711656392274380778e+01,9.484992027282714844e+00,-1.032640218734741211e+00,-4.589512646198272705e-01,6.050000000000000000e+02
-9.238629960036632838e+00,9.781051500529429177e+00,2.896375667192478431e+01,7.797562694893349544e+01,1.768067688619703404e+01,-3.283560931151441764e+00,4.576805069110559998e+01,3.718647456939652329e+01,9.484992027282714844e+00,-1.032640218734741211e+00,-4.589512646198272705e-01,6.060000000000000000e+02
-6.857873706972895889e+00,1.342345427491818555e+01,2.990224313719227212e+01,8.011418355168279959e+01,1.571156646538292989e+01,-2.824233589297364233e+00,4.898306299320393009e+01,3.876019232871840359e+01,9.484992027282714844e+00,-1.032640218734741211e+00,-4.589512646198272705e-01,6.070000000000000000e+02
-3.885533903303439729e+00,1.657245485128078144e+01,3.042609909641032573e+01,8.235642929800087586e+01,1.466009445238887565e+01,-2.107923153962474316e+00,5.171172366098471684e+01,4.185495929895841982e+01,9.484992027282714844e+00,-1.032640218734741211e+00,-4.589512646198272705e-01,6.080000000000000000e+02
-1.360846560488425894e+00,1.766698939793786849e+01,3.103425875494576758e+01,8.383434494442190044e+01,1.506284448884252924e+01,-1.102328358665545238e+00,5.271820601516446914e+01,4.576816421640614863e+01,9.484992027282714844e+00,-1.032640218734741211e+00,-4.589512646198272705e-01,6.090000000000000000e+02
-2.040063608546915930e-01,1.653074803729396081e+01,3.191265995482172002e+01,8.404192910370329628e+01,1.647890366645515314e+01,2.715235361429222394e-01,5.156129609232084476e+01,4.936053697215174907e+01,9.484992027282714844e+00,-1.032640218734741211e+00,-4.589512646198272705e-01,6.100000000000000000e+02
-7.814713855732406955e-01,1.451018330076112761e+01,3.259994725065553212e+01,8.319798604405877995e+01,1.779104833263409091e+01,1.978623130253254203e+00,4.885402132696253830e+01,5.161828171594606829e+01,9.484992027282714844e+00,-1.032640218734741211e+00,-4.589512646198272705e-01,6.110000000000000000e+02
-2.754946800145262387e+00,1.347650138784956653e+01,3.239388530887299567e+01,8.213565636641942547e+01,1.799734033041386283e+01,3.809231201561487978e+00,4.589078036070714006e+01,5.215099208202809677e+01,9.484992027282714844e+00,-1.032640218734741211e+00,-4.589512646198272705e-01,6.120000000000000000e+02
-5.262712476087472169e+00,1.449771608917581034e+01,3.107602288020643755e+01,8.176187909827785916e+01,1.690663333863267326e+01,5.481186509739927715e+00,4.387449564953931258e+01,5.132720445744416793e+01,9.484992027282714844e+00,-1.032640218734741211e+00,-4.589512646198272705e-01,6.130000000000000000e+02
-7.325814494135556743e+00,1.717595206088662962e+01,2.921599360780601273e+01,8.247621308194720768e+01,1.522918294611372403e+01,6.800446155775716761e+00,4.324007141560286982e+01,4.997586916632644716e+01,9.484992027282714844e+00,-1.032640218734741211e+00,-4.589512646198272705e-01,6.140000000000000000e+02
-8.287215875512629282e+00,2.004475561877916334e+01,2.775088361856978736e+01,8.393758795245958026e+01,1.399644977902426035e+01,7.708500092805479653e+00,4.349112299709668150e+01,4.884836005350734922e+01,9.484992027282714844e+00,-1.032640218734741211e+00,-4.589512646198272705e-01,6.150000000000000000e+02
