F3,F4,C3,C4,P3,P4,Cz,Pz,Accel_x,Accel_y,Accel_z,Sample
-5.456968210637569427e-11,-3.910827217623591423e-11,-2.819433575496077538e-11,-5.184119800105690956e-11,-4.456524038687348366e-11,-5.638867150992155075e-11,-4.183675628155469894e-11,-2.728484105318784714e-11,9.484992027282714844e+00,-1.070886254310607910e+00,-4.207052886486053467e-01,2.270000000000000000e+02
-5.982542068461953022e+00,-5.430740708714438369e+00,-2.177102056007242936e+00,3.277366061842258205e+00,-5.262534011374555121e+00,-1.210452324525249423e+00,-6.015011342669822625e-01,-2.719883984001171484e+00,9.484992027282714844e+00,-1.070886254310607910e+00,-4.207052886486053467e-01,2.280000000000000000e+02
-1.273422824099998252e+01,-9.592466638699988835e+00,-3.818287072843304486e+00,7.377518268587664352e+00,-1.098271397774806246e+01,-5.156023201094285469e+00,-1.294400624814443290e+00,-4.854959540206436941e+00,9.484992027282714844e+00,-1.070886254310607910e+00,-4.207052886486053467e-01,2.290000000000000000e+02
-2.075201467330953164e+01,-1.258828865254417906e+01,-5.045025784316749196e+00,1.205739241753508395e+01,-1.712710445033371798e+01,-1.234464881655549107e+01,-2.237056387172742689e+00,-6.290006837105465820e+00,9.484992027282714844e+00,-1.070886254310607910e+00,-4.207052886486053467e-01,2.300000000000000000e+02
-2.993048261406966049e+01,-1.584493839199240028e+01,-6.615161935213109246e+00,1.605879107860437216e+01,-2.330453860687066481e+01,-2.095725692627274839e+01,-3.564932229724036006e+00,-7.427304197419289267e+00,9.484992027282714844e+00,-1.070886254310607910e+00,-4.207052886486053467e-01,2.310000000000000000e+02
-3.938095017236992135e+01,-2.068144972510617663e+01,-9.195990831201925175e+00,1.829423095705624291e+01,-2.932096150162669801e+01,-2.877325524384832534e+01,-5.177536517396220006e+00,-8.752830000336871308e+00,9.484992027282714844e+00,-1.070886254310607910e+00,-4.207052886486053467e-01,2.320000000000000000e+02
-4.772615365892761474e+01,-2.691596527346064249e+01,-1.258928230467518006e+01,1.905020915021486871e+01,-3.536608347677793063e+01,-3.501302122825109109e+01,-6.619670407233570586e+00,-1.026567041411362879e+01,9.484992027282714844e+00,-1.070886254310607910e+00,-4.207052886486053467e-01,2.330000000000000000e+02
-5.391589244765236799e+01,-3.289443653436046588e+01,-1.568009671183426690e+01,1.999815997662881273e+01,-4.152872168436442735e+01,-4.036473543125430297e+01,-7.268498395779715793e+00,-1.128620358849002514e+01,9.484992027282714844e+00,-1.070886254310607910e+00,-4.207052886486053467e-01,2.340000000000000000e+02
-5.804538893852350157e+01,-3.688014820282478468e+01,-1.725382160917524743e+01,2.292125554433459911e+01,-4.725528005599153403e+01,-4.557946816869844042e+01,-6.753394058210687945e+00,-1.086388458554029057e+01,9.484992027282714844e+00,-1.070886254310607910e+00,-4.207052886486053467e-01,2.350000000000000000e+02
-6.145145164399309579e+01,-3.843964573847733845e+01,-1.704043468113559356e+01,2.828156187111926556e+01,-5.157427701040069223e+01,-5.044805782404000638e+01,-5.283467451028627693e+00,-8.530486167499475414e+00,9.446745872497558594e+00,-1.109132170677185059e+00,-4.589512646198272705e-01,2.360000000000000000e+02
-6.584416920129297068e+01,-3.857819959110292984e+01,-1.608340693681384437e+01,3.490341455217912880e+01,-5.403932732985049370e+01,-5.424676050952257356e+01,-3.585355257683659147e+00,-4.820117495432896249e+00,9.446745872497558594e+00,-1.109132170677185059e+00,-4.589512646198272705e-01,2.370000000000000000e+02
-7.205246682536471781e+01,-3.867548948839066725e+01,-1.603256432333364501e+01,4.100665754638612270e+01,-5.536500721149241144e+01,-5.688553566540667816e+01,-2.454416649007725937e+00,-1.080525080004917982e+00,9.446745872497558594e+00,-1.109132170677185059e+00,-4.589512646198272705e-01,2.380000000000000000e+02
-7.938630040183033998e+01,-3.938778895375344291e+01,-1.786652732307811675e+01,4.558713493719824328e+01,-5.693168527174839255e+01,-5.926416870422508509e+01,-2.258719869179913076e+00,1.356776921477830911e+00,9.446745872497558594e+00,-1.109132170677185059e+00,-4.589512646198272705e-01,2.390000000000000000e+02
-8.618300915497820824e+01,-4.052644376297484996e+01,-2.107246142197163863e+01,4.890999465796085133e+01,-5.954334319345980475e+01,-6.241285573893128458e+01,-2.781053596897436364e+00,2.052071899712245795e+00,9.446745872497558594e+00,-1.109132170677185059e+00,-4.589512646198272705e-01,2.400000000000000000e+02
-9.112565482845639053e+01,-4.181404571212351584e+01,-2.398153922581241204e+01,5.182609609459177591e+01,-6.271694304216907767e+01,-6.646548739017725893e+01,-3.484485585659967910e+00,1.700261674878674967e+00,9.446745872497558594e+00,-1.109132170677185059e+00,-4.589512646198272705e-01,2.410000000000000000e+02
-9.426880630352115986e+01,-4.356465259394371969e+01,-2.502022936713183299e+01,5.473958244668392581e+01,-6.529090952956357796e+01,-7.065435214813169296e+01,-3.924728494138435053e+00,1.513303970856213709e+00,9.446745872497558594e+00,-1.109132170677185059e+00,-4.589512646198272705e-01,2.420000000000000000e+02
-9.696237429289521970e+01,-4.654699477854956058e+01,-2.387847903162492003e+01,5.727352806887938641e+01,-6.675136518511135364e+01,-7.426813197115097864e+01,-3.973671413399642915e+00,2.213433919859198795e+00,9.446745872497558594e+00,-1.109132170677185059e+00,-4.589512646198272705e-01,2.430000000000000000e+02
-1.007777898383928914e+02,-5.121696223162052775e+01,-2.165277844820866449e+01,5.885495919404183951e+01,-6.789643046461605991e+01,-7.745157683682009520e+01,-3.742695438144437503e+00,3.454974940420470375e+00,9.446745872497558594e+00,-1.109132170677185059e+00,-4.589512646198272705e-01,2.440000000000000000e+02
-1.063288154792953719e+02,-5.714802244075326598e+01,-1.989539699155011476e+01,5.946682628967300843e+01,-7.014903090927055018e+01,-8.100395615599973098e+01,-3.404640211990226817e+00,4.136664670128993748e+00,9.446745872497558594e+00,-1.109132170677185059e+00,-4.589512646198272705e-01,2.450000000000000000e+02
-1.128995830685398687e+02,-6.323096773645011126e+01,-1.943927986999551649e+01,5.972096332802357210e+01,-7.422563775367143535e+01,-8.550274372101193876e+01,-3.154630193343109568e+00,3.318037703124900872e+00,9.446745872497558594e+00,-1.109132170677185059e+00,-4.589512646198272705e-01,2.460000000000000000e+02
-1.190776070385390994e+02,-6.842003490928527754e+01,-2.001343588366125914e+01,6.022572011290503724e+01,-7.950558919100876665e+01,-9.075686305704039114e+01,-3.304560382876843505e+00,9.418099255171910045e-01,9.446745872497558594e+00,-1.109132170677185059e+00,-4.589512646198272705e-01,2.470000000000000000e+02
-1.238159631024282135e+02,-7.234109106206597062e+01,-2.089326354693730536e+01,6.097761165624342539e+01,-8.469443875360229868e+01,-9.610315471028116008e+01,-4.303446259734300838e+00,-2.228842829787026858e+00,9.446745872497558594e+00,-1.109132170677185059e+00,-4.589512646198272705e-01,2.480000000000000000e+02
-1.270970406193609961e+02,-7.530459558490292693e+01,-2.183383051743749093e+01,6.145568279795043054e+01,-8.905155539376119123e+01,-1.010868007029557702e+02,-6.509482819726144953e+00,-5.289027765351420385e+00,9.446745872497558594e+00,-1.109132170677185059e+00,-4.589512646198272705e-01,2.490000000000000000e+02
-1.297837262242774159e+02,-7.786203861890135158e+01,-2.328244224838908849e+01,6.130420633388348506e+01,-9.293791057568978431e+01,-1.057439054905762532e+02,-9.835575160001098993e+00,-7.767618569673686579e+00,9.446745872497558594e+00,-1.109132170677185059e+00,-4.589512646198272705e-01,2.500000000000000000e+02
-1.328984692063095281e+02,-8.040702481273910962e+01,-2.565165128935041139e+01,6.084496024268628389e+01,-9.720528854198892077e+01,-1.102839623127838422e+02,-1.362212843064389745e+01,-9.598317715577650233e+00,9.446745872497558594e+00,-1.109132170677185059e+00,-4.589512646198272705e-01,2.510000000000000000e+02
-1.369361473915460010e+02,-8.312653554059306771e+01,-2.847874590813808027e+01,6.084682683802111569e+01,-1.021373216017573213e+02,-1.146698477445042954e+02,-1.697179098260403407e+01,-1.069552467614630586e+01,9.446745872497558594e+00,-1.109132170677185059e+00,-4.589512646198272705e-01,2.520000000000000000e+02
-1.416768041366503894e+02,-8.616671905501698348e+01,-3.050704574336577934e+01,6.177830468699994526e+01,-1.070508139370422214e+02,-1.186367824719391137e+02,-1.935640638752829545e+01,-1.077912833829577721e+01,9.446745872497558594e+00,-1.109132170677185059e+00,-4.589512646198272705e-01,2.530000000000000000e+02
-1.465140331434913605e+02,-8.968351061976682104e+01,-3.080354868963149784e+01,6.329819244646114385e+01,-1.109671733258001041e+02,-1.221296861822320352e+02,-2.099846036250710313e+01,-9.773648899027648440e+00,9.446745872497558594e+00,-1.109132170677185059e+00,-4.589512646198272705e-01,2.540000000000000000e+02
-1.509592913441674682e+02,-9.366631949671409529e+01,-2.986182768786693487e+01,6.449855566900532722e+01,-1.136671990765689770e+02,-1.256248854722125543e+02,-2.264843239673882636e+01,-8.345167758820934978e+00,9.446745872497558594e+00,-1.109132170677185059e+00,-4.589512646198272705e-01,2.550000000000000000e+02
-1.549222735853418271e+02,-9.777280586392953410e+01,-2.947010268093708873e+01,6.468482364642750326e+01,-1.160484168231714648e+02,-1.298947760995060889e+02,-2.487411693886224384e+01,-7.798604109170810261e+00,9.446745872497558594e+00,-1.109132170677185059e+00,-4.589512646198272705e-01,2.560000000000000000e+02
-1.586208748012068099e+02,-1.014501772622788849e+02,-3.128422068828604097e+01,6.397587634431511106e+01,-1.194122022957562876e+02,-1.353536224938143278e+02,-2.745762067964824382e+01,-9.164486846929321473e+00,9.446745872497558594e+00,-1.109132170677185059e+00,-4.589512646198272705e-01,2.570000000000000000e+02
-1.623130836592072228e+02,-1.043250255385310084e+02,-3.538188485808404948e+01,6.321715747381676920e+01,-1.243460935485054506e+02,-1.415762727585224638e+02,-2.947385441170627018e+01,-1.223804775460939709e+01,9.446745872497558594e+00,-1.109132170677185059e+00,-4.589512646198272705e-01,2.580000000000000000e+02
-1.661280840526733300e+02,-1.065252675588644706e+02,-4.019495955069487536e+01,6.332282625833522616e+01,-1.302555911083809406e+02,-1.474782372895451772e+02,-3.007279638296677149e+01,-1.557103027977882448e+01,9.446745872497558594e+00,-1.109132170677185059e+00,-4.589512646198272705e-01,2.590000000000000000e+02
-1.700968769070032067e+02,-1.086035995416887090e+02,-4.390191093573639591e+01,6.462879988523764041e+01,-1.359334319860445248e+02,-1.520639468313311227e+02,-2.933401130189668038e+01,-1.758774457779099976e+01,9.446745872497558594e+00,-1.109132170677185059e+00,-4.589512646198272705e-01,2.600000000000000000e+02
-1.742304511825186637e+02,-1.110908314705575322e+02,-4.591493632857645935e+01,6.675133092405758362e+01,-1.405430402373003744e+02,-1.551281513179765170e+02,-2.841966666812368203e+01,-1.786207405224922695e+01,9.446745872497558594e+00,-1.109132170677185059e+00,-4.589512646198272705e-01,2.610000000000000000e+02
-1.784588876746656751e+02,-1.140803687578982135e+02,-4.701924004883267116e+01,6.897410440007388388e+01,-1.440611747754555836e+02,-1.573165284176075147e+02,-2.879317371978777373e+01,-1.734475546204748753e+01,9.446745872497558594e+00,-1.109132170677185059e+00,-4.589512646198272705e-01,2.620000000000000000e+02
-1.824814718947741312e+02,-1.172221853232877038e+02,-4.811607968597218132e+01,7.078410970931327029e+01,-1.468395484302309342e+02,-1.595132749189551760e+02,-3.107587478701952932e+01,-1.730676992357712152e+01,9.446745872497558594e+00,-1.109132170677185059e+00,-4.589512646198272705e-01,2.630000000000000000e+02
-1.857814602828034367e+02,-1.200938912543988408e+02,-4.897520145743737885e+01,7.215664028819446685e+01,-1.488865006303767586e+02,-1.621209655271895826e+02,-3.446415727194835199e+01,-1.801300207263147968e+01,9.446745872497558594e+00,-1.109132170677185059e+00,-4.589512646198272705e-01,2.640000000000000000e+02
-1.879722502117033400e+02,-1.225531202057691189e+02,-4.838079505764926580e+01,7.344908178722926095e+01,-1.497273959400636159e+02,-1.648736473725975884e+02,-3.719874899564638326e+01,-1.841750564320636840e+01,9.446745872497558594e+00,-1.109132170677185059e+00,-4.589512646198272705e-01,2.650000000000000000e+02
-1.892399401954835412e+02,-1.247152624440686850e+02,-4.554396636161573042e+01,7.507456916592309426e+01,-1.490092515070437003e+02,-1.672820746663855971e+02,-3.772065985457811621e+01,-1.718246171442706327e+01,9.446745872497558594e+00,-1.109132170677185059e+00,-4.589512646198272705e-01,2.660000000000000000e+02
-1.904184615485369250e+02,-1.266313053471740204e+02,-4.128557127625936118e+01,7.723118017051820061e+01,-1.471572635906118194e+02,-1.691947174371289293e+02,-3.563267029717462719e+01,-1.403176318532769073e+01,9.484992027282714844e+00,-1.109132170677185059e+00,-5.354431271553039551e-01,2.670000000000000000e+02
-1.924663884584633706e+02,-1.280984167495321344e+02,-3.769284320370979913e+01,7.983088310649236519e+01,-1.453073605803992905e+02,-1.708853231561115535e+02,-3.184091142492206927e+01,-1.016483474988626767e+01,9.484992027282714844e+00,-1.109132170677185059e+00,-5.354431271553039551e-01,2.680000000000000000e+02
-1.956822200826231892e+02,-1.288777360456242604e+02,-3.650703842746816008e+01,8.259108505094536667e+01,-1.445366810140244525e+02,-1.726348355927657394e+02,-2.794167571171783493e+01,-7.402425823414432671e+00,9.484992027282714844e+00,-1.109132170677185059e+00,-5.354431271553039551e-01,2.690000000000000000e+02
-1.993633812335792754e+02,-1.291093456438156863e+02,-3.777345978245875813e+01,8.517124753027565021e+01,-1.451696541866522239e+02,-1.743371886120730778e+02,-2.541488622935275998e+01,-6.902532816517577885e+00,9.484992027282714844e+00,-1.109132170677185059e+00,-5.354431271553039551e-01,2.700000000000000000e+02
-2.022954410253214519e+02,-1.294217394662637162e+02,-4.000471233814869265e+01,8.728551952849920781e+01,-1.468422335375939838e+02,-1.756169661342182735e+02,-2.510819117603978157e+01,-8.554276433091672516e+00,9.484992027282714844e+00,-1.109132170677185059e+00,-5.354431271553039551e-01,2.710000000000000000e+02
-2.037124034937182842e+02,-1.305002376292436566e+02,-4.159642690154214506e+01,8.878756073339263821e+01,-1.491659831256833968e+02,-1.763509363911198307e+02,-2.707359159121097036e+01,-1.137014590120998037e+01,9.484992027282714844e+00,-1.109132170677185059e+00,-5.354431271553039551e-01,2.720000000000000000e+02
-2.039151519946494773e+02,-1.324796739340754357e+02,-4.209034857954202380e+01,8.972507365003093582e+01,-1.521789714817618915e+02,-1.769797295664557168e+02,-3.059559062970038212e+01,-1.428444168074020126e+01,9.484992027282714844e+00,-1.109132170677185059e+00,-5.354431271553039551e-01,2.730000000000000000e+02
-2.040183420972466593e+02,-1.347970695028675436e+02,-4.220203311878640307e+01,9.031573164136534615e+01,-1.560483702985839045e+02,-1.781824068373653063e+02,-3.437227916303891107e+01,-1.659382910321664895e+01,9.484992027282714844e+00,-1.109132170677185059e+00,-5.354431271553039551e-01,2.740000000000000000e+02
-2.050924338236263793e+02,-1.367262846926359998e+02,-4.282653838115447797e+01,9.081473834687403723e+01,-1.603897103653594058e+02,-1.802161269759444622e+02,-3.697538612765083599e+01,-1.787124630323432939e+01,9.484992027282714844e+00,-1.109132170677185059e+00,-5.354431271553039551e-01,2.750000000000000000e+02
-2.074764029054695129e+02,-1.381309749052284133e+02,-4.413979838644672782e+01,9.133219773963310217e+01,-1.640712656211080684e+02,-1.826395487749186941e+02,-3.757991078884606395e+01,-1.778929954493560217e+01,9.484992027282714844e+00,-1.109132170677185059e+00,-5.354431271553039551e-01,2.760000000000000000e+02
-2.107859685839052872e+02,-1.396643145250945963e+02,-4.558977410406714625e+01,9.176740869397599454e+01,-1.658857655285301007e+02,-1.847375177504573003e+02,-3.653801834938985849e+01,-1.623723977525241935e+01,9.484992027282714844e+00,-1.109132170677185059e+00,-5.354431271553039551e-01,2.770000000000000000e+02
-2.144135538832356360e+02,-1.421215469894209491e+02,-4.653184016656587119e+01,9.197375162004300364e+01,-1.655236394555336119e+02,-1.862076223332460359e+02,-3.522180458106277001e+01,-1.360916492093792840e+01,9.484992027282714844e+00,-1.109132170677185059e+00,-5.354431271553039551e-01,2.780000000000000000e+02
-2.179135288091520124e+02,-1.455058370769211251e+02,-4.671112294836666479e+01,9.203742954859990277e+01,-1.639255363887541534e+02,-1.874050123113538575e+02,-3.504930701208286337e+01,-1.083688284741447205e+01,9.484992027282714844e+00,-1.109132170677185059e+00,-5.354431271553039551e-01,2.790000000000000000e+02
-2.209660801897880447e+02,-1.487232038077290781e+02,-4.619919473945492427e+01,9.238494535685958908e+01,-1.626535484771411575e+02,-1.889240781676890037e+02,-3.635025983516015913e+01,-8.961908468857018306e+00,9.484992027282714844e+00,-1.109132170677185059e+00,-5.354431271553039551e-01,2.800000000000000000e+02
-2.231918027287651967e+02,-1.502855964040759318e+02,-4.509437842770830684e+01,9.353032443011306896e+01,-1.628248133527613390e+02,-1.909926505489952433e+02,-3.803251486537510573e+01,-8.535588294262652198e+00,9.484992027282714844e+00,-1.109132170677185059e+00,-5.354431271553039551e-01,2.810000000000000000e+02
-2.242644684438878357e+02,-1.494847789483669658e+02,-4.349103555605370275e+01,9.559564690236584283e+01,-1.645118090087389646e+02,-1.933104349047484902e+02,-3.844970580120661907e+01,-9.341942812779052474e+00,9.484992027282714844e+00,-1.109132170677185059e+00,-5.354431271553039551e-01,2.820000000000000000e+02
-2.243175867399186245e+02,-1.470444722542229101e+02,-4.172782529888081626e+01,9.802245941665387363e+01,-1.669808676120001110e+02,-1.954253637766128122e+02,-3.682984216868362637e+01,-1.062950972617045409e+01,9.484992027282714844e+00,-1.109132170677185059e+00,-5.354431271553039551e-01,2.830000000000000000e+02
-2.241437174223101465e+02,-1.446896453235458466e+02,-4.045187654987830683e+01,9.980921918934427595e+01,-1.693748035919611539e+02,-1.971792302083686081e+02,-3.406016484685824253e+01,-1.162592200910239626e+01,9.484992027282714844e+00,-1.109132170677185059e+00,-5.354431271553039551e-01,2.840000000000000000e+02
-2.247651449657055309e+02,-1.439967272050525935e+02,-4.021818643836832052e+01,1.001670493260571675e+02,-1.711957256017699365e+02,-1.987552287253606664e+02,-3.209575650460055840e+01,-1.196385541382414885e+01,9.484992027282714844e+00,-1.109132170677185059e+00,-5.354431271553039551e-01,2.850000000000000000e+02
-2.266272613580031248e+02,-1.454436664445747738e+02,-4.096763631422572871e+01,9.907965538089183610e+01,-1.723290653091880813e+02,-2.003764329694422486e+02,-3.244884137612871200e+01,-1.182736192377115003e+01,9.484992027282714844e+00,-1.109132170677185059e+00,-5.354431271553039551e-01,2.860000000000000000e+02
-2.291821334629908051e+02,-1.483260060891138892e+02,-4.200966916781999316e+01,9.728982871010975941e+01,-1.728605474026671800e+02,-2.020697786071841620e+02,-3.502660508913731974e+01,-1.182360141732897318e+01,9.484992027282714844e+00,-1.109132170677185059e+00,-5.354431271553039551e-01,2.870000000000000000e+02
-2.313410619771238999e+02,-1.514512848906288127e+02,-4.265679489637341248e+01,9.572318608043224231e+01,-1.730221546647230753e+02,-2.037423158104825234e+02,-3.827691185275307362e+01,-1.265393635008786077e+01,9.484992027282714844e+00,-1.032640218734741211e+00,-3.824593424797058105e-01,2.880000000000000000e+02
-2.324484963068839534e+02,-1.539562727276502301e+02,-4.291074217099594534e+01,9.485985965286545252e+01,-1.732712947092413742e+02,-2.053873854510707133e+02,-4.045971805359204154e+01,-1.468082576536244233e+01,9.484992027282714844e+00,-1.032640218734741211e+00,-3.824593424797058105e-01,2.890000000000000000e+02
-2.328564528774503515e+02,-1.556384558847257722e+02,-4.343513826078401507e+01,9.458545708096335147e+01,-1.742090639821124114e+02,-2.070903797539169773e+02,-4.089442158096017010e+01,-1.758554243816843154e+01,9.484992027282714844e+00,-1.032640218734741211e+00,-3.824593424797058105e-01,2.900000000000000000e+02
-2.335172778692142401e+02,-1.567245766576068036e+02,-4.474331680788372978e+01,9.458065548826425584e+01,-1.761753517848867432e+02,-2.088058905122004489e+02,-4.015271849953251149e+01,-2.039027701779286872e+01,9.484992027282714844e+00,-1.032640218734741211e+00,-3.824593424797058105e-01,2.910000000000000000e+02
-2.349889040905329693e+02,-1.574436341825110048e+02,-4.640056898509442362e+01,9.479287754266533739e+01,-1.787934636975719513e+02,-2.102229619600266233e+02,-3.920394087579029474e+01,-2.196621717154152975e+01,9.484992027282714844e+00,-1.032640218734741211e+00,-3.824593424797058105e-01,2.920000000000000000e+02
-2.368437254092656303e+02,-1.578112305395751491e+02,-4.714398866949977673e+01,9.548751151967394435e+01,-1.809668971146086278e+02,-2.109804049275371653e+02,-3.846816531382933135e+01,-2.175247589095670264e+01,9.484992027282714844e+00,-1.032640218734741211e+00,-3.824593424797058105e-01,2.930000000000000000e+02
-2.380586018229404317e+02,-1.577342350960087742e+02,-4.596265809055375939e+01,9.684134567682826855e+01,-1.815183351153737021e+02,-2.110617831022111659e+02,-3.768438303861444183e+01,-2.011483927324525212e+01,9.484992027282714844e+00,-1.032640218734741211e+00,-3.824593424797058105e-01,2.940000000000000000e+02
-2.380038638050707505e+02,-1.572544030375975126e+02,-4.316760823345975950e+01,9.854632177449775554e+01,-1.800570538087022214e+02,-2.109134245904092495e+02,-3.658661272807921705e+01,-1.800279445349383423e+01,9.484992027282714844e+00,-1.032640218734741211e+00,-3.824593424797058105e-01,2.950000000000000000e+02
-2.370805783015343877e+02,-1.566826274120065818e+02,-4.038701310403803291e+01,9.991433392628209731e+01,-1.773553307127226617e+02,-2.110700911271155746e+02,-3.554082335236807921e+01,-1.618915512337412110e+01,9.484992027282714844e+00,-1.032640218734741211e+00,-3.824593424797058105e-01,2.960000000000000000e+02
-2.364313297123176199e+02,-1.565177075935170024e+02,-3.939252766572644759e+01,1.004454916436923213e+02,-1.748874837507744360e+02,-2.116252200283202001e+02,-3.538951364652552911e+01,-1.479959267623985397e+01,9.484992027282714844e+00,-1.032640218734741211e+00,-3.824593424797058105e-01,2.970000000000000000e+02
-2.370487510688467410e+02,-1.572098320260212176e+02,-4.076160954958527327e+01,1.003064789404675139e+02,-1.738889773890959987e+02,-2.121270516881770618e+02,-3.663380214004291702e+01,-1.356456564072823312e+01,9.484992027282714844e+00,-1.032640218734741211e+00,-3.824593424797058105e-01,2.980000000000000000e+02
-2.390994449019651711e+02,-1.589314092461717109e+02,-4.354798207772091700e+01,1.001863530887699199e+02,-1.747005652330424255e+02,-2.120899784230559817e+02,-3.881476210061555321e+01,-1.249042473546069232e+01,9.484992027282714844e+00,-1.032640218734741211e+00,-3.824593424797058105e-01,2.990000000000000000e+02
-2.419445275870014029e+02,-1.614917257302379312e+02,-4.616515479342751860e+01,1.006049559209075142e+02,-1.768511239139151030e+02,-2.116562100237481445e+02,-4.076662515698626521e+01,-1.219322058218835991e+01,9.484992027282714844e+00,-1.032640218734741211e+00,-3.824593424797058105e-01,3.000000000000000000e+02
-2.446464928684758888e+02,-1.644253501004250211e+02,-4.757732079184870599e+01,1.013515845599251861e+02,-1.796122570344408587e+02,-2.116893749693624613e+02,-4.151848179382272974e+01,-1.344047487670388819e+01,9.484992027282714844e+00,-1.032640218734741211e+00,-3.824593424797058105e-01,3.010000000000000000e+02
-2.464509415385997499e+02,-1.671892918956149288e+02,-4.775667597344454407e+01,1.016541937376384794e+02,-1.824090135895236244e+02,-2.130943886134894001e+02,-4.100152671125852066e+01,-1.629930194508085606e+01,9.484992027282714844e+00,-1.032640218734741211e+00,-3.824593424797058105e-01,3.020000000000000000e+02
-2.469977123220414796e+02,-1.693565980123120198e+02,-4.721912085256985847e+01,1.009709724530209769e+02,-1.847832928108298347e+02,-2.159452095442454720e+02,-3.994964935554662588e+01,-1.977012662910840390e+01,9.484992027282714844e+00,-1.032640218734741211e+00,-3.824593424797058105e-01,3.030000000000000000e+02
-2.463938351480070423e+02,-1.707030860210754781e+02,-4.636441016994217534e+01,9.965195449081807055e+01,-1.861971550658208798e+02,-2.192567069214942421e+02,-3.919899359282567275e+01,-2.235090427291322612e+01,9.484992027282714844e+00,-1.032640218734741211e+00,-3.824593424797058105e-01,3.040000000000000000e+02
-2.452714418504997411e+02,-1.711983895175134194e+02,-4.536316394299819876e+01,9.877662413389839458e+01,-1.861451971410000397e+02,-2.216776906895079264e+02,-3.911459568157329159e+01,-2.309277592893602105e+01,9.484992027282714844e+00,-1.032640218734741211e+00,-3.824593424797058105e-01,3.050000000000000000e+02
-2.446644510397456997e+02,-1.709798275689275897e+02,-4.454520752993175847e+01,9.924085879222388940e+01,-1.846065820465370280e+02,-2.225105931227692508e+02,-3.958588519267959782e+01,-2.221177185645490226e+01,9.484992027282714844e+00,-1.032640218734741211e+00,-3.824593424797058105e-01,3.060000000000000000e+02
-2.454919984936179844e+02,-1.703238557415983223e+02,-4.458175565198530421e+01,1.009243044415977693e+02,-1.823264207458643114e+02,-2.221426662748860963e+02,-4.036023363349409010e+01,-2.073769258412198724e+01,9.484992027282714844e+00,-1.032640218734741211e+00,-3.824593424797058105e-01,3.070000000000000000e+02
-2.478510473880181735e+02,-1.695612004671844488e+02,-4.601564664654983972e+01,1.027301949566515304e+02,-1.804867547251327551e+02,-2.215406164959745183e+02,-4.122565359846203137e+01,-1.960591462792433504e+01,9.484992027282714844e+00,-1.032640218734741211e+00,-3.824593424797058105e-01,3.080000000000000000e+02
-2.507497496508033237e+02,-1.688965660979539507e+02,-4.856724172704241482e+01,1.034950178672429502e+02,-1.799527647464896063e+02,-2.213563463608414850e+02,-4.191654335050429836e+01,-1.906541772607204166e+01,9.484992027282714844e+00,-1.032640218734741211e+00,-3.824593424797058105e-01,3.090000000000000000e+02
-2.527204410230347094e+02,-1.682444246682830453e+02,-5.108242627131176050e+01,1.029370890833965859e+02,-1.807649561702501160e+02,-2.215104198998070615e+02,-4.206883641557192277e+01,-1.886706438619546589e+01,9.484992027282714844e+00,-1.032640218734741211e+00,-3.824593424797058105e-01,3.100000000000000000e+02
-2.529458013182996865e+02,-1.672848160349961972e+02,-5.240333283987183677e+01,1.017943582842779051e+02,-1.823185572477904088e+02,-2.215651175409662983e+02,-4.149376936582507369e+01,-1.885994352666295981e+01,9.484992027282714844e+00,-1.032640218734741211e+00,-3.824593424797058105e-01,3.110000000000000000e+02
-2.519094991283624267e+02,-1.657893308368392127e+02,-5.240814556291991266e+01,1.011028064906158761e+02,-1.839432224295042033e+02,-2.213646556969993071e+02,-4.052295288909022020e+01,-1.923839607034062738e+01,9.484992027282714844e+00,-1.032640218734741211e+00,-3.824593424797058105e-01,3.120000000000000000e+02
-2.509324084197984348e+02,-1.639794609821386757e+02,-5.215433441972186301e+01,1.013394501662321545e+02,-1.852485915000065688e+02,-2.211978281601561775e+02,-3.991677017451513620e+01,-2.015059504489727260e+01,9.408499717712402344e+00,-1.109132170677185059e+00,-4.589512646198272705e-01,3.130000000000000000e+02
-2.509798250326932703e+02,-1.625276097867418912e+02,-5.287381147333826448e+01,1.022233517184565699e+02,-1.859720193276119744e+02,-2.213251743863761476e+02,-4.022231244298097863e+01,-2.113473211230825655e+01,9.408499717712402344e+00,-1.109132170677185059e+00,-4.589512646198272705e-01,3.140000000000000000e+02
-2.518485977319296580e+02,-1.620754956269634022e+02,-5.473198149901134002e+01,1.032675583231539349e+02,-1.857229164014396474e+02,-2.214540289513724929e+02,-4.114307836948853492e+01,-2.112418837461382282e+01,9.408499717712402344e+00,-1.109132170677185059e+00,-4.589512646198272705e-01,3.150000000000000000e+02
-2.524832615827538120e+02,-1.626312559295597566e+02,-5.655897836264534817e+01,1.044346901015398998e+02,-1.841423900886117053e+02,-2.208233389681724930e+02,-4.163039383808347793e+01,-1.920468399763183243e+01,9.408499717712402344e+00,-1.109132170677185059e+00,-4.589512646198272705e-01,3.160000000000000000e+02
-2.520638276058307383e+02,-1.634312641367897641e+02,-5.686243325540317528e+01,1.061670608008967065e+02,-1.814210234196914371e+02,-2.189081382238762217e+02,-4.076646822130783221e+01,-1.551508090751315194e+01,9.408499717712402344e+00,-1.109132170677185059e+00,-4.589512646198272705e-01,3.170000000000000000e+02
-2.507626651644403637e+02,-1.634984570522938157e+02,-5.517819439571940165e+01,1.087278282577374284e+02,-1.785381019631879553e+02,-2.160706165401089720e+02,-3.868206885081951896e+01,-1.144103117206077513e+01,9.408499717712402344e+00,-1.109132170677185059e+00,-4.589512646198272705e-01,3.180000000000000000e+02
-2.494674613504892022e+02,-1.624582485923478998e+02,-5.251031219715480347e+01,1.115285886207589101e+02,-1.767496686550126697e+02,-2.134858118555262081e+02,-3.661095518319143594e+01,-8.823920188716556368e+00,9.408499717712402344e+00,-1.109132170677185059e+00,-4.589512646198272705e-01,3.190000000000000000e+02
-2.488415228478924064e+02,-1.608821433394159612e+02,-5.049574000449160849e+01,1.131865683568619261e+02,-1.766598275989920239e+02,-2.123586266987085764e+02,-3.597008079538920811e+01,-8.797090339226315336e+00,9.408499717712402344e+00,-1.109132170677185059e+00,-4.589512646198272705e-01,3.200000000000000000e+02
-2.487123417973824644e+02,-1.598183938859672253e+02,-5.008518139556952065e+01,1.124168100538581712e+02,-1.777423456417468515e+02,-2.130901182594511738e+02,-3.726415104089232955e+01,-1.115454710608537425e+01,9.408499717712402344e+00,-1.109132170677185059e+00,-4.589512646198272705e-01,3.210000000000000000e+02
-2.483569217017768551e+02,-1.599042616298614803e+02,-5.089700363528447724e+01,1.090905539164696165e+02,-1.788123576252380644e+02,-2.150523430206161493e+02,-3.974615150507122507e+01,-1.466716113885502182e+01,9.408499717712402344e+00,-1.109132170677185059e+00,-4.589512646198272705e-01,3.220000000000000000e+02
-2.472982631442848742e+02,-1.608422586170939894e+02,-5.170407484350425875e+01,1.045814137120039504e+02,-1.790217971734474531e+02,-2.170656459892435350e+02,-4.204664837913412612e+01,-1.796497926935580836e+01,9.408499717712402344e+00,-1.109132170677185059e+00,-4.589512646198272705e-01,3.230000000000000000e+02
-2.457643974219481606e+02,-1.616885344509520337e+02,-5.150184930793034255e+01,1.010482005792093787e+02,-1.784575465112330903e+02,-2.181353134462790422e+02,-4.315059908885143614e+01,-2.024295927026207664e+01,9.408499717712402344e+00,-1.109132170677185059e+00,-4.589512646198272705e-01,3.240000000000000000e+02
-2.444077557891914694e+02,-1.616692392485828123e+02,-5.022355331047333493e+01,1.001235613313585873e+02,-1.778606820055586013e+02,-2.179380396583968604e+02,-4.292245301239506716e+01,-2.137740648575800151e+01,9.408499717712402344e+00,-1.109132170677185059e+00,-4.589512646198272705e-01,3.250000000000000000e+02
-2.436840398929614366e+02,-1.608239946449183435e+02,-4.862650272516157202e+01,1.019190078394606189e+02,-1.778536406756526276e+02,-2.168552869392215143e+02,-4.193733383986966601e+01,-2.163599433851834419e+01,9.408499717712402344e+00,-1.109132170677185059e+00,-4.589512646198272705e-01,3.260000000000000000e+02
-2.435658617768197018e+02,-1.599836832597264902e+02,-4.763096708189937090e+01,1.050070054392674592e+02,-1.784690028087135261e+02,-2.156726768718531275e+02,-4.097965157062014896e+01,-2.140120239444866002e+01,9.408499717712402344e+00,-1.109132170677185059e+00,-4.589512646198272705e-01,3.270000000000000000e+02
-2.437920093310790435e+02,-1.601728849109766770e+02,-4.772398827947176869e+01,1.073208033450214316e+02,-1.793360262146227342e+02,-2.151553420435159296e+02,-4.065088751260884692e+01,-2.107717607763015621e+01,9.408499717712402344e+00,-1.109132170677185059e+00,-4.589512646198272705e-01,3.280000000000000000e+02
-2.442403114741188119e+02,-1.619196749904509716e+02,-4.879335121274539233e+01,1.073201990923228095e+02,-1.801467059346210817e+02,-2.156597949259619327e+02,-4.121595515768365203e+01,-2.099987728873043125e+01,9.408499717712402344e+00,-1.109132170677185059e+00,-4.589512646198272705e-01,3.290000000000000000e+02
-2.449644848581548331e+02,-1.648957008957673906e+02,-5.032211230521807011e+01,1.047158562258837264e+02,-1.808147884004564503e+02,-2.169078498193690621e+02,-4.253514209357547315e+01,-2.118715700298491811e+01,9.408499717712402344e+00,-1.109132170677185059e+00,-4.589512646198272705e-01,3.300000000000000000e+02
-2.459190474159590849e+02,-1.680308054664475321e+02,-5.167999164572688642e+01,1.004463381579853376e+02,-1.812197896740677834e+02,-2.180544542678726430e+02,-4.401293201677037814e+01,-2.111400234730183456e+01,9.408499717712402344e+00,-1.109132170677185059e+00,-4.589512646198272705e-01,3.310000000000000000e+02
-2.467778285226845583e+02,-1.700005561333274500e+02,-5.234949198113076818e+01,9.610973229919545702e+01,-1.809630725152542254e+02,-2.180744527906983876e+02,-4.472573387307511439e+01,-1.987274028590809394e+01,9.408499717712402344e+00,-1.109132170677185059e+00,-4.589512646198272705e-01,3.320000000000000000e+02
-2.470921318918483394e+02,-1.698666838374882673e+02,-5.208376820550131470e+01,9.327362452109719015e+01,-1.795501249406753459e+02,-2.162865048309431586e+02,-4.385975159157101189e+01,-1.679799483209194477e+01,9.408499717712402344e+00,-1.109132170677185059e+00,-4.589512646198272705e-01,3.330000000000000000e+02
-2.466129192400973125e+02,-1.675963032130021020e+02,-5.101350209289773829e+01,9.294288107327747639e+01,-1.768942204327477157e+02,-2.127224553834599874e+02,-4.128159344081166182e+01,-1.213364902834769055e+01,9.408499717712402344e+00,-1.109132170677185059e+00,-4.589512646198272705e-01,3.340000000000000000e+02
-2.454024350696471402e+02,-1.641561711598019428e+02,-4.961439974593656643e+01,9.525483780032345749e+01,-1.735952419754326002e+02,-2.081166749791592565e+02,-3.779023148102760388e+01,-7.123093405704480574e+00,9.408499717712402344e+00,-1.109132170677185059e+00,-4.589512646198272705e-01,3.350000000000000000e+02
-2.436361589364317979e+02,-1.610300329045553553e+02,-4.845369429526158456e+01,9.939602844311002627e+01,-1.706017104339615571e+02,-2.035384660383763276e+02,-3.473883937915377373e+01,-3.334838556657246045e+00,9.408499717712402344e+00,-1.109132170677185059e+00,-4.589512646198272705e-01,3.360000000000000000e+02
-2.413977189192390824e+02,-1.593797174703626069e+02,-4.782000521133898019e+01,1.038021602156329664e+02,-1.684998849438080697e+02,-1.999079127943513186e+02,-3.322196428710140026e+01,-1.713175560929016683e+00,9.408499717712402344e+00,-1.109132170677185059e+00,-4.589512646198272705e-01,3.370000000000000000e+02
-2.387545264446289366e+02,-1.593915279774377041e+02,-4.751366748141424523e+01,1.067291773257938985e+02,-1.670972594103500342e+02,-1.976716498006217080e+02,-3.341088299179239129e+01,-2.095288558977017601e+00,9.408499717712402344e+00,-1.109132170677185059e+00,-4.589512646198272705e-01,3.380000000000000000e+02
-2.360101116863708057e+02,-1.602863552381450063e+02,-4.700930470754701673e+01,1.070847606598065340e+02,-1.657098518765944846e+02,-1.967644630333293208e+02,-3.451271902683811277e+01,-3.505151612917984494e+00,9.408499717712402344e+00,-1.109132170677185059e+00,-4.589512646198272705e-01,3.390000000000000000e+02
-2.337355837612814753e+02,-1.609655308159796618e+02,-4.590175906782940274e+01,1.051103278522770097e+02,-1.638880409325491883e+02,-1.967858097726088999e+02,-3.532191025417273522e+01,-4.866415654198590346e+00,9.408499717712402344e+00,-9.943943619728088379e-01,-4.207052886486053467e-01,3.400000000000000000e+02
-2.323866410962590408e+02,-1.607524583110655385e+02,-4.426853886926664927e+01,1.024010575985216747e+02,-1.618834982444504931e+02,-1.972155512809002857e+02,-3.491756162659953588e+01,-5.524080342563706836e+00,9.408499717712402344e+00,-9.943943619728088379e-01,-4.207052886486053467e-01,3.410000000000000000e+02
-2.318372318565579349e+02,-1.596786159990976444e+02,-4.262671783502094058e+01,1.010691277029803814e+02,-1.604146633068687606e+02,-1.975447867089081910e+02,-3.306126190284066979e+01,-5.294207297573848336e+00,9.408499717712402344e+00,-9.943943619728088379e-01,-4.207052886486053467e-01,3.420000000000000000e+02
-2.313581278660756197e+02,-1.582281262280723126e+02,-4.152101359664470692e+01,1.024438201787390881e+02,-1.599810620443552125e+02,-1.973422618583185795e+02,-3.018252709445198434e+01,-4.285265322387658671e+00,9.408499717712402344e+00,-9.943943619728088379e-01,-4.207052886486053467e-01,3.430000000000000000e+02
-2.301734566412353615e+02,-1.569181592080701648e+02,-4.113435751279337182e+01,1.061416484112363605e+02,-1.603962815013142063e+02,-1.963533718185469752e+02,-2.712652393899611525e+01,-2.840807730518804419e+00,9.408499717712402344e+00,-9.943943619728088379e-01,-4.207052886486053467e-01,3.440000000000000000e+02
-2.281201708163378044e+02,-1.561138506062854958e+02,-4.127929666641955464e+01,1.102051719232715641e+02,-1.609696638177216528e+02,-1.946510396418241271e+02,-2.485236396344896548e+01,-1.606627665028895535e+00,9.408499717712402344e+00,-9.943943619728088379e-01,-4.207052886486053467e-01,3.450000000000000000e+02
-2.257774978304394153e+02,-1.560807496293069789e+02,-4.172739096773455003e+01,1.123030860867547744e+02,-1.611124613247245634e+02,-1.927161858822946670e+02,-2.412342325497536422e+01,-1.416083789725007591e+00,9.408499717712402344e+00,-9.943943619728088379e-01,-4.207052886486053467e-01,3.460000000000000000e+02
-2.239413603178087442e+02,-1.569832227476478010e+02,-4.249185259809348736e+01,1.111891908863984781e+02,-1.607614869274680132e+02,-1.912808039840967922e+02,-2.519958459863096323e+01,-2.841784677018722505e+00,9.408499717712402344e+00,-9.943943619728088379e-01,-4.207052886486053467e-01,3.470000000000000000e+02
-2.229577833293623144e+02,-1.586754308142487844e+02,-4.373489031429119223e+01,1.074011019014317299e+02,-1.602543598378490515e+02,-1.909302084135567839e+02,-2.765549480216964184e+01,-5.706773811793482309e+00,9.408499717712402344e+00,-9.943943619728088379e-01,-4.207052886486053467e-01,3.480000000000000000e+02
-2.225293617388754228e+02,-1.605360262412598331e+02,-4.539325932063377422e+01,1.027328075461746266e+02,-1.598650181993072010e+02,-1.917257580611075127e+02,-3.052128991316885731e+01,-9.047744012822136028e+00,9.408499717712402344e+00,-9.943943619728088379e-01,-4.207052886486053467e-01,3.490000000000000000e+02
-2.220992276027084245e+02,-1.617050293825235485e+02,-4.695696513067468914e+01,9.895896214885101472e+01,-1.595147197173131417e+02,-1.931742911286067965e+02,-3.277360898908500531e+01,-1.168729844204415258e+01,9.408499717712402344e+00,-9.943943619728088379e-01,-4.207052886486053467e-01,3.500000000000000000e+02
-2.213469349835368121e+02,-1.617005231587626213e+02,-4.770004466590285119e+01,9.682562053084609488e+01,-1.589218421353713211e+02,-1.946040344443708818e+02,-3.389592432740846562e+01,-1.298629996451052193e+01,9.408499717712402344e+00,-9.943943619728088379e-01,-4.207052886486053467e-01,3.510000000000000000e+02
-2.203034284659138393e+02,-1.609252103701221586e+02,-4.722163805076479548e+01,9.598681456596591488e+01,-1.579808260117999907e+02,-1.956383223232195405e+02,-3.410055445598720780e+01,-1.317623160068649213e+01,9.408499717712402344e+00,-9.943943619728088379e-01,-4.207052886486053467e-01,3.520000000000000000e+02
-2.190882420861046285e+02,-1.605259035142553330e+02,-4.581242964959710662e+01,9.571268740051618806e+01,-1.569588723435862221e+02,-1.963466108477928174e+02,-3.403597796752910654e+01,-1.305200123708914361e+01,9.408499717712402344e+00,-9.943943619728088379e-01,-4.207052886486053467e-01,3.530000000000000000e+02
-2.176827247697183338e+02,-1.616078723156664410e+02,-4.429004311358903578e+01,9.557734622616180786e+01,-1.563404153435360513e+02,-1.969791387649648868e+02,-3.423431037711441149e+01,-1.338062518815286239e+01,9.408499717712402344e+00,-9.943943619728088379e-01,-4.207052886486053467e-01,3.540000000000000000e+02
-2.160525405733407069e+02,-1.644007352566788995e+02,-4.346139030994822861e+01,9.553370800649213379e+01,-1.565116840926181112e+02,-1.976017530971963652e+02,-3.475500304852175759e+01,-1.454367358710453573e+01,9.408499717712402344e+00,-9.943943619728088379e-01,-4.207052886486053467e-01,3.550000000000000000e+02
-2.144466297173316889e+02,-1.680317763743119031e+02,-4.368067664549505480e+01,9.553067802512077833e+01,-1.575478842091077922e+02,-1.980121800365952822e+02,-3.526703236829325760e+01,-1.655123795692543354e+01,9.408499717712402344e+00,-9.943943619728088379e-01,-4.207052886486053467e-01,3.560000000000000000e+02
-2.134268075532347666e+02,-1.710442696203514288e+02,-4.483425204053492052e+01,9.530068004856616426e+01,-1.591926335378826707e+02,-1.979829189424590368e+02,-3.540561771075965680e+01,-1.918353834660956636e+01,9.408499717712402344e+00,-9.943943619728088379e-01,-4.207052886486053467e-01,3.570000000000000000e+02
-2.134639816066749063e+02,-1.722232739312945569e+02,-4.666153309370031366e+01,9.465816510523200122e+01,-1.609521347760206709e+02,-1.974972447674035720e+02,-3.503438430363303269e+01,-2.201150652040735167e+01,9.408499717712402344e+00,-9.943943619728088379e-01,-4.207052886486053467e-01,3.580000000000000000e+02
-2.144628648207080914e+02,-1.711731465009036128e+02,-4.902464564884598985e+01,9.394960142201102826e+01,-1.622457387977890448e+02,-1.967006195999886131e+02,-3.423548076681595376e+01,-2.439972528060218337e+01,9.408499717712402344e+00,-9.943943619728088379e-01,-4.207052886486053467e-01,3.590000000000000000e+02
-2.157090831302734841e+02,-1.684172469461689161e+02,-5.185077944759484581e+01,9.398746167640433669e+01,-1.626089742613630733e+02,-1.956510861562530863e+02,-3.315000052268533182e+01,-2.575264047199948436e+01,9.408499717712402344e+00,-9.943943619728088379e-01,-4.207052886486053467e-01,3.600000000000000000e+02
-2.163327048940935811e+02,-1.651359377513122126e+02,-5.485415349968491228e+01,9.531198829335266964e+01,-1.618954807298142669e+02,-1.941994471663224431e+02,-3.187772765236513806e+01,-2.597062889780238493e+01,9.408499717712402344e+00,-9.943943619728088379e-01,-4.207052886486053467e-01,3.610000000000000000e+02
-2.158668441093584534e+02,-1.627207941194144496e+02,-5.736859891823189628e+01,9.742789080786451450e+01,-1.603268544222787568e+02,-1.921810904431729341e+02,-3.050137551014063320e+01,-2.569721467206761645e+01,9.408499717712402344e+00,-9.943943619728088379e-01,-4.207052886486053467e-01,3.620000000000000000e+02
-2.144211280240623410e+02,-1.622111869082730209e+02,-5.854178389590390452e+01,9.888152594717280408e+01,-1.583098517665748659e+02,-1.897092935097314239e+02,-2.911656615083677480e+01,-2.597354312472805304e+01,9.408499717712402344e+00,-9.943943619728088379e-01,-4.207052886486053467e-01,3.630000000000000000e+02
-2.124093641826020757e+02,-1.637176129449366044e+02,-5.783099144315667672e+01,9.831829847881931528e+01,-1.561659121615035701e+02,-1.872085306625349403e+02,-2.775790613727861000e+01,-2.746389751645665456e+01,9.408499717712402344e+00,-9.943943619728088379e-01,-4.207052886486053467e-01,3.640000000000000000e+02
-2.101994621272827999e+02,-1.661585530586748973e+02,-5.547028813108340728e+01,9.566716959886002769e+01,-1.540641931243112595e+02,-1.851122960713848897e+02,-2.630422632761599289e+01,-2.994171048019131831e+01,9.408499717712402344e+00,-9.943943619728088379e-01,-4.207052886486053467e-01,3.650000000000000000e+02
-2.080237094153904991e+02,-1.676930918280942251e+02,-5.253606185099795312e+01,9.236921903671623113e+01,-1.522285290948007059e+02,-1.835245432605481710e+02,-2.453140795338686075e+01,-3.254589325703955183e+01,9.408499717712402344e+00,-9.943943619728088379e-01,-4.207052886486053467e-01,3.660000000000000000e+02
-2.060971522739761213e+02,-1.668093943848343770e+02,-5.045326495526751387e+01,9.038277524907402949e+01,-1.511119743851894555e+02,-1.821940282124660371e+02,-2.234055535295101436e+01,-3.457591842592069042e+01,9.408499717712402344e+00,-9.943943619728088379e-01,-4.207052886486053467e-01,3.670000000000000000e+02
-2.046254446034801049e+02,-1.634002386675714433e+02,-5.015951719840893475e+01,9.080094156286713769e+01,-1.511825166802778995e+02,-1.808015637775533833e+02,-1.995539322999889009e+01,-3.602914726348205932e+01,9.408499717712402344e+00,-9.943943619728088379e-01,-4.207052886486053467e-01,3.680000000000000000e+02
-2.035799491932065166e+02,-1.589693877643835549e+02,-5.144585794840759263e+01,9.322327331901828984e+01,-1.523855753103579218e+02,-1.792318984962821560e+02,-1.786393130505416593e+01,-3.733272235243043724e+01,9.408499717712402344e+00,-9.943943619728088379e-01,-4.207052886486053467e-01,3.690000000000000000e+02
-2.025100626587591250e+02,-1.556888275033932132e+02,-5.299553233158280818e+01,9.626682012516857867e+01,-1.538135683926815318e+02,-1.775644896294547834e+02,-1.651788891871296983e+01,-3.859411975709531362e+01,9.408499717712402344e+00,-9.943943619728088379e-01,-4.207052886486053467e-01,3.700000000000000000e+02
-2.007407836413684663e+02,-1.549627616138537860e+02,-5.322616627867580519e+01,9.859312684804217497e+01,-1.540640336669301860e+02,-1.758591988051543922e+02,-1.603680223411379302e+01,-3.924305088468418035e+01,9.523238182067871094e+00,-1.070886254310607910e+00,-4.207052886486053467e-01,3.710000000000000000e+02
-1.979293317808942447e+02,-1.565883731775342085e+02,-5.143815620077634776e+01,9.953778543074190566e+01,-1.521632471533009721e+02,-1.740466755604261380e+02,-1.616724432480054929e+01,-3.856282391705258306e+01,9.523238182067871094e+00,-1.070886254310607910e+00,-4.207052886486053467e-01,3.720000000000000000e+02
-1.945151022979028994e+02,-1.591139993068843523e+02,-4.842569586856438946e+01,9.902768770829470668e+01,-1.483195576547755081e+02,-1.720730649456891115e+02,-1.649499476903440609e+01,-3.662682119118994706e+01,9.523238182067871094e+00,-1.070886254310607910e+00,-4.207052886486053467e-01,3.730000000000000000e+02
-1.915750720736526773e+02,-1.609899720299279124e+02,-4.599295409836531690e+01,9.722921158747135451e+01,-1.438360290178986816e+02,-1.701042931863853482e+02,-1.667529835285904483e+01,-3.462640092702952188e+01,9.523238182067871094e+00,-1.070886254310607910e+00,-4.207052886486053467e-01,3.740000000000000000e+02
-1.901014439947534811e+02,-1.615136695451969899e+02,-4.564361051163189131e+01,9.447861706200160370e+01,-1.402222642075257681e+02,-1.684821778587217977e+02,-1.650126410173152181e+01,-3.411048579136979697e+01,9.523238182067871094e+00,-1.070886254310607910e+00,-4.207052886486053467e-01,3.750000000000000000e+02
-1.902694087659234583e+02,-1.608980144695882473e+02,-4.742566950972127415e+01,9.148839957214590868e+01,-1.382181004024801041e+02,-1.674011448631526946e+02,-1.585661294130431997e+01,-3.574983077389811115e+01,9.523238182067871094e+00,-1.070886254310607910e+00,-4.207052886486053467e-01,3.760000000000000000e+02
-1.913005285621900384e+02,-1.596522991385895693e+02,-4.988916918229210751e+01,8.932154897696977969e+01,-1.374813367870210641e+02,-1.666458771951824929e+02,-1.474267950293142349e+01,-3.879003360294223057e+01,9.523238182067871094e+00,-1.070886254310607910e+00,-4.207052886486053467e-01,3.770000000000000000e+02
-1.920014063794783397e+02,-1.579992470040840544e+02,-5.122520287843406095e+01,8.883506163865604321e+01,-1.370740578589206962e+02,-1.657285113796733640e+02,-1.341955637501132514e+01,-4.173496355633517396e+01,9.523238182067871094e+00,-1.070886254310607910e+00,-4.207052886486053467e-01,3.780000000000000000e+02
-1.915021647731359735e+02,-1.558484531443614287e+02,-5.066016169069462194e+01,8.997962579185355025e+01,-1.362446030888313544e+02,-1.643676439030791698e+02,-1.245462608533694038e+01,-4.363008839083067869e+01,9.523238182067871094e+00,-1.070886254310607910e+00,-4.207052886486053467e-01,3.790000000000000000e+02
-1.896400456297271830e+02,-1.531841508322793288e+02,-4.896136584240571210e+01,9.170366308278926226e+01,-1.348846770218642632e+02,-1.628421094322154659e+02,-1.244202206654608744e+01,-4.473228278628585031e+01,9.523238182067871094e+00,-1.070886254310607910e+00,-4.207052886486053467e-01,3.800000000000000000e+02
-1.868201605384924733e+02,-1.503350013112649322e+02,-4.766185473229234049e+01,9.273848250778087277e+01,-1.334116291804082266e+02,-1.617972786676205033e+02,-1.348445256299487482e+01,-4.595770334806593382e+01,9.523238182067871094e+00,-1.070886254310607910e+00,-4.207052886486053467e-01,3.810000000000000000e+02
-1.836348228082747482e+02,-1.478265357642271738e+02,-4.772328415036622573e+01,9.263662801244345246e+01,-1.322967379584781611e+02,-1.616128284236274339e+02,-1.490272694770078488e+01,-4.771313894982813508e+01,9.523238182067871094e+00,-1.070886254310607910e+00,-4.207052886486053467e-01,3.820000000000000000e+02
-1.806106565977001992e+02,-1.460231217999285036e+02,-4.883005056940942268e+01,9.207028854361783488e+01,-1.316659202987004846e+02,-1.619378525284812440e+02,-1.557957352493644976e+01,-4.932798330629998418e+01,9.523238182067871094e+00,-1.070886254310607910e+00,-4.207052886486053467e-01,3.830000000000000000e+02
-1.781673875058934300e+02,-1.449455829700275444e+02,-4.987416364598857399e+01,9.205048674642694095e+01,-1.312437178160498661e+02,-1.619001497514450421e+02,-1.479758278305280328e+01,-4.967336501391241654e+01,9.523238182067871094e+00,-1.070886254310607910e+00,-4.207052886486053467e-01,3.840000000000000000e+02
-1.766027725543697215e+02,-1.444015182582070338e+02,-5.008491034483699877e+01,9.279883805385543383e+01,-1.306159120652525871e+02,-1.608520065824745870e+02,-1.288423448574758368e+01,-4.835054739635643273e+01,9.523238182067871094e+00,-1.070886254310607910e+00,-4.207052886486053467e-01,3.850000000000000000e+02
-1.759511689064497659e+02,-1.442005812758109187e+02,-4.972048578735325464e+01,9.339540905335206844e+01,-1.295813964636279252e+02,-1.589614042664079534e+02,-1.104363110362555744e+01,-4.626560030237260435e+01,9.523238182067871094e+00,-1.070886254310607910e+00,-4.207052886486053467e-01,3.860000000000000000e+02
-1.758094254707134496e+02,-1.441707676546061521e+02,-4.970344967696564709e+01,9.261410539076746318e+01,-1.283124941041285183e+02,-1.570509628827539927e+02,-1.042849405981451127e+01,-4.498566714560843138e+01,9.523238182067871094e+00,-1.070886254310607910e+00,-4.207052886486053467e-01,3.870000000000000000e+02
-1.754009745814705639e+02,-1.440096470758742271e+02,-5.059934483289521268e+01,9.018092332784226528e+01,-1.271861374419545427e+02,-1.558102755811551106e+02,-1.122957292347678049e+01,-4.544530064118271184e+01,9.523238182067871094e+00,-1.070886254310607910e+00,-4.207052886486053467e-01,3.880000000000000000e+02
-1.739700831962627490e+02,-1.432730959403220368e+02,-5.194884874493618554e+01,8.722644831600996440e+01,-1.264194466673554871e+02,-1.551504712884877790e+02,-1.259291254208437749e+01,-4.718788785439846833e+01,9.523238182067871094e+00,-1.070886254310607910e+00,-4.207052886486053467e-01,3.890000000000000000e+02
-1.712589913205072207e+02,-1.416775649272417468e+02,-5.259165597668697956e+01,8.543063478144267719e+01,-1.258207980114520979e+02,-1.543397244957950534e+02,-1.340969324183583922e+01,-4.879330244311086062e+01,9.523238182067871094e+00,-1.070886254310607910e+00,-4.207052886486053467e-01,3.900000000000000000e+02
-1.676819770658635207e+02,-1.394799573031773434e+02,-5.165091984587752449e+01,8.560394189573639778e+01,-1.248914063502807039e+02,-1.527689034224322313e+02,-1.321318233056399549e+01,-4.903681358659105172e+01,9.523238182067871094e+00,-1.070886254310607910e+00,-4.207052886486053467e-01,3.910000000000000000e+02
-1.640363526695182372e+02,-1.374717388330182075e+02,-4.925191701984022075e+01,8.700401036327593829e+01,-1.232310061282148581e+02,-1.505591071308638220e+02,-1.235636933239720747e+01,-4.773498061350437638e+01,9.484992027282714844e+00,-9.943943619728088379e-01,-4.971971809864044189e-01,3.920000000000000000e+02
-1.609866177777262237e+02,-1.364013457596265653e+02,-4.635222356360236518e+01,8.801021847078254723e+01,-1.209105164497955229e+02,-1.483926442838992443e+02,-1.139780229644657084e+01,-4.564050998386733227e+01,9.484992027282714844e+00,-9.943943619728088379e-01,-4.971971809864044189e-01,3.930000000000000000e+02
-1.587402446666833384e+02,-1.362424912894634872e+02,-4.391642502046670415e+01,8.752309479895825461e+01,-1.184778298625537900e+02,-1.467744958304569991e+02,-1.042310939170329220e+01,-4.367133125629629831e+01,9.484992027282714844e+00,-9.943943619728088379e-01,-4.971971809864044189e-01,3.940000000000000000e+02
-1.571225373827173826e+02,-1.360154206220831838e+02,-4.223346097713283598e+01,8.583444082337837244e+01,-1.165720220212956519e+02,-1.455307027433891562e+02,-9.056975180193603592e+00,-4.228147775058414481e+01,9.484992027282714844e+00,-9.943943619728088379e-01,-4.971971809864044189e-01,3.950000000000000000e+02
-1.558782775919248706e+02,-1.344627096474641803e+02,-4.094788730859090720e+01,8.425295004104555119e+01,-1.154679045585805852e+02,-1.440704473610012428e+02,-7.121052471384246019e+00,-4.146074808837647652e+01,9.484992027282714844e+00,-9.943943619728088379e-01,-4.971971809864044189e-01,3.960000000000000000e+02
-1.548698141378426953e+02,-1.311203820218361216e+02,-3.965049639099015621e+01,8.389079020839153600e+01,-1.149250441465710537e+02,-1.421209393670997088e+02,-5.163720934436696552e+00,-4.112799990589383015e+01,9.484992027282714844e+00,-9.943943619728088379e-01,-4.971971809864044189e-01,3.970000000000000000e+02
-1.540365703128272798e+02,-1.268709864210536580e+02,-3.837064068214112922e+01,8.471524447050865092e+01,-1.144279660339757356e+02,-1.401291851241255699e+02,-4.191623167986335829e+00,-4.134109148944457957e+01,9.484992027282714844e+00,-9.943943619728088379e-01,-4.971971809864044189e-01,3.980000000000000000e+02
-1.532815491706383000e+02,-1.234145374318864015e+02,-3.749224587851426804e+01,8.564534283272814719e+01,-1.135626319894968219e+02,-1.388777211581377742e+02,-4.762287848627011044e+00,-4.207575756500159514e+01,9.484992027282714844e+00,-9.943943619728088379e-01,-4.971971809864044189e-01,3.990000000000000000e+02
-1.525063989283103183e+02,-1.220081018719206440e+02,-3.724169965700275498e+01,8.553362356169236591e+01,-1.121989930118552365e+02,-1.386927368705946719e+02,-6.300758877000589564e+00,-4.289835024370972860e+01,9.484992027282714844e+00,-9.943943619728088379e-01,-4.971971809864044189e-01,4.000000000000000000e+02
-1.517648165984194293e+02,-1.224895543806660498e+02,-3.730464034707279097e+01,8.415594770231928123e+01,-1.103951365647826606e+02,-1.390554411005405200e+02,-7.364301482137079802e+00,-4.302643397544511572e+01,9.484992027282714844e+00,-9.943943619728088379e-01,-4.971971809864044189e-01,4.010000000000000000e+02
-1.512860520614860889e+02,-1.234042679860140197e+02,-3.697216221876351483e+01,8.240349725910255074e+01,-1.082349575843372804e+02,-1.390206674599930921e+02,-6.712668808191665448e+00,-4.185920270869701199e+01,9.484992027282714844e+00,-9.943943619728088379e-01,-4.971971809864044189e-01,4.020000000000000000e+02
-1.512237296193770817e+02,-1.231172075577633223e+02,-3.570802568239832908e+01,8.157663247820437391e+01,-1.058355114486269031e+02,-1.380317890953333517e+02,-4.286764132933967630e+00,-3.951933494736795183e+01,9.484992027282714844e+00,-9.943943619728088379e-01,-4.971971809864044189e-01,4.030000000000000000e+02
-1.513345723144022941e+02,-1.209809734517268680e+02,-3.362529219095722510e+01,8.238425507701185779e+01,-1.035023451940521682e+02,-1.363558825465788686e+02,-1.281133684016822372e+00,-3.686654909933008639e+01,9.484992027282714844e+00,-9.943943619728088379e-01,-4.971971809864044189e-01,4.040000000000000000e+02
-1.509626875847839074e+02,-1.176290477708705566e+02,-3.143315386175436288e+01,8.445763145037335562e+01,-1.017493975581182895e+02,-1.347515074269031174e+02,7.468094385990298179e-01,-3.488824025907388204e+01,9.484992027282714844e+00,-9.943943619728088379e-01,-4.971971809864044189e-01,4.050000000000000000e+02
-1.494878780382716741e+02,-1.142579120304872049e+02,-2.989715719190780874e+01,8.674178517905011176e+01,-1.009864258344384780e+02,-1.337127219782341854e+02,1.011057452868953987e+00,-3.395320555895909820e+01,9.484992027282714844e+00,-9.943943619728088379e-01,-4.971971809864044189e-01,4.060000000000000000e+02
-1.469187427412975921e+02,-1.116240286210254453e+02,-2.926959198683107388e+01,8.841232644969682042e+01,-1.010545568699039904e+02,-1.329879856975262555e+02,2.158171901419336791e-02,-3.354789791428265744e+01,9.484992027282714844e+00,-9.943943619728088379e-01,-4.971971809864044189e-01,4.070000000000000000e+02
-1.440710073322852622e+02,-1.096335755847946984e+02,-2.915423902925795119e+01,8.952030347125105436e+01,-1.010900524935489102e+02,-1.317725663290816556e+02,-8.369126867867180408e-01,-3.270331093178310766e+01,9.484992027282714844e+00,-9.943943619728088379e-01,-4.971971809864044189e-01,4.080000000000000000e+02
-1.420595417256413384e+02,-1.077692670357714633e+02,-2.888605425207288135e+01,9.078190894020303858e+01,-9.999447015371424641e+01,-1.293735219230420626e+02,-3.234393608115624374e-01,-3.074400649575977695e+01,9.484992027282714844e+00,-9.943943619728088379e-01,-4.971971809864044189e-01,4.090000000000000000e+02
-1.414495454373070515e+02,-1.058189765037918733e+02,-2.806979286658361161e+01,9.268205442467046851e+01,-9.723921156718097336e+01,-1.257903279427373491e+02,1.787257111093822459e+00,-2.777556213586876765e+01,9.484992027282714844e+00,-9.943943619728088379e-01,-4.971971809864044189e-01,4.100000000000000000e+02
-1.417657625991778332e+02,-1.041426927802929185e+02,-2.681801348854946809e+01,9.472578039759059720e+01,-9.334462092280000434e+01,-1.217779689574090298e+02,4.572587396626204281e+00,-2.459374493661016459e+01,9.484992027282714844e+00,-9.943943619728088379e-01,-4.971971809864044189e-01,4.110000000000000000e+02
-1.417863167702362261e+02,-1.032473788258773766e+02,-2.552352447799898982e+01,9.562081890414310692e+01,-8.956832519435965878e+01,-1.183880197080316066e+02,6.636445583468230325e+00,-2.215465809954639553e+01,9.484992027282714844e+00,-9.943943619728088379e-01,-4.971971809864044189e-01,4.120000000000000000e+02
-1.404160057500594121e+02,-1.031418242409251889e+02,-2.445259626328856939e+01,9.436379572612804623e+01,-8.701712675957469401e+01,-1.163405880269729096e+02,7.083167741064244183e+00,-2.101614214723326768e+01,9.484992027282714844e+00,-9.943943619728088379e-01,-4.971971809864044189e-01,4.130000000000000000e+02
-1.374740781343318758e+02,-1.031527593761429671e+02,-2.359814201631343167e+01,9.130472130198768355e+01,-8.594612324282934424e+01,-1.156419090104750467e+02,6.080120074636852223e+00,-2.108790129484032150e+01,9.484992027282714844e+00,-9.943943619728088379e-01,-4.971971809864044189e-01,4.140000000000000000e+02
-1.338000327830436618e+02,-1.024213529856795049e+02,-2.289886568886231544e+01,8.817302897221452440e+01,-8.580307380650128835e+01,-1.156488481428891646e+02,4.647604584732789590e+00,-2.174152920468304728e+01,9.484992027282714844e+00,-9.943943619728088379e-01,-4.971971809864044189e-01,4.150000000000000000e+02
-1.306110654794656512e+02,-1.006176539073321692e+02,-2.249054728410328607e+01,8.693429470573482831e+01,-8.584341013000471321e+01,-1.154652571269502914e+02,3.918716394897273858e+00,-2.212365440670100725e+01,9.484992027282714844e+00,-9.943943619728088379e-01,-4.971971809864044189e-01,4.160000000000000000e+02
-1.286091660065058022e+02,-9.820375760329420700e+01,-2.259192241020059555e+01,8.838512187967535283e+01,-8.565460357165238747e+01,-1.144012170455112027e+02,4.474162891981450230e+00,-2.151921092045222395e+01,9.446745872497558594e+00,-1.070886254310607910e+00,-4.589512646198272705e-01,4.170000000000000000e+02
-1.275073348559144506e+02,-9.598938604121644858e+01,-2.305949364135244650e+01,9.165358358292269259e+01,-8.514497826401611746e+01,-1.122552658398640233e+02,6.187152416559911217e+00,-1.968041340228865010e+01,9.446745872497558594e+00,-1.070886254310607910e+00,-4.589512646198272705e-01,4.180000000000000000e+02
-1.263209427596780188e+02,-9.439082788823884584e+01,-2.313832415489696359e+01,9.496472134538635146e+01,-8.421668743239820287e+01,-1.093460134987599304e+02,8.498811765919299432e+00,-1.703412342986916883e+01,9.446745872497558594e+00,-1.070886254310607910e+00,-4.589512646198272705e-01,4.190000000000000000e+02
-1.241956532459269056e+02,-9.311083514614688283e+01,-2.188578540494995650e+01,9.692696251019515330e+01,-8.268077150448334578e+01,-1.063557571073943109e+02,1.073078921295427790e+01,-1.462188537608858496e+01,9.446745872497558594e+00,-1.070886254310607910e+00,-4.589512646198272705e-01,4.200000000000000000e+02
-1.211289082276098270e+02,-9.155005550768373723e+01,-1.907628331276237077e+01,9.725748044039437445e+01,-8.060967521802899682e+01,-1.040663587245398958e+02,1.220145141937655353e+01,-1.366613314836740756e+01,9.446745872497558594e+00,-1.070886254310607910e+00,-4.589512646198272705e-01,4.210000000000000000e+02
-1.180000169573381754e+02,-8.955795921063304377e+01,-1.573371922570208881e+01,9.651651905664903097e+01,-7.867456070191860817e+01,-1.030519918963036616e+02,1.231351884206469549e+01,-1.488199529669827825e+01,9.446745872497558594e+00,-1.070886254310607910e+00,-4.589512646198272705e-01,4.220000000000000000e+02
-1.158723542226016434e+02,-8.776549614674536315e+01,-1.360141590299826930e+01,9.534423903858623817e+01,-7.789755467720920024e+01,-1.034081797740873299e+02,1.085063976284618548e+01,-1.793549809519049631e+01,9.446745872497558594e+00,-1.070886254310607910e+00,-4.589512646198272705e-01,4.230000000000000000e+02
-1.151412046674681733e+02,-8.709501542956945741e+01,-1.381965770229680857e+01,9.399546699402253580e+01,-7.886338341329633295e+01,-1.046653645369606238e+02,8.357272761641297620e+00,-2.148807819122339424e+01,9.446745872497558594e+00,-1.070886254310607910e+00,-4.589512646198272705e-01,4.240000000000000000e+02
-1.152586142240577374e+02,-8.784188560264465195e+01,-1.593988805474782566e+01,9.247267498332439573e+01,-8.109301847957976861e+01,-1.059941133156480646e+02,6.123229861297886600e+00,-2.390181720180407865e+01,9.446745872497558594e+00,-1.070886254310607910e+00,-4.589512646198272705e-01,4.250000000000000000e+02
-1.152848792153538398e+02,-8.919319347590635516e+01,-1.822149281558108669e+01,9.089838709833202302e+01,-8.323798905312878560e+01,-1.066236085125196951e+02,5.493921295873633426e+00,-2.415402490791416312e+01,9.446745872497558594e+00,-1.070886254310607910e+00,-4.589512646198272705e-01,4.260000000000000000e+02
-1.147607156730355200e+02,-8.971477433028871928e+01,-1.901535519297999599e+01,8.962235518106717791e+01,-8.399668695453328837e+01,-1.062075212599493170e+02,6.920188217251961760e+00,-2.231594253687126184e+01,9.446745872497558594e+00,-1.070886254310607910e+00,-4.589512646198272705e-01,4.270000000000000000e+02
-1.140872970158334283e+02,-8.847181533637194661e+01,-1.803146246516803330e+01,8.897378419713868425e+01,-8.296585278692145948e+01,-1.048838424218683940e+02,9.579115885954252008e+00,-1.928905202129226382e+01,9.446745872497558594e+00,-1.070886254310607910e+00,-4.589512646198272705e-01,4.280000000000000000e+02
-1.140363581437588891e+02,-8.581429605476932920e+01,-1.637466483084472202e+01,8.897891621334019874e+01,-8.072248852827215160e+01,-1.030338224304305186e+02,1.199516365933050110e+01,-1.610170301851508157e+01,9.446745872497558594e+00,-1.070886254310607910e+00,-4.589512646198272705e-01,4.290000000000000000e+02
-1.148502148851034690e+02,-8.309361353562940167e+01,-1.539829388549560463e+01,8.935918830967329995e+01,-7.818368176537342151e+01,-1.009932722971125258e+02,1.317938065034059036e+01,-1.338988990606299012e+01,9.446745872497558594e+00,-1.070886254310607910e+00,-4.589512646198272705e-01,4.300000000000000000e+02
-1.158219006217047991e+02,-8.153095169301263923e+01,-1.550152595457211646e+01,8.978120596263715925e+01,-7.592281366385714136e+01,-9.896078031036904576e+01,1.328562562678121139e+01,-1.140521056339025563e+01,9.446745872497558594e+00,-1.070886254310607910e+00,-4.589512646198272705e-01,4.310000000000000000e+02
-1.158052953369838178e+02,-8.124611211905335040e+01,-1.594314240405583405e+01,9.007423045679843199e+01,-7.401823600306897788e+01,-9.710120035423869922e+01,1.323600829019960656e+01,-1.032034550286516605e+01,9.446745872497558594e+00,-1.070886254310607910e+00,-4.589512646198272705e-01,4.320000000000000000e+02
-1.142018598756728807e+02,-8.132594916460061540e+01,-1.568546782317889665e+01,9.021341647364897653e+01,-7.237636592454055062e+01,-9.563383491039758155e+01,1.376446418422892748e+01,-1.033641343991598660e+01,9.446745872497558594e+00,-1.070886254310607910e+00,-4.589512646198272705e-01,4.330000000000000000e+02
-1.114990509270173789e+02,-8.083083334748562265e+01,-1.432872153934158632e+01,9.013485081244789399e+01,-7.104452181942224342e+01,-9.476296823941811454e+01,1.483159444237116986e+01,-1.141954170212898134e+01,9.446745872497558594e+00,-1.070886254310607910e+00,-4.589512646198272705e-01,4.340000000000000000e+02
-1.088464181390443173e+02,-7.976942306725209164e+01,-1.225900193127245075e+01,8.959541644163709861e+01,-7.017528408846237653e+01,-9.453928483847630559e+01,1.587814822285645278e+01,-1.302391174639842575e+01,9.446745872497558594e+00,-1.070886254310607910e+00,-4.589512646198272705e-01,4.350000000000000000e+02
-1.070701467631158721e+02,-7.908836229222947622e+01,-1.005351073480142077e+01,8.824027157524960785e+01,-6.975277640614376651e+01,-9.481507004649984083e+01,1.650738584989358060e+01,-1.425537950122361508e+01,9.446745872497558594e+00,-1.070886254310607910e+00,-4.589512646198272705e-01,4.360000000000000000e+02
-1.060485315242494835e+02,-7.967038035149039388e+01,-7.920726101885065873e+00,8.585839639919231558e+01,-6.945662441298918566e+01,-9.534142419322597561e+01,1.680631520225779241e+01,-1.447583232073066029e+01,9.446745872497558594e+00,-1.070886254310607910e+00,-4.589512646198272705e-01,4.370000000000000000e+02
-1.050131637536455855e+02,-8.131877799919493555e+01,-5.801187123928229994e+00,8.265425930612400407e+01,-6.887371281942660062e+01,-9.589431721675009612e+01,1.701648389001093165e+01,-1.382913033631075450e+01,9.446745872497558594e+00,-1.070886254310607910e+00,-4.589512646198272705e-01,4.380000000000000000e+02
-1.034518613348996041e+02,-8.272408200450968252e+01,-3.925482224774668794e+00,7.935010781889968712e+01,-6.786928884729195488e+01,-9.629674892995353730e+01,1.703559385009612015e+01,-1.312418761316075688e+01,9.446745872497558594e+00,-1.070886254310607910e+00,-4.589512646198272705e-01,4.390000000000000000e+02
-1.017029444829036038e+02,-8.248332364557836627e+01,-3.050330387469102789e+00,7.699120881517683301e+01,-6.672813717520102728e+01,-9.636647442582670919e+01,1.641535475466389471e+01,-1.309091835075423660e+01,9.446745872497558594e+00,-1.070886254310607910e+00,-4.589512646198272705e-01,4.400000000000000000e+02
-1.006396295821414242e+02,-8.026583903409073173e+01,-3.935128103906890829e+00,7.645952937570837094e+01,-6.589840963190727052e+01,-9.592508022091851672e+01,1.492831460304751090e+01,-1.367282055165742349e+01,9.446745872497558594e+00,-1.070886254310607910e+00,-4.589512646198272705e-01,4.410000000000000000e+02
-1.007318611001724094e+02,-7.707559310674332664e+01,-6.461616400866205367e+00,7.792653023006823787e+01,-6.554809893876472415e+01,-9.490873373213753439e+01,1.309402495219728735e+01,-1.402311846628754211e+01,9.446745872497558594e+00,-1.070886254310607910e+00,-4.589512646198272705e-01,4.420000000000000000e+02
-1.013854413869780728e+02,-7.439197248839764143e+01,-9.295261840407647469e+00,8.063342776512308774e+01,-6.534872306783336171e+01,-9.346978154363068825e+01,1.202498645142713940e+01,-1.324681716637587670e+01,9.446745872497558594e+00,-1.070886254310607910e+00,-4.589512646198272705e-01,4.430000000000000000e+02
-1.012445777319271656e+02,-7.299214598703656520e+01,-1.059546859560578014e+01,8.323586979409174091e+01,-6.473475689459792193e+01,-9.194935779019670008e+01,1.261207370532110872e+01,-1.125779623300809362e+01,9.484992027282714844e+00,-1.070886254310607910e+00,-4.589512646198272705e-01,4.440000000000000000e+02
-9.927043867877000594e+01,-7.249471684583932074e+01,-9.339311523042852059e+00,8.454847117099279785e+01,-6.347459224935300881e+01,-9.073679454674447697e+01,1.474909587586626003e+01,-9.018702975648011488e+00,9.484992027282714844e+00,-1.070886254310607910e+00,-4.589512646198272705e-01,4.450000000000000000e+02
-9.567474838528687542e+01,-7.193728821629929371e+01,-6.189671691730836756e+00,8.418031458823679714e+01,-6.205650975386424761e+01,-9.012970642303844215e+01,1.729852864153008341e+01,-7.957056530371119152e+00,9.484992027282714844e+00,-1.070886254310607910e+00,-4.589512646198272705e-01,4.460000000000000000e+02
-9.187047507904571830e+01,-7.074782501466415852e+01,-3.128067297403958946e+00,8.261168334703097571e+01,-6.146195693086792744e+01,-9.025330924156560286e+01,1.887156113112314415e+01,-8.984950182381226114e+00,9.484992027282714844e+00,-1.070886254310607910e+00,-4.589512646198272705e-01,4.470000000000000000e+02
-8.941847961804432998e+01,-6.918623961083130780e+01,-2.047238094085059856e+00,8.072090218451012333e+01,-6.238957194055774380e+01,-9.099433160490752925e+01,1.880111089522779366e+01,-1.181316577009806679e+01,9.484992027282714844e+00,-1.070886254310607910e+00,-4.589512646198272705e-01,4.480000000000000000e+02
-8.883672774053866306e+01,-6.793196649052015346e+01,-3.350394994752605271e+00,7.921355202670611106e+01,-6.452108249255570627e+01,-9.192865494684065197e+01,1.755509905508142765e+01,-1.500199667716674412e+01,9.484992027282714844e+00,-1.070886254310607910e+00,-4.589512646198272705e-01,4.490000000000000000e+02
-8.927084430193872322e+01,-6.732554702316338080e+01,-5.635012373476229186e+00,7.840408442959869717e+01,-6.648525963321844756e+01,-9.235220898523448341e+01,1.632271303361812897e+01,-1.670544152761476653e+01,9.484992027282714844e+00,-1.070886254310607910e+00,-4.589512646198272705e-01,4.500000000000000000e+02
-8.929207443830591728e+01,-6.702798996213641658e+01,-6.723013519606638511e+00,7.837561711430316791e+01,-6.665924996705280137e+01,-9.155662715087692050e+01,1.613541389976899154e+01,-1.569454452560285063e+01,9.484992027282714844e+00,-1.070886254310607910e+00,-4.589512646198272705e-01,4.510000000000000000e+02
-8.812161989226160586e+01,-6.638502571576054834e+01,-5.256779656535172762e+00,7.916530438531844993e+01,-6.423676578226877609e+01,-8.927423440223947182e+01,1.718734531765403517e+01,-1.208063123541114692e+01,9.484992027282714844e+00,-1.070886254310607910e+00,-4.589512646198272705e-01,4.520000000000000000e+02
-8.622880194542904064e+01,-6.508877335163060707e+01,-1.658224538905187728e+00,8.067417365223036541e+01,-5.974454747633717488e+01,-8.596349818640965168e+01,1.879577831738060922e+01,-7.290852499239917961e+00,9.484992027282714844e+00,-1.070886254310607910e+00,-4.589512646198272705e-01,4.530000000000000000e+02
-8.482158279750183283e+01,-6.348985110488592909e+01,2.251530861494302371e+00,8.241877620837158247e+01,-5.464087653990145554e+01,-8.261906978341994545e+01,1.996526617028666806e+01,-3.246859313162076432e+00,9.484992027282714844e+00,-1.070886254310607910e+00,-4.589512646198272705e-01,4.540000000000000000e+02
-8.473292710766509117e+01,-6.230667614332651283e+01,4.629500512428421644e+00,8.353607254226426448e+01,-5.037913206916709896e+01,-8.015580602677891875e+01,2.011365311191002547e+01,-1.214814884101542702e+00,9.484992027282714844e+00,-1.070886254310607910e+00,-4.589512646198272705e-01,4.550000000000000000e+02
-8.571309272210146446e+01,-6.204212830046526506e+01,4.886309657578976839e+00,8.324777797567548987e+01,-4.768091887697119091e+01,-7.880988662989602744e+01,1.945046028271917748e+01,-1.091234966774209170e+00,9.484992027282714844e+00,-1.070886254310607910e+00,-4.589512646198272705e-01,4.560000000000000000e+02
-8.670562685755612620e+01,-6.262031359290858745e+01,3.911592225229242104e+00,8.148982051579378094e+01,-4.644395322686705185e+01,-7.802670627379347934e+01,1.878963494170602644e+01,-1.630075400781379358e+00,9.484992027282714844e+00,-1.070886254310607910e+00,-4.589512646198272705e-01,4.570000000000000000e+02
-8.675645673611916209e+01,-6.346684129101186045e+01,3.194157541835920711e+00,7.913258772533208685e+01,-4.611734991501498371e+01,-7.691680563625459399e+01,1.897738623858231222e+01,-1.418790397876364295e+00,9.484992027282714844e+00,-1.070886254310607910e+00,-4.589512646198272705e-01,4.580000000000000000e+02
-8.568848434683877713e+01,-6.386078516797260818e+01,3.652584812820805382e+00,7.750712116370686999e+01,-4.607858617898227749e+01,-7.490198624533422844e+01,2.036450049589711853e+01,1.777598616322393354e-01,9.484992027282714844e+00,-1.070886254310607910e+00,-4.589512646198272705e-01,4.590000000000000000e+02
-8.399594395470194286e+01,-6.325478019706179111e+01,5.120870147401319628e+00,7.755401293062050172e+01,-4.575911875039764709e+01,-7.205881439783115638e+01,2.267034127388615161e+01,2.822360471269348636e+00,9.484992027282714844e+00,-1.070886254310607910e+00,-4.589512646198272705e-01,4.600000000000000000e+02
-8.219979595581889953e+01,-6.142662621576027959e+01,6.775550898811388834e+00,7.923540838561893906e+01,-4.464871297857371246e+01,-6.895786112601490458e+01,2.524971553232398946e+01,5.779441955249239982e+00,9.484992027282714844e+00,-1.070886254310607910e+00,-4.589512646198272705e-01,4.610000000000000000e+02
-8.035873456306489970e+01,-5.851403054043112206e+01,7.982535983487196063e+00,8.163236759502433415e+01,-4.241266816733968881e+01,-6.621094019621614279e+01,2.748862353249205626e+01,8.594728232273382673e+00,9.484992027282714844e+00,-1.070886254310607910e+00,-4.589512646198272705e-01,4.620000000000000000e+02
-7.817958105675552360e+01,-5.500863501761341467e+01,8.772682121892557916e+00,8.358575762971395307e+01,-3.913323783625310170e+01,-6.412786876921336443e+01,2.902892852432114523e+01,1.120858302503529558e+01,9.484992027282714844e+00,-1.070886254310607910e+00,-4.589512646198272705e-01,4.630000000000000000e+02
-7.551786326645651570e+01,-5.165187154128079783e+01,9.617434952688199701e+00,8.437336175274276684e+01,-3.543014251394015446e+01,-6.269926125101119396e+01,2.978018586257303468e+01,1.352757501584073907e+01,9.484992027282714844e+00,-1.070886254310607910e+00,-4.589512646198272705e-01,4.640000000000000000e+02
-7.269321386663614248e+01,-4.917467122291373016e+01,1.085277886424682947e+01,8.400112836834114205e+01,-3.223673667155389921e+01,-6.179953101823775796e+01,2.986627774709086225e+01,1.508398862517083217e+01,9.484992027282714844e+00,-1.070886254310607910e+00,-4.589512646198272705e-01,4.650000000000000000e+02
-7.031954217307384170e+01,-4.796767532789203869e+01,1.233292395521948492e+01,8.303960697714865091e+01,-3.031142980883487326e+01,-6.134210846694713837e+01,2.959573207743505918e+01,1.529684950784871944e+01,9.484992027282714844e+00,-1.070886254310607910e+00,-4.589512646198272705e-01,4.660000000000000000e+02
-6.887528425261120901e+01,-4.788632222839737551e+01,1.355346389628948600e+01,8.222250758011432481e+01,-2.981528427582315999e+01,-6.122983258750173263e+01,2.937151804649602127e+01,1.413448951474083515e+01,9.484992027282714844e+00,-1.070886254310607910e+00,-4.589512646198272705e-01,4.670000000000000000e+02
-6.843531043360508193e+01,-4.835148835643212806e+01,1.403176046235603280e+01,8.204826069768841990e+01,-3.024381320255361061e+01,-6.120085370181277540e+01,2.945155104811237834e+01,1.244271179331281019e+01,9.484992027282714844e+00,-1.070886254310607910e+00,-4.589512646198272705e-01,4.680000000000000000e+02
-6.874088459884183067e+01,-4.869399855197275429e+01,1.358765112425408006e+01,8.252834760321275098e+01,-3.075601987832988016e+01,-6.081495955097261685e+01,2.967609047079804441e+01,1.146355935092697109e+01,9.484992027282714844e+00,-1.070886254310607910e+00,-4.589512646198272705e-01,4.690000000000000000e+02
-6.941294545468940669e+01,-4.849197324211786508e+01,1.239089930454565547e+01,8.316906243271569110e+01,-3.066272349161181410e+01,-5.969293926824821028e+01,2.947347577438858934e+01,1.190127887525227379e+01,9.484992027282714844e+00,-1.070886254310607910e+00,-4.589512646198272705e-01,4.700000000000000000e+02
-7.005117772889661865e+01,-4.769855080267302583e+01,1.090506335499344459e+01,8.322718021717037118e+01,-2.975278617196681807e+01,-5.784127959544548503e+01,2.830818928054623029e+01,1.340213834034761931e+01,9.484992027282714844e+00,-1.070886254310607910e+00,-4.589512646198272705e-01,4.710000000000000000e+02
-7.022636372211854905e+01,-4.653518641022878910e+01,9.830519262738789621e+00,8.215461819757092599e+01,-2.828831331942183169e+01,-5.575654079061632729e+01,2.627290328868662073e+01,1.494706717204485358e+01,9.484992027282714844e+00,-1.070886254310607910e+00,-4.589512646198272705e-01,4.720000000000000000e+02
-6.955196472261604868e+01,-4.527547448239351979e+01,9.946306592616110720e+00,7.998392556785620400e+01,-2.673248735038896484e+01,-5.414995714734368448e+01,2.424371906585065517e+01,1.576746868000395807e+01,9.484992027282714844e+00,-1.070886254310607910e+00,-4.589512646198272705e-01,4.730000000000000000e+02
-6.792261265583874774e+01,-4.406998808570642723e+01,1.173458219750341414e+01,7.736823438609917503e+01,-2.542960031139136845e+01,-5.346995364680378771e+01,2.332569339379301709e+01,1.591208349540147537e+01,9.484992027282714844e+00,-1.070886254310607910e+00,-4.589512646198272705e-01,4.740000000000000000e+02
-6.571473157591390191e+01,-4.287959473186697323e+01,1.494240900721297294e+01,7.521981308551630718e+01,-2.442980322589210118e+01,-5.360142531193878312e+01,2.400264161012137265e+01,1.599069953611592609e+01,9.484992027282714844e+00,-1.032640218734741211e+00,-4.589512646198272705e-01,4.750000000000000000e+02
-6.365401073015664224e+01,-4.151895227897671248e+01,1.850332546886488672e+01,7.420234381270802260e+01,-2.352526416028399581e+01,-5.398248737885569426e+01,2.577075565007316982e+01,1.645319149810416093e+01,9.484992027282714844e+00,-1.032640218734741211e+00,-4.589512646198272705e-01,4.760000000000000000e+02
-6.234048092133434693e+01,-3.978150775813924156e+01,2.106903035951086167e+01,7.444369759768551376e+01,-2.242584706176762666e+01,-5.401542260162023013e+01,2.763596039039293828e+01,1.719027935978101596e+01,9.484992027282714844e+00,-1.032640218734741211e+00,-4.589512646198272705e-01,4.770000000000000000e+02
-6.178400211161010702e+01,-3.760186063259016009e+01,2.188363500186733290e+01,7.562615390197288434e+01,-2.094613009064619291e+01,-5.341578796270414387e+01,2.901739650712238472e+01,1.782679836347460878e+01,9.484992027282714844e+00,-1.032640218734741211e+00,-4.589512646198272705e-01,4.780000000000000000e+02
-6.136357065989068360e+01,-3.516792353811160865e+01,2.133068363965821845e+01,7.727835914896650138e+01,-1.911979348793511235e+01,-5.225303555961090751e+01,3.017216588787459841e+01,1.829956022880946875e+01,9.484992027282714844e+00,-1.032640218734741211e+00,-4.589512646198272705e-01,4.790000000000000000e+02
-6.028900236825393222e+01,-3.289582539946104589e+01,2.064777450987548946e+01,7.897892315919352768e+01,-1.721286054191386938e+01,-5.075309184766365433e+01,3.173780017401168152e+01,1.902110184874709375e+01,9.484992027282714844e+00,-1.032640218734741211e+00,-4.589512646198272705e-01,4.800000000000000000e+02
-5.820969441278521117e+01,-3.126594843649536415e+01,2.097364672148000864e+01,8.036541765199854126e+01,-1.563944986506294299e+01,-4.913430066956880182e+01,3.387304137395540238e+01,2.040756462420472417e+01,9.484992027282714844e+00,-1.032640218734741211e+00,-4.589512646198272705e-01,4.810000000000000000e+02
-5.550371049368686727e+01,-3.059632832163015337e+01,2.247149338571375665e+01,8.110512126895264373e+01,-1.478986987224880068e+01,-4.761698661473337779e+01,3.589460898402012390e+01,2.227102382337488962e+01,9.484992027282714844e+00,-1.032640218734741211e+00,-4.589512646198272705e-01,4.820000000000000000e+02
-5.303639073847875807e+01,-3.086604807188086852e+01,2.421326886546398782e+01,8.100473472875410152e+01,-1.482690549354856557e+01,-4.649371304355327084e+01,3.679707789585904720e+01,2.376448258584809992e+01,9.484992027282714844e+00,-1.032640218734741211e+00,-4.589512646198272705e-01,4.830000000000000000e+02
-5.159142884292373310e+01,-3.167453662864886610e+01,2.489114047416705944e+01,8.021547336389630800e+01,-1.556325988726121068e+01,-4.606266548411622352e+01,3.614284200665133540e+01,2.402129099815306290e+01,9.484992027282714844e+00,-1.032640218734741211e+00,-4.589512646198272705e-01,4.840000000000000000e+02
-5.138404257110823892e+01,-3.237332929773492651e+01,2.380145103519362237e+01,7.929713877858080195e+01,-1.650441232119374035e+01,-4.638483605941792121e+01,3.446695651188133525e+01,2.294177604113451707e+01,9.484992027282714844e+00,-1.032640218734741211e+00,-4.589512646198272705e-01,4.850000000000000000e+02
-5.196810273133496594e+01,-3.234811165942483058e+01,2.137541106424532700e+01,7.897092277567344354e+01,-1.705600263827591334e+01,-4.707869131240522620e+01,3.285180714175407957e+01,2.139668456230128868e+01,9.484992027282714844e+00,-1.032640218734741211e+00,-4.589512646198272705e-01,4.860000000000000000e+02
-5.256390491933893827e+01,-3.135698282349835608e+01,1.891088352370434222e+01,7.966937678436238457e+01,-1.678889171496643939e+01,-4.741855739993343377e+01,3.212098401924413338e+01,2.062602618925802744e+01,9.484992027282714844e+00,-1.032640218734741211e+00,-4.589512646198272705e-01,4.870000000000000000e+02
-5.257580672627022977e+01,-2.975032248529078061e+01,1.773960229510930731e+01,8.120542803931175513e+01,-1.562545749857599731e+01,-4.676356535298691597e+01,3.236653091827565731e+01,2.132224339884760411e+01,9.484992027282714844e+00,-1.032640218734741211e+00,-4.589512646198272705e-01,4.880000000000000000e+02
-5.194339983014515383e+01,-2.835556837055878532e+01,1.840578412900208605e+01,8.282965999084535724e+01,-1.386671562177230044e+01,-4.501992721110309503e+01,3.310287992826192749e+01,2.314228824113365590e+01,9.484992027282714844e+00,-1.032640218734741211e+00,-4.589512646198272705e-01,4.890000000000000000e+02
-5.110896173152605115e+01,-2.798808780185208889e+01,2.036631121741243078e+01,8.366234557112966286e+01,-1.207244506879669643e+01,-4.276407946801100479e+01,3.373398884986704616e+01,2.498726525300685353e+01,9.484992027282714844e+00,-1.032640218734741211e+00,-4.589512646198272705e-01,4.900000000000000000e+02
-5.063286354753154228e+01,-2.885052612678691730e+01,2.238665296793919879e+01,8.322203655383941623e+01,-1.084998058584073988e+01,-4.088674611503643064e+01,3.386836785685250106e+01,2.576636762982661821e+01,9.484992027282714844e+00,-1.032640218734741211e+00,-4.589512646198272705e-01,4.910000000000000000e+02
-5.073467554746184760e+01,-3.027456057235963272e+01,2.335994924891201663e+01,8.169905818788629404e+01,-1.061293151006316293e+01,-4.000374637431309566e+01,3.335414135105520472e+01,2.505632777690902913e+01,9.484992027282714844e+00,-1.032640218734741211e+00,-4.589512646198272705e-01,4.920000000000000000e+02
-5.110322385945119095e+01,-3.109174394128740460e+01,2.300794494554043013e+01,7.979971147865126113e+01,-1.138137986405740776e+01,-4.008220346855750904e+01,3.224088566645878018e+01,2.325190698913411325e+01,9.484992027282714844e+00,-1.032640218734741211e+00,-4.589512646198272705e-01,4.930000000000000000e+02
-5.113781997427554415e+01,-3.042975877873118407e+01,2.198319403163441166e+01,7.827214004059487706e+01,-1.274607013790023302e+01,-4.056750358520230293e+01,3.081986485812603860e+01,2.122869704944582736e+01,9.484992027282714844e+00,-1.032640218734741211e+00,-4.589512646198272705e-01,4.940000000000000000e+02
-5.043581653173418999e+01,-2.834262730261730212e+01,2.131527907436066016e+01,7.744723653258051854e+01,-1.405765067025299686e+01,-4.087353304968996781e+01,2.962812843212896041e+01,1.984345978295527857e+01,9.484992027282714844e+00,-1.032640218734741211e+00,-4.589512646198272705e-01,4.950000000000000000e+02
-4.912909968492431290e+01,-2.576648692801950347e+01,2.163238938905385567e+01,7.713367588219466597e+01,-1.474233625893680255e+01,-4.080162883897173742e+01,2.924802267328823291e+01,1.959194971499073290e+01,9.446745872497558594e+00,-1.109132170677185059e+00,-4.589512646198272705e-01,4.960000000000000000e+02
-4.779844880820269282e+01,-2.381841417083512624e+01,2.277462196162719010e+01,7.695600578185099039e+01,-1.453221644381596889e+01,-4.053128876362870869e+01,2.995202749417512678e+01,2.053805370386703544e+01,9.446745872497558594e+00,-1.109132170677185059e+00,-4.589512646198272705e-01,4.970000000000000000e+02
-4.703921311406850236e+01,-2.298951601729606864e+01,2.409269282394745915e+01,7.685679175403515728e+01,-1.345745006137303790e+01,-4.024021023952309406e+01,3.149134153130603408e+01,2.244924064639917560e+01,9.446745872497558594e+00,-1.109132170677185059e+00,-4.589512646198272705e-01,4.980000000000000000e+02
-4.704319438819811694e+01,-2.285806830277306290e+01,2.512298491260492028e+01,7.729874265474040840e+01,-1.166318095644908226e+01,-3.977620873950218083e+01,3.325066369868795846e+01,2.497530848280496230e+01,9.446745872497558594e+00,-1.109132170677185059e+00,-4.589512646198272705e-01,4.990000000000000000e+02
-4.753673625144404014e+01,-2.250173484090078091e+01,2.599607299975605201e+01,7.893237271992541082e+01,-9.269925052837379553e+00,-3.874689855773567615e+01,3.464905589988279644e+01,2.775622021978347220e+01,9.446745872497558594e+00,-1.109132170677185059e+00,-4.589512646198272705e-01,5.000000000000000000e+02
-4.807294040153794867e+01,-2.123528988303905862e+01,2.720553611050661402e+01,8.197122036118287269e+01,-6.419019685984380885e+00,-3.697279030605136541e+01,3.544179847097791480e+01,3.045639942498678465e+01,9.446745872497558594e+00,-1.109132170677185059e+00,-4.589512646198272705e-01,5.010000000000000000e+02
-4.837882244641673424e+01,-1.909244476604590091e+01,2.897808200218435104e+01,8.582705440417589671e+01,-3.415817101069706041e+00,-3.485146382384232311e+01,3.570512994428111142e+01,3.276941816534201735e+01,9.446745872497558594e+00,-1.109132170677185059e+00,-4.589512646198272705e-01,5.020000000000000000e+02
-4.847068760429851864e+01,-1.675090265064625328e+01,3.087597812129251906e+01,8.935987269984411796e+01,-7.512347148181106604e-01,-3.323768005940041803e+01,3.560677742614211638e+01,3.444155389204547646e+01,9.446745872497558594e+00,-1.109132170677185059e+00,-4.589512646198272705e-01,5.030000000000000000e+02
-4.848795190020189239e+01,-1.504750523479981439e+01,3.204294200709955476e+01,9.154729777659645151e+01,1.089742598802786233e+00,-3.289076167485006863e+01,3.523700433337148752e+01,3.531325614424793002e+01,9.446745872497558594e+00,-1.109132170677185059e+00,-4.589512646198272705e-01,5.040000000000000000e+02
-4.845364425540611819e+01,-1.447859180095184684e+01,3.187988091429616588e+01,9.200623093304147915e+01,1.889652508196945746e+00,-3.394996712811814632e+01,3.464352242894460687e+01,3.534528192791321999e+01,9.446745872497558594e+00,-1.109132170677185059e+00,-4.589512646198272705e-01,5.050000000000000000e+02
-4.821123175811158035e+01,-1.500109512957669722e+01,3.054968608599455138e+01,9.098570410073875792e+01,1.810852537320897682e+00,-3.585360568511657675e+01,3.395725417830016113e+01,3.463294563063624310e+01,9.446745872497558594e+00,-1.109132170677185059e+00,-4.589512646198272705e-01,5.060000000000000000e+02
-4.758345148034175054e+01,-1.615601295227565970e+01,2.887843464358866186e+01,8.900898796261753887e+01,1.278830780443115600e+00,-3.770114136172816188e+01,3.342397849951049693e+01,3.344510184037250156e+01,9.446745872497558594e+00,-1.109132170677185059e+00,-4.589512646198272705e-01,5.070000000000000000e+02
-4.658962220031173729e+01,-1.735255550983271178e+01,2.775762186848942292e+01,8.663650285425433140e+01,7.437356377449191314e-01,-3.872512725958551982e+01,3.329625847539142569e+01,3.227289714489904782e+01,9.446745872497558594e+00,-1.109132170677185059e+00,-4.589512646198272705e-01,5.080000000000000000e+02
-4.550216084019081109e+01,-1.811817094334023182e+01,2.756581687392133517e+01,8.455920286600951385e+01,5.060669340732886212e-01,-3.854597847595312032e+01,3.369103940169480893e+01,3.179805040600325583e+01,9.446745872497558594e+00,-1.109132170677185059e+00,-4.589512646198272705e-01,5.090000000000000000e+02
-4.467642941714925087e+01,-1.821541364849517208e+01,2.804743877561557497e+01,8.369083597775266981e+01,6.672731073952320457e-01,-3.718103800606061782e+01,3.451822824336196049e+01,3.264886947529132044e+01,9.446745872497558594e+00,-1.109132170677185059e+00,-4.589512646198272705e-01,5.100000000000000000e+02
-4.429694535990626036e+01,-1.763621771808818295e+01,2.863340105826064530e+01,8.481501108959884050e+01,1.129374195787491431e+00,-3.498126962539856777e+01,3.549308210624514004e+01,3.495803565175996397e+01,9.446745872497558594e+00,-1.109132170677185059e+00,-4.589512646198272705e-01,5.110000000000000000e+02
-4.425553503998587246e+01,-1.653640407726825856e+01,2.885072810095068263e+01,8.787096549772850551e+01,1.578178823869734515e+00,-3.258231176643040783e+01,3.620471520093562390e+01,3.800713907213985010e+01,9.446745872497558594e+00,-1.109132170677185059e+00,-4.589512646198272705e-01,5.120000000000000000e+02
-4.426283919874467188e+01,-1.515938340944455831e+01,2.849922712193571783e+01,9.155917612147634088e+01,1.503550458696452097e+00,-3.077296394443538929e+01,3.625059658390217976e+01,4.036216792393111064e+01,9.446745872497558594e+00,-1.109132170677185059e+00,-4.589512646198272705e-01,5.130000000000000000e+02
-4.409871262160683614e+01,-1.377277809608787607e+01,2.757450081738249992e+01,9.389913267448491752e+01,3.750684813184648192e-01,-3.018328937536546164e+01,3.544204093944662759e+01,4.064116469741912852e+01,9.446745872497558594e+00,-1.109132170677185059e+00,-4.589512646198272705e-01,5.140000000000000000e+02
-4.379754606970686837e+01,-1.261759336405992826e+01,2.614931461728224349e+01,9.354664643547152991e+01,-2.013258825191883261e+00,-3.089857664447737307e+01,3.398756035589099156e+01,3.849902424812603385e+01,9.446745872497558594e+00,-1.109132170677185059e+00,-4.589512646198272705e-01,5.150000000000000000e+02
-4.361356419198705225e+01,-1.185287030914878414e+01,2.438315792595210496e+01,9.085067510336136820e+01,-5.230130814170308895e+00,-3.228642280032295275e+01,3.247274068813555914e+01,3.506801078478781619e+01,9.446745872497558594e+00,-1.109132170677185059e+00,-4.589512646198272705e-01,5.160000000000000000e+02
-4.378143068645294989e+01,-1.149566690344772724e+01,2.262151544402286163e+01,8.768623013585477111e+01,-8.215872139390057782e+00,-3.324609653033246559e+01,3.155793964487656922e+01,3.238155080083697612e+01,9.446745872497558594e+00,-1.109132170677185059e+00,-4.589512646198272705e-01,5.170000000000000000e+02
-4.426043313444245086e+01,-1.139958752926952457e+01,2.140026700508144586e+01,8.610618787623093340e+01,-9.741116363727087446e+00,-3.279713423108933057e+01,3.156334754510385210e+01,3.207884346385685603e+01,9.446745872497558594e+00,-1.109132170677185059e+00,-4.589512646198272705e-01,5.180000000000000000e+02
-4.467350675326667897e+01,-1.131684200812287600e+01,2.125817650536691872e+01,8.690073902712492782e+01,-9.097613058837964672e+00,-3.064875074125757237e+01,3.227757022820992461e+01,3.434612626031332638e+01,9.446745872497558594e+00,-1.109132170677185059e+00,-4.589512646198272705e-01,5.190000000000000000e+02
-4.449251612385069166e+01,-1.102359310670760806e+01,2.245663446266212304e+01,8.924430986681954892e+01,-6.533959195908664697e+00,-2.737365303130172833e+01,3.318685985640547642e+01,3.793197243386032369e+01,9.446745872497558594e+00,-1.109132170677185059e+00,-4.589512646198272705e-01,5.200000000000000000e+02
-4.334370052276119623e+01,-1.044450982614250734e+01,2.480538154046007548e+01,9.159462558107588848e+01,-3.085468915044202731e+00,-2.408081719615029215e+01,3.393340559408636636e+01,4.119450387699998828e+01,9.408499717712402344e+00,-1.070886254310607910e+00,-4.971971809864044189e-01,5.210000000000000000e+02
-4.123493122495460739e+01,-9.663404849155313059e+00,2.772216223925170198e+01,9.292766528259198822e+01,9.729375376764437533e-02,-2.177943002734855327e+01,3.458530642294385871e+01,4.329388965568477943e+01,9.408499717712402344e+00,-1.070886254310607910e+00,-4.971971809864044189e-01,5.220000000000000000e+02
-3.858234056380024413e+01,-8.783739914159468753e+00,3.048378487217769361e+01,9.324247320908580150e+01,2.403169842687248092e+00,-2.081350461594274748e+01,3.547657275753931572e+01,4.457550058155857187e+01,9.408499717712402344e+00,-1.070886254310607910e+00,-4.971971809864044189e-01,5.230000000000000000e+02
-3.604025066337862881e+01,-7.770097728811379056e+00,3.250721875693375296e+01,9.308452168649182568e+01,3.897817488377313566e+00,-2.071052834262127362e+01,3.680174671274994580e+01,4.595048406937235086e+01,9.408499717712402344e+00,-1.070886254310607910e+00,-4.971971809864044189e-01,5.240000000000000000e+02
-3.422911609399147892e+01,-6.459289758960949257e+00,3.352221399049994943e+01,9.276801120015488777e+01,4.910389588648286008e+00,-2.054424993907696262e+01,3.837751504773109446e+01,4.793284700781055108e+01,9.408499717712402344e+00,-1.070886254310607910e+00,-4.971971809864044189e-01,5.250000000000000000e+02
-3.348222669732854229e+01,-4.769397468356373793e+00,3.358785526627571016e+01,9.212454350683719895e+01,5.527311824930620787e+00,-1.958400362287011376e+01,3.979509171892891572e+01,5.019883156179753314e+01,9.408499717712402344e+00,-1.070886254310607910e+00,-4.971971809864044189e-01,5.260000000000000000e+02
-3.370752800676041261e+01,-2.922020251215599274e+00,3.298115407267232513e+01,9.092243002202053503e+01,5.501825602666713166e+00,-1.778686259674032044e+01,4.076596180105389067e+01,5.195635878786220019e+01,9.408499717712402344e+00,-1.070886254310607910e+00,-4.971971809864044189e-01,5.270000000000000000e+02
-3.445002713997655519e+01,-1.417392686597167994e+00,3.202439955445788655e+01,8.936580336910242295e+01,4.636346663508902566e+00,-1.578805443634246330e+01,4.126774504581453584e+01,5.266696871789395118e+01,9.408499717712402344e+00,-1.070886254310607910e+00,-4.971971809864044189e-01,5.280000000000000000e+02
-3.513881491645361166e+01,-6.823804047107842052e-01,3.095040171119262595e+01,8.808265320748205340e+01,3.198426513534286642e+00,-1.439133520381210474e+01,4.136836351237616327e+01,5.245788023698401048e+01,9.408499717712402344e+00,-1.070886254310607910e+00,-4.971971809864044189e-01,5.290000000000000000e+02
-3.537123515961820885e+01,-6.532148875608072558e-01,2.989457547994106790e+01,8.762267351803529891e+01,1.908223315965642541e+00,-1.393742186842609954e+01,4.101426922835094047e+01,5.196321883960285959e+01,9.408499717712402344e+00,-1.070886254310607910e+00,-4.971971809864044189e-01,5.300000000000000000e+02
-3.505816976677670027e+01,-6.902040280165238073e-01,2.900315511287544723e+01,8.801040988641670992e+01,1.478413367594384908e+00,-1.403455223194850987e+01,4.011838831843306252e+01,5.186033935725527044e+01,9.408499717712402344e+00,-1.070886254310607910e+00,-4.971971809864044189e-01,5.310000000000000000e+02
-3.434351770808825677e+01,1.164273506401514169e-02,2.853598301016700134e+01,8.879715230597730624e+01,2.132859622487103479e+00,-1.385878463889821433e+01,3.886055955964548048e+01,5.250828401115131783e+01,9.408499717712402344e+00,-1.070886254310607910e+00,-4.971971809864044189e-01,5.320000000000000000e+02
-3.341370685306947053e+01,1.781668906711274758e+00,2.879417752467725222e+01,8.948968925741155545e+01,3.512497520792749128e+00,-1.279755879715730771e+01,3.776110671330161495e+01,5.384582607404990995e+01,9.408499717712402344e+00,-1.070886254310607910e+00,-4.971971809864044189e-01,5.330000000000000000e+02
-3.240531138315100179e+01,4.136613577302796330e+00,2.984590055140142795e+01,8.987685236146853640e+01,4.964715109488224698e+00,-1.094890053648896355e+01,3.725801806595791277e+01,5.546782823441026267e+01,9.408499717712402344e+00,-1.070886254310607910e+00,-4.971971809864044189e-01,5.340000000000000000e+02
-3.149886102617711003e+01,6.059413105068415462e+00,3.128913653782092297e+01,8.997458470616447812e+01,5.912546484353242704e+00,-9.095619783293386718e+00,3.712293331184673661e+01,5.678958335539164182e+01,9.408499717712402344e+00,-1.070886254310607910e+00,-4.971971809864044189e-01,5.350000000000000000e+02
-3.104436374498209261e+01,6.701163551189438294e+00,3.237133458767129923e+01,8.979439404068443764e+01,6.073475035255796683e+00,-8.154555555631759489e+00,3.642682200117269531e+01,5.732671411840874498e+01,9.408499717712402344e+00,-1.070886254310607910e+00,-4.971971809864044189e-01,5.360000000000000000e+02
-3.146239205649862924e+01,5.979665099731846567e+00,3.252392885781591758e+01,8.931563984813374191e+01,5.552621816341343219e+00,-8.482945987451785186e+00,3.434739755636292102e+01,5.706790836231584763e+01,9.408499717712402344e+00,-1.070886254310607910e+00,-4.971971809864044189e-01,5.370000000000000000e+02
-3.286909182853332823e+01,4.642462216803778574e+00,3.193648421377929481e+01,8.872293523301868845e+01,4.891734204457861779e+00,-9.543661480051923718e+00,3.122058843325248745e+01,5.669438957242527977e+01,9.408499717712402344e+00,-1.070886254310607910e+00,-4.971971809864044189e-01,5.380000000000000000e+02
-3.474298361698356530e+01,3.793664207118126797e+00,3.159305495972421340e+01,8.856496518728181400e+01,4.963819713084376417e+00,-1.020829972194587754e+01,2.877462697994724294e+01,5.732611268209711852e+01,9.408499717712402344e+00,-1.070886254310607910e+00,-4.971971809864044189e-01,5.390000000000000000e+02
-3.603101571328807040e+01,4.254407698477734812e+00,3.258091121986944927e+01,8.951331289472818753e+01,6.562629499046124693e+00,-9.505892801342270104e+00,2.909022418142285460e+01,5.979994128866837855e+01,9.408499717712402344e+00,-1.070886254310607910e+00,-4.971971809864044189e-01,5.400000000000000000e+02
-3.576463818256070226e+01,6.152586696041907999e+00,3.515944894409358312e+01,9.181823793699913949e+01,9.809035205224517995e+00,-7.289915144764563593e+00,3.299402816972633445e+01,6.396022300021013507e+01,9.408499717712402344e+00,-1.070886254310607910e+00,-4.971971809864044189e-01,5.410000000000000000e+02
-3.376729501023328339e+01,8.904988365358804003e+00,3.840096717167079987e+01,9.493597339296775317e+01,1.383482301147159887e+01,-4.331677088273863774e+00,3.921864740073942812e+01,6.856557933206477173e+01,9.408499717712402344e+00,-1.070886254310607910e+00,-4.971971809864044189e-01,5.420000000000000000e+02
-3.085287196152739853e+01,1.153265181322649369e+01,4.080875470799674076e+01,9.772957795675938542e+01,1.715281880742531939e+01,-1.764986585403676145e+00,4.509525658069878773e+01,7.198435411238278903e+01,9.408499717712402344e+00,-1.070886254310607910e+00,-4.971971809864044189e-01,5.430000000000000000e+02
-2.828279211595327070e+01,1.314672062621411897e+01,4.145624109675100044e+01,9.914398491551401094e+01,1.856797756812193256e+01,-3.104417496297173784e-01,4.825939843521518924e+01,7.319097206925061982e+01,9.408499717712402344e+00,-1.070886254310607910e+00,-4.971971809864044189e-01,5.440000000000000000e+02
-2.689062594495044323e+01,1.339599337157960690e+01,4.067115475231867094e+01,9.883046488938180119e+01,1.794054495037926245e+01,1.296268323731055716e-01,4.803000169342703884e+01,7.230782962729335850e+01,9.408499717712402344e+00,-1.070886254310607910e+00,-4.971971809864044189e-01,5.450000000000000000e+02
-2.659334709166796529e+01,1.264529782102363242e+01,3.965101448294626607e+01,9.724945400300020992e+01,1.615918127710574481e+01,2.195350148340367014e-01,4.548653842418298154e+01,7.031892175612483697e+01,9.408499717712402344e+00,-1.070886254310607910e+00,-4.971971809864044189e-01,5.460000000000000000e+02
-2.668342222387309448e+01,1.171738505172106670e+01,3.934893167580594309e+01,9.522098384783566871e+01,1.435704022602385521e+01,5.423849827147932956e-01,4.240402488951622217e+01,6.828022280030290858e+01,9.408499717712402344e+00,-1.070886254310607910e+00,-4.971971809864044189e-01,5.470000000000000000e+02
-2.659704817415331490e+01,1.129105925019302958e+01,3.964400933212073141e+01,9.332518571657419670e+01,1.305528778492953279e+01,1.115653454343373596e+00,4.004618173865674180e+01,6.670624117831084732e+01,9.408499717712402344e+00,-9.943943619728088379e-01,-4.207052886486053467e-01,5.480000000000000000e+02
-2.642213094670751161e+01,1.136751899868977489e+01,3.955858504010029719e+01,9.162441498915359261e+01,1.195502698663040064e+01,1.448634964105622203e+00,3.868212595405202592e+01,6.554230182192986831e+01,9.408499717712402344e+00,-9.943943619728088379e-01,-4.207052886486053467e-01,5.490000000000000000e+02
-2.668431295014488569e+01,1.125439293851650291e+01,3.829262496133742388e+01,8.986533829367181170e+01,1.047748444929038669e+01,1.043428858528386627e+00,3.791170224946199596e+01,6.454949059311820747e+01,9.408499717712402344e+00,-9.943943619728088379e-01,-4.207052886486053467e-01,5.500000000000000000e+02
-2.764658877152396599e+01,1.012449048228336324e+01,3.608976740669004357e+01,8.791189992002910003e+01,8.496319508009946730e+00,-1.191558018490468385e-01,3.726143867994142056e+01,6.362077602030967682e+01,9.408499717712402344e+00,-9.943943619728088379e-01,-4.207052886486053467e-01,5.510000000000000000e+02
-2.883701592557372351e+01,7.689999860006537347e+00,3.411276354313304182e+01,8.599840555924492946e+01,6.577208556333971501e+00,-1.517893908329824626e+00,3.651865282112976274e+01,6.274509700735143269e+01,9.408499717712402344e+00,-9.943943619728088379e-01,-4.207052886486053467e-01,5.520000000000000000e+02
-2.932760187918211159e+01,4.415003380610869499e+00,3.342909343488099694e+01,8.457829751697681786e+01,5.494400983904597524e+00,-2.492209875128537533e+00,3.568184916361678916e+01,6.177493935653365043e+01,9.408499717712402344e+00,-9.943943619728088379e-01,-4.207052886486053467e-01,5.530000000000000000e+02
-2.855402318518008542e+01,1.116272056446177885e+00,3.404328385919961875e+01,8.391610383050192468e+01,5.459209234150876000e+00,-2.762970542479706637e+00,3.477848074162920966e+01,6.036291764513498492e+01,9.408499717712402344e+00,-9.943943619728088379e-01,-4.207052886486053467e-01,5.540000000000000000e+02
-2.691467872153225471e+01,-1.635342121433495777e+00,3.486621561281754111e+01,8.381003136868821457e+01,5.761701921085659706e+00,-2.648231239456436015e+00,3.381327464626519941e+01,5.821172164643030555e+01,9.408499717712402344e+00,-9.943943619728088379e-01,-4.207052886486053467e-01,5.550000000000000000e+02
-2.554866621753080835e+01,-3.755085053629954928e+00,3.464763552448948758e+01,8.372695121767992532e+01,5.213004924155029585e+00,-2.790252157075883588e+00,3.288849201571974845e+01,5.542061775744059560e+01,9.408499717712402344e+00,-9.943943619728088379e-01,-4.207052886486053467e-01,5.560000000000000000e+02
-2.544009883616945444e+01,-5.396486425938746834e+00,3.302679162444746908e+01,8.325750102492111182e+01,3.115484672664024401e+00,-3.598481286364403786e+00,3.232081435947202408e+01,5.255830816356592550e+01,9.408499717712402344e+00,-9.943943619728088379e-01,-4.207052886486053467e-01,5.570000000000000000e+02
-2.662071091284633439e+01,-6.607160733606178837e+00,3.077529960465744807e+01,8.247679133915880811e+01,-1.240896984199935105e-02,-4.860578794705361361e+00,3.255615723171194986e+01,5.032702790571511287e+01,9.408499717712402344e+00,-9.943943619728088379e-01,-4.207052886486053467e-01,5.580000000000000000e+02
-2.816388020769045397e+01,-7.325962670089211315e+00,2.906810750260228815e+01,8.184266533222853468e+01,-2.635317691951058805e+00,-5.874857817330848775e+00,3.385038330152201524e+01,4.905427464869171672e+01,9.408499717712402344e+00,-9.943943619728088379e-01,-4.207052886486053467e-01,5.590000000000000000e+02
-2.895958168958532042e+01,-7.702131405428190192e+00,2.849289762135595083e+01,8.169366686832836422e+01,-3.286221819811544265e+00,-6.038278644817182794e+00,3.593042908291317872e+01,4.842744006544126023e+01,9.408499717712402344e+00,-9.943943619728088379e-01,-4.207052886486053467e-01,5.600000000000000000e+02
-2.856488444422120665e+01,-8.252585503749287454e+00,2.868614451211487903e+01,8.184547155003019725e+01,-1.704558144356269622e+00,-5.386319283148623072e+00,3.798612836252232228e+01,4.772338729015609715e+01,9.408499717712402344e+00,-9.943943619728088379e-01,-4.207052886486053467e-01,5.610000000000000000e+02
-2.741820147084581549e+01,-9.527831781647364551e+00,2.884156234039073752e+01,8.171970742252779019e+01,9.337365093706466723e-01,-4.579866890495395637e+00,3.914982283291192289e+01,4.636040088146000926e+01,9.408499717712402344e+00,-9.943943619728088379e-01,-4.207052886486053467e-01,5.620000000000000000e+02
-2.632902029533488530e+01,-1.152028153249466413e+01,2.849355614532851178e+01,8.091955160745419562e+01,2.919241437088203384e+00,-4.303338076091677067e+00,3.918923082971286931e+01,4.432820447492031235e+01,9.408499717712402344e+00,-9.943943619728088379e-01,-4.207052886486053467e-01,5.630000000000000000e+02
-2.578874857155005884e+01,-1.343730003662312811e+01,2.779374226950312732e+01,7.968684296649917087e+01,3.281477304963118513e+00,-4.606452165689916001e+00,3.882258819493199553e+01,4.215314056034367240e+01,9.408499717712402344e+00,-9.943943619728088379e-01,-4.207052886486053467e-01,5.640000000000000000e+02
-2.571771820734284120e+01,-1.420881535893113323e+01,2.709884487078852544e+01,7.876066485116643889e+01,2.343665469290499459e+00,-4.828392153562163003e+00,3.924799671648725052e+01,4.045067593827934616e+01,9.408499717712402344e+00,-9.943943619728088379e-01,-4.207052886486053467e-01,5.650000000000000000e+02
-2.575075303678750060e+01,-1.336938076722253754e+01,2.642375098104457720e+01,7.875114346710870450e+01,1.186524561182523030e+00,-4.208752008989904425e+00,4.115845621524749731e+01,3.946778897051626700e+01,9.408499717712402344e+00,-9.943943619728088379e-01,-4.207052886486053467e-01,5.660000000000000000e+02
-2.565133323188274517e+01,-1.153968789746068069e+01,2.541021413783164462e+01,7.961502802397808409e+01,6.644019762752577662e-01,-2.626968603439308936e+00,4.406683339442497527e+01,3.900028239904349903e+01,9.408499717712402344e+00,-9.943943619728088379e-01,-4.207052886486053467e-01,5.670000000000000000e+02
-2.542846042825294717e+01,-1.002983659103119862e+01,2.386340509743604343e+01,8.073073228113935329e+01,9.338297501381020993e-01,-7.562222740089055151e-01,4.660552696219565405e+01,3.870310057206006604e+01,9.408499717712402344e+00,-9.943943619728088379e-01,-4.207052886486053467e-01,5.680000000000000000e+02
-2.513130367985650082e+01,-9.860165265838077175e+00,2.224475968060141895e+01,8.145990951899511856e+01,1.790037208595094853e+00,5.374076183397846762e-01,4.761257975074840942e+01,3.844799797333689639e+01,9.408499717712402344e+00,-9.943943619728088379e-01,-4.207052886486053467e-01,5.690000000000000000e+02
-2.464699685297819087e+01,-1.102468016936290951e+01,2.149279140619000827e+01,8.161787540074692515e+01,3.197160555160735385e+00,9.695543205889407545e-01,4.704561947190632054e+01,3.834529775467308355e+01,9.408499717712402344e+00,-9.943943619728088379e-01,-4.207052886486053467e-01,5.700000000000000000e+02
-2.377018952123762574e+01,-1.260217872506291314e+01,2.224678074173243658e+01,8.142881913991550391e+01,5.265543760908258264e+00,1.037275305629009381e+00,4.589453922534812591e+01,3.842213182528575999e+01,9.408499717712402344e+00,-9.943943619728088379e-01,-4.207052886486053467e-01,5.710000000000000000e+02
-2.246226120956816885e+01,-1.356167467026170925e+01,2.421293997914654028e+01,8.112313275577253080e+01,7.724387580174152390e+00,1.475119430904669571e+00,4.522248393851623405e+01,3.833962943016922509e+01,9.408499717712402344e+00,-9.943943619728088379e-01,-4.207052886486053467e-01,5.720000000000000000e+02
-2.098677991910881246e+01,-1.353567710880452069e+01,2.631349939717802044e+01,8.068072231550468132e+01,9.652476532990476699e+00,2.526406249544379534e+00,4.530047989675404096e+01,3.753028382956108544e+01,9.408499717712402344e+00,-9.943943619728088379e-01,-4.207052886486053467e-01,5.730000000000000000e+02
-1.975068880184880982e+01,-1.292905427295772824e+01,2.750502596672413347e+01,7.999574962426231650e+01,1.001598528188878845e+01,3.748541758179271710e+00,4.564154440053061990e+01,3.571586402426146378e+01,9.408499717712402344e+00,-9.943943619728088379e-01,-4.207052886486053467e-01,5.740000000000000000e+02
-1.899217382889219152e+01,-1.235290235075808596e+01,2.750702607049788639e+01,7.922225437392626191e+01,8.620686261945593287e+00,4.522164430640259525e+00,4.577541847643078654e+01,3.333285728528244363e+01,9.408499717712402344e+00,-9.943943619728088379e-01,-4.207052886486053467e-01,5.750000000000000000e+02
-1.860549839623490698e+01,-1.196479817078761698e+01,2.680946248682266742e+01,7.885275168650150590e+01,6.494991599851346109e+00,4.732946536827512318e+00,4.586773130197616410e+01,3.141739524877084477e+01,9.408499717712402344e+00,-9.943943619728088379e-01,-4.207052886486053467e-01,5.760000000000000000e+02
-1.824064296055803425e+01,-1.131986499732192897e+01,2.607224503626275691e+01,7.939173252245745971e+01,5.197909093563794158e+00,4.942573198542959290e+00,4.651578536127090047e+01,3.095451257305103354e+01,9.408499717712402344e+00,-9.943943619728088379e-01,-4.207052886486053467e-01,5.770000000000000000e+02
-1.756620465054038505e+01,-9.857478450396229164e+00,2.556468408208093024e+01,8.092494358340809413e+01,5.599681872901783208e+00,5.876794681991668767e+00,4.797709794598813460e+01,3.217320471167113283e+01,9.408499717712402344e+00,-9.943943619728088379e-01,-4.207052886486053467e-01,5.780000000000000000e+02
-1.648416435059152718e+01,-7.571649338688075659e+00,2.513110439192132617e+01,8.299395245685991540e+01,7.232132991746766493e+00,7.719512271538405912e+00,4.971898694203810010e+01,3.433098647164661088e+01,9.523238182067871094e+00,-1.032640218734741211e+00,-4.207052886486053467e-01,5.790000000000000000e+02
-1.517826337472070009e+01,-5.243460898447665386e+00,2.456161675721159554e+01,8.486087733270687750e+01,8.765498405746257049e+00,9.879988232627511024e+00,5.081654245042773255e+01,3.613405276999401394e+01,9.523238182067871094e+00,-1.032640218734741211e+00,-4.207052886486053467e-01,5.800000000000000000e+02
-1.400533006149635185e+01,-3.991828422653270536e+00,2.387747911350743379e+01,8.589297299310965172e+01,9.101339424772959319e+00,1.144656839506205870e+01,5.079551227164665761e+01,3.647037423443362059e+01,9.523238182067871094e+00,-1.032640218734741211e+00,-4.207052886486053467e-01,5.810000000000000000e+02
-1.328479100544427638e+01,-4.469172345718106953e+00,2.326035229597255238e+01,8.578347188556472247e+01,8.097297491591234575e+00,1.191997369900491321e+01,5.004428803663176950e+01,3.497121481588328606e+01,9.523238182067871094e+00,-1.032640218734741211e+00,-4.207052886486053467e-01,5.820000000000000000e+02
-1.306063707247812999e+01,-6.335031025693751872e+00,2.282622973954130430e+01,8.457115436361345928e+01,6.432200279841708834e+00,1.157399124433504767e+01,4.936961964331021591e+01,3.209391521742691111e+01,9.523238182067871094e+00,-1.032640218734741211e+00,-4.207052886486053467e-01,5.830000000000000000e+02
-1.298232123468187638e+01,-8.435387409617760568e+00,2.256788719163159840e+01,8.258863161282351939e+01,4.947257632606124389e+00,1.112117946548823966e+01,4.916016993359880871e+01,2.876196369758508808e+01,9.523238182067871094e+00,-1.032640218734741211e+00,-4.207052886486053467e-01,5.840000000000000000e+02
-1.246326623624736385e+01,-9.569602269450115273e+00,2.248833506201481214e+01,8.039969656337052584e+01,4.135021493397289305e+00,1.099854174420397612e+01,4.902753454957019130e+01,2.583871000628641923e+01,9.523238182067871094e+00,-1.032640218734741211e+00,-4.207052886486053467e-01,5.850000000000000000e+02
-1.112545032071466267e+01,-9.253358094212671858e+00,2.265729248169373022e+01,7.865209776298070210e+01,4.084711029547179351e+00,1.094881768607956474e+01,4.828807819129724521e+01,2.375640183681389317e+01,9.523238182067871094e+00,-1.032640218734741211e+00,-4.207052886486053467e-01,5.860000000000000000e+02
-9.241832343197529553e+00,-7.904996825463967980e+00,2.303998940492601832e+01,7.781236340099167137e+01,4.682846297908326960e+00,1.032281880387745332e+01,4.679627220396469056e+01,2.251318439067654253e+01,9.523238182067871094e+00,-1.032640218734741211e+00,-4.207052886486053467e-01,5.870000000000000000e+02
-7.744884074460060219e+00,-6.357492975646891864e+00,2.331281068143835000e+01,7.795207915996070369e+01,5.758092791818853584e+00,8.863254677209624788e+00,4.529782886055727431e+01,2.200483841416462383e+01,9.523238182067871094e+00,-1.032640218734741211e+00,-4.207052886486053467e-01,5.880000000000000000e+02
-7.655994073813417344e+00,-5.164177893693704391e+00,2.297952133440230682e+01,7.879702060087583959e+01,7.101438349294767249e+00,7.236437909436062910e+00,4.492772385451280570e+01,2.237495918535933015e+01,9.523238182067871094e+00,-1.032640218734741211e+00,-4.207052886486053467e-01,5.890000000000000000e+02
-9.300017254836348002e+00,-4.295402327063129633e+00,2.178205195458940580e+01,8.001418413073042757e+01,8.506885899134431384e+00,6.744640978682582499e+00,4.627298726447224908e+01,2.399580658415834478e+01,9.523238182067871094e+00,-1.032640218734741211e+00,-4.207052886486053467e-01,5.900000000000000000e+02
-1.194536502115624899e+01,-3.428310470817450550e+00,1.999036744594195625e+01,8.143440209811160457e+01,9.860934806627483340e+00,8.355815068483934738e+00,4.881040535064857977e+01,2.697311318088395637e+01,9.523238182067871094e+00,-1.032640218734741211e+00,-4.207052886486053467e-01,5.910000000000000000e+02
-1.422578284400151460e+01,-2.488280514980942826e+00,1.820930261555440666e+01,8.293907054131705081e+01,1.112902540357754333e+01,1.183692924830393167e+01,5.119853640083601931e+01,3.056170891789406596e+01,9.523238182067871094e+00,-1.032640218734741211e+00,-4.207052886486053467e-01,5.920000000000000000e+02
-1.502186803756012523e+01,-1.869511565830180189e+00,1.686638665734608367e+01,8.414458101181298844e+01,1.216597255775195663e+01,1.575591607856767951e+01,5.219469149385804485e+01,3.313662753517928650e+01,9.523238182067871094e+00,-1.032640218734741211e+00,-4.207052886486053467e-01,5.930000000000000000e+02
-1.409296745882056712e+01,-2.101477039359451737e+00,1.591783257338465774e+01,8.433379302600951632e+01,1.254313936783000827e+01,1.838945003112530685e+01,5.147098073893175751e+01,3.299783508296968648e+01,9.523238182067871094e+00,-1.032640218734741211e+00,-4.207052886486053467e-01,5.940000000000000000e+02
-1.198341578302824928e+01,-3.281863121932474314e+00,1.510259587494510924e+01,8.292371684200770687e+01,1.170294283756811637e+01,1.883426753471940174e+01,4.974915805235650623e+01,2.955776307506130252e+01,9.523238182067871094e+00,-1.032640218734741211e+00,-4.207052886486053467e-01,5.950000000000000000e+02
-9.410395591159613105e+00,-4.840664072826257325e+00,1.445216500491369516e+01,8.014844149921918870e+01,9.450812028873770032e+00,1.748059509571248782e+01,4.823348147102296934e+01,2.397627332965203095e+01,9.523238182067871094e+00,-1.032640218734741211e+00,-4.207052886486053467e-01,5.960000000000000000e+02
-6.766684107438777573e+00,-5.898576794043037808e+00,1.442395607201797247e+01,7.724672734753767145e+01,6.373962502289941767e+00,1.558170708915349678e+01,4.781560956866815104e+01,1.863622015171677049e+01,9.523238182067871094e+00,-1.032640218734741211e+00,-4.207052886486053467e-01,5.970000000000000000e+02
-4.148963423231180059e+00,-5.916642647320259130e+00,1.543035005423371331e+01,7.578276489330892218e+01,3.737325889080238994e+00,1.437256025529131875e+01,4.862243770725399372e+01,1.578386144139585667e+01,9.523238182067871094e+00,-1.032640218734741211e+00,-4.207052886486053467e-01,5.980000000000000000e+02
-1.736396238306042505e+00,-5.055080303412978537e+00,1.725577838907156547e+01,7.654464825134346029e+01,2.826680118785589002e+00,1.442539124794348027e+01,5.014421363913425012e+01,1.632742198724008631e+01,9.523238182067871094e+00,-1.032640218734741211e+00,-4.207052886486053467e-01,5.990000000000000000e+02
1.115643492448725738e-02,-3.951637118501821533e+00,1.907105455320561305e+01,7.896212275721700280e+01,4.223774509213399142e+00,1.557987362636777107e+01,5.171889838384231552e+01,1.961114249004458543e+01,9.484992027282714844e+00,-1.070886254310607910e+00,-5.354431271553039551e-01,6.000000000000000000e+02
6.262422348299878649e-01,-3.167591124354657950e+00,2.015905162013950758e+01,8.158843024177622283e+01,7.569134759942244273e+00,1.728212006068497431e+01,5.294848728396391380e+01,2.414179979768960038e+01,9.484992027282714844e+00,-1.070886254310607910e+00,-5.354431271553039551e-01,6.010000000000000000e+02
1.191426442637748551e-01,-2.820346285658160923e+00,2.065746963900892297e+01,8.322807212589395931e+01,1.191275610753655201e+01,1.896828768011619104e+01,5.377320824858907145e+01,2.853163029429924791e+01,9.484992027282714844e+00,-1.070886254310607910e+00,-5.354431271553039551e-01,6.020000000000000000e+02
-8.578524512558942661e-01,-2.688120939612417715e+00,2.149176175203683670e+01,8.369284367215004750e+01,1.624755254753472400e+01,2.026872345286392374e+01,5.427021690033143386e+01,3.196173506377817830e+01,9.484992027282714844e+00,-1.070886254310607910e+00,-5.354431271553039551e-01,6.030000000000000000e+02
-1.385112374991877005e+00,-2.583569928694487317e+00,2.344173194117684034e+01,8.355778755497522070e+01,1.978373984696008847e+01,2.103482140366759268e+01,5.444638072602538159e+01,3.407516181800383492e+01,9.484992027282714844e+00,-1.070886254310607910e+00,-5.354431271553039551e-01,6.040000000000000000e+02
-8.791686531876621302e-01,-2.564100971463631140e+00,2.621020538746961392e+01,8.327712427991355071e+01,2.191053765405740705e+01,2.127689371359520010e+01,5.420344605650097947e+01,3.471829135714142467e+01,9.484992027282714844e+00,-1.070886254310607910e+00,-5.354431271553039551e-01,6.050000000000000000e+02
5.872470848262310028e-01,-2.770873303172265878e+00,2.845080816999688977e+01,8.262620280792907579e+01,2.214267126765844296e+01,2.107302669523414806e+01,5.343923688135328121e+01,3.390977346585714258e+01,9.484992027282714844e+00,-1.070886254310607910e+00,-5.354431271553039551e-01,6.060000000000000000e+02
2.467041682142735226e+00,-3.106677198320539901e+00,2.882087118781419122e+01,8.105930725639336742e+01,2.028507014703063760e+01,2.049894832518111798e+01,5.214680292720368016e+01,3.200351775639501284e+01,9.484992027282714844e+00,-1.070886254310607910e+00,-5.354431271553039551e-01,6.070000000000000000e+02
4.168417468514235225e+00,-3.148166930204752134e+00,2.710028157453052700e+01,7.857811279822271899e+01,1.667202234426440555e+01,1.963182998539923574e+01,5.042921900033252314e+01,2.971945382994090323e+01,9.484992027282714844e+00,-1.070886254310607910e+00,-5.354431271553039551e-01,6.080000000000000000e+02
5.323347919136722339e+00,-2.437410017450019950e+00,2.432887697446494712e+01,7.614219588664127514e+01,1.214737213547414285e+01,1.862132519261649577e+01,4.848504657420562580e+01,2.785531669301781221e+01,9.484992027282714844e+00,-1.070886254310607910e+00,-5.354431271553039551e-01,6.090000000000000000e+02
5.752029832081461791e+00,-8.988085991477419157e-01,2.186331906643317780e+01,7.510501665509218583e+01,7.704209986593923531e+00,1.773021191307998379e+01,4.663741646848211531e+01,2.686174879341706401e+01,9.484992027282714844e+00,-1.070886254310607910e+00,-5.354431271553039551e-01,6.100000000000000000e+02
5.323589455063483911e+00,1.005347996702766977e+00,2.029051250305201393e+01,7.613505378711488447e+01,4.087967279021540890e+00,1.722803690876025939e+01,4.533836557074755547e+01,2.662915993080605404e+01,9.484992027282714844e+00,-1.070886254310607910e+00,-5.354431271553039551e-01,6.110000000000000000e+02
3.972084417717269389e+00,2.542715628875157563e+00,1.922632241969768074e+01,7.861207196788018337e+01,1.723708962170348968e+00,1.717165516233581002e+01,4.501089056896307738e+01,2.667916668601174024e+01,9.484992027282714844e+00,-1.070886254310607910e+00,-5.354431271553039551e-01,6.120000000000000000e+02
1.897507216792291729e+00,3.200561907437077025e+00,1.811465072130158660e+01,8.107840573079010937e+01,9.662541523503023200e-01,1.729681935874396004e+01,4.576656747265587910e+01,2.664158387541465345e+01,9.484992027282714844e+00,-1.070886254310607910e+00,-5.354431271553039551e-01,6.130000000000000000e+02
-2.991907606628956273e-01,3.006819034824729897e+00,1.712148569420241984e+01,8.232975103992794175e+01,2.268717505561653525e+00,1.719850818670238368e+01,4.723752049953691312e+01,2.664634040008240845e+01,9.484992027282714844e+00,-1.070886254310607910e+00,-5.354431271553039551e-01,6.140000000000000000e+02
-1.787980796125339111e+00,2.451393739309423836e+00,1.715122903443261748e+01,8.218645077538894839e+01,5.928854772908380255e+00,1.670104984479985433e+01,4.875608379327968578e+01,2.730227249295421643e+01,9.484992027282714844e+00,-1.070886254310607910e+00,-5.354431271553039551e-01,6.150000000000000000e+02
-1.942365851791691966e+00,2.104063623082765844e+00,1.892641468265355797e+01,8.134890370096036349e+01,1.154872012738269405e+01,1.607123202663933625e+01,4.980265462954412214e+01,2.919406417749269167e+01,9.484992027282714844e+00,-1.070886254310607910e+00,-5.354431271553039551e-01,6.160000000000000000e+02
