F3,F4,C3,C4,P3,P4,Cz,Pz,Accel_x,Accel_y,Accel_z,Sample
-2.819433575496077538e-11,-3.547029336914420128e-11,-3.547029336914420128e-11,-3.183231456205248833e-11,-2.819433575496077538e-11,-4.183675628155469894e-11,-3.547029336914420128e-11,-3.547029336914420128e-11,9.484992027282714844e+00,-1.032640218734741211e+00,-4.589512646198272705e-01,2.260000000000000000e+02
-5.395213595176755916e+00,-6.349578592372381536e+00,3.784966913515745546e+00,6.920520899207076582e+00,4.986485049818838888e+00,1.757824985365004977e+00,2.289342733311968914e+00,3.058919541142131493e+00,9.484992027282714844e+00,-1.032640218734741211e+00,-4.589512646198272705e-01,2.270000000000000000e+02
-1.132677315661749162e+01,-1.248675132787047914e+01,5.616053504162664467e+00,1.131335079123437026e+01,5.332175481798003602e+00,-1.668739767934312113e+00,3.422546122154926707e+00,5.333313221984099073e+00,9.484992027282714844e+00,-1.032640218734741211e+00,-4.589512646198272705e-01,2.280000000000000000e+02
-1.769977903482049442e+01,-1.812072316391368076e+01,5.005697239806977450e+00,1.309326113268161862e+01,2.354836320982940379e-01,-1.041330196493618132e+01,3.294844464838206477e+00,6.736365051041502738e+00,9.484992027282714844e+00,-1.032640218734741211e+00,-4.589512646198272705e-01,2.290000000000000000e+02
-2.383215816418942268e+01,-2.296558992271184252e+01,3.058581158091328689e+00,1.444144344685355463e+01,-7.167672259140999813e+00,-1.978207642755660345e+01,2.759802064101677388e+00,7.705264329521924083e+00,9.484992027282714844e+00,-1.032640218734741211e+00,-4.589512646198272705e-01,2.300000000000000000e+02
-2.914622477578450344e+01,-2.698425530219356006e+01,1.238816414900611562e+00,1.723730704385980061e+01,-1.332756943898311874e+01,-2.539707414535951102e+01,2.531220965719512606e+00,8.301652491581990034e+00,9.484992027282714844e+00,-1.032640218734741211e+00,-4.589512646198272705e-01,2.310000000000000000e+02
-3.379545675419831241e+01,-3.056797005786484078e+01,4.661716570990392938e-02,2.092796883438404620e+01,-1.768786036761594005e+01,-2.773329455082239292e+01,2.346602812277524208e+00,7.660992563943182176e+00,9.484992027282714844e+00,-1.032640218734741211e+00,-4.589512646198272705e-01,2.320000000000000000e+02
-3.859061485181700846e+01,-3.438666860612011078e+01,-1.179986680885122041e+00,2.315625211373480852e+01,-2.266241204544894572e+01,-3.137173967651870043e+01,1.340706738405060605e+00,4.608146763851436845e+00,9.523238182067871094e+00,-1.070886254310607910e+00,-4.207052886486053467e-01,2.330000000000000000e+02
-4.431723158085696923e+01,-3.891250951347592490e+01,-3.330790603041350550e+00,2.248194281872838474e+01,-3.059810512901367474e+01,-3.999552957694686484e+01,-8.015323380950576393e-01,-9.900695856194943190e-01,9.523238182067871094e+00,-1.070886254310607910e+00,-4.207052886486053467e-01,2.340000000000000000e+02
-5.111429508362380147e+01,-4.396867677416594233e+01,-6.524383644905356050e+00,2.027664419516804628e+01,-4.110914114955539844e+01,-5.249601108444221609e+01,-3.233662320919393096e+00,-7.488040823662231560e+00,9.523238182067871094e+00,-1.070886254310607910e+00,-4.207052886486053467e-01,2.350000000000000000e+02
-5.844524936127345427e+01,-4.875639436641631619e+01,-9.995761466716430732e+00,1.973855436345365888e+01,-5.138612040779389645e+01,-6.408227946555780363e+01,-4.608930782736933907e+00,-1.226620700922376273e+01,9.523238182067871094e+00,-1.070886254310607910e+00,-4.207052886486053467e-01,2.360000000000000000e+02
-6.556422309608478827e+01,-5.246535537512409064e+01,-1.279642453397082136e+01,2.299033969136689848e+01,-5.878427431832551520e+01,-7.090999596733126964e+01,-4.334107060630230990e+00,-1.355193367595620657e+01,9.523238182067871094e+00,-1.070886254310607910e+00,-4.207052886486053467e-01,2.370000000000000000e+02
-7.197992651804088382e+01,-5.501753220415503165e+01,-1.448099531932803075e+01,2.915980771702925267e+01,-6.287931742426826531e+01,-7.336630336360849469e+01,-3.103975368620922382e+00,-1.168910434567533230e+01,9.523238182067871094e+00,-1.070886254310607910e+00,-4.207052886486053467e-01,2.380000000000000000e+02
-7.757717733843219321e+01,-5.726708536828664364e+01,-1.518174169939993590e+01,3.527332998175370449e+01,-6.521111472556185618e+01,-7.501585891757622448e+01,-2.196046143923013005e+00,-8.736355426501177135e+00,9.523238182067871094e+00,-1.070886254310607910e+00,-4.207052886486053467e-01,2.390000000000000000e+02
-8.248661689966957056e+01,-6.037799593607996940e+01,-1.521114049292464188e+01,3.896818576833720726e+01,-6.749137783824153303e+01,-7.883841553149159154e+01,-2.294763758543922449e+00,-6.777156587788340403e+00,9.523238182067871094e+00,-1.070886254310607910e+00,-4.207052886486053467e-01,2.400000000000000000e+02
-8.696185858837543492e+01,-6.485345650651834148e+01,-1.475963531035358756e+01,4.036475161097405362e+01,-7.031158987678008998e+01,-8.477135928100778983e+01,-3.047647779843828175e+00,-6.462302882418953232e+00,9.523238182067871094e+00,-1.070886254310607910e+00,-4.207052886486053467e-01,2.410000000000000000e+02
-9.134360081664726749e+01,-7.007939325056395319e+01,-1.397192805865961418e+01,4.147508421697693848e+01,-7.334260671510492102e+01,-9.063912146749680687e+01,-3.703523828044126276e+00,-6.982425775133378920e+00,9.523238182067871094e+00,-1.070886254310607910e+00,-4.207052886486053467e-01,2.420000000000000000e+02
-9.596890104970952962e+01,-7.482794624302368902e+01,-1.315541420496447245e+01,4.397833381903728878e+01,-7.627485147504376073e+01,-9.491203524409684178e+01,-4.034316709670747514e+00,-7.263319122949724260e+00,9.523238182067871094e+00,-1.070886254310607910e+00,-4.207052886486053467e-01,2.430000000000000000e+02
-1.009531075083777978e+02,-7.831048778760032292e+01,-1.275971225639841578e+01,4.759300553062894323e+01,-7.927173789867447340e+01,-9.825617114856231638e+01,-4.543365391261431796e+00,-7.117022874190297443e+00,9.523238182067871094e+00,-1.070886254310607910e+00,-4.207052886486053467e-01,2.440000000000000000e+02
-1.060481523950111296e+02,-8.085021971256355755e+01,-1.311554500232705323e+01,5.044641737222627853e+01,-8.266599838511592679e+01,-1.026073025991927352e+02,-5.819970625105270301e+00,-7.308703764249003143e+00,9.523238182067871094e+00,-1.070886254310607910e+00,-4.207052886486053467e-01,2.450000000000000000e+02
-1.108213900638593259e+02,-8.358702382556293742e+01,-1.424331687229732779e+01,5.086218901016309246e+01,-8.657738009355125541e+01,-1.091529816761212714e+02,-7.833265930564266455e+00,-8.677950981576032063e+00,9.523238182067871094e+00,-1.070886254310607910e+00,-4.207052886486053467e-01,2.460000000000000000e+02
-1.150904411812944090e+02,-8.750071676890456729e+01,-1.594211706949590734e+01,4.883243613662216376e+01,-9.098145098557233723e+01,-1.173523676922650338e+02,-9.948313295188199845e+00,-1.131302312580100988e+01,9.523238182067871094e+00,-1.070886254310607910e+00,-4.207052886486053467e-01,2.470000000000000000e+02
-1.192065564449321755e+02,-9.262029178765169490e+01,-1.802558166087783320e+01,4.598216705897993961e+01,-9.598376449013085221e+01,-1.256697353203380771e+02,-1.159753366920995177e+01,-1.452600994752810948e+01,9.523238182067871094e+00,-1.070886254310607910e+00,-4.207052886486053467e-01,2.480000000000000000e+02
-1.238322720029154880e+02,-9.805909736934245302e+01,-2.040986259370129119e+01,4.429173020223424828e+01,-1.017456257786052447e+02,-1.329237199401568432e+02,-1.282360635257100512e+01,-1.745784242708305101e+01,9.523238182067871094e+00,-1.070886254310607910e+00,-4.207052886486053467e-01,2.490000000000000000e+02
-1.293453575004250524e+02,-1.027422098862898565e+02,-2.297559311829718354e+01,4.478358887006743316e+01,-1.080276234635975925e+02,-1.388770427288727660e+02,-1.409237808963644056e+01,-1.959203357887872698e+01,9.523238182067871094e+00,-1.070886254310607910e+00,-4.207052886486053467e-01,2.500000000000000000e+02
-1.354135865886491956e+02,-1.061444032940453326e+02,-2.541173074558719236e+01,4.714095040786014579e+01,-1.139262973695140317e+02,-1.438042178853975201e+02,-1.560051439361905068e+01,-2.074925562039697979e+01,9.523238182067871094e+00,-1.070886254310607910e+00,-4.207052886486053467e-01,2.510000000000000000e+02
-1.411639993721428255e+02,-1.084572529821552962e+02,-2.726362821794646152e+01,5.031599490416738263e+01,-1.182631550783116836e+02,-1.478177559727137123e+02,-1.684602736689430458e+01,-2.081763521905668313e+01,9.523238182067871094e+00,-1.070886254310607910e+00,-4.207052886486053467e-01,2.520000000000000000e+02
-1.458407749820007666e+02,-1.101979115416279456e+02,-2.817988683240309911e+01,5.341165391136655671e+01,-1.204141778034045274e+02,-1.507622340484494998e+02,-1.698605195345862739e+01,-1.974440071015942522e+01,9.523238182067871094e+00,-1.070886254310607910e+00,-4.207052886486053467e-01,2.530000000000000000e+02
-1.493616130908876585e+02,-1.117254808727839190e+02,-2.810820514284750971e+01,5.612167686248994869e+01,-1.208407616132953990e+02,-1.526730580507264676e+02,-1.565547688589958852e+01,-1.784369695250461518e+01,9.523238182067871094e+00,-1.070886254310607910e+00,-4.207052886486053467e-01,2.540000000000000000e+02
-1.522730207515342045e+02,-1.130871603013138156e+02,-2.725362214231063263e+01,5.855785844292040565e+01,-1.208227169522815529e+02,-1.541592134397706104e+02,-1.343439371511067293e+01,-1.596049207550186111e+01,9.523238182067871094e+00,-1.070886254310607910e+00,-4.207052886486053467e-01,2.550000000000000000e+02
-1.551766257468379990e+02,-1.142357414994421561e+02,-2.589743569983966154e+01,6.080835428827776923e+01,-1.216310721333220499e+02,-1.562208031721102088e+02,-1.150097456439561938e+01,-1.512204221597767173e+01,9.523238182067871094e+00,-1.070886254310607910e+00,-4.207052886486053467e-01,2.560000000000000000e+02
-1.581982734419789267e+02,-1.152975851332921593e+02,-2.430091639637521439e+01,6.271082713223404426e+01,-1.238036632770645156e+02,-1.596140682121858845e+02,-1.076672003198200400e+01,-1.586030086324808508e+01,9.523238182067871094e+00,-1.070886254310607910e+00,-4.207052886486053467e-01,2.570000000000000000e+02
-1.610153653620391196e+02,-1.165929503309516804e+02,-2.279028037440775734e+01,6.401820616137865727e+01,-1.270456109809947520e+02,-1.643446186405790286e+02,-1.128553627136170689e+01,-1.784401006366624642e+01,9.523238182067871094e+00,-1.070886254310607910e+00,-4.207052886486053467e-01,2.580000000000000000e+02
-1.633977796354920429e+02,-1.184224965668031473e+02,-2.186218159912777992e+01,6.471991051406803308e+01,-1.307103139871342137e+02,-1.697380215859675445e+02,-1.246290108896937454e+01,-2.022277553971980524e+01,9.523238182067871094e+00,-1.070886254310607910e+00,-4.207052886486053467e-01,2.590000000000000000e+02
-1.657085827857727054e+02,-1.208528012126726026e+02,-2.208766895978396860e+01,6.513491268900543218e+01,-1.343874225294039206e+02,-1.749913147238421516e+02,-1.382405341848789249e+01,-2.237690085928352346e+01,9.446745872497558594e+00,-1.070886254310607910e+00,-4.589512646198272705e-01,2.600000000000000000e+02
-1.688272063383451496e+02,-1.237015090138725100e+02,-2.381020704659840703e+01,6.564032232809677225e+01,-1.381623205657479048e+02,-1.797101770922845390e+02,-1.559284798188218701e+01,-2.436755857814841875e+01,9.446745872497558594e+00,-1.070886254310607910e+00,-4.589512646198272705e-01,2.610000000000000000e+02
-1.734708507230634495e+02,-1.267129076852206708e+02,-2.687309750006443210e+01,6.628310194052846782e+01,-1.424493559431130052e+02,-1.840164122414407757e+02,-1.853045478821240977e+01,-2.669469725233375357e+01,9.446745872497558594e+00,-1.070886254310607910e+00,-4.589512646198272705e-01,2.620000000000000000e+02
-1.794686755822335726e+02,-1.297355353197722252e+02,-3.062842704982858777e+01,6.668436214243592985e+01,-1.476244086594315377e+02,-1.882501302622476942e+02,-2.315007492889981222e+01,-2.965084867858695361e+01,9.446745872497558594e+00,-1.070886254310607910e+00,-4.589512646198272705e-01,2.630000000000000000e+02
-1.856381597594081541e+02,-1.327352223920283905e+02,-3.424330148713443123e+01,6.641679430051044619e+01,-1.537310499370369143e+02,-1.926098744513255951e+02,-2.896680949757410417e+01,-3.291784230456460136e+01,9.446745872497558594e+00,-1.070886254310607910e+00,-4.589512646198272705e-01,2.640000000000000000e+02
-1.904516829348340252e+02,-1.356479416634892914e+02,-3.705456525606177820e+01,6.557234966305168200e+01,-1.603667516838354459e+02,-1.970109552225676453e+02,-3.443116398373012998e+01,-3.572382522021598561e+01,9.446745872497558594e+00,-1.070886254310607910e+00,-4.589512646198272705e-01,2.650000000000000000e+02
-1.930590557120872290e+02,-1.382426895859907745e+02,-3.873808177618093396e+01,6.496315070810305770e+01,-1.667350048945008893e+02,-2.011711489546805751e+02,-3.767928278840145140e+01,-3.733196281475466094e+01,9.446745872497558594e+00,-1.070886254310607910e+00,-4.589512646198272705e-01,2.660000000000000000e+02
-1.939166536259476743e+02,-1.401813798963207773e+02,-3.927336769259318316e+01,6.563958673500656005e+01,-1.718425166226866168e+02,-2.047484363182375091e+02,-3.763814426269482283e+01,-3.741427484625091893e+01,9.446745872497558594e+00,-1.070886254310607910e+00,-4.589512646198272705e-01,2.670000000000000000e+02
-1.945256678837663458e+02,-1.412711343707860578e+02,-3.885185597784357014e+01,6.802271400465360784e+01,-1.748603017272180296e+02,-2.074528298962450208e+02,-3.474357746844907524e+01,-3.609346762062568814e+01,9.446745872497558594e+00,-1.070886254310607910e+00,-4.589512646198272705e-01,2.680000000000000000e+02
-1.964192225419960778e+02,-1.417021980533218084e+02,-3.783317838346965800e+01,7.138574604853783967e+01,-1.755618990473803933e+02,-2.091858842746660230e+02,-3.076734617950751272e+01,-3.379805862932244054e+01,9.446745872497558594e+00,-1.070886254310607910e+00,-4.589512646198272705e-01,2.690000000000000000e+02
-2.000999792288043864e+02,-1.420372296665086651e+02,-3.670893569378358734e+01,7.422505937707319390e+01,-1.745677637099902313e+02,-2.102107280089931010e+02,-2.783302988538025602e+01,-3.114418194530071560e+01,9.446745872497558594e+00,-1.070886254310607910e+00,-4.589512646198272705e-01,2.700000000000000000e+02
-2.047077241427832632e+02,-1.429006150155346404e+02,-3.597503763888516914e+01,7.531385728601162555e+01,-1.731306242569594360e+02,-2.111780245803020080e+02,-2.723429439783649286e+01,-2.885016738840749895e+01,9.446745872497558594e+00,-1.070886254310607910e+00,-4.589512646198272705e-01,2.710000000000000000e+02
-2.086928933899080221e+02,-1.445867308317351672e+02,-3.593866615942124554e+01,7.460935926965521503e+01,-1.724710769245939446e+02,-2.128032326440297766e+02,-2.881055119495431427e+01,-2.754828138636139556e+01,9.446745872497558594e+00,-1.070886254310607910e+00,-4.589512646198272705e-01,2.720000000000000000e+02
-2.110122815854642795e+02,-1.468970965685748524e+02,-3.660423917439220531e+01,7.326400644384102634e+01,-1.730821802789587309e+02,-2.153117277580658993e+02,-3.124635700866019761e+01,-2.747971295791376178e+01,9.446745872497558594e+00,-1.070886254310607910e+00,-4.589512646198272705e-01,2.730000000000000000e+02
-2.119503208462783732e+02,-1.493364626374873296e+02,-3.775829219544675652e+01,7.272641613725454590e+01,-1.745888760007273959e+02,-2.181684645241775797e+02,-3.302555376744476234e+01,-2.832869342892763598e+01,9.446745872497558594e+00,-1.070886254310607910e+00,-4.589512646198272705e-01,2.740000000000000000e+02
-2.129172751251858244e+02,-1.514986601490722933e+02,-3.917844352630936555e+01,7.368236624886139907e+01,-1.763242607408101321e+02,-2.205031760617293912e+02,-3.334042683300413046e+01,-2.943982671436333476e+01,9.446745872497558594e+00,-1.070886254310607910e+00,-4.589512646198272705e-01,2.750000000000000000e+02
-2.153554706986033125e+02,-1.533163898909024283e+02,-4.075362894521094859e+01,7.568412564325535641e+01,-1.781119911701939600e+02,-2.219719797100033247e+02,-3.237169355812466165e+01,-3.030849888712282336e+01,9.446745872497558594e+00,-1.070886254310607910e+00,-4.589512646198272705e-01,2.760000000000000000e+02
-2.196125050591972467e+02,-1.549865533596257592e+02,-4.240192264196593896e+01,7.768104235252076251e+01,-1.804836869889390982e+02,-2.232381117039958554e+02,-3.089563533837872455e+01,-3.091705509932808127e+01,9.446745872497558594e+00,-1.070886254310607910e+00,-4.589512646198272705e-01,2.770000000000000000e+02
-2.246796509650534972e+02,-1.566750386823955523e+02,-4.391393762374354992e+01,7.889446496092432426e+01,-1.840648149303851824e+02,-2.254797357093802930e+02,-2.968752895101806644e+01,-3.159617966222276664e+01,9.446745872497558594e+00,-1.070886254310607910e+00,-4.589512646198272705e-01,2.780000000000000000e+02
-2.290064634280242899e+02,-1.582928435768326381e+02,-4.496488640324332664e+01,7.929188637659854066e+01,-1.887016065685161266e+02,-2.292704872412177792e+02,-2.920847897064777499e+01,-3.255826647174035315e+01,9.446745872497558594e+00,-1.070886254310607910e+00,-4.589512646198272705e-01,2.790000000000000000e+02
-2.317063224828089005e+02,-1.595323403445199801e+02,-4.534551654680399224e+01,7.941732347364404632e+01,-1.932075000564204856e+02,-2.338595450886973595e+02,-2.964230409988522297e+01,-3.356875748442234908e+01,9.446745872497558594e+00,-1.070886254310607910e+00,-4.589512646198272705e-01,2.800000000000000000e+02
-2.331557012192515685e+02,-1.600911431351814826e+02,-4.520057695333298398e+01,7.992067490508861738e+01,-1.960650264617579523e+02,-2.375847718831541897e+02,-3.098205864409101196e+01,-3.407960659545324233e+01,9.446745872497558594e+00,-1.070886254310607910e+00,-4.589512646198272705e-01,2.810000000000000000e+02
-2.345267486368834398e+02,-1.598837551243000235e+02,-4.501617471028384898e+01,8.122893365754816841e+01,-1.965309738899804870e+02,-2.391168567899544541e+02,-3.294861595610564109e+01,-3.369977233735153277e+01,9.446745872497558594e+00,-1.070886254310607910e+00,-4.589512646198272705e-01,2.820000000000000000e+02
-2.367144437957435912e+02,-1.591116891324872995e+02,-4.532049503326288686e+01,8.345620612874517974e+01,-1.952052970831205130e+02,-2.384627371097608375e+02,-3.490066360882883600e+01,-3.256120922071568202e+01,9.446745872497558594e+00,-1.070886254310607910e+00,-4.589512646198272705e-01,2.830000000000000000e+02
-2.395943411489774917e+02,-1.581993153226117101e+02,-4.630990218736951647e+01,8.638119126740593856e+01,-1.935891094842045277e+02,-2.368771367130402723e+02,-3.603130001857834941e+01,-3.124349426024264176e+01,9.446745872497558594e+00,-1.070886254310607910e+00,-4.589512646198272705e-01,2.840000000000000000e+02
-2.422021782576566693e+02,-1.576313652704789092e+02,-4.766500303552402329e+01,8.943149653585624037e+01,-1.930120837619374470e+02,-2.358160669652243087e+02,-3.584048635353065038e+01,-3.033962461833380075e+01,9.446745872497558594e+00,-1.070886254310607910e+00,-4.589512646198272705e-01,2.850000000000000000e+02
-2.435893151962127376e+02,-1.577285286504948090e+02,-4.867656615777968909e+01,9.184458692894759224e+01,-1.937997849699495418e+02,-2.358778946009006177e+02,-3.449778521391363029e+01,-3.005810287139820502e+01,9.446745872497558594e+00,-1.070886254310607910e+00,-4.589512646198272705e-01,2.860000000000000000e+02
-2.435597834496966243e+02,-1.584312145017393050e+02,-4.858737071702171306e+01,9.309603416065510828e+01,-1.952688545617002092e+02,-2.365877529989743380e+02,-3.271510331299123209e+01,-3.016720651543755594e+01,9.446745872497558594e+00,-1.070886254310607910e+00,-4.589512646198272705e-01,2.870000000000000000e+02
-2.427002894846887102e+02,-1.592300757631442139e+02,-4.695353129855539009e+01,9.330454019757280548e+01,-1.964099671728067733e+02,-2.370539043131266226e+02,-3.118658766716907849e+01,-3.022170100033827111e+01,9.446745872497558594e+00,-1.070886254310607910e+00,-4.589512646198272705e-01,2.880000000000000000e+02
-2.417970965170912905e+02,-1.594112131998890618e+02,-4.388035058439027125e+01,9.314601310026864667e+01,-1.966302157857899147e+02,-2.368192866636513827e+02,-3.010719200811809060e+01,-2.982416452168195065e+01,9.446745872497558594e+00,-1.070886254310607910e+00,-4.589512646198272705e-01,2.890000000000000000e+02
-2.412374223718471740e+02,-1.585797244864284039e+02,-4.003390697484792327e+01,9.321549048152837713e+01,-1.960056008368410403e+02,-2.361937503374515472e+02,-2.920105691720732466e+01,-2.876317088081850670e+01,9.446745872497558594e+00,-1.070886254310607910e+00,-4.589512646198272705e-01,2.900000000000000000e+02
-2.408864744865970806e+02,-1.571010367485459938e+02,-3.636494680892928955e+01,9.341816562475105457e+01,-1.949767477105992839e+02,-2.359124947030641124e+02,-2.815730428626739013e+01,-2.704170813062069101e+01,9.446745872497558594e+00,-1.147378087043762207e+00,-4.207052886486053467e-01,2.910000000000000000e+02
-2.404413473826591598e+02,-1.560268098405073260e+02,-3.366885823782354237e+01,9.307253301448736238e+01,-1.938758576326015373e+02,-2.365341839396094201e+02,-2.700975491405415596e+01,-2.490119485525701748e+01,9.446745872497558594e+00,-1.147378087043762207e+00,-4.207052886486053467e-01,2.920000000000000000e+02
-2.398679986857530366e+02,-1.564246598660040490e+02,-3.227037978165276400e+01,9.172407965349361803e+01,-1.927506516151522646e+02,-2.381036706575159769e+02,-2.613288636333049908e+01,-2.284376372829910906e+01,9.446745872497558594e+00,-1.147378087043762207e+00,-4.207052886486053467e-01,2.930000000000000000e+02
-2.395249133553980982e+02,-1.585721981492379200e+02,-3.206817289433047335e+01,8.985529792856391396e+01,-1.916052393397146716e+02,-2.402756768168196686e+02,-2.596172151859218502e+01,-2.152769529436432094e+01,9.446745872497558594e+00,-1.147378087043762207e+00,-4.207052886486053467e-01,2.940000000000000000e+02
-2.399153387545449050e+02,-1.616851584942337468e+02,-3.286768178883062319e+01,8.865839411240494883e+01,-1.907307716345305835e+02,-2.426690443422010048e+02,-2.676455951684692991e+01,-2.146990689368499261e+01,9.446745872497558594e+00,-1.147378087043762207e+00,-4.207052886486053467e-01,2.950000000000000000e+02
-2.413078266456841448e+02,-1.644524925497537424e+02,-3.463024773647043730e+01,8.895763351688492548e+01,-1.906913914199353712e+02,-2.450772156562397868e+02,-2.860846168438297354e+01,-2.269623568892529875e+01,9.446745872497558594e+00,-1.147378087043762207e+00,-4.207052886486053467e-01,2.960000000000000000e+02
-2.435165949094939606e+02,-1.659610503166946955e+02,-3.734202423963256479e+01,9.031001566107875078e+01,-1.918808963771446088e+02,-2.473923984652108174e+02,-3.137911873894518067e+01,-2.463457785750733819e+01,9.446745872497558594e+00,-1.147378087043762207e+00,-4.207052886486053467e-01,2.970000000000000000e+02
-2.459687839576350825e+02,-1.662528021585908391e+02,-4.063979027028472046e+01,9.123959742786769311e+01,-1.940541898002022663e+02,-2.494229224406835783e+02,-3.470621038003218928e+01,-2.642389750504707990e+01,9.446745872497558594e+00,-1.147378087043762207e+00,-4.207052886486053467e-01,2.980000000000000000e+02
-2.480026090653666415e+02,-1.661164314581388908e+02,-4.367858021942402047e+01,9.047306027259833172e+01,-1.963538560143508676e+02,-2.508899091305181628e+02,-3.790228927148928051e+01,-2.746753107439872110e+01,9.446745872497558594e+00,-1.147378087043762207e+00,-4.207052886486053467e-01,2.990000000000000000e+02
-2.492359211471067511e+02,-1.663972266458954437e+02,-4.555546320583334818e+01,8.804332155212114230e+01,-1.979063246070297737e+02,-2.516658908105084720e+02,-4.015118874872541710e+01,-2.781206320009630417e+01,9.446745872497558594e+00,-1.147378087043762207e+00,-4.207052886486053467e-01,3.000000000000000000e+02
-2.497892023020125407e+02,-1.674490275478699459e+02,-4.598100319868581209e+01,8.526639046353989215e+01,-1.984533271445475293e+02,-2.519802776644039568e+02,-4.095110833643116166e+01,-2.799880126750736054e+01,9.446745872497558594e+00,-1.147378087043762207e+00,-4.207052886486053467e-01,3.010000000000000000e+02
-2.501821405237741374e+02,-1.690818826748233050e+02,-4.549888387743453677e+01,8.368505194288400162e+01,-1.983777917778911615e+02,-2.522826921891426082e+02,-4.045846472035555053e+01,-2.845431667592970371e+01,9.446745872497558594e+00,-1.147378087043762207e+00,-4.207052886486053467e-01,3.020000000000000000e+02
-2.509245162736986003e+02,-1.708521353959240514e+02,-4.493651320672574911e+01,8.397399687248798728e+01,-1.981034749327232021e+02,-2.528120066066944673e+02,-3.939716959533279805e+01,-2.894975977009153212e+01,9.446745872497558594e+00,-1.147378087043762207e+00,-4.207052886486053467e-01,3.030000000000000000e+02
-2.520658052497191193e+02,-1.723126077356163250e+02,-4.458276215904265882e+01,8.568152145395333719e+01,-1.975477930659906178e+02,-2.532971347374229936e+02,-3.858779247591473904e+01,-2.869484603064836392e+01,9.446745872497558594e+00,-1.147378087043762207e+00,-4.207052886486053467e-01,3.040000000000000000e+02
-2.530722281987075348e+02,-1.730588361676752811e+02,-4.394855578380202132e+01,8.778892699736888972e+01,-1.962767370688758319e+02,-2.531673092786068082e+02,-3.847878550504970008e+01,-2.709769332549808496e+01,9.446745872497558594e+00,-1.147378087043762207e+00,-4.207052886486053467e-01,3.050000000000000000e+02
-2.532159092830388545e+02,-1.727471291789927363e+02,-4.242816004527367113e+01,8.939639002042963511e+01,-1.942520949397596723e+02,-2.521537027813003533e+02,-3.901885504179608688e+01,-2.456286072410500765e+01,9.446745872497558594e+00,-1.147378087043762207e+00,-4.207052886486053467e-01,3.060000000000000000e+02
-2.522298586330265380e+02,-1.712689863799175782e+02,-4.020822748593604956e+01,9.002061508803126344e+01,-1.923096470518887600e+02,-2.506877769351224288e+02,-3.983203318061600839e+01,-2.250697695293069955e+01,9.446745872497558594e+00,-1.147378087043762207e+00,-4.207052886486053467e-01,3.070000000000000000e+02
-2.506717065440024044e+02,-1.689757677087407046e+02,-3.841382693355535594e+01,8.957655898789516868e+01,-1.916850993755660966e+02,-2.496269516252965559e+02,-4.042930111529926762e+01,-2.237129212057743644e+01,9.446745872497558594e+00,-1.147378087043762207e+00,-4.207052886486053467e-01,3.080000000000000000e+02
-2.495993426467507561e+02,-1.666602863182080227e+02,-3.820987875035461911e+01,8.836392222491940629e+01,-1.928999088376746158e+02,-2.495079007978340542e+02,-4.032659162727509283e+01,-2.435910308216455178e+01,9.446745872497558594e+00,-1.147378087043762207e+00,-4.207052886486053467e-01,3.090000000000000000e+02
-2.497445007051272796e+02,-1.651779982211551214e+02,-3.967703820619135513e+01,8.709605265179834532e+01,-1.951038782556011029e+02,-2.500492657800753022e+02,-3.918689265056741533e+01,-2.703469086530571985e+01,9.446745872497558594e+00,-1.147378087043762207e+00,-4.207052886486053467e-01,3.100000000000000000e+02
-2.508905780179991325e+02,-1.649616283763650699e+02,-4.160716179607447884e+01,8.668381412110397832e+01,-1.966508297292268708e+02,-2.504345413758575205e+02,-3.709633834692613163e+01,-2.831296600377254435e+01,9.446745872497558594e+00,-1.147378087043762207e+00,-4.207052886486053467e-01,3.110000000000000000e+02
-2.520730049023324000e+02,-1.657990289627587117e+02,-4.251143729734917542e+01,8.767978019314045923e+01,-1.964833882268158050e+02,-2.501210416066163589e+02,-3.477316342311371500e+01,-2.713170187445246029e+01,9.484992027282714844e+00,-1.109132170677185059e+00,-4.589512646198272705e-01,3.120000000000000000e+02
-2.525022366719342699e+02,-1.670140683972649640e+02,-4.192005053485809185e+01,8.979731326579667439e+01,-1.950322375926887162e+02,-2.493630757093087595e+02,-3.334093884464800794e+01,-2.436686139450375777e+01,9.484992027282714844e+00,-1.109132170677185059e+00,-4.589512646198272705e-01,3.130000000000000000e+02
-2.523927451908258490e+02,-1.678695190906166772e+02,-4.072275256587147396e+01,9.205260595226127407e+01,-1.937476022368815620e+02,-2.489170980314049757e+02,-3.360115999903905504e+01,-2.211962972148819517e+01,9.484992027282714844e+00,-1.109132170677185059e+00,-4.589512646198272705e-01,3.140000000000000000e+02
-2.528672743749771143e+02,-1.679030803339931026e+02,-4.022773551216891974e+01,9.355128994981714641e+01,-1.936852798122461081e+02,-2.492251762861448015e+02,-3.529598305411377623e+01,-2.192381487237912552e+01,9.484992027282714844e+00,-1.109132170677185059e+00,-4.589512646198272705e-01,3.150000000000000000e+02
-2.549118901676617952e+02,-1.670700155153595006e+02,-4.086418450773953737e+01,9.424560621404816629e+01,-1.944958546574655429e+02,-2.499101073543772600e+02,-3.705619605052493171e+01,-2.343130746057715896e+01,9.484992027282714844e+00,-1.109132170677185059e+00,-4.589512646198272705e-01,3.160000000000000000e+02
-2.582865544962038484e+02,-1.657353391487725958e+02,-4.178326804768039437e+01,9.490405581555842218e+01,-1.947787563654451333e+02,-2.501095919292238250e+02,-3.726999274200068157e+01,-2.475648963343292053e+01,9.484992027282714844e+00,-1.109132170677185059e+00,-4.589512646198272705e-01,3.170000000000000000e+02
-2.614466747554710082e+02,-1.645491817795665384e+02,-4.170794965955747102e+01,9.628229222179970748e+01,-1.934473894577844248e+02,-2.493170558031515611e+02,-3.531046050803604430e+01,-2.417405572951793147e+01,9.484992027282714844e+00,-1.109132170677185059e+00,-4.589512646198272705e-01,3.180000000000000000e+02
-2.626790991406122657e+02,-1.641722398570938140e+02,-4.019026556254686966e+01,9.829835586345279808e+01,-1.908133584488987253e+02,-2.478914941672657051e+02,-3.215685957550226703e+01,-2.165069977009625291e+01,9.484992027282714844e+00,-1.109132170677185059e+00,-4.589512646198272705e-01,3.190000000000000000e+02
-2.615066722170836329e+02,-1.648960106279347428e+02,-3.807783346403903124e+01,1.000481922510332424e+02,-1.883749783578358574e+02,-2.467425579012038952e+02,-2.983092376633214826e+01,-1.886245061542012991e+01,9.484992027282714844e+00,-1.109132170677185059e+00,-4.589512646198272705e-01,3.200000000000000000e+02
-2.591083657377846521e+02,-1.664065935184606815e+02,-3.679863792821277002e+01,1.006596187296729568e+02,-1.875329922130438263e+02,-2.465249177305879584e+02,-2.999473382690359813e+01,-1.774103986605007321e+01,9.484992027282714844e+00,-1.109132170677185059e+00,-4.589512646198272705e-01,3.210000000000000000e+02
-2.573682308281153155e+02,-1.679500198275184175e+02,-3.717447786650836861e+01,1.001352805350397830e+02,-1.884170591407977327e+02,-2.471249518510001053e+02,-3.274008969342810360e+01,-1.887661499635555629e+01,9.484992027282714844e+00,-1.109132170677185059e+00,-4.589512646198272705e-01,3.220000000000000000e+02
-2.573799788787046054e+02,-1.688446225721070277e+02,-3.882233412339951428e+01,9.935266080049109405e+01,-1.898238137772285654e+02,-2.478797868463402665e+02,-3.645202163913882032e+01,-2.111594261737263878e+01,9.484992027282714844e+00,-1.109132170677185059e+00,-4.589512646198272705e-01,3.230000000000000000e+02
-2.586929835487106857e+02,-1.689211867854445472e+02,-4.055674081556776400e+01,9.924429565769219153e+01,-1.902139294106166290e+02,-2.482186254115948714e+02,-3.883649812764508624e+01,-2.255138148152116173e+01,9.484992027282714844e+00,-1.109132170677185059e+00,-4.589512646198272705e-01,3.240000000000000000e+02
-2.598449565715421841e+02,-1.684822330538381721e+02,-4.130296234943034506e+01,9.999628822424779173e+01,-1.888108122680395127e+02,-2.480437659085608857e+02,-3.837695767703189631e+01,-2.193672135685835656e+01,9.484992027282714844e+00,-1.109132170677185059e+00,-4.589512646198272705e-01,3.250000000000000000e+02
-2.595825543698728097e+02,-1.678432440787471478e+02,-4.072529531461748320e+01,1.010339827509592396e+02,-1.859144056909750589e+02,-2.475300001718529757e+02,-3.524007684998809964e+01,-1.939859985158500422e+01,9.484992027282714844e+00,-1.109132170677185059e+00,-4.589512646198272705e-01,3.260000000000000000e+02
-2.576823037201946818e+02,-1.669583313729684733e+02,-3.921379833518915348e+01,1.017265518638034791e+02,-1.823767857469787259e+02,-2.466768955844620450e+02,-3.108997177900073439e+01,-1.610200064934338116e+01,9.484992027282714844e+00,-1.109132170677185059e+00,-4.589512646198272705e-01,3.270000000000000000e+02
-2.548424434201268696e+02,-1.655645996717800017e+02,-3.746892052772705028e+01,1.020288111875886443e+02,-1.789213749868314380e+02,-2.451901093160490746e+02,-2.801986950962168521e+01,-1.338797674985755748e+01,9.484992027282714844e+00,-1.109132170677185059e+00,-4.589512646198272705e-01,3.280000000000000000e+02
-2.520182143068377627e+02,-1.637055243988678512e+02,-3.610307579365382935e+01,1.024063802851048877e+02,-1.759318208722606869e+02,-2.428554401448049020e+02,-2.733618733901460018e+01,-1.208342399625223607e+01,9.484992027282714844e+00,-1.109132170677185059e+00,-4.589512646198272705e-01,3.290000000000000000e+02
-2.498902112839034544e+02,-1.620140470012460128e+02,-3.543821813902457052e+01,1.031958334901044054e+02,-1.736764095666181902e+02,-2.399801108414576447e+02,-2.893737157719044717e+01,-1.228941435234810342e+01,9.484992027282714844e+00,-1.109132170677185059e+00,-4.589512646198272705e-01,3.300000000000000000e+02
-2.487367837132795785e+02,-1.613231248733201255e+02,-3.542256421227250485e+01,1.041348751094658382e+02,-1.724638278855842373e+02,-2.373667963583260416e+02,-3.156955688034986451e+01,-1.352634738246263169e+01,9.484992027282714844e+00,-1.109132170677185059e+00,-4.589512646198272705e-01,3.310000000000000000e+02
-2.484710764904397138e+02,-1.618891098638088124e+02,-3.562472562380639829e+01,1.045767888848006351e+02,-1.724155969439589171e+02,-2.357713735641298172e+02,-3.367889410775580927e+01,-1.503851595154435472e+01,9.484992027282714844e+00,-1.109132170677185059e+00,-4.589512646198272705e-01,3.320000000000000000e+02
-2.486064555137221532e+02,-1.629975025451504962e+02,-3.541789924895033437e+01,1.041518447389510129e+02,-1.731242503915632369e+02,-2.353540446856123936e+02,-3.427923177445200054e+01,-1.615950730098813892e+01,9.484992027282714844e+00,-1.109132170677185059e+00,-4.589512646198272705e-01,3.330000000000000000e+02
-2.483099948648035706e+02,-1.634447426475088605e+02,-3.438620930590423086e+01,1.031580431213392330e+02,-1.737210865269038322e+02,-2.356541478062792976e+02,-3.333950644163166999e+01,-1.663008245345838532e+01,9.484992027282714844e+00,-1.109132170677185059e+00,-4.589512646198272705e-01,3.340000000000000000e+02
-2.468248885777669557e+02,-1.625463944137916315e+02,-3.268915261174311127e+01,1.022813479774790721e+02,-1.734456436472432870e+02,-2.360549289681146092e+02,-3.156650645494516993e+01,-1.664161321332255739e+01,9.484992027282714844e+00,-1.109132170677185059e+00,-4.589512646198272705e-01,3.350000000000000000e+02
-2.441036486057196271e+02,-1.607304644112429060e+02,-3.100940247362404989e+01,1.019778210576369020e+02,-1.721972779502357298e+02,-2.362048190002902857e+02,-2.983977894529834884e+01,-1.646689763774236326e+01,9.484992027282714844e+00,-1.109132170677185059e+00,-4.589512646198272705e-01,3.360000000000000000e+02
-2.410577968779352886e+02,-1.591191465276060626e+02,-3.003601043226956335e+01,1.021721439461947512e+02,-1.704973423668968735e+02,-2.359855623353306555e+02,-2.870534306916681544e+01,-1.595450183459252003e+01,9.446745872497558594e+00,-1.070886254310607910e+00,-4.589512646198272705e-01,3.370000000000000000e+02
-2.389842666434833518e+02,-1.584384207763979475e+02,-2.990619137607870925e+01,1.025643007390917774e+02,-1.688874232126976267e+02,-2.351975958266192492e+02,-2.819820047028395038e+01,-1.444422911844378632e+01,9.446745872497558594e+00,-1.070886254310607910e+00,-4.589512646198272705e-01,3.380000000000000000e+02
-2.385199263688820679e+02,-1.582683266381667408e+02,-3.013088788239906535e+01,1.031417133645663853e+02,-1.673855032558954008e+02,-2.334941907984072031e+02,-2.799788106595985937e+01,-1.137407503557244581e+01,9.446745872497558594e+00,-1.070886254310607910e+00,-4.589512646198272705e-01,3.390000000000000000e+02
-2.390738646638514524e+02,-1.573915980886334864e+02,-3.010323262506233277e+01,1.042530302632835628e+02,-1.655821136795965458e+02,-2.307881114781632732e+02,-2.773555819374803377e+01,-7.146697518657447290e+00,9.446745872497558594e+00,-1.070886254310607910e+00,-4.589512646198272705e-01,3.400000000000000000e+02
-2.393382876428404415e+02,-1.549750258556582594e+02,-2.970051711706264541e+01,1.060974849586963273e+02,-1.632480953684306542e+02,-2.277138713122217268e+02,-2.724416558216978501e+01,-3.362598743748321795e+00,9.446745872497558594e+00,-1.070886254310607910e+00,-4.589512646198272705e-01,3.410000000000000000e+02
-2.384503805209379266e+02,-1.515174779481867517e+02,-2.937704200329505966e+01,1.081647432508676729e+02,-1.607659250008985055e+02,-2.255046787060980478e+02,-2.664595642294875688e+01,-1.950772393004626792e+00,9.446745872497558594e+00,-1.070886254310607910e+00,-4.589512646198272705e-01,3.420000000000000000e+02
-2.367037675240644603e+02,-1.486541431133600781e+02,-2.964959579235255660e+01,1.092954923264866238e+02,-1.588876129771181240e+02,-2.251836054981660027e+02,-2.628839650240297487e+01,-3.741401696084039941e+00,9.446745872497558594e+00,-1.070886254310607910e+00,-4.589512646198272705e-01,3.430000000000000000e+02
-2.351455927914753374e+02,-1.479060515353496612e+02,-3.052010351103751873e+01,1.084639002055332639e+02,-1.580629433097645915e+02,-2.267143468765400485e+02,-2.656331406519063876e+01,-7.667623981217843721e+00,9.446745872497558594e+00,-1.070886254310607910e+00,-4.589512646198272705e-01,3.440000000000000000e+02
-2.345035605826914207e+02,-1.494238495391830384e+02,-3.144314302329416932e+01,1.056646562030786072e+02,-1.580361856143798605e+02,-2.288960567537151292e+02,-2.765354935571269834e+01,-1.136267930395638359e+01,9.446745872497558594e+00,-1.070886254310607910e+00,-4.589512646198272705e-01,3.450000000000000000e+02
-2.345307705481105813e+02,-1.518188493703006543e+02,-3.187678802070684014e+01,1.020828403207265183e+02,-1.581082005181474415e+02,-2.301531911148327936e+02,-2.933861090391872040e+01,-1.275305833697473190e+01,9.446745872497558594e+00,-1.070886254310607910e+00,-4.589512646198272705e-01,3.460000000000000000e+02
-2.343800388718425438e+02,-1.532478855822122341e+02,-3.183856316247624818e+01,9.930466636240259959e+01,-1.577546475491669753e+02,-2.295720102447413637e+02,-3.102686456468688903e+01,-1.139659019967825770e+01,9.446745872497558594e+00,-1.070886254310607910e+00,-4.589512646198272705e-01,3.470000000000000000e+02
-2.335444416109270378e+02,-1.528492120377297852e+02,-3.186962960325570293e+01,9.817398369425654892e+01,-1.569576985346723177e+02,-2.273695073073195090e+02,-3.207421393830213674e+01,-8.557719398123595056e+00,9.446745872497558594e+00,-1.070886254310607910e+00,-4.589512646198272705e-01,3.480000000000000000e+02
-2.323596097476594196e+02,-1.513317564570669447e+02,-3.241061696939368630e+01,9.822584847182679368e+01,-1.559821933661944513e+02,-2.245364053244921934e+02,-3.222310295417400994e+01,-6.085165007416890148e+00,9.446745872497558594e+00,-1.070886254310607910e+00,-4.589512646198272705e-01,3.490000000000000000e+02
-2.315884835465135438e+02,-1.502485892345071079e+02,-3.321540603047446893e+01,9.816790254964871565e+01,-1.549332479736893902e+02,-2.220802186115874974e+02,-3.181652151598768796e+01,-5.081272630013131675e+00,9.446745872497558594e+00,-1.070886254310607910e+00,-4.589512646198272705e-01,3.500000000000000000e+02
-2.315828932229566135e+02,-1.505887460963592730e+02,-3.343227475790979497e+01,9.701486919294916333e+01,-1.536187469404103467e+02,-2.204726167666245829e+02,-3.153651380673818494e+01,-5.357158716880348948e+00,9.446745872497558594e+00,-1.070886254310607910e+00,-4.589512646198272705e-01,3.510000000000000000e+02
-2.319166231133824567e+02,-1.518743632837723680e+02,-3.234670163215957928e+01,9.494732589610634932e+01,-1.518252849172187098e+02,-2.195575082317212718e+02,-3.179795816844819001e+01,-5.869606523601191839e+00,9.446745872497558594e+00,-1.070886254310607910e+00,-4.589512646198272705e-01,3.520000000000000000e+02
-2.318267782690336389e+02,-1.524982924380608438e+02,-3.010958339409285145e+01,9.321595840027191571e+01,-1.496329961783457065e+02,-2.187715719839443409e+02,-3.228218361321501106e+01,-5.559573937362756624e+00,9.446745872497558594e+00,-1.070886254310607910e+00,-4.589512646198272705e-01,3.530000000000000000e+02
-2.309489073159709278e+02,-1.510133284623314012e+02,-2.774304836843532485e+01,9.318551427146599053e+01,-1.473864054303514877e+02,-2.174585239563782579e+02,-3.207436191254987534e+01,-3.935080358857135252e+00,9.446745872497558594e+00,-1.070886254310607910e+00,-4.589512646198272705e-01,3.540000000000000000e+02
-2.295900128093870762e+02,-1.473404638941889289e+02,-2.634784507228459915e+01,9.528295946969296892e+01,-1.453556144032230577e+02,-2.151858762735500932e+02,-3.036768188409655522e+01,-1.175443680293938087e+00,9.446745872497558594e+00,-1.070886254310607910e+00,-4.589512646198272705e-01,3.550000000000000000e+02
-2.283124319666133033e+02,-1.429229517462179047e+02,-2.615824062446984044e+01,9.867119061243715805e+01,-1.434495689893099097e+02,-2.119867993329021374e+02,-2.716446225237064027e+01,2.084256464837721978e+00,9.446745872497558594e+00,-1.070886254310607910e+00,-4.589512646198272705e-01,3.560000000000000000e+02
-2.273199700697348362e+02,-1.397161524052388586e+02,-2.630050818838731175e+01,1.018440485009023178e+02,-1.412952851972173676e+02,-2.083859275307495409e+02,-2.338502113945037308e+01,5.030585252764922188e+00,9.446745872497558594e+00,-1.070886254310607910e+00,-4.589512646198272705e-01,3.570000000000000000e+02
-2.262860779470502166e+02,-1.387877664824368367e+02,-2.555450333963653975e+01,1.036138885353607293e+02,-1.386314944080733085e+02,-2.051240725537703611e+02,-2.029422143088868324e+01,6.908855841609465642e+00,9.446745872497558594e+00,-1.070886254310607910e+00,-4.589512646198272705e-01,3.580000000000000000e+02
-2.247366017694987477e+02,-1.395702126057366286e+02,-2.351590792386627982e+01,1.037325624236821113e+02,-1.356580339322792952e+02,-2.027232512337250228e+02,-1.870788181066802736e+01,7.264047573514289979e+00,9.446745872497558594e+00,-1.070886254310607910e+00,-4.589512646198272705e-01,3.590000000000000000e+02
-2.225594898861126012e+02,-1.403191995469097719e+02,-2.113523910880826406e+01,1.027819704537953385e+02,-1.330314792808619586e+02,-2.012211434202104101e+02,-1.857793887938271382e+01,6.142237128964097792e+00,9.446745872497558594e+00,-1.070886254310607910e+00,-4.589512646198272705e-01,3.600000000000000000e+02
-2.201479859452452956e+02,-1.394161873137970815e+02,-2.006537620064182192e+01,1.015906559733746235e+02,-1.314984230987104183e+02,-2.002788030759002140e+02,-1.917215746321062397e+01,4.110721516653597973e+00,9.446745872497558594e+00,-1.070886254310607910e+00,-4.589512646198272705e-01,3.610000000000000000e+02
-2.180751964828983773e+02,-1.365377791952414555e+02,-2.126615239099589871e+01,1.007187726524489335e+02,-1.314204363133572997e+02,-1.995161511279300157e+02,-1.959694455419116821e+01,2.027770408878268427e+00,9.446745872497558594e+00,-1.070886254310607910e+00,-4.589512646198272705e-01,3.620000000000000000e+02
-2.166450785015626934e+02,-1.328521548756500579e+02,-2.405457715735462898e+01,1.003383913549132558e+02,-1.325010324250888516e+02,-1.987324681517143290e+02,-1.927771798410208248e+01,6.722216880193627730e-01,9.446745872497558594e+00,-1.070886254310607910e+00,-4.589512646198272705e-01,3.630000000000000000e+02
-2.157183382923061572e+02,-1.301443485123804749e+02,-2.649857484320762069e+01,1.004035990141942420e+02,-1.338854285962735275e+02,-1.978361752365142365e+02,-1.817483717212610372e+01,4.425882699314342972e-01,9.408499717712402344e+00,-1.032640218734741211e+00,-4.589512646198272705e-01,3.640000000000000000e+02
-2.149063873725772282e+02,-1.295674676256307976e+02,-2.692446574677876470e+01,1.007967244694925739e+02,-1.345887827835396138e+02,-1.966644975121114385e+02,-1.674130299428452417e+01,1.259021162267004001e+00,9.408499717712402344e+00,-1.032640218734741211e+00,-4.589512646198272705e-01,3.650000000000000000e+02
-2.139182660162556431e+02,-1.309746413619669738e+02,-2.528845439473866463e+01,1.012957396463068562e+02,-1.340345187468514041e+02,-1.949993219611055792e+02,-1.571124737158061180e+01,2.627338639563845391e+00,9.408499717712402344e+00,-1.032640218734741211e+00,-4.589512646198272705e-01,3.660000000000000000e+02
-2.127674615632998893e+02,-1.332705365339198806e+02,-2.319348513628131059e+01,1.015116104502556027e+02,-1.323769495323051615e+02,-1.928023790071410986e+02,-1.574579702597293362e+01,3.809510155804446185e+00,9.408499717712402344e+00,-1.032640218734741211e+00,-4.589512646198272705e-01,3.670000000000000000e+02
-2.117012490184547460e+02,-1.353671741529312840e+02,-2.249176893800404287e+01,1.010093436410927552e+02,-1.303759847149240159e+02,-1.903736072837641586e+02,-1.701055109230946982e+01,4.096593485030211923e+00,9.408499717712402344e+00,-1.032640218734741211e+00,-4.589512646198272705e-01,3.680000000000000000e+02
-2.109488384063716921e+02,-1.368851988618063160e+02,-2.369947223386509449e+01,9.959719079904562022e+01,-1.288904119827319619e+02,-1.881790465160206622e+02,-1.893611888355508199e+01,3.131254200056105219e+00,9.408499717712402344e+00,-1.032640218734741211e+00,-4.589512646198272705e-01,3.690000000000000000e+02
-2.105074912728820209e+02,-1.380803905263127263e+02,-2.564100155439894024e+01,9.753546472646007715e+01,-1.283307495033200212e+02,-1.864533779868506826e+02,-2.044732054240398611e+01,1.111279882749386161e+00,9.408499717712402344e+00,-1.032640218734741211e+00,-4.589512646198272705e-01,3.700000000000000000e+02
-2.101541946630928805e+02,-1.392370388645949788e+02,-2.662720774281069680e+01,9.542336209102427347e+01,-1.284788813949045334e+02,-1.849825119834097222e+02,-2.066169553995609931e+01,-1.349212481991457935e+00,9.408499717712402344e+00,-1.032640218734741211e+00,-4.589512646198272705e-01,3.710000000000000000e+02
-2.096758732493628941e+02,-1.402221670047200632e+02,-2.607363279798482836e+01,9.381546010474517061e+01,-1.287978136857595928e+02,-1.833232039784497829e+02,-1.960005917367902839e+01,-3.698448557562983297e+00,9.408499717712402344e+00,-1.032640218734741211e+00,-4.589512646198272705e-01,3.720000000000000000e+02
-2.090955054470066443e+02,-1.406458017029614211e+02,-2.506269126793165469e+01,9.288022374826800842e+01,-1.289354644700301833e+02,-1.812698420853157586e+02,-1.829503398296481009e+01,-5.901411880045088765e+00,9.408499717712402344e+00,-1.032640218734741211e+00,-4.589512646198272705e-01,3.730000000000000000e+02
-2.086353480767986639e+02,-1.403743325063768452e+02,-2.533799806462525339e+01,9.238039632301661186e+01,-1.289633542884089366e+02,-1.791007012057368684e+02,-1.806699283317448135e+01,-8.423413801279934887e+00,9.408499717712402344e+00,-1.032640218734741211e+00,-4.589512646198272705e-01,3.740000000000000000e+02
-2.084019257473565858e+02,-1.397761406729542841e+02,-2.766910821545798171e+01,9.196603303118968142e+01,-1.291518917807377420e+02,-1.773350617805958791e+02,-1.943781590104299539e+01,-1.168507489446426462e+01,9.408499717712402344e+00,-1.032640218734741211e+00,-4.589512646198272705e-01,3.750000000000000000e+02
-2.081048703659544117e+02,-1.394121770021881730e+02,-3.109158681835583593e+01,9.148136179332072970e+01,-1.295496428566784743e+02,-1.762195183403719057e+02,-2.156650896436190123e+01,-1.548625130070809064e+01,9.408499717712402344e+00,-1.032640218734741211e+00,-4.589512646198272705e-01,3.760000000000000000e+02
-2.071642378728024596e+02,-1.394948893171042528e+02,-3.368130170885558528e+01,9.101780807472778179e+01,-1.298405495471151880e+02,-1.754375143146187384e+02,-2.274525052736407815e+01,-1.899875052661923291e+01,9.408499717712402344e+00,-1.032640218734741211e+00,-4.589512646198272705e-01,3.770000000000000000e+02
-2.052199621246209063e+02,-1.397158159436085043e+02,-3.413653887210057292e+01,9.070957732781857885e+01,-1.296868317152843701e+02,-1.743462669423415718e+02,-2.165921382872920731e+01,-2.143587559921206775e+01,9.408499717712402344e+00,-1.032640218734741211e+00,-4.589512646198272705e-01,3.780000000000000000e+02
-2.026058696600423445e+02,-1.396539463198373596e+02,-3.277991748596105026e+01,9.050205722152304588e+01,-1.292329785207484747e+02,-1.725430861757927232e+02,-1.844691984094470172e+01,-2.280123397774627847e+01,9.408499717712402344e+00,-1.032640218734741211e+00,-4.589512646198272705e-01,3.790000000000000000e+02
-2.002647012372065092e+02,-1.393289748742699885e+02,-3.119198829726087752e+01,9.013514997420679720e+01,-1.291952566019945152e+02,-1.702376768257347521e+02,-1.469755262065200441e+01,-2.395127502367495254e+01,9.408499717712402344e+00,-1.032640218734741211e+00,-4.589512646198272705e-01,3.800000000000000000e+02
-1.990499227030213660e+02,-1.392623884125473523e+02,-3.090939816114928362e+01,8.935332660497397228e+01,-1.303267023697590048e+02,-1.681040110801120591e+02,-1.236693346625770573e+01,-2.585790698738264837e+01,9.408499717712402344e+00,-1.032640218734741211e+00,-4.589512646198272705e-01,3.810000000000000000e+02
-1.989759121427889568e+02,-1.399213566659327626e+02,-3.231034623542200279e+01,8.812881238377462978e+01,-1.326794339213674903e+02,-1.667607710740239781e+02,-1.246456563347373958e+01,-2.874820361001593483e+01,9.408499717712402344e+00,-1.032640218734741211e+00,-4.589512646198272705e-01,3.820000000000000000e+02
-1.991175538155212053e+02,-1.411106244354218688e+02,-3.448887078169923370e+01,8.667410894118143005e+01,-1.353810856241111651e+02,-1.663602534427066075e+02,-1.452401745351789941e+01,-3.194094002225278928e+01,9.408499717712402344e+00,-1.032640218734741211e+00,-4.589512646198272705e-01,3.830000000000000000e+02
-1.983079697855782797e+02,-1.419834124497760968e+02,-3.602572015574924080e+01,8.524201250641340266e+01,-1.372133273068129711e+02,-1.666099477797424697e+02,-1.715821974467417022e+01,-3.450311882865844382e+01,9.408499717712402344e+00,-1.032640218734741211e+00,-4.589512646198272705e-01,3.840000000000000000e+02
-1.960450033901588540e+02,-1.417513521758282877e+02,-3.593638214143811638e+01,8.392960584720458428e+01,-1.375138135990664523e+02,-1.671078838921371243e+02,-1.908759724546484904e+01,-3.602388244000189843e+01,9.408499717712402344e+00,-1.032640218734741211e+00,-4.589512646198272705e-01,3.850000000000000000e+02
-1.928207224702937310e+02,-1.404583782581298692e+02,-3.414820458828262417e+01,8.267694747962127622e+01,-1.365795401067098283e+02,-1.675989201034144571e+02,-1.972776449337152371e+01,-3.673507333056249990e+01,9.408499717712402344e+00,-1.032640218734741211e+00,-4.589512646198272705e-01,3.860000000000000000e+02
-1.896560654855043140e+02,-1.390647220429891604e+02,-3.137737334308326353e+01,8.143348260641869274e+01,-1.352449088657263019e+02,-1.679304472379503750e+02,-1.901615443195100852e+01,-3.696938938620542103e+01,9.408499717712402344e+00,-1.032640218734741211e+00,-4.589512646198272705e-01,3.870000000000000000e+02
-1.873342091424296996e+02,-1.387029074555898660e+02,-2.868681938635472761e+01,8.028558061273724888e+01,-1.341224280519541026e+02,-1.678752916473181358e+02,-1.698317533592398831e+01,-3.668527539587194042e+01,9.408499717712402344e+00,-1.032640218734741211e+00,-4.589512646198272705e-01,3.880000000000000000e+02
-1.860030211542602956e+02,-1.397314235440567245e+02,-2.701755502780133611e+01,7.939252179600862291e+01,-1.332806188487288637e+02,-1.671551991207338688e+02,-1.375694131405384724e+01,-3.568931477295154764e+01,9.408499717712402344e+00,-1.032640218734741211e+00,-4.589512646198272705e-01,3.890000000000000000e+02
-1.853533046108336748e+02,-1.413890815723671039e+02,-2.683965148043330373e+01,7.881802299107198451e+01,-1.326060469223691598e+02,-1.657197699414327872e+02,-1.004146254662987303e+01,-3.432030280290859992e+01,9.408499717712402344e+00,-1.032640218734741211e+00,-4.589512646198272705e-01,3.900000000000000000e+02
-1.850121885087410192e+02,-1.423255209896663018e+02,-2.798202642928072237e+01,7.848105434744911690e+01,-1.323178031654460938e+02,-1.639534459748392692e+02,-7.356750988412386505e+00,-3.371083425533151967e+01,9.408499717712402344e+00,-1.032640218734741211e+00,-4.589512646198272705e-01,3.910000000000000000e+02
-1.847124388472202554e+02,-1.415413305419704102e+02,-2.969942717695721512e+01,7.830217616644313239e+01,-1.329367145056880872e+02,-1.624696166551766510e+02,-7.362411782318076803e+00,-3.508407974719466438e+01,9.408499717712402344e+00,-1.032640218734741211e+00,-4.589512646198272705e-01,3.920000000000000000e+02
-1.842009429996871859e+02,-1.390052720349867741e+02,-3.101011394110719266e+01,7.836871922159230053e+01,-1.346563773093203054e+02,-1.615824186972899952e+02,-1.052256096445125877e+01,-3.858205513634788986e+01,9.408499717712402344e+00,-1.032640218734741211e+00,-4.589512646198272705e-01,3.930000000000000000e+02
-1.831830959995904777e+02,-1.355718252975927953e+02,-3.116593527501959215e+01,7.888168543685014811e+01,-1.367900314816279206e+02,-1.609556415664703763e+02,-1.527835304674795225e+01,-4.275851748191644219e+01,9.408499717712402344e+00,-1.032640218734741211e+00,-4.589512646198272705e-01,3.940000000000000000e+02
-1.814970400928850722e+02,-1.323971833569587488e+02,-3.000131377587445058e+01,7.987870145776696518e+01,-1.380060398167277071e+02,-1.598325730460114755e+02,-1.874371618014129126e+01,-4.540245072279390115e+01,9.484992027282714844e+00,-1.032640218734741211e+00,-4.589512646198272705e-01,3.950000000000000000e+02
-1.793381249066728742e+02,-1.303159904980443571e+02,-2.795194017552648802e+01,8.103742813103804110e+01,-1.372891439157565401e+02,-1.576904927118464457e+02,-1.865818641851524262e+01,-4.513157511537747268e+01,9.484992027282714844e+00,-1.032640218734741211e+00,-4.589512646198272705e-01,3.960000000000000000e+02
-1.772044334202300888e+02,-1.295071305761573512e+02,-2.576533523298166983e+01,8.182659304919252463e+01,-1.348051226974303063e+02,-1.547265823046045625e+02,-1.509127317329603102e+01,-4.242216683981268943e+01,9.484992027282714844e+00,-1.032640218734741211e+00,-4.589512646198272705e-01,3.970000000000000000e+02
-1.755244246376569208e+02,-1.295048000433132529e+02,-2.412255394137423536e+01,8.190908130131606413e+01,-1.318745615731750149e+02,-1.517370715310275955e+02,-1.043513881925355236e+01,-3.920665880858678065e+01,9.484992027282714844e+00,-1.032640218734741211e+00,-4.589512646198272705e-01,3.980000000000000000e+02
-1.743093218312274075e+02,-1.294593533921381550e+02,-2.338402527074231330e+01,8.141571487814462671e+01,-1.300342387253913330e+02,-1.495164610369827187e+02,-7.613413957351895078e+00,-3.741411180495515509e+01,9.484992027282714844e+00,-1.032640218734741211e+00,-4.589512646198272705e-01,3.990000000000000000e+02
-1.731878169968122165e+02,-1.285579332888426052e+02,-2.352410216553880673e+01,8.079717512713045835e+01,-1.299433392695968905e+02,-1.483183879447997242e+02,-7.947806177773827585e+00,-3.768990969290325665e+01,9.484992027282714844e+00,-1.032640218734741211e+00,-4.589512646198272705e-01,4.000000000000000000e+02
-1.717823438246389287e+02,-1.264714410506351214e+02,-2.420278007611386784e+01,8.038457885179514051e+01,-1.309859346996095155e+02,-1.477949390960316123e+02,-1.038557227763953961e+01,-3.925414551029643917e+01,9.484992027282714844e+00,-1.032640218734741211e+00,-4.589512646198272705e-01,4.010000000000000000e+02
-1.700521089133446822e+02,-1.235859858285466544e+02,-2.491737042576414751e+01,8.009647388196458451e+01,-1.318056134671526252e+02,-1.473503963114990256e+02,-1.257107777708529284e+01,-4.079278268811822272e+01,9.484992027282714844e+00,-1.032640218734741211e+00,-4.589512646198272705e-01,4.020000000000000000e+02
-1.682855985546766533e+02,-1.207870249227476052e+02,-2.521251554561422381e+01,7.958091043922831886e+01,-1.312858821467993948e+02,-1.465445274282719765e+02,-1.270203718348898292e+01,-4.145839820281526045e+01,9.484992027282714844e+00,-1.032640218734741211e+00,-4.589512646198272705e-01,4.030000000000000000e+02
-1.667855618585126649e+02,-1.188482809545027976e+02,-2.488786829854120697e+01,7.864280118745887194e+01,-1.292298048828492938e+02,-1.452665339063123611e+02,-1.060330910948823657e+01,-4.116279034523950031e+01,9.484992027282714844e+00,-1.032640218734741211e+00,-4.589512646198272705e-01,4.040000000000000000e+02
-1.655891829286183565e+02,-1.178560245182002291e+02,-2.406823693544311027e+01,7.753065103556878057e+01,-1.263128639172209660e+02,-1.436706266122596389e+02,-7.342769669644440000e+00,-4.016072518961527749e+01,9.484992027282714844e+00,-1.032640218734741211e+00,-4.589512646198272705e-01,4.050000000000000000e+02
-1.644656018242844766e+02,-1.171796155736969922e+02,-2.306220557080382605e+01,7.681152382397817746e+01,-1.234524954597429769e+02,-1.420158486592945337e+02,-4.064330444068900761e+00,-3.856594266930801496e+01,9.484992027282714844e+00,-1.032640218734741211e+00,-4.589512646198272705e-01,4.060000000000000000e+02
-1.631305961741754800e+02,-1.160761911174008674e+02,-2.213205558902700432e+01,7.695382941975776703e+01,-1.211451904415744139e+02,-1.405154619305271808e+02,-1.236426268068271384e+00,-3.634367426487142438e+01,9.484992027282714844e+00,-1.032640218734741211e+00,-4.589512646198272705e-01,4.070000000000000000e+02
-1.614440266754304503e+02,-1.144087899614544312e+02,-2.139018386979296338e+01,7.797689765251197969e+01,-1.192768595925874706e+02,-1.392318978140497165e+02,1.143615612593748665e+00,-3.369514166720909998e+01,9.484992027282714844e+00,-1.032640218734741211e+00,-4.589512646198272705e-01,4.080000000000000000e+02
-1.594415285919317284e+02,-1.127922606314614313e+02,-2.090555215872018380e+01,7.942145491800783930e+01,-1.174862407908312889e+02,-1.380584268508951027e+02,2.903495861426335978e+00,-3.128783518739919600e+01,9.484992027282714844e+00,-1.032640218734741211e+00,-4.589512646198272705e-01,4.090000000000000000e+02
-1.572525061870176160e+02,-1.119896368785721279e+02,-2.085144439692658125e+01,8.061041452050312728e+01,-1.156993753616875438e+02,-1.368301589329139460e+02,3.485532295653229085e+00,-2.995393997473934178e+01,9.484992027282714844e+00,-1.032640218734741211e+00,-4.589512646198272705e-01,4.100000000000000000e+02
-1.550227300155081593e+02,-1.121076419364621870e+02,-2.145066214418125128e+01,8.100783690625348754e+01,-1.142974961635859472e+02,-1.354913765245937611e+02,2.475569828830884944e+00,-3.005863374330351689e+01,9.484992027282714844e+00,-1.032640218734741211e+00,-4.589512646198272705e-01,4.110000000000000000e+02
-1.528964037806158558e+02,-1.123943823060258183e+02,-2.271354820870010371e+01,8.046993719464353489e+01,-1.137394694644717674e+02,-1.341601907244053109e+02,2.837047762441216037e-01,-3.114800403863341671e+01,9.484992027282714844e+00,-1.032640218734741211e+00,-4.589512646198272705e-01,4.120000000000000000e+02
-1.510126006501370739e+02,-1.118652252178269464e+02,-2.425797658700253123e+01,7.928462807791470368e+01,-1.140131519156439026e+02,-1.330127003557872740e+02,-1.835425210355651870e+00,-3.226741177682174566e+01,9.484992027282714844e+00,-1.032640218734741211e+00,-4.589512646198272705e-01,4.130000000000000000e+02
-1.494740275202207158e+02,-1.101766364220470678e+02,-2.548744420101297692e+01,7.798664982303807847e+01,-1.144963727103311157e+02,-1.321117299555194222e+02,-2.593835368751570059e+00,-3.270958883304183473e+01,9.484992027282714844e+00,-1.032640218734741211e+00,-4.589512646198272705e-01,4.140000000000000000e+02
-1.482976289735677256e+02,-1.079154033521958809e+02,-2.601252973959435622e+01,7.703176981564820380e+01,-1.144114905239969175e+02,-1.313826813075447717e+02,-1.633895727624121719e+00,-3.251292151334541813e+01,9.484992027282714844e+00,-1.032640218734741211e+00,-4.589512646198272705e-01,4.150000000000000000e+02
-1.473905256979396654e+02,-1.060367227851143070e+02,-2.588856263788397882e+01,7.653597771425665997e+01,-1.134362365958795635e+02,-1.307477419010233461e+02,2.299911641848666477e-01,-3.223304622922682938e+01,9.484992027282714844e+00,-1.032640218734741211e+00,-4.207052886486053467e-01,4.160000000000000000e+02
-1.465452167285989162e+02,-1.050104676761393421e+02,-2.539458397181078908e+01,7.629455493306386415e+01,-1.118474258307412583e+02,-1.302018248703693644e+02,1.712447008044591712e+00,-3.219417657016583689e+01,9.484992027282714844e+00,-1.032640218734741211e+00,-4.207052886486053467e-01,4.170000000000000000e+02
-1.454689257765496677e+02,-1.044939573497520087e+02,-2.458605333740342758e+01,7.607808257680380848e+01,-1.100769969948905782e+02,-1.296762431203878805e+02,2.063039042273658197e+00,-3.196842660325683028e+01,9.484992027282714844e+00,-1.032640218734741211e+00,-4.207052886486053467e-01,4.180000000000000000e+02
-1.439030898766759492e+02,-1.037810270535746895e+02,-2.316416081395300353e+01,7.594278478323712989e+01,-1.082073864577009772e+02,-1.288488880394911575e+02,1.500540718913725868e+00,-3.065410760044665039e+01,9.484992027282714844e+00,-1.032640218734741211e+00,-4.207052886486053467e-01,4.190000000000000000e+02
-1.418340341670461839e+02,-1.024961525461812926e+02,-2.091582012695107551e+01,7.622409343420349614e+01,-1.060008970153739938e+02,-1.272295625063952684e+02,7.777956290226484271e-01,-2.776775384397365087e+01,9.484992027282714844e+00,-1.032640218734741211e+00,-4.207052886486053467e-01,4.200000000000000000e+02
-1.396656593148122738e+02,-1.008184854389189695e+02,-1.830925658159731029e+01,7.717289104096380470e+01,-1.034450288667717359e+02,-1.245865114847024415e+02,3.872823233677991084e-01,-2.392478889131666620e+01,9.484992027282714844e+00,-1.032640218734741211e+00,-4.207052886486053467e-01,4.210000000000000000e+02
-1.381381268573434227e+02,-9.908959218675045122e+01,-1.653128825136604974e+01,7.858285602832984296e+01,-1.011508164927231519e+02,-1.213289540352448057e+02,1.808759521836691420e-01,-2.059337310534829157e+01,9.484992027282714844e+00,-1.032640218734741211e+00,-4.207052886486053467e-01,4.220000000000000000e+02
-1.379200542090347881e+02,-9.732946976534276473e+01,-1.672599581111808220e+01,7.981783145613690067e+01,-1.000302104689981206e+02,-1.183594183947534475e+02,-3.014997140705872880e-01,-1.903082373910865499e+01,9.484992027282714844e+00,-1.032640218734741211e+00,-4.207052886486053467e-01,4.230000000000000000e+02
-1.390866757130479527e+02,-9.524706601272987427e+01,-1.902550902038501590e+01,8.029721759012136317e+01,-1.004543949691360467e+02,-1.163875764719191466e+02,-1.202782094547274028e+00,-1.927632047348356537e+01,9.484992027282714844e+00,-1.032640218734741211e+00,-4.207052886486053467e-01,4.240000000000000000e+02
-1.408952802595281355e+02,-9.273090692930963996e+01,-2.228121206765854367e+01,8.002875798900640802e+01,-1.017096923001231517e+02,-1.153035280561716718e+02,-2.062700222317971566e+00,-2.007969023323585134e+01,9.484992027282714844e+00,-1.032640218734741211e+00,-4.207052886486053467e-01,4.250000000000000000e+02
-1.421191947925312888e+02,-9.022784401895978590e+01,-2.482921327582926097e+01,7.968289553797376357e+01,-1.023711777731259644e+02,-1.142513949913782199e+02,-2.136682634052476715e+00,-1.986129612316904058e+01,9.484992027282714844e+00,-1.032640218734741211e+00,-4.207052886486053467e-01,4.260000000000000000e+02
-1.417722159178965740e+02,-8.850047084368793548e+01,-2.566599787438917701e+01,8.009771261925834551e+01,-1.013307671510219734e+02,-1.124094101439413862e+02,-1.010566500074673968e+00,-1.791385267515261148e+01,9.484992027282714844e+00,-1.032640218734741211e+00,-4.207052886486053467e-01,4.270000000000000000e+02
-1.397272498655459003e+02,-8.794891031284782912e+01,-2.502926747606829849e+01,8.160202299231877987e+01,-9.858113721321615230e+01,-1.097781632962842195e+02,1.029608701850975194e+00,-1.488343902826636622e+01,9.484992027282714844e+00,-1.032640218734741211e+00,-4.207052886486053467e-01,4.280000000000000000e+02
-1.367718546551823238e+02,-8.819382071667132550e+01,-2.393056928186911136e+01,8.371550075446475603e+01,-9.509367514091763951e+01,-1.072153040031134879e+02,3.151855894349864684e+00,-1.219358220991739472e+01,9.484992027282714844e+00,-1.032640218734741211e+00,-4.207052886486053467e-01,4.290000000000000000e+02
-1.340725020746710925e+02,-8.840120784396026465e+01,-2.317919367660874741e+01,8.543188583513438061e+01,-9.197992510524272802e+01,-1.056820629098424433e+02,4.475256367754354869e+00,-1.095865600491470104e+01,9.484992027282714844e+00,-1.032640218734741211e+00,-4.207052886486053467e-01,4.300000000000000000e+02
-1.324580346077159447e+02,-8.806939619980562384e+01,-2.284239768008751525e+01,8.582481987997562101e+01,-8.972709815983807857e+01,-1.054146484368252459e+02,4.532497775323918177e+00,-1.127130847235480360e+01,9.484992027282714844e+00,-1.032640218734741211e+00,-4.207052886486053467e-01,4.310000000000000000e+02
-1.320213375388661916e+02,-8.750087236121453316e+01,-2.255621625861544999e+01,8.452243778825277332e+01,-8.811615271904202018e+01,-1.057816741103715685e+02,3.455500758040670917e+00,-1.233312389195316428e+01,9.484992027282714844e+00,-1.032640218734741211e+00,-4.207052886486053467e-01,4.320000000000000000e+02
-1.322473203738561551e+02,-8.747625452847205452e+01,-2.222484569564267076e+01,8.177419820903014624e+01,-8.673080177863994322e+01,-1.059096867407997706e+02,1.860026888920401689e+00,-1.318480377727473751e+01,9.484992027282714844e+00,-1.032640218734741211e+00,-4.207052886486053467e-01,4.330000000000000000e+02
-1.324648325621228651e+02,-8.845212906645497242e+01,-2.227910127112522787e+01,7.819866457883472322e+01,-8.545242503293320624e+01,-1.054409674664170780e+02,5.546825713622638432e-01,-1.338313766781107006e+01,9.484992027282714844e+00,-1.032640218734741211e+00,-4.207052886486053467e-01,4.340000000000000000e+02
-1.322311891321755866e+02,-9.007432677969336510e+01,-2.320271098326065840e+01,7.448326069811309935e+01,-8.448796657072625749e+01,-1.047138974534423141e+02,2.059262703573949693e-01,-1.315555708306828819e+01,9.484992027282714844e+00,-1.032640218734741211e+00,-4.207052886486053467e-01,4.350000000000000000e+02
-1.314123758821485808e+02,-9.145449625852029385e+01,-2.484038390303294364e+01,7.123099549337075587e+01,-8.400256168699979753e+01,-1.042471102013287236e+02,1.066994430949762318e+00,-1.301596814046160944e+01,9.484992027282714844e+00,-1.032640218734741211e+00,-4.207052886486053467e-01,4.360000000000000000e+02
-1.300335938898238055e+02,-9.186669725945944265e+01,-2.628106936806580052e+01,6.895997252404049505e+01,-8.381208376275526462e+01,-1.040762466602714085e+02,2.876618358840460132e+00,-1.321546084477222394e+01,9.484992027282714844e+00,-1.032640218734741211e+00,-4.207052886486053467e-01,4.370000000000000000e+02
-1.281539180763143122e+02,-9.115000971742279035e+01,-2.656068356955097443e+01,6.809705501801681748e+01,-8.346980918589179055e+01,-1.036055031439327649e+02,4.993101394643872482e+00,-1.348028227447139216e+01,9.484992027282714844e+00,-1.032640218734741211e+00,-4.207052886486053467e-01,4.380000000000000000e+02
-1.259116097177425218e+02,-8.948934694738454709e+01,-2.554599188677229904e+01,6.887145416698513145e+01,-8.262393015793122686e+01,-1.021010809759500262e+02,6.750169588218795980e+00,-1.319029619535876918e+01,9.484992027282714844e+00,-1.032640218734741211e+00,-4.207052886486053467e-01,4.390000000000000000e+02
-1.236288083612939772e+02,-8.695792282109050575e+01,-2.410771025394251410e+01,7.115473857591314299e+01,-8.124164979807710552e+01,-9.934032369030819609e+01,7.858181687639898882e+00,-1.182810029923393813e+01,9.484992027282714844e+00,-1.032640218734741211e+00,-4.207052886486053467e-01,4.400000000000000000e+02
-1.217547929822912920e+02,-8.345851314609581095e+01,-2.335526565772147478e+01,7.438050374018075672e+01,-7.948959933932428612e+01,-9.582756333643192193e+01,8.576217121077206684e+00,-9.386970672132065374e+00,9.484992027282714844e+00,-1.070886254310607910e+00,-3.442134261131286621e-01,4.410000000000000000e+02
-1.205726724437827215e+02,-7.918432199794779081e+01,-2.362107199724346174e+01,7.767227004206279162e+01,-7.744693848748465825e+01,-9.241665306541472091e+01,9.505276384014905489e+00,-6.450057291534676551e+00,9.484992027282714844e+00,-1.070886254310607910e+00,-3.442134261131286621e-01,4.420000000000000000e+02
-1.199045594359313327e+02,-7.505065216228422287e+01,-2.417410464321301333e+01,8.015176223087701146e+01,-7.503926871148814826e+01,-8.973171750964183957e+01,1.109497753953837673e+01,-3.902351265679953940e+00,9.484992027282714844e+00,-1.070886254310607910e+00,-3.442134261131286621e-01,4.430000000000000000e+02
-1.191442834195509022e+02,-7.245554041881359808e+01,-2.394287435326464220e+01,8.126182568807234929e+01,-7.231000111921002826e+01,-8.790581874049121325e+01,1.321067687350114284e+01,-2.478847353806713727e+00,9.484992027282714844e+00,-1.070886254310607910e+00,-3.442134261131286621e-01,4.440000000000000000e+02
-1.176793659764512086e+02,-7.238617893811760950e+01,-2.254397525908325406e+01,8.092376452016560506e+01,-6.971383449065478999e+01,-8.678148818043837309e+01,1.510134355765239889e+01,-2.452436509024664701e+00,9.484992027282714844e+00,-1.070886254310607910e+00,-3.442134261131286621e-01,4.450000000000000000e+02
-1.153848043153457184e+02,-7.462414742628652675e+01,-2.062573569570326981e+01,7.945634452362946831e+01,-6.798913619843642664e+01,-8.626607504459252596e+01,1.582507436789182975e+01,-3.629215128037230897e+00,9.484992027282714844e+00,-1.070886254310607910e+00,-3.442134261131286621e-01,4.460000000000000000e+02
-1.127330420409693943e+02,-7.779516123175926623e+01,-1.920818200756684746e+01,7.736585704847357192e+01,-6.756962845661109895e+01,-8.643064768126851050e+01,1.486044088680228015e+01,-5.558240893010861328e+00,9.484992027282714844e+00,-1.070886254310607910e+00,-3.442134261131286621e-01,4.470000000000000000e+02
-1.103816236034704161e+02,-8.024840939524983696e+01,-1.870153856922570412e+01,7.517405638699028714e+01,-6.805496034323232379e+01,-8.727419312226265902e+01,1.248192917199003205e+01,-7.732510258766524203e+00,9.484992027282714844e+00,-1.070886254310607910e+00,-3.442134261131286621e-01,4.480000000000000000e+02
-1.085889992022343904e+02,-8.098470680170021296e+01,-1.858351068028923692e+01,7.335622273190847409e+01,-6.834145491220715485e+01,-8.847276425324162119e+01,9.642425332160200924e+00,-9.657582966451172979e+00,9.484992027282714844e+00,-1.070886254310607910e+00,-3.442134261131286621e-01,4.490000000000000000e+02
-1.069911284918871388e+02,-7.988302823017829724e+01,-1.800308165117121462e+01,7.231868348135185443e+01,-6.743213539708722237e+01,-8.943827890367447253e+01,7.472244852413041372e+00,-1.086826030507108953e+01,9.484992027282714844e+00,-1.070886254310607910e+00,-3.442134261131286621e-01,4.500000000000000000e+02
-1.049543630393945932e+02,-7.723595394168205530e+01,-1.663639583375515940e+01,7.230979478133212979e+01,-6.524012112095988414e+01,-8.966651929939007459e+01,6.767431189372018707e+00,-1.103686278473787752e+01,9.484992027282714844e+00,-1.070886254310607910e+00,-3.442134261131286621e-01,4.510000000000000000e+02
-1.021926393769654169e+02,-7.326650149491524644e+01,-1.492432393416743253e+01,7.327364204010882531e+01,-6.263043930152116445e+01,-8.904737591047296519e+01,7.768173897766700975e+00,-1.018133786836597210e+01,9.484992027282714844e+00,-1.070886254310607910e+00,-3.442134261131286621e-01,4.520000000000000000e+02
-9.909652186488801817e+01,-6.819893614425291162e+01,-1.352426721195388382e+01,7.479942331482470763e+01,-6.064791852899679725e+01,-8.785490009838531478e+01,1.023153118503159931e+01,-8.779264341598718602e+00,9.484992027282714844e+00,-1.070886254310607910e+00,-3.442134261131286621e-01,4.530000000000000000e+02
-9.650261416109560741e+01,-6.272205646664315282e+01,-1.263698095618883599e+01,7.628829955916080507e+01,-5.966934928643468083e+01,-8.647105539399308327e+01,1.357901293744998839e+01,-7.580812263002371765e+00,9.484992027282714844e+00,-1.070886254310607910e+00,-3.442134261131286621e-01,4.540000000000000000e+02
-9.512133066816204519e+01,-5.813724853671465098e+01,-1.193191797968711398e+01,7.726749356564778282e+01,-5.927120676237018415e+01,-8.513309096202647197e+01,1.697906838036124100e+01,-7.169475424121174001e+00,9.484992027282714844e+00,-1.070886254310607910e+00,-3.442134261131286621e-01,4.550000000000000000e+02
-9.508866018776780038e+01,-5.576262434761474651e+01,-1.106941115448262281e+01,7.761562829825834342e+01,-5.884939699284313974e+01,-8.389410611461562439e+01,1.946373894650878356e+01,-7.572390950596854964e+00,9.484992027282714844e+00,-1.070886254310607910e+00,-3.442134261131286621e-01,4.560000000000000000e+02
-9.593922246293186618e+01,-5.599755722975442040e+01,-1.014683736592542118e+01,7.751293938874550804e+01,-5.827789339551327430e+01,-8.272616989851621838e+01,2.024330251301080352e+01,-8.239526952489541145e+00,9.484992027282714844e+00,-1.070886254310607910e+00,-3.442134261131286621e-01,4.570000000000000000e+02
-9.692709997460042359e+01,-5.791871739652106044e+01,-9.551007068298531522e+00,7.718099973892367416e+01,-5.793303942874172208e+01,-8.159196385470522728e+01,1.915640219059787341e+01,-8.452390362183450634e+00,9.484992027282714844e+00,-1.070886254310607910e+00,-3.442134261131286621e-01,4.580000000000000000e+02
-9.742151799684279467e+01,-5.990282398248928075e+01,-9.443877947332111944e+00,7.664521031796493844e+01,-5.817229505401246570e+01,-8.046056117870921298e+01,1.688280047149510210e+01,-7.894017851989246992e+00,9.484992027282714844e+00,-1.070886254310607910e+00,-3.442134261131286621e-01,4.590000000000000000e+02
-9.714868734467017930e+01,-6.081861838382337737e+01,-9.545091834044342249e+00,7.572422855125023489e+01,-5.892236146233517502e+01,-7.936532015099419368e+01,1.459644102429001578e+01,-6.954085756812219188e+00,9.484992027282714844e+00,-1.070886254310607910e+00,-3.442134261131286621e-01,4.600000000000000000e+02
-9.622006052520964658e+01,-6.075737719476023813e+01,-9.497609756263955205e+00,7.423613717443913629e+01,-5.983103866734109033e+01,-7.852192280702411153e+01,1.320047825862411628e+01,-6.503894899879014702e+00,9.484992027282714844e+00,-1.070886254310607910e+00,-3.442134261131286621e-01,4.610000000000000000e+02
-9.501094547079128461e+01,-6.068771207656186562e+01,-9.371833532201208072e+00,7.219293476836128320e+01,-6.074196401322251404e+01,-7.835326466386368338e+01,1.270928294584246032e+01,-7.284590285985132141e+00,9.484992027282714844e+00,-1.070886254310607910e+00,-3.442134261131286621e-01,4.620000000000000000e+02
-9.394535014815437535e+01,-6.138303362409783404e+01,-9.629501805397012504e+00,6.980754614254692569e+01,-6.184082678248887532e+01,-7.923298860933846299e+01,1.233734583782552363e+01,-9.305599230338202688e+00,9.484992027282714844e+00,-1.070886254310607910e+00,-3.442134261131286621e-01,4.630000000000000000e+02
-9.325407581420995484e+01,-6.259635481994564543e+01,-1.047418351878536669e+01,6.737215168081502270e+01,-6.321477668802663175e+01,-8.103027748404838349e+01,1.130218414844739527e+01,-1.166400196050972227e+01,9.484992027282714844e+00,-1.070886254310607910e+00,-3.442134261131286621e-01,4.640000000000000000e+02
-9.281751054581650351e+01,-6.318715779078183914e+01,-1.129370365884233252e+01,6.519126379670979077e+01,-6.431170823365800970e+01,-8.285735329508497671e+01,9.694322850739354180e+00,-1.295748548371466313e+01,9.484992027282714844e+00,-1.070886254310607910e+00,-3.442134261131286621e-01,4.650000000000000000e+02
-9.220825760978050312e+01,-6.203741133725088730e+01,-1.091050449706040126e+01,6.364349112715535739e+01,-6.401184314565034583e+01,-8.337197322539577726e+01,8.646084178485125449e+00,-1.207291026903021702e+01,9.484992027282714844e+00,-1.070886254310607910e+00,-3.442134261131286621e-01,4.660000000000000000e+02
-9.094717622481448416e+01,-5.893130516828364307e+01,-8.554306435068610881e+00,6.322653527249212857e+01,-6.145495504638711282e+01,-8.156134652809487307e+01,9.575829725045878149e+00,-8.871912040156757939e+00,9.484992027282714844e+00,-1.070886254310607910e+00,-3.442134261131286621e-01,4.670000000000000000e+02
-8.882894249140076681e+01,-5.470891848124983881e+01,-4.673374797220731125e+00,6.436585459283287491e+01,-5.696387466875285099e+01,-7.747435555418678632e+01,1.304780207602289011e+01,-4.335177167823303535e+00,9.523238182067871094e+00,-1.109132170677185059e+00,-3.442134261131286621e-01,4.680000000000000000e+02
-8.609653011836689984e+01,-5.067084483763460412e+01,-7.710011201252200408e-01,6.700691661733708315e+01,-5.218241738786400674e+01,-7.233184847292432096e+01,1.814279938372351353e+01,-5.992619026710599428e-02,9.523238182067871094e+00,-1.109132170677185059e+00,-3.442134261131286621e-01,4.690000000000000000e+02
-8.334722685503857065e+01,-4.778698020066576646e+01,1.650091892697446383e+00,7.033442425146404275e+01,-4.914521500764431039e+01,-6.786908898026422321e+01,2.286798878687068282e+01,2.589130565255572947e+00,9.523238182067871094e+00,-1.109132170677185059e+00,-3.442134261131286621e-01,4.700000000000000000e+02
-8.124035618771335976e+01,-4.628573826527349411e+01,2.109913918740630834e+00,7.299952369040920530e+01,-4.892103113148141347e+01,-6.533211850890347705e+01,2.534421665463924001e+01,3.166090654167419416e+00,9.523238182067871094e+00,-1.109132170677185059e+00,-3.442134261131286621e-01,4.710000000000000000e+02
-8.018620164922663207e+01,-4.578859923740537852e+01,1.288707689293914882e+00,7.384995985601926805e+01,-5.086791150555154672e+01,-6.480811536450801214e+01,2.492616640354367519e+01,2.284538832685711895e+00,9.523238182067871094e+00,-1.109132170677185059e+00,-3.442134261131286621e-01,4.720000000000000000e+02
-8.019407017115781855e+01,-4.573299174616931850e+01,2.781703403516075923e-01,7.267065826300040499e+01,-5.309037241981695843e+01,-6.532968905138886839e+01,2.248145455700432649e+01,1.189533803599488238e+00,9.523238182067871094e+00,-1.109132170677185059e+00,-3.442134261131286621e-01,4.730000000000000000e+02
-8.094587532599211954e+01,-4.570887265514602404e+01,-3.067571035960554582e-01,7.034108289450841767e+01,-5.376560750209910111e+01,-6.562696669491924695e+01,1.969593306721867521e+01,1.076502195570355980e+00,9.523238182067871094e+00,-1.109132170677185059e+00,-3.442134261131286621e-01,4.740000000000000000e+02
-8.202353846776350110e+01,-4.554661699802773001e+01,-6.251152562576862692e-01,6.824106038030231502e+01,-5.235883381410053516e+01,-6.496275210705425707e+01,1.795523793844040483e+01,2.531192091618322593e+00,9.523238182067871094e+00,-1.109132170677185059e+00,-3.442134261131286621e-01,4.750000000000000000e+02
-8.312180015926060150e+01,-4.521591977702018994e+01,-1.222438561369017407e+00,6.735173877300394452e+01,-4.985059298636133462e+01,-6.346138326613709069e+01,1.760283364718884513e+01,5.337100628152256832e+00,9.523238182067871094e+00,-1.109132170677185059e+00,-3.442134261131286621e-01,4.760000000000000000e+02
-8.409724378319674543e+01,-4.469714784048755973e+01,-2.443680320778412352e+00,6.773622047151184233e+01,-4.786270808713152292e+01,-6.176135263612422932e+01,1.802018139013853215e+01,8.678786247825655664e+00,9.523238182067871094e+00,-1.109132170677185059e+00,-3.442134261131286621e-01,4.770000000000000000e+02
-8.484857168128974081e+01,-4.396145024521570122e+01,-4.164566341835097774e+00,6.871635431432514451e+01,-4.740456611846389023e+01,-6.037274094737813357e+01,1.830627426452065265e+01,1.158007044543751363e+01,9.523238182067871094e+00,-1.109132170677185059e+00,-3.442134261131286621e-01,4.780000000000000000e+02
-8.517185076949158429e+01,-4.307672267047769310e+01,-5.939200656189541405e+00,6.946360290763823286e+01,-4.821885655283472261e+01,-5.933599823244139770e+01,1.792204225462342038e+01,1.333540066224031762e+01,9.523238182067871094e+00,-1.109132170677185059e+00,-3.442134261131286621e-01,4.790000000000000000e+02
-8.477795620269853316e+01,-4.231908302695478596e+01,-7.303315996165110846e+00,6.946847610904933390e+01,-4.916876479757752350e+01,-5.845691889483305204e+01,1.685385094193884470e+01,1.373843029881754774e+01,9.523238182067871094e+00,-1.109132170677185059e+00,-3.442134261131286621e-01,4.800000000000000000e+02
-8.349185148692390612e+01,-4.211324054120359506e+01,-7.963639902570321283e+00,6.861946604024842600e+01,-4.924097276694260472e+01,-5.779909533481804829e+01,1.538134351219105156e+01,1.306789676059793237e+01,9.523238182067871094e+00,-1.109132170677185059e+00,-3.442134261131286621e-01,4.810000000000000000e+02
-8.145356347425308741e+01,-4.273309181402282775e+01,-7.831666405352962101e+00,6.707093043909617336e+01,-4.827518417939950268e+01,-5.783988030710679595e+01,1.386115706228792988e+01,1.191584674999012350e+01,9.523238182067871094e+00,-1.109132170677185059e+00,-3.442134261131286621e-01,4.820000000000000000e+02
-7.910467052604030869e+01,-4.393996048199551296e+01,-7.016509886292169540e+00,6.520489652098308397e+01,-4.685284382454165097e+01,-5.901525086249648666e+01,1.276752470387827998e+01,1.099598766834174057e+01,9.523238182067871094e+00,-1.109132170677185059e+00,-3.442134261131286621e-01,4.830000000000000000e+02
-7.693758039680778893e+01,-4.491710250472829102e+01,-5.830244300825825121e+00,6.369101263220818510e+01,-4.557015232413345984e+01,-6.105430285464535700e+01,1.278097942669137410e+01,1.099722222563104879e+01,9.523238182067871094e+00,-1.109132170677185059e+00,-3.442134261131286621e-01,4.840000000000000000e+02
-7.523342311091369083e+01,-4.472500359333957931e+01,-4.734223827974346932e+00,6.335029959067401251e+01,-4.446338263931033907e+01,-6.283756369063348757e+01,1.453855189001001236e+01,1.240981113649058898e+01,9.523238182067871094e+00,-1.109132170677185059e+00,-3.442134261131286621e-01,4.850000000000000000e+02
-7.402064134297074816e+01,-4.304067194501317317e+01,-4.146879460027093955e+00,6.464589705991102164e+01,-4.312443218771295506e+01,-6.309502958374014270e+01,1.800855465570020897e+01,1.525899017116466894e+01,9.523238182067871094e+00,-1.109132170677185059e+00,-3.442134261131286621e-01,4.860000000000000000e+02
-7.323373436616589061e+01,-4.056904752428545180e+01,-4.194586800602110088e+00,6.710249420059426484e+01,-4.132050566566567795e+01,-6.144761878257804710e+01,2.202001961466635294e+01,1.886171540597115381e+01,9.523238182067871094e+00,-1.109132170677185059e+00,-3.442134261131286621e-01,4.870000000000000000e+02
-7.283201049156127738e+01,-3.864388459122801578e+01,-4.602241106247902280e+00,6.926801601083207061e+01,-3.942716505407975092e+01,-5.884615244317183169e+01,2.460561242114044944e+01,2.190870573507777408e+01,9.523238182067871094e+00,-1.109132170677185059e+00,-3.442134261131286621e-01,4.880000000000000000e+02
-7.271017771274341612e+01,-3.821235988983517018e+01,-4.841817320550944714e+00,6.951505503660519025e+01,-3.819902137245799167e+01,-5.691796221084769059e+01,2.420141905860418774e+01,2.305806309764579964e+01,9.523238182067871094e+00,-1.109132170677185059e+00,-3.442134261131286621e-01,4.890000000000000000e+02
-7.255324772278640921e+01,-3.904383189445070457e+01,-4.480028316844482106e+00,6.722429018198272388e+01,-3.810716548501522993e+01,-5.670651443729502716e+01,2.087659690767009124e+01,2.178709403261836997e+01,9.523238182067871094e+00,-1.109132170677185059e+00,-3.442134261131286621e-01,4.900000000000000000e+02
-7.194706390367241511e+01,-3.990614163076611476e+01,-3.503291446010507570e+00,6.339951428118251897e+01,-3.890771347141412662e+01,-5.787266265548964839e+01,1.652402539663762582e+01,1.887563121322023107e+01,9.523238182067871094e+00,-1.109132170677185059e+00,-3.442134261131286621e-01,4.910000000000000000e+02
-7.077446619686884333e+01,-3.961572199005968287e+01,-2.386934728775031545e+00,6.009807405538595049e+01,-3.986273309698731282e+01,-5.904915134652765119e+01,1.366805855189204522e+01,1.601546637744195323e+01,9.523238182067871094e+00,-1.109132170677185059e+00,-3.442134261131286621e-01,4.920000000000000000e+02
-6.950009920940988195e+01,-3.804397765802013964e+01,-1.821597232668182187e+00,5.901347292359741914e+01,-4.037262324904941124e+01,-5.902137662204722801e+01,1.370172883605505376e+01,1.469888494663200618e+01,9.523238182067871094e+00,-1.109132170677185059e+00,-3.442134261131286621e-01,4.930000000000000000e+02
-6.889473075885598519e+01,-3.614471833167090153e+01,-2.223492745708199436e+00,6.031182054219038946e+01,-4.037504326677026256e+01,-5.768374868309138037e+01,1.593216556753986879e+01,1.522112822772533036e+01,9.523238182067871094e+00,-1.109132170677185059e+00,-3.442134261131286621e-01,4.940000000000000000e+02
-6.927578231089728433e+01,-3.497972116912978890e+01,-3.343504680693285991e+00,6.266265302444094232e+01,-4.013740713664128634e+01,-5.595522422897670367e+01,1.823472706929260312e+01,1.663421142688230248e+01,9.523238182067871094e+00,-1.109132170677185059e+00,-3.442134261131286621e-01,4.950000000000000000e+02
-6.996479026391955358e+01,-3.468748164215526231e+01,-4.289890329779950662e+00,6.440854528222325825e+01,-3.973881035583553967e+01,-5.482375455482360849e+01,1.879444790040133739e+01,1.770009439686702990e+01,9.523238182067871094e+00,-1.109132170677185059e+00,-3.442134261131286621e-01,4.960000000000000000e+02
-6.962196179926581863e+01,-3.439065470161051508e+01,-4.040442942559252515e+00,6.487014221253843971e+01,-3.885267497345307675e+01,-5.445524696996653802e+01,1.752339838480429535e+01,1.801440813587089451e+01,9.523238182067871094e+00,-1.109132170677185059e+00,-3.442134261131286621e-01,4.970000000000000000e+02
-6.732906252553027571e+01,-3.312214965818918699e+01,-2.160962968996614109e+00,6.470608979797952998e+01,-3.708517362927727845e+01,-5.416634870852976746e+01,1.604023890397240848e+01,1.830560810226484136e+01,9.523238182067871094e+00,-1.109132170677185059e+00,-3.442134261131286621e-01,4.980000000000000000e+02
-6.348084528661740933e+01,-3.083440746456096804e+01,8.019711668724767151e-01,6.511987940248195628e+01,-3.450701105453470063e+01,-5.320147692421869579e+01,1.631643756732319162e+01,1.966670773200326039e+01,9.484992027282714844e+00,-1.147378087043762207e+00,-4.207052886486053467e-01,4.990000000000000000e+02
-5.959411549376125095e+01,-2.848455040368389746e+01,3.636257443326485372e+00,6.671720373030052542e+01,-3.176427331409126964e+01,-5.149816413452481356e+01,1.916813031100514308e+01,2.246881431687233999e+01,9.484992027282714844e+00,-1.147378087043762207e+00,-4.207052886486053467e-01,5.000000000000000000e+02
-5.710835553827803324e+01,-2.711829171113333814e+01,5.329933839505656579e+00,6.903446683295032926e+01,-2.958596859318890893e+01,-4.969568793902203652e+01,2.377696154060970457e+01,2.597633921227520659e+01,9.484992027282714844e+00,-1.147378087043762207e+00,-4.207052886486053467e-01,5.010000000000000000e+02
-5.626322954768056661e+01,-2.689459388638636028e+01,5.816820149044019672e+00,7.104547552824237755e+01,-2.818610290862386591e+01,-4.843366381378939423e+01,2.845139666373631826e+01,2.896659937090817039e+01,9.484992027282714844e+00,-1.147378087043762207e+00,-4.207052886486053467e-01,5.020000000000000000e+02
-5.608223910966921721e+01,-2.701881961043670799e+01,5.953457409554061996e+00,7.205917720014804217e+01,-2.720207768639818369e+01,-4.768219630309613422e+01,3.181453568380914021e+01,3.070905292080874460e+01,9.484992027282714844e+00,-1.147378087043762207e+00,-4.207052886486053467e-01,5.030000000000000000e+02
-5.541836178433595705e+01,-2.661491620995542462e+01,6.711307270702207006e+00,7.215255299199907313e+01,-2.624391331829053797e+01,-4.677580349262098025e+01,3.341501513156413239e+01,3.138682477066299725e+01,9.484992027282714844e+00,-1.147378087043762207e+00,-4.207052886486053467e-01,5.040000000000000000e+02
-5.399884842545344554e+01,-2.562204939634381162e+01,8.285018300188824014e+00,7.185033204277124241e+01,-2.544894495608320995e+01,-4.509465780474579333e+01,3.348813514386392853e+01,3.168302646656809429e+01,9.484992027282714844e+00,-1.147378087043762207e+00,-4.207052886486053467e-01,5.050000000000000000e+02
-5.246868625117565443e+01,-2.478391625973551982e+01,9.937656356533011603e+00,7.153908041147190033e+01,-2.539134287023927072e+01,-4.268839692395948759e+01,3.242726733837099573e+01,3.208982509643499270e+01,9.484992027282714844e+00,-1.147378087043762207e+00,-4.207052886486053467e-01,5.060000000000000000e+02
-5.151734693727109970e+01,-2.473351462496123077e+01,1.073966238639002313e+01,7.128719376712786016e+01,-2.638966421333566359e+01,-4.022212429548665114e+01,3.063315061848641108e+01,3.266907717724052418e+01,9.484992027282714844e+00,-1.147378087043762207e+00,-4.207052886486053467e-01,5.070000000000000000e+02
-5.109746368729778965e+01,-2.512734533701029704e+01,1.049239368368165515e+01,7.118401656357309548e+01,-2.795452900075480329e+01,-3.832658599131372057e+01,2.877433741598701999e+01,3.338696752963926428e+01,9.484992027282714844e+00,-1.147378087043762207e+00,-4.207052886486053467e-01,5.080000000000000000e+02
-5.055185898006762102e+01,-2.475729784562990687e+01,9.938740159994054579e+00,7.167675923400108218e+01,-2.902699584789746723e+01,-3.702499636340164102e+01,2.788039763902918367e+01,3.446754140100006225e+01,9.484992027282714844e+00,-1.147378087043762207e+00,-4.207052886486053467e-01,5.090000000000000000e+02
-4.941636906269921781e+01,-2.262254119260798291e+01,1.005192771857682033e+01,7.335192185972573498e+01,-2.883184629008260913e+01,-3.580558927072809183e+01,2.880027859800460988e+01,3.621932646690201807e+01,9.484992027282714844e+00,-1.147378087043762207e+00,-4.207052886486053467e-01,5.100000000000000000e+02
-4.794062307966498793e+01,-1.900476642428657215e+01,1.109482974246995468e+01,7.621759917665038131e+01,-2.751006856763386565e+01,-3.425926315701819647e+01,3.132069686162512312e+01,3.844588307849352304e+01,9.484992027282714844e+00,-1.147378087043762207e+00,-4.207052886486053467e-01,5.110000000000000000e+02
-4.674451483610496894e+01,-1.555408210583362916e+01,1.236328444139010685e+01,7.918295662257096978e+01,-2.591898293013008470e+01,-3.265093938437101428e+01,3.383918451619771872e+01,4.013362649494189327e+01,9.484992027282714844e+00,-1.147378087043762207e+00,-4.207052886486053467e-01,5.120000000000000000e+02
-4.606013537320450268e+01,-1.424610901417099740e+01,1.284326818754462352e+01,8.040737186218575516e+01,-2.486797439663763498e+01,-3.186527697907388301e+01,3.419611170270962930e+01,3.993110019009156986e+01,9.484992027282714844e+00,-1.147378087043762207e+00,-4.207052886486053467e-01,5.130000000000000000e+02
-4.550381690145451330e+01,-1.603145616200447421e+01,1.209788521477634049e+01,7.845387167412422968e+01,-2.461977979239003389e+01,-3.275683259203378839e+01,3.123486900908682173e+01,3.714959318169337621e+01,9.484992027282714844e+00,-1.147378087043762207e+00,-4.207052886486053467e-01,5.140000000000000000e+02
-4.468388500867956736e+01,-2.019501113387917712e+01,1.052817986077627666e+01,7.342505533139234331e+01,-2.509129421246848324e+01,-3.542331122557698109e+01,2.585927947848381336e+01,3.243545005881640009e+01,9.484992027282714844e+00,-1.147378087043762207e+00,-4.207052886486053467e-01,5.150000000000000000e+02
-4.392790336650864447e+01,-2.480788838580718902e+01,8.843587721023027370e+00,6.715616097210624957e+01,-2.633471529269445455e+01,-3.896724451815316570e+01,2.060693213308286431e+01,2.749500418652786493e+01,9.484992027282714844e+00,-1.147378087043762207e+00,-4.207052886486053467e-01,5.160000000000000000e+02
-4.417217910103988743e+01,-2.783444287808140416e+01,7.395010909729762716e+00,6.222684236165980565e+01,-2.856196441121028329e+01,-4.192433942639308952e+01,1.795105349370192016e+01,2.406974653940619646e+01,9.484992027282714844e+00,-1.147378087043762207e+00,-4.207052886486053467e-01,5.170000000000000000e+02
-4.595827321032334112e+01,-2.812531061088770912e+01,6.095530411785148317e+00,6.047450120688722564e+01,-3.157931890785152973e+01,-4.307262000070306840e+01,1.865316275868508455e+01,2.298391687595153599e+01,9.484992027282714844e+00,-1.147378087043762207e+00,-4.207052886486053467e-01,5.180000000000000000e+02
-4.855307552414546990e+01,-2.579537916315007351e+01,4.932086220782139208e+00,6.204698894123805530e+01,-3.434490297005640969e+01,-4.210780490008255583e+01,2.146858264039781261e+01,2.393907062214850612e+01,9.484992027282714844e+00,-1.147378087043762207e+00,-4.207052886486053467e-01,5.190000000000000000e+02
-5.023371072797954184e+01,-2.196950142349078305e+01,4.397095174151104402e+00,6.558991769665999527e+01,-3.537227659722270801e+01,-3.976675352671782093e+01,2.435575652387694845e+01,2.605246621597382273e+01,9.484992027282714844e+00,-1.032640218734741211e+00,-3.824593424797058105e-01,5.200000000000000000e+02
-4.964805179123095513e+01,-1.815697157331010203e+01,5.235620020320766344e+00,6.929885321216079319e+01,-3.381918831649068125e+01,-3.732182661057163386e+01,2.608099661545293202e+01,2.855713518617244517e+01,9.484992027282714844e+00,-1.032640218734741211e+00,-3.824593424797058105e-01,5.210000000000000000e+02
-4.701745754431021851e+01,-1.556024437757423584e+01,7.681960866932286081e+00,7.198747817027765450e+01,-3.027311416438055858e+01,-3.576937185402448449e+01,2.686267668312143542e+01,3.109872680320904692e+01,9.484992027282714844e+00,-1.032640218734741211e+00,-3.824593424797058105e-01,5.220000000000000000e+02
-4.402896082482584461e+01,-1.457257661158382689e+01,1.097398371399890493e+01,7.347306312867112865e+01,-2.641762398873652273e+01,-3.526428721365618912e+01,2.765370616508403145e+01,3.355769231024942201e+01,9.484992027282714844e+00,-1.032640218734741211e+00,-3.824593424797058105e-01,5.230000000000000000e+02
-4.248108053806390672e+01,-1.468386414807810070e+01,1.371230298067757758e+01,7.420959846233290591e+01,-2.381792050825038132e+01,-3.520527874555887138e+01,2.891022345123769810e+01,3.573622060255434008e+01,9.484992027282714844e+00,-1.032640218734741211e+00,-3.824593424797058105e-01,5.240000000000000000e+02
-4.289826165372096511e+01,-1.488801509194308892e+01,1.482169211454129254e+01,7.466839095729119435e+01,-2.290548511509587115e+01,-3.488045829372276785e+01,3.008124747333749838e+01,3.726990286160253163e+01,9.484992027282714844e+00,-1.032640218734741211e+00,-3.824593424797058105e-01,5.250000000000000000e+02
-4.428595075879593423e+01,-1.439748238999254681e+01,1.428052899074282323e+01,7.501726709044942254e+01,-2.300525911398381140e+01,-3.410580861567177635e+01,3.024791651191071651e+01,3.781545317088580305e+01,9.484992027282714844e+00,-1.032640218734741211e+00,-3.824593424797058105e-01,5.260000000000000000e+02
-4.509070301634642419e+01,-1.317612502346264591e+01,1.300866437981562740e+01,7.522439006150148089e+01,-2.320782218202521108e+01,-3.329549045983003452e+01,2.917970387583159209e+01,3.731234935143584153e+01,9.484992027282714844e+00,-1.032640218734741211e+00,-3.824593424797058105e-01,5.270000000000000000e+02
-4.438224220095435157e+01,-1.186753190624426679e+01,1.209053934347070935e+01,7.529930496794395367e+01,-2.314165835831545337e+01,-3.293812760305991105e+01,2.771037433232982039e+01,3.610543688982966160e+01,9.484992027282714844e+00,-1.032640218734741211e+00,-3.824593424797058105e-01,5.280000000000000000e+02
-4.227697032702053548e+01,-1.118188272751649492e+01,1.205637285975808481e+01,7.533665987808853970e+01,-2.297611751741351327e+01,-3.302835787357207664e+01,2.703868136840355874e+01,3.486142234842850485e+01,9.484992027282714844e+00,-1.032640218734741211e+00,-3.824593424797058105e-01,5.290000000000000000e+02
-3.948864120975849801e+01,-1.127230332123644985e+01,1.278564987571712663e+01,7.534263706361207369e+01,-2.285833023172835965e+01,-3.304108950583577098e+01,2.764672836342151641e+01,3.434806858085698877e+01,9.484992027282714844e+00,-1.032640218734741211e+00,-3.824593424797058105e-01,5.300000000000000000e+02
-3.666227178767076111e+01,-1.163544786252714403e+01,1.394221087560663364e+01,7.513477332432012190e+01,-2.252394762910898862e+01,-3.246472288976838172e+01,2.890097916891454588e+01,3.517812884959084840e+01,9.484992027282714844e+00,-1.032640218734741211e+00,-3.824593424797058105e-01,5.310000000000000000e+02
-3.413561127184539146e+01,-1.158329371124273166e+01,1.538381529847174534e+01,7.452594212499479909e+01,-2.151259028047479660e+01,-3.132579148316790452e+01,2.969371350344135863e+01,3.758141769370422480e+01,9.484992027282714844e+00,-1.032640218734741211e+00,-3.824593424797058105e-01,5.320000000000000000e+02
-3.213112364778135088e+01,-1.079758285335446999e+01,1.715285583883724030e+01,7.365792778444938449e+01,-1.970148520266729975e+01,-3.014077644994631555e+01,2.948212038362589738e+01,4.127757057032340526e+01,9.484992027282714844e+00,-1.032640218734741211e+00,-3.824593424797058105e-01,5.330000000000000000e+02
-3.093113423908835102e+01,-9.455089374422641413e+00,1.916005323706076524e+01,7.311265696743748776e+01,-1.756581897436944928e+01,-2.933958720669625109e+01,2.874968706322670187e+01,4.552870395384252333e+01,9.484992027282714844e+00,-1.032640218734741211e+00,-3.824593424797058105e-01,5.340000000000000000e+02
-3.073501623970696528e+01,-7.890921231188713136e+00,2.099847533961474255e+01,7.358505504085132998e+01,-1.589815851163893967e+01,-2.877057193865766749e+01,2.853053256790235537e+01,4.939872385356648010e+01,9.484992027282714844e+00,-1.032640218734741211e+00,-3.824593424797058105e-01,5.350000000000000000e+02
-3.135894692558349561e+01,-6.222526413379910082e+00,2.215259272780622268e+01,7.532815353550358850e+01,-1.526101337110549139e+01,-2.781728025067877752e+01,2.952418825470431329e+01,5.212793286697888107e+01,9.484992027282714844e+00,-1.032640218734741211e+00,-3.824593424797058105e-01,5.360000000000000000e+02
-3.216973571769494811e+01,-4.331296128492340358e+00,2.242381251127744690e+01,7.784964006668587899e+01,-1.564619743670391472e+01,-2.601620445436128648e+01,3.161902443651388239e+01,5.345052320431614135e+01,9.484992027282714844e+00,-1.032640218734741211e+00,-3.824593424797058105e-01,5.370000000000000000e+02
-3.241109529165987624e+01,-2.149214631051108881e+00,2.214825921539613773e+01,8.015387988587826840e+01,-1.655305426684162740e+01,-2.354311714784216747e+01,3.412555415402403014e+01,5.368441710122397126e+01,9.484992027282714844e+00,-1.032640218734741211e+00,-3.824593424797058105e-01,5.380000000000000000e+02
-3.168304187490684853e+01,1.233332945694201044e-01,2.195852636231711585e+01,8.135405168889792549e+01,-1.734204104766877208e+01,-2.107917906658985885e+01,3.633336810259152116e+01,5.352509279767218686e+01,9.484992027282714844e+00,-1.032640218734741211e+00,-3.824593424797058105e-01,5.390000000000000000e+02
-3.018312207891176513e+01,2.111981243489026383e+00,2.228441479993898611e+01,8.118367101651392659e+01,-1.757669578271452338e+01,-1.919532232974415820e+01,3.783903667259892245e+01,5.365587809520093288e+01,9.484992027282714844e+00,-1.032640218734741211e+00,-3.824593424797058105e-01,5.400000000000000000e+02
-2.853760095672532771e+01,3.544183182553297229e+00,2.303747004523029318e+01,8.007119871508803044e+01,-1.717880171320939553e+01,-1.786115558517303725e+01,3.849416218085480068e+01,5.439504764775119838e+01,9.484992027282714844e+00,-1.032640218734741211e+00,-3.824593424797058105e-01,5.410000000000000000e+02
-2.736750811605952549e+01,4.412433478240018303e+00,2.376608481075800228e+01,7.882526526588662819e+01,-1.638065658586128848e+01,-1.653819271528482204e+01,3.827245545910000146e+01,5.559335799099699216e+01,9.484992027282714844e+00,-1.032640218734741211e+00,-3.824593424797058105e-01,5.420000000000000000e+02
-2.688386671023863528e+01,4.921946444262630393e+00,2.416548269345867084e+01,7.823918202770983044e+01,-1.550216247418393323e+01,-1.472703107050710969e+01,3.736357756943334607e+01,5.687536298640770838e+01,9.484992027282714844e+00,-1.032640218734741211e+00,-3.824593424797058105e-01,5.430000000000000000e+02
-2.674692852420321287e+01,5.399470036076309043e+00,2.449817180831132646e+01,7.886737842512047791e+01,-1.462829477595096250e+01,-1.240926630142803333e+01,3.640355802830072207e+01,5.807938024840996150e+01,9.484992027282714844e+00,-1.032640218734741211e+00,-3.824593424797058105e-01,5.440000000000000000e+02
-2.628670122659877961e+01,6.283577951209736057e+00,2.550614219791668802e+01,8.094504220345334033e+01,-1.340759602346588508e+01,-9.996596666435834777e+00,3.645389583792348276e+01,5.953184916180089203e+01,9.446745872497558594e+00,-1.070886254310607910e+00,-3.824593424797058105e-01,5.450000000000000000e+02
-2.496967744028370362e+01,8.059435533681607922e+00,2.781906734108179080e+01,8.430445792567206809e+01,-1.122598146393829666e+01,-7.906675724276283290e+00,3.850204073798340687e+01,6.184835211436165991e+01,9.446745872497558594e+00,-1.070886254310607910e+00,-3.824593424797058105e-01,5.460000000000000000e+02
-2.282205162786613073e+01,1.095706117423196702e+01,3.131805831735528045e+01,8.829628446140213782e+01,-7.760854251234377443e+00,-6.221082712296265527e+00,4.273710778187250980e+01,6.531960629979948862e+01,9.446745872497558594e+00,-1.070886254310607910e+00,-3.824593424797058105e-01,5.470000000000000000e+02
-2.049072230920319271e+01,1.456227413109445479e+01,3.501204489531664876e+01,9.191137862497453170e+01,-3.516508273864019429e+00,-4.739164703304595605e+00,4.816766833625570143e+01,6.936926611438320833e+01,9.446745872497558594e+00,-1.070886254310607910e+00,-3.824593424797058105e-01,5.480000000000000000e+02
-1.884071027018217137e+01,1.779431303426827071e+01,3.760888586530745670e+01,9.421601495075537969e+01,2.068983453009423101e-01,-3.305727088531057234e+00,5.296588088828957552e+01,7.263728016773620766e+01,9.446745872497558594e+00,-1.070886254310607910e+00,-3.824593424797058105e-01,5.490000000000000000e+02
-1.836437846473199897e+01,1.950871512299727328e+01,3.837786219873305527e+01,9.489071504380171973e+01,2.066639697788559715e+00,-2.027241837022302207e+00,5.538343916932808497e+01,7.378285118650455843e+01,9.446745872497558594e+00,-1.070886254310607910e+00,-3.824593424797058105e-01,5.500000000000000000e+02
-1.887558504221851763e+01,1.933364424505725765e+01,3.762332291966686171e+01,9.443455147093118285e+01,1.640907957371382508e+00,-1.155379864976566751e+00,5.466246910968038719e+01,7.244470030926368054e+01,9.446745872497558594e+00,-1.070886254310607910e+00,-3.824593424797058105e-01,5.510000000000000000e+02
-1.974608484400414454e+01,1.795517706314149109e+01,3.637747054205192399e+01,9.376592924842043431e+01,-2.285844185607857071e-01,-8.002202918496550410e-01,5.136050399023406499e+01,6.955463910883372591e+01,9.446745872497558594e+00,-1.070886254310607910e+00,-3.824593424797058105e-01,5.520000000000000000e+02
-2.045393580869404104e+01,1.650261409052745876e+01,3.557480002521424467e+01,9.347376292305216339e+01,-2.067979576003381226e+00,-8.170060505244691740e-01,4.694573226316788350e+01,6.668533389398089639e+01,9.446745872497558594e+00,-1.070886254310607910e+00,-3.824593424797058105e-01,5.530000000000000000e+02
-2.091852442641356902e+01,1.556930782690960768e+01,3.541360031231579342e+01,9.334613193319364655e+01,-2.868805877566956042e+00,-9.943031309558136854e-01,4.299234727664043021e+01,6.493113065417765029e+01,9.446745872497558594e+00,-1.070886254310607910e+00,-3.824593424797058105e-01,5.540000000000000000e+02
-2.131622348107157450e+01,1.484414410591307387e+01,3.541412596325790219e+01,9.261845512804484315e+01,-2.703584553340078855e+00,-1.319601564007825800e+00,4.048600361387343582e+01,6.423401590529192617e+01,9.446745872497558594e+00,-1.070886254310607910e+00,-3.824593424797058105e-01,5.550000000000000000e+02
-2.162564056565406645e+01,1.373360275579307199e+01,3.503965508613600832e+01,9.075053279442545318e+01,-2.359052023907679541e+00,-1.999934560688416241e+00,3.957221962948642613e+01,6.368633594047332735e+01,9.446745872497558594e+00,-1.070886254310607910e+00,-3.824593424797058105e-01,5.560000000000000000e+02
-2.144625435323905549e+01,1.230189770349170431e+01,3.426055371758593537e+01,8.803667121283524466e+01,-2.425426880284248909e+00,-3.184743050387623953e+00,3.975137780811837729e+01,6.249404077551935188e+01,9.446745872497558594e+00,-1.070886254310607910e+00,-3.824593424797058105e-01,5.570000000000000000e+02
-2.033324185997389577e+01,1.146359146904524096e+01,3.354801624995161546e+01,8.547570350880869228e+01,-2.764604406976104656e+00,-4.697216699898490333e+00,4.027934764739711682e+01,6.071341858345931541e+01,9.446745872497558594e+00,-1.070886254310607910e+00,-3.824593424797058105e-01,5.580000000000000000e+02
-1.831038594909568928e+01,1.211391924854797253e+01,3.337305647115226748e+01,8.399402318709417159e+01,-2.809308828212124354e+00,-6.103065152366980328e+00,4.053462352222504705e+01,5.913658880453112943e+01,9.446745872497558594e+00,-1.070886254310607910e+00,-3.824593424797058105e-01,5.590000000000000000e+02
-1.599841259480035660e+01,1.406331478108222655e+01,3.377292369882161438e+01,8.372415060530693154e+01,-2.247917174671783869e+00,-7.079109219899692107e+00,4.026109427283336117e+01,5.852497675771792274e+01,9.446745872497558594e+00,-1.070886254310607910e+00,-3.824593424797058105e-01,5.600000000000000000e+02
-1.417668518617392692e+01,1.594792436476382136e+01,3.440068673823498102e+01,8.397527931954027736e+01,-1.322874106981544173e+00,-7.702273614568184712e+00,3.965724970021165063e+01,5.892884047533425473e+01,9.446745872497558594e+00,-1.070886254310607910e+00,-3.824593424797058105e-01,5.610000000000000000e+02
-1.319623493671861070e+01,1.634037417102354084e+01,3.491821145555877592e+01,8.386461677251827496e+01,-4.921387830145249609e-01,-8.347333317919037654e+00,3.925293347059869120e+01,5.966428006948626717e+01,9.446745872497558594e+00,-1.070886254310607910e+00,-3.824593424797058105e-01,5.620000000000000000e+02
-1.283164980120818655e+01,1.503577723359558149e+01,3.524586687795090256e+01,8.298671244547404058e+01,4.699379161138494965e-02,-9.299238475196034415e+00,3.954246945868271723e+01,5.987034396313174511e+01,9.446745872497558594e+00,-1.070886254310607910e+00,-3.824593424797058105e-01,5.630000000000000000e+02
-1.268064306178348488e+01,1.326039136008603236e+01,3.542433593462919816e+01,8.156554008387502108e+01,4.029452049853716744e-01,-1.047556952418926812e+01,4.055611052924177784e+01,5.912114861213831318e+01,9.446745872497558594e+00,-1.070886254310607910e+00,-3.824593424797058105e-01,5.640000000000000000e+02
-1.264547226299691829e+01,1.260262151378447015e+01,3.535897771250438382e+01,8.011538446976373962e+01,6.694737776106194360e-01,-1.149929194459582504e+01,4.172422788194489840e+01,5.766733026062411227e+01,9.446745872497558594e+00,-1.070886254310607910e+00,-3.824593424797058105e-01,5.650000000000000000e+02
-1.298144061960192630e+01,1.370094264789622684e+01,3.485786022218781000e+01,7.908939298816039809e+01,8.019356645727384603e-01,-1.197842318544644513e+01,4.226239590509248956e+01,5.626902784025696747e+01,9.446745872497558594e+00,-1.070886254310607910e+00,-3.824593424797058105e-01,5.660000000000000000e+02
-1.388306580067728646e+01,1.590847393407966592e+01,3.398906731321585539e+01,7.885979845938163635e+01,9.732416849928995362e-01,-1.167032536605802306e+01,4.187988546027008852e+01,5.584973295605959720e+01,9.446745872497558594e+00,-1.070886254310607910e+00,-3.824593424797058105e-01,5.670000000000000000e+02
-1.508473997831606539e+01,1.811499530321634666e+01,3.330640160289294727e+01,7.984242356748654856e+01,1.942387064305876265e+00,-1.043974289867946936e+01,4.120076489813982334e+01,5.712523818908448447e+01,9.446745872497558594e+00,-1.070886254310607910e+00,-3.824593424797058105e-01,5.680000000000000000e+02
-1.593034248386720719e+01,1.976479330419715552e+01,3.353420366571663180e+01,8.234399182382367144e+01,4.728764528063038597e+00,-8.227220481630865834e+00,4.140349120789687731e+01,6.023183201688698318e+01,9.446745872497558594e+00,-1.070886254310607910e+00,-3.824593424797058105e-01,5.690000000000000000e+02
-1.584824179747010930e+01,2.105579781156484387e+01,3.490995014157670084e+01,8.609389270603242039e+01,9.618719361904368270e+00,-5.203959770393339568e+00,4.326056391354723019e+01,6.447925877138368378e+01,9.446745872497558594e+00,-1.070886254310607910e+00,-3.824593424797058105e-01,5.700000000000000000e+02
-1.475927864213008434e+01,2.228443429227081651e+01,3.685728775443203631e+01,8.996887917143249069e+01,1.546192936171064503e+01,-1.946633847384873661e+00,4.639298752307331597e+01,6.849808030762142153e+01,9.446745872497558594e+00,-1.070886254310607910e+00,-3.824593424797058105e-01,5.710000000000000000e+02
-1.305592986373812892e+01,2.321018283046942088e+01,3.842097106429901032e+01,9.243417061684522196e+01,2.017746612118389749e+01,7.175297302037506597e-01,4.945839649986919540e+01,7.091103195009418414e+01,9.408499717712402344e+00,-1.070886254310607910e+00,-4.207052886486053467e-01,5.720000000000000000e+02
-1.124398409365676343e+01,2.320919089150083892e+01,3.912916816102188022e+01,9.256869875997290364e+01,2.224631562107606442e+01,2.245004612603224814e+00,5.117766677691361110e+01,7.120479027893088642e+01,9.408499717712402344e+00,-1.070886254310607910e+00,-4.207052886486053467e-01,5.730000000000000000e+02
-9.649982350820209831e+00,2.202649716990163142e+01,3.942565563851530896e+01,9.084114265166681434e+01,2.186464833578065736e+01,2.841190329221717548e+00,5.129673465803170984e+01,7.010697045157576213e+01,9.408499717712402344e+00,-1.070886254310607910e+00,-4.207052886486053467e-01,5.740000000000000000e+02
-8.424932874961086782e+00,2.024492657822884212e+01,4.018575238768062263e+01,8.887127537420565204e+01,2.063475405210556346e+01,3.336214179153103032e+00,5.062886915860872250e+01,6.903400052144752408e+01,9.408499717712402344e+00,-1.070886254310607910e+00,-4.207052886486053467e-01,5.750000000000000000e+02
-7.700171551423409255e+00,1.889956598957178358e+01,4.177071252434143389e+01,8.828218069060130802e+01,2.007455746084087878e+01,4.480447696196279139e+00,5.020853059398359619e+01,6.897374371100522694e+01,9.408499717712402344e+00,-1.070886254310607910e+00,-4.207052886486053467e-01,5.760000000000000000e+02
-7.617277318930064212e+00,1.858151334253670939e+01,4.357978694016492227e+01,8.958925442410327378e+01,2.038960600910286303e+01,6.288804765623353887e+00,5.041734501436803839e+01,6.973336755641685158e+01,9.408499717712402344e+00,-1.070886254310607910e+00,-4.207052886486053467e-01,5.770000000000000000e+02
-8.157277162001264514e+00,1.891907222152076429e+01,4.457593330053896352e+01,9.203718850047152955e+01,2.063536578139974154e+01,8.075681224912841571e+00,5.090003531985712470e+01,7.021401974075888575e+01,9.408499717712402344e+00,-1.070886254310607910e+00,-4.207052886486053467e-01,5.780000000000000000e+02
-8.993724628300697077e+00,1.892373176460750983e+01,4.426250158384209499e+01,9.440104122274715337e+01,1.994384292932591052e+01,9.154451211774357944e+00,5.122420333367881540e+01,6.942943656996067148e+01,9.408499717712402344e+00,-1.070886254310607910e+00,-4.207052886486053467e-01,5.790000000000000000e+02
-9.622821365479467204e+00,1.783219555998221040e+01,4.312104102042940212e+01,9.591136292216287984e+01,1.844523690214737144e+01,9.499281039083143696e+00,5.145829489551033475e+01,6.729101446157801547e+01,9.408499717712402344e+00,-1.070886254310607910e+00,-4.207052886486053467e-01,5.800000000000000000e+02
-9.740808307482438977e+00,1.564806250364017615e+01,4.206217956082582532e+01,9.648866922441084171e+01,1.696085881245380733e+01,9.710661152963439235e+00,5.199199135864000709e+01,6.445197396177900373e+01,9.408499717712402344e+00,-1.070886254310607910e+00,-4.207052886486053467e-01,5.810000000000000000e+02
-9.544513649181681103e+00,1.298177257851966715e+01,4.144964196370710852e+01,9.629231275099664344e+01,1.592780935090740968e+01,1.034610802827228326e+01,5.282679197794823267e+01,6.147910837440031173e+01,9.408499717712402344e+00,-1.070886254310607910e+00,-4.207052886486053467e-01,5.820000000000000000e+02
-9.642484683536167722e+00,1.049130157168110600e+01,4.071322611572213646e+01,9.529006086055233027e+01,1.481124795420146256e+01,1.131468260150722926e+01,5.322068789741933870e+01,5.829513392985427345e+01,9.408499717712402344e+00,-1.070886254310607910e+00,-4.207052886486053467e-01,5.830000000000000000e+02
-1.057739603776644799e+01,8.489614596426690696e+00,3.898121866667315771e+01,9.340156436321740330e+01,1.269374393274483737e+01,1.195466016456703073e+01,5.224356822980371362e+01,5.449440269795923086e+01,9.408499717712402344e+00,-1.070886254310607910e+00,-4.207052886486053467e-01,5.840000000000000000e+02
-1.229551683473982848e+01,6.960388272607815452e+00,3.614034943215119711e+01,9.099730997301594471e+01,9.444592187681337236e+00,1.172648841967384215e+01,4.980782769539291621e+01,5.015915743554978690e+01,9.408499717712402344e+00,-1.070886254310607910e+00,-4.207052886486053467e-01,5.850000000000000000e+02
-1.400615207589180500e+01,5.750392747049772879e+00,3.325153860313912446e+01,8.901686066593720170e+01,6.210092251612877590e+00,1.082510727446788223e+01,4.709332392962096492e+01,4.617885919960463070e+01,9.408499717712402344e+00,-1.070886254310607910e+00,-4.207052886486053467e-01,5.860000000000000000e+02
-1.461902729406028811e+01,4.656942334562700125e+00,3.183861907682694437e+01,8.834917359669270809e+01,4.625312721578666242e+00,1.009718214408712811e+01,4.576582535134002683e+01,4.356878064285047003e+01,9.408499717712402344e+00,-1.070886254310607910e+00,-4.207052886486053467e-01,5.870000000000000000e+02
-1.352860854426398873e+01,3.402743429864131031e+00,3.261751876052403532e+01,8.897970107336368528e+01,5.397954165802730131e+00,1.031476266340541770e+01,4.657165005312708672e+01,4.237065516071925231e+01,9.408499717712402344e+00,-1.070886254310607910e+00,-4.207052886486053467e-01,5.880000000000000000e+02
-1.119690528336468560e+01,1.711298864716809476e+00,3.476546430540474830e+01,8.981119794826372527e+01,7.528076186605176190e+00,1.145437153085367754e+01,4.859089476577901223e+01,4.128196040073271433e+01,9.408499717712402344e+00,-1.070886254310607910e+00,-4.207052886486053467e-01,5.890000000000000000e+02
-9.033246631290239748e+00,-4.314405402128613787e-01,3.642193821608816506e+01,8.951535247387437266e+01,8.911870820964395534e+00,1.265005206150817685e+01,4.992077053651701135e+01,3.858222924504480034e+01,9.408499717712402344e+00,-1.070886254310607910e+00,-4.207052886486053467e-01,5.900000000000000000e+02
-8.530168896197210415e+00,-2.574762386586371576e+00,3.604110378507357382e+01,8.773190592988248682e+01,7.891798219723568764e+00,1.289001327317600953e+01,4.925022782598898630e+01,3.367329494249679556e+01,9.408499717712402344e+00,-1.070886254310607910e+00,-4.207052886486053467e-01,5.910000000000000000e+02
-1.019753587400191464e+01,-3.968002878493280150e+00,3.351455129889836826e+01,8.550370434016076615e+01,4.550285277564398712e+00,1.188060683993899147e+01,4.695629665918204410e+01,2.788044554487350979e+01,9.408499717712402344e+00,-1.070886254310607910e+00,-4.207052886486053467e-01,5.920000000000000000e+02
-1.309223750101045880e+01,-4.061242354071509908e+00,3.020673076988350658e+01,8.449044869602585095e+01,7.649317116301972419e-01,1.034259325783568784e+01,4.477319170173359453e+01,2.371518747479603917e+01,9.408499717712402344e+00,-1.070886254310607910e+00,-4.207052886486053467e-01,5.930000000000000000e+02
-1.538404262770927744e+01,-2.956584350946286577e+00,2.793056695996347116e+01,8.561426118589952239e+01,-1.024432926293229684e+00,9.461802372741658473e+00,4.436569102519570151e+01,2.309451931764851906e+01,9.408499717712402344e+00,-1.070886254310607910e+00,-4.207052886486053467e-01,5.940000000000000000e+02
-1.561504993651760742e+01,-1.404484170612704474e+00,2.769266711678938009e+01,8.831183739165135194e+01,5.394710683904122561e-01,9.930822799920861144e+00,4.607903882867685752e+01,2.592660162470201612e+01,9.408499717712402344e+00,-1.070886254310607910e+00,-4.207052886486053467e-01,5.950000000000000000e+02
-1.372452050484207575e+01,-3.163123826670926064e-01,2.913626287656006753e+01,9.100225942824181402e+01,4.839603679032734362e+00,1.138326714866343536e+01,4.888358435474219732e+01,3.017637285366981814e+01,9.408499717712402344e+00,-1.070886254310607910e+00,-4.207052886486053467e-01,5.960000000000000000e+02
-1.105029378730614553e+01,-1.661669757340860087e-01,3.099053117399307666e+01,9.228406998405262129e+01,9.744688046408555238e+00,1.270537129184958758e+01,5.140244457139124279e+01,3.330726738314115210e+01,9.408499717712402344e+00,-1.070886254310607910e+00,-4.207052886486053467e-01,5.970000000000000000e+02
-9.293087128779006889e+00,-7.178066246015077922e-01,3.206267590830066183e+01,9.182717206826055190e+01,1.305422614607959986e+01,1.297712929319095565e+01,5.299895164879126241e+01,3.394446015667563188e+01,9.408499717712402344e+00,-1.070886254310607910e+00,-4.207052886486053467e-01,5.980000000000000000e+02
-9.262104589110094821e+00,-1.241487109677109402e+00,3.198652066442082287e+01,9.033770220937367412e+01,1.387344504603970563e+01,1.223384191263903631e+01,5.400454689323305502e+01,3.252700455853846506e+01,9.408499717712402344e+00,-1.070886254310607910e+00,-4.207052886486053467e-01,5.990000000000000000e+02
-1.036780324652136187e+01,-1.018462174415617483e+00,3.126103935244827881e+01,8.885192635051498655e+01,1.295726449546782533e+01,1.138264792658446822e+01,5.506800932111946167e+01,3.061460854488541372e+01,9.408499717712402344e+00,-1.070886254310607910e+00,-4.207052886486053467e-01,6.000000000000000000e+02
-1.118827957681060070e+01,2.091274956292181741e-01,3.072224876446125563e+01,8.807553390066459542e+01,1.188474168447282864e+01,1.135569878710884950e+01,5.638698148637195118e+01,2.955984788898422266e+01,9.408499717712402344e+00,-1.070886254310607910e+00,-4.207052886486053467e-01,6.010000000000000000e+02
-1.059212425705845817e+01,2.088868196453404380e+00,3.093357707107861643e+01,8.820004180632531643e+01,1.179814529823124758e+01,1.226202626734811929e+01,5.754081133677391335e+01,2.961144435765891103e+01,9.408499717712402344e+00,-1.070886254310607910e+00,-4.207052886486053467e-01,6.020000000000000000e+02
-8.531707457990705734e+00,3.854791405457945075e+00,3.190801631602153066e+01,8.907430483319694758e+01,1.269886855917866342e+01,1.329776534257689491e+01,5.796955919885658659e+01,3.002955584788651322e+01,9.484992027282714844e+00,-1.070886254310607910e+00,-4.207052886486053467e-01,6.030000000000000000e+02
-5.956808693459606729e+00,4.749165948098379886e+00,3.323646459531664732e+01,9.037921008252305910e+01,1.374843754670291673e+01,1.347482301435229601e+01,5.755026984636060661e+01,2.994124082257258124e+01,9.484992027282714844e+00,-1.070886254310607910e+00,-4.207052886486053467e-01,6.040000000000000000e+02
-4.012342641883151373e+00,4.448247823165729642e+00,3.442580524097138550e+01,9.168965395383565919e+01,1.417033021587121766e+01,1.250074961558129871e+01,5.673176084884835291e+01,2.915538298772298731e+01,9.484992027282714844e+00,-1.070886254310607910e+00,-4.207052886486053467e-01,6.050000000000000000e+02
-3.195563270142883994e+00,3.250020388491975609e+00,3.520779555650369730e+01,9.256984003081015544e+01,1.393726491419874947e+01,1.104607431305339560e+01,5.617660218560195062e+01,2.831714931500027888e+01,9.484992027282714844e+00,-1.070886254310607910e+00,-4.207052886486053467e-01,6.060000000000000000e+02
-3.102613921964803012e+00,1.895922538969898596e+00,3.565761162344279001e+01,9.278063274438318331e+01,1.372962489933343022e+01,1.021365534892538562e+01,5.626394553721547709e+01,2.836878898628492607e+01,9.484992027282714844e+00,-1.070886254310607910e+00,-4.207052886486053467e-01,6.070000000000000000e+02
-2.894074695344897918e+00,1.109102678976341849e+00,3.608323898857997847e+01,9.242773368573762127e+01,1.433075874899077462e+01,1.072802022533505806e+01,5.684757481527049094e+01,2.982311373351694783e+01,9.484992027282714844e+00,-1.070886254310607910e+00,-4.207052886486053467e-01,6.080000000000000000e+02
-2.067182765011239098e+00,1.135167669675865909e+00,3.675885840860428289e+01,9.183549347841471899e+01,1.604864165422259248e+01,1.252668535127304494e+01,5.741380288280925015e+01,3.242275968342073611e+01,9.484992027282714844e+00,-1.070886254310607910e+00,-4.207052886486053467e-01,6.090000000000000000e+02
-9.028509129311714787e-01,1.607900547482131515e+00,3.767394258870263002e+01,9.123284399942713208e+01,1.861472933594995993e+01,1.499278111241801525e+01,5.749243858956833719e+01,3.538246666212944547e+01,9.484992027282714844e+00,-1.070886254310607910e+00,-4.207052886486053467e-01,6.100000000000000000e+02
-2.377920323742728215e-01,1.863421624864713522e+00,3.850243734760442749e+01,9.059322250298282597e+01,2.152836345742252888e+01,1.747865354634268442e+01,5.704605242636171170e+01,3.794706022566606407e+01,9.484992027282714844e+00,-1.070886254310607910e+00,-4.207052886486053467e-01,6.110000000000000000e+02
-7.517837156847235747e-01,1.489336263781297021e+00,3.886332062663132092e+01,8.983622809622465866e+01,2.445326262016897090e+01,1.962410706133232452e+01,5.658454405325028347e+01,3.981172805559253902e+01,9.484992027282714844e+00,-1.070886254310607910e+00,-4.207052886486053467e-01,6.120000000000000000e+02
-2.353678432831657119e+00,6.908412573866371531e-01,3.868821038247551769e+01,8.916465300757408841e+01,2.731466568781979731e+01,2.132057950981470640e+01,5.685723185444658156e+01,4.113309569599732640e+01,9.484992027282714844e+00,-1.070886254310607910e+00,-4.207052886486053467e-01,6.130000000000000000e+02
-4.179291127573378617e+00,1.851103714252531063e-01,3.836921222840828705e+01,8.911248079106371733e+01,3.009249944038674585e+01,2.256955221778844134e+01,5.824857716249243822e+01,4.223993454240189749e+01,9.484992027282714844e+00,-1.070886254310607910e+00,-4.207052886486053467e-01,6.140000000000000000e+02
-5.222059851770609384e+00,6.798871194623643532e-01,3.850021574548009085e+01,9.016900071473355638e+01,3.259251705013957690e+01,2.351057735720678465e+01,6.032007290081674000e+01,4.336660320316150319e+01,9.484992027282714844e+00,-1.070886254310607910e+00,-4.207052886486053467e-01,6.150000000000000000e+02
