F3,F4,C3,C4,P3,P4,Cz,Pz,Accel_x,Accel_y,Accel_z,Sample
-2.455635694786906242e-11,-4.820321919396519661e-11,-4.456524038687348366e-11,-2.637534635141491890e-11,-3.728928277269005775e-11,-5.002220859751105309e-11,-3.456079866737127304e-11,-5.456968210637569427e-11,9.523238182067871094e+00,-6.119350194931030273e-01,-4.971971809864044189e-01,2.260000000000000000e+02
-4.571858177151625569e+00,-8.402915831653444911e+00,1.733915234633968794e+00,-4.084514836416929029e+00,8.472225054774753517e-01,-5.068404641007873579e+00,-1.978029807914936100e-01,-1.679292091444040125e+00,9.523238182067871094e+00,-6.119350194931030273e-01,-4.971971809864044189e-01,2.270000000000000000e+02
-1.152602375720289274e+01,-1.684966518806049862e+01,3.356979322497863905e-01,-1.064433086120152439e+01,-5.574799604726649704e+00,-1.529983852655641385e+01,-2.869269029867609788e+00,-5.385522593684981985e+00,9.523238182067871094e+00,-6.119350194931030273e-01,-4.971971809864044189e-01,2.280000000000000000e+02
-2.118570556688428042e+01,-2.528384615309187211e+01,-4.748722347044349590e+00,-1.985430129497763119e+01,-2.019033708610004396e+01,-3.132457065130165574e+01,-7.865025110373608186e+00,-1.129583476000152586e+01,9.446745872497558594e+00,-9.179025292396545410e-01,-4.971971809864044189e-01,2.290000000000000000e+02
-3.173640388504554721e+01,-3.364023904785062768e+01,-1.138813233448399842e+01,-2.950628430807410041e+01,-3.734297171043181152e+01,-4.902705977169352991e+01,-1.252695327635774447e+01,-1.764780262666317867e+01,9.446745872497558594e+00,-9.179025292396545410e-01,-4.971971809864044189e-01,2.300000000000000000e+02
-4.107387048066993884e+01,-4.199094694416089624e+01,-1.702103809908476251e+01,-3.711434375152202847e+01,-5.053381196659393026e+01,-6.358337646098061668e+01,-1.436546792644639936e+01,-2.237333615914849361e+01,9.446745872497558594e+00,-9.179025292396545410e-01,-4.971971809864044189e-01,2.310000000000000000e+02
-4.864945776713011583e+01,-5.045594471515687474e+01,-2.086180589712603251e+01,-4.206537789288358908e+01,-5.818711504166094528e+01,-7.359226296997712780e+01,-1.347118381666314235e+01,-2.479500984963488008e+01,9.446745872497558594e+00,-9.179025292396545410e-01,-4.971971809864044189e-01,2.320000000000000000e+02
-5.555600499664524250e+01,-5.886302481203711068e+01,-2.397496163710093242e+01,-4.581498868595917884e+01,-6.403131007475985825e+01,-8.149191150415481388e+01,-1.223311800354622392e+01,-2.585746128573555325e+01,9.446745872497558594e+00,-9.179025292396545410e-01,-4.971971809864044189e-01,2.330000000000000000e+02
-6.301614723600050638e+01,-6.655490724810624670e+01,-2.755659468258090783e+01,-5.021438032262267370e+01,-7.255080649973842810e+01,-9.051619618258428090e+01,-1.282454997907098004e+01,-2.698967919452843489e+01,9.446745872497558594e+00,-9.179025292396545410e-01,-4.971971809864044189e-01,2.340000000000000000e+02
-7.101708656679602427e+01,-7.271330101910007215e+01,-3.154490163518221379e+01,-5.580753977759559348e+01,-8.467197318992566579e+01,-1.016894005337571798e+02,-1.514321339152411383e+01,-2.894944530585871689e+01,9.446745872497558594e+00,-9.179025292396545410e-01,-4.971971809864044189e-01,2.350000000000000000e+02
-7.848707233011009521e+01,-7.702569006975591037e+01,-3.499504662158142310e+01,-6.165832849375237856e+01,-9.775902976288216450e+01,-1.136372168252755728e+02,-1.719801038185687503e+01,-3.167427449552360486e+01,9.446745872497558594e+00,-9.179025292396545410e-01,-4.971971809864044189e-01,2.360000000000000000e+02
-8.466208408681904984e+01,-8.007432607448208728e+01,-3.753010154039839108e+01,-6.654382391345006909e+01,-1.090139870940365654e+02,-1.246516275541571304e+02,-1.730172639285865444e+01,-3.489193196590531443e+01,9.446745872497558594e+00,-9.179025292396545410e-01,-4.971971809864044189e-01,2.370000000000000000e+02
-9.009116358888604736e+01,-8.303746890334878117e+01,-4.006551859269802662e+01,-7.012921324666513101e+01,-1.181784613748268384e+02,-1.343725591407619504e+02,-1.573320129550575075e+01,-3.855008547676425223e+01,9.446745872497558594e+00,-9.179025292396545410e-01,-4.971971809864044189e-01,2.380000000000000000e+02
-9.623299516228053108e+01,-8.696704104830678261e+01,-4.399422133598818618e+01,-7.309874409615986224e+01,-1.270087658794036543e+02,-1.435424267010521362e+02,-1.437203858883458452e+01,-4.265384156600703136e+01,9.446745872497558594e+00,-9.179025292396545410e-01,-4.971971809864044189e-01,2.390000000000000000e+02
-1.041041271925087131e+02,-9.230018089485201926e+01,-4.977294734140195942e+01,-7.644239075272435002e+01,-1.368421452674720058e+02,-1.527274281079253342e+02,-1.496518492263476219e+01,-4.696997031272621825e+01,9.446745872497558594e+00,-9.179025292396545410e-01,-4.971971809864044189e-01,2.400000000000000000e+02
-1.133269654673576952e+02,-9.896154350926281040e+01,-5.640834392580109125e+01,-8.078300565830613778e+01,-1.472400648657330748e+02,-1.617653035707280651e+02,-1.783681273599086126e+01,-5.116448789495916571e+01,9.446745872497558594e+00,-9.179025292396545410e-01,-4.971971809864044189e-01,2.410000000000000000e+02
-1.224264708216032886e+02,-1.067581501293325346e+02,-6.227534367074349575e+01,-8.624661435142388655e+01,-1.568583930087424960e+02,-1.703701510645714734e+02,-2.203624764604865049e+01,-5.523329615452712460e+01,9.446745872497558594e+00,-9.179025292396545410e-01,-4.971971809864044189e-01,2.420000000000000000e+02
-1.300148163434423623e+02,-1.155185701034015437e+02,-6.637987793779757340e+01,-9.266707999094433035e+01,-1.650706019398276112e+02,-1.788103308534455209e+02,-2.638168167970252398e+01,-5.959370347130607115e+01,9.446745872497558594e+00,-9.179025292396545410e-01,-4.971971809864044189e-01,2.430000000000000000e+02
-1.357823166307025531e+02,-1.248442075694019877e+02,-6.891041316111022752e+01,-9.969862080210623390e+01,-1.724170885065295806e+02,-1.876626196072611492e+02,-3.021665504415341275e+01,-6.454728035358675697e+01,9.446745872497558594e+00,-9.179025292396545410e-01,-4.971971809864044189e-01,2.440000000000000000e+02
-1.405379183818340607e+02,-1.338767940416837519e+02,-7.077846495504854829e+01,-1.067477576842784401e+02,-1.796642715599318763e+02,-1.969812157470096281e+02,-3.334799819088948425e+01,-6.962029947534665553e+01,9.446745872497558594e+00,-9.179025292396545410e-01,-4.971971809864044189e-01,2.450000000000000000e+02
-1.454090493067615171e+02,-1.415106940117839258e+02,-7.273390979062060069e+01,-1.129457048144558939e+02,-1.867981122242899801e+02,-2.059817602651055495e+02,-3.557300627153017558e+01,-7.354004503019496042e+01,9.446745872497558594e+00,-9.179025292396545410e-01,-4.971971809864044189e-01,2.460000000000000000e+02
-1.509472800361545524e+02,-1.469886391424706744e+02,-7.481035450254967145e+01,-1.173473825010141809e+02,-1.930403771142873666e+02,-2.136773753619145282e+02,-3.646789672542217886e+01,-7.501094002423815255e+01,9.446745872497558594e+00,-9.179025292396545410e-01,-4.971971809864044189e-01,2.470000000000000000e+02
-1.568324666544567663e+02,-1.503724697050583927e+02,-7.642360657548124436e+01,-1.193072418370547894e+02,-1.976498957702960979e+02,-2.197542697948747445e+02,-3.565468140775283246e+01,-7.366065505067217600e+01,9.446745872497558594e+00,-9.179025292396545410e-01,-4.971971809864044189e-01,2.480000000000000000e+02
-1.623061295565448745e+02,-1.524790092601588185e+02,-7.695202738588068314e+01,-1.188416428215914493e+02,-2.005843580186792678e+02,-2.247621939559849125e+02,-3.322901236524739943e+01,-7.034926032620660408e+01,9.446745872497558594e+00,-9.179025292396545410e-01,-4.971971809864044189e-01,2.490000000000000000e+02
-1.669119952574328636e+02,-1.543824004723692269e+02,-7.639178141056527238e+01,-1.168030332521848322e+02,-2.025671624672013422e+02,-2.295497859321667420e+02,-2.994789644454249355e+01,-6.665012074850801582e+01,9.446745872497558594e+00,-9.179025292396545410e-01,-4.971971809864044189e-01,2.500000000000000000e+02
-1.709129901283831714e+02,-1.569256414570245397e+02,-7.564235180236300948e+01,-1.147327354192202620e+02,-2.047962697469483828e+02,-2.346532754859099441e+02,-2.703723704641743097e+01,-6.400755247321558272e+01,9.446745872497558594e+00,-9.179025292396545410e-01,-4.971971809864044189e-01,2.510000000000000000e+02
-1.750500665827094053e+02,-1.605501027287191391e+02,-7.612436444733702956e+01,-1.143292287820668207e+02,-2.085855926610756796e+02,-2.402126825049517720e+02,-2.573635408554673631e+01,-6.319499020321745775e+01,9.446745872497558594e+00,-9.179025292396545410e-01,-4.971971809864044189e-01,2.520000000000000000e+02
-1.798821814291377450e+02,-1.653871240858688907e+02,-7.886685695708411004e+01,-1.167019461281879558e+02,-2.149167733616550322e+02,-2.462819305080092818e+02,-2.681220627364928077e+01,-6.429740004872746795e+01,9.446745872497558594e+00,-9.179025292396545410e-01,-4.971971809864044189e-01,2.530000000000000000e+02
-1.853129293160200177e+02,-1.713795207122639113e+02,-8.370338243131982381e+01,-1.218695388737178291e+02,-2.239062044050679106e+02,-2.530347464842143381e+02,-3.026105130319228920e+01,-6.700141508533397428e+01,9.484992027282714844e+00,-6.884268522262573242e-01,-4.971971809864044189e-01,2.540000000000000000e+02
-1.907395123661590333e+02,-1.783174558641467229e+02,-8.927483986892139001e+01,-1.288912338242716942e+02,-2.345555425696184102e+02,-2.606467349441927581e+02,-3.531250309329971060e+01,-7.085092778105899924e+01,9.484992027282714844e+00,-6.884268522262573242e-01,-4.971971809864044189e-01,2.550000000000000000e+02
-1.956641713357130357e+02,-1.858359291625138212e+02,-9.392648700723157162e+01,-1.365190085802832982e+02,-2.451742233067652705e+02,-2.690428872481870712e+02,-4.069178186711633316e+01,-7.529565798301428003e+01,9.484992027282714844e+00,-6.884268522262573242e-01,-4.971971809864044189e-01,2.560000000000000000e+02
-2.001329992454711828e+02,-1.934309304006119419e+02,-9.675405270295914306e+01,-1.437523501909322476e+02,-2.542678559896785373e+02,-2.777518871167858379e+02,-4.497321634188574535e+01,-7.958282013050120440e+01,9.484992027282714844e+00,-6.884268522262573242e-01,-4.971971809864044189e-01,2.570000000000000000e+02
-2.045639201990657057e+02,-2.004702889933341794e+02,-9.790917256295870175e+01,-1.497983712820578148e+02,-2.611564483207966987e+02,-2.859068222103123844e+02,-4.691917405018921272e+01,-8.269397036577629478e+01,9.484992027282714844e+00,-6.884268522262573242e-01,-4.971971809864044189e-01,2.580000000000000000e+02
-2.091799003488608832e+02,-2.061843329495468424e+02,-9.802362283151614974e+01,-1.536648430253071638e+02,-2.658406442257473827e+02,-2.923720874632763298e+02,-4.583317036922380794e+01,-8.354075911848758551e+01,9.484992027282714844e+00,-6.884268522262573242e-01,-4.971971809864044189e-01,2.590000000000000000e+02
-2.136801794945945403e+02,-2.097525539649200255e+02,-9.748566691201858703e+01,-1.541683166257607809e+02,-2.684675425352861566e+02,-2.960977254574945619e+02,-4.194875371816033294e+01,-8.147817482379923604e+01,9.484992027282714844e+00,-6.884268522262573242e-01,-4.971971809864044189e-01,2.600000000000000000e+02
-2.175224453462033125e+02,-2.106432625226411801e+02,-9.635371544810277555e+01,-1.507752364589159697e+02,-2.691603513753025254e+02,-2.967451748835310354e+02,-3.665883740773824684e+01,-7.691210008339294291e+01,9.484992027282714844e+00,-6.884268522262573242e-01,-4.971971809864044189e-01,2.610000000000000000e+02
-2.204925784462070624e+02,-2.091332375619454069e+02,-9.487018152149084926e+01,-1.446813828549961727e+02,-2.684447208679639516e+02,-2.952925654492955800e+02,-3.221522777290010708e+01,-7.155025527544876240e+01,9.484992027282714844e+00,-6.884268522262573242e-01,-4.971971809864044189e-01,2.620000000000000000e+02
-2.229312525442142032e+02,-2.066185761859928789e+02,-9.383160128115423504e+01,-1.389649749220407102e+02,-2.676721936295953128e+02,-2.940496988515333214e+02,-3.079615389394984959e+01,-6.792842187822225242e+01,9.484992027282714844e+00,-6.884268522262573242e-01,-4.971971809864044189e-01,2.630000000000000000e+02
-2.254132935577522403e+02,-2.053010195031911280e+02,-9.425279209354630439e+01,-1.372411602556662729e+02,-2.687071272496154961e+02,-2.957651179875228991e+02,-3.339213015696441289e+01,-6.830293051823718997e+01,9.484992027282714844e+00,-6.884268522262573242e-01,-4.971971809864044189e-01,2.640000000000000000e+02
-2.283110377396219519e+02,-2.072276260711942086e+02,-9.663109590558860873e+01,-1.415824278803825109e+02,-2.729360212634251184e+02,-3.022230485329173462e+02,-3.928239870717379745e+01,-7.351568374507587578e+01,9.484992027282714844e+00,-6.884268522262573242e-01,-4.971971809864044189e-01,2.650000000000000000e+02
-2.317870010289857419e+02,-2.131965986245731983e+02,-1.006392095108221838e+02,-1.512297210144170094e+02,-2.804579625160477008e+02,-3.132300326133909039e+02,-4.653822421740733262e+01,-8.255553126238464756e+01,9.484992027282714844e+00,-6.884268522262573242e-01,-4.971971809864044189e-01,2.660000000000000000e+02
-2.361800187445842312e+02,-2.222665911970607340e+02,-1.056020483939041696e+02,-1.630690374167938899e+02,-2.901841398801334435e+02,-3.266931333733159590e+02,-5.320118945802141752e+01,-9.309376141822940554e+01,9.484992027282714844e+00,-6.884268522262573242e-01,-4.971971809864044189e-01,2.670000000000000000e+02
-2.421730111863384991e+02,-2.322773440266969374e+02,-1.112000798938292974e+02,-1.734758655435625769e+02,-3.006746073461740707e+02,-3.397236179825690670e+02,-5.826592023337843784e+01,-1.026088750001326844e+02,9.484992027282714844e+00,-6.884268522262573242e-01,-4.971971809864044189e-01,2.680000000000000000e+02
-2.502849299076715397e+02,-2.410785228140348408e+02,-1.175430030515831277e+02,-1.801597896757266426e+02,-3.108578045352187473e+02,-3.500203322657289391e+02,-6.182033671568933642e+01,-1.093775399790315532e+02,9.484992027282714844e+00,-6.884268522262573242e-01,-4.971971809864044189e-01,2.690000000000000000e+02
-2.600276598232790093e+02,-2.476526446041725649e+02,-1.244839184906550145e+02,-1.828946391146437236e+02,-3.200552820466064077e+02,-3.567504456771239347e+02,-6.445390346337171650e+01,-1.128542786146877006e+02,9.484992027282714844e+00,-6.884268522262573242e-01,-4.971971809864044189e-01,2.700000000000000000e+02
-2.696412352281226958e+02,-2.523932782402248449e+02,-1.309893900650536125e+02,-1.830221086110586839e+02,-3.276142623525547606e+02,-3.605824150678517981e+02,-6.659397437274174081e+01,-1.134710542326042741e+02,9.484992027282714844e+00,-6.884268522262573242e-01,-4.971971809864044189e-01,2.710000000000000000e+02
-2.769251464492435844e+02,-2.564300889073979306e+02,-1.354363195560949862e+02,-1.824067979111782734e+02,-3.328337896129046385e+02,-3.630235473692782762e+02,-6.830235734945426884e+01,-1.122261573301889257e+02,9.484992027282714844e+00,-6.884268522262573242e-01,-4.971971809864044189e-01,2.720000000000000000e+02
-2.806423471529983544e+02,-2.605848839674658848e+02,-1.367577338044802673e+02,-1.825628926278127437e+02,-3.354194028395841087e+02,-3.655145496266004557e+02,-6.950953072629909002e+01,-1.103489154238359333e+02,9.484992027282714844e+00,-6.884268522262573242e-01,-4.971971809864044189e-01,2.730000000000000000e+02
-2.813556717481533269e+02,-2.648015950051863001e+02,-1.354451668866081491e+02,-1.842606803242933893e+02,-3.360323034850644035e+02,-3.688131884147828714e+02,-7.032178864304796662e+01,-1.090803125289166928e+02,9.484992027282714844e+00,-6.884268522262573242e-01,-4.971971809864044189e-01,2.740000000000000000e+02
-2.809971768668242476e+02,-2.684588488493031946e+02,-1.334433461519488446e+02,-1.875469323156544306e+02,-3.362794506738900964e+02,-3.729889208906884051e+02,-7.111857275955526347e+01,-1.094588847546374382e+02,9.484992027282714844e+00,-6.884268522262573242e-01,-4.971971809864044189e-01,2.750000000000000000e+02
-2.815373249672688871e+02,-2.711784371442354313e+02,-1.329273455403540538e+02,-1.919669075443498514e+02,-3.379497864928894160e+02,-3.778784445065057298e+02,-7.239461935585632091e+01,-1.120167473691512896e+02,9.484992027282714844e+00,-6.884268522262573242e-01,-4.971971809864044189e-01,2.760000000000000000e+02
-2.838365321504525127e+02,-2.733196274337119576e+02,-1.349458339358802732e+02,-1.968241689021106140e+02,-3.419940573399462664e+02,-3.834852239795254718e+02,-7.447660019913973883e+01,-1.164878429011628214e+02,9.484992027282714844e+00,-6.884268522262573242e-01,-4.971971809864044189e-01,2.770000000000000000e+02
-2.874911447531417252e+02,-2.756649194447609261e+02,-1.389815297010641189e+02,-2.013766226901429945e+02,-3.479982869763007329e+02,-3.898776707893825915e+02,-7.726061596014096722e+01,-1.217664007768657939e+02,9.484992027282714844e+00,-6.884268522262573242e-01,-4.971971809864044189e-01,2.780000000000000000e+02
-2.915617622965719420e+02,-2.786085873155311674e+02,-1.436339396000130364e+02,-2.049472645774158082e+02,-3.545284526915434071e+02,-3.967016320982247635e+02,-8.012127542381995227e+01,-1.262905405697338210e+02,9.484992027282714844e+00,-6.884268522262573242e-01,-4.971971809864044189e-01,2.790000000000000000e+02
-2.953797486958651461e+02,-2.816825541838611571e+02,-1.477048383901410489e+02,-2.070325499495124859e+02,-3.600891206070391490e+02,-4.029450723186719188e+02,-8.213585730435124788e+01,-1.287755261399934170e+02,9.484992027282714844e+00,-6.884268522262573242e-01,-4.971971809864044189e-01,2.800000000000000000e+02
-2.987778568821217959e+02,-2.839567244653158014e+02,-1.507744065096944723e+02,-2.074931765839737636e+02,-3.640071876900146890e+02,-4.074306190625311501e+02,-8.260930104898397985e+01,-1.289117646808881545e+02,9.599730491638183594e+00,-7.649186849594116211e-01,-4.207052886486053467e-01,2.810000000000000000e+02
-3.017625932727301006e+02,-2.849636508418911944e+02,-1.529671863140411006e+02,-2.067559882110017497e+02,-3.666559538080305174e+02,-4.097361161475560039e+02,-8.160355719734252489e+01,-1.275392266159642531e+02,9.599730491638183594e+00,-7.649186849594116211e-01,-4.207052886486053467e-01,2.820000000000000000e+02
-3.041624022820010396e+02,-2.852206202052798290e+02,-1.543759735487610669e+02,-2.057845116735447846e+02,-3.689545295304546926e+02,-4.106639574045402696e+02,-8.003352374958922155e+01,-1.261012130983881434e+02,9.599730491638183594e+00,-7.649186849594116211e-01,-4.207052886486053467e-01,2.830000000000000000e+02
-3.057105817612487044e+02,-2.857795933770389638e+02,-1.548321761639854230e+02,-2.056350671583877556e+02,-3.716101657858030194e+02,-4.116743623996740098e+02,-7.915195459853066495e+01,-1.257101913462302036e+02,9.599730491638183594e+00,-7.649186849594116211e-01,-4.207052886486053467e-01,2.840000000000000000e+02
-3.064694982611840715e+02,-2.872079666695553897e+02,-1.542546986752581688e+02,-2.067876876478781014e+02,-3.747091833046224565e+02,-4.136899346681339011e+02,-7.976444759284140673e+01,-1.265026916025931314e+02,9.599730491638183594e+00,-7.649186849594116211e-01,-4.207052886486053467e-01,2.850000000000000000e+02
-3.071069835774469539e+02,-2.890138239413408883e+02,-1.531594756598524327e+02,-2.087807114663719403e+02,-3.778940152463969753e+02,-4.163706702837043849e+02,-8.180048258182387144e+01,-1.277698486167255396e+02,9.599730491638183594e+00,-7.649186849594116211e-01,-4.207052886486053467e-01,2.860000000000000000e+02
-3.086509218770306688e+02,-2.901350818608821100e+02,-1.526890986547759894e+02,-2.105318371834105164e+02,-3.808228747139523875e+02,-4.185490197332419484e+02,-8.456838892755831694e+01,-1.286901613211398399e+02,9.599730491638183594e+00,-7.649186849594116211e-01,-4.207052886486053467e-01,2.870000000000000000e+02
-3.118172422335633200e+02,-2.900670728543950645e+02,-1.539401896459185082e+02,-2.111712982719463980e+02,-3.834040031124668531e+02,-4.194065753608974774e+02,-8.740340159451079671e+01,-1.289635277106131070e+02,9.599730491638183594e+00,-7.649186849594116211e-01,-4.207052886486053467e-01,2.880000000000000000e+02
-3.164262799007278772e+02,-2.895356579783301640e+02,-1.570577755946862908e+02,-2.107249270629292823e+02,-3.856031717905690357e+02,-4.192696957243883844e+02,-9.007900599947106457e+01,-1.287767351365218929e+02,9.599730491638183594e+00,-7.649186849594116211e-01,-4.207052886486053467e-01,2.890000000000000000e+02
-3.213841670821332173e+02,-2.900335020855191033e+02,-1.608880436709152946e+02,-2.100765635676168586e+02,-3.871275689871337136e+02,-4.193207460694146675e+02,-9.263993803139055672e+01,-1.282365697099103272e+02,9.599730491638183594e+00,-7.649186849594116211e-01,-4.207052886486053467e-01,2.900000000000000000e+02
-3.252743727117335766e+02,-2.926227568324607091e+02,-1.636058749700453063e+02,-2.102777053746207230e+02,-3.874536403411723313e+02,-4.205855974419710037e+02,-9.494230063209170112e+01,-1.269881517233591239e+02,9.599730491638183594e+00,-7.649186849594116211e-01,-4.207052886486053467e-01,2.910000000000000000e+02
-3.271370270824232875e+02,-2.970818589208809044e+02,-1.639278897932730388e+02,-2.118116620899554619e+02,-3.862845209864842673e+02,-4.231642855208719993e+02,-9.647350806787585498e+01,-1.245348019863836271e+02,9.599730491638183594e+00,-7.649186849594116211e-01,-4.207052886486053467e-01,2.920000000000000000e+02
-3.269080795496481642e+02,-3.021025724460859010e+02,-1.619850563568772941e+02,-2.143911741137073932e+02,-3.840162582397545066e+02,-4.263069508040487108e+02,-9.671373023999376528e+01,-1.209960194285827129e+02,9.599730491638183594e+00,-7.649186849594116211e-01,-4.207052886486053467e-01,2.930000000000000000e+02
-3.252867576982698665e+02,-3.062507416682852863e+02,-1.591648952678274327e+02,-2.173220318002795466e+02,-3.817049872150031433e+02,-4.290798216717091691e+02,-9.569275050140640815e+01,-1.174624833616385331e+02,9.599730491638183594e+00,-7.649186849594116211e-01,-4.207052886486053467e-01,2.940000000000000000e+02
-3.232552443763083829e+02,-3.087944597297353084e+02,-1.570832172472325965e+02,-2.199951937822588661e+02,-3.804802537875904136e+02,-4.309501307497206426e+02,-9.415255427087458884e+01,-1.154259395262970429e+02,9.599730491638183594e+00,-7.649186849594116211e-01,-4.207052886486053467e-01,2.950000000000000000e+02
-3.216447166908945974e+02,-3.097883612410229262e+02,-1.565399819504376637e+02,-2.220858355653302851e+02,-3.808737807616723785e+02,-4.319004822959282137e+02,-9.310180832973924225e+01,-1.156826330461460657e+02,9.599730491638183594e+00,-7.649186849594116211e-01,-4.207052886486053467e-01,2.960000000000000000e+02
-3.209749273297522905e+02,-3.095944764638263678e+02,-1.572738451668647031e+02,-2.234402567690676733e+02,-3.826099877542893637e+02,-4.322091485664678885e+02,-9.312317055318067105e+01,-1.176936646641302104e+02,9.599730491638183594e+00,-7.649186849594116211e-01,-4.207052886486053467e-01,2.970000000000000000e+02
-3.215070694858706020e+02,-3.084775152002448522e+02,-1.585872826692658464e+02,-2.239543638899627922e+02,-3.849810738060402855e+02,-4.322368368427282803e+02,-9.403248941313313480e+01,-1.200200052435764064e+02,9.599730491638183594e+00,-7.649186849594116211e-01,-4.207052886486053467e-01,2.980000000000000000e+02
-3.232969980947397062e+02,-3.066274765966165319e+02,-1.601374871691007229e+02,-2.236365384370163838e+02,-3.874202026889771560e+02,-4.323265933359442670e+02,-9.511955312111615513e+01,-1.214384046735742686e+02,9.599730491638183594e+00,-7.649186849594116211e-01,-4.207052886486053467e-01,2.990000000000000000e+02
-3.261608697650282238e+02,-3.043856689933992357e+02,-1.621203722686287847e+02,-2.227356601206887490e+02,-3.897708916009430595e+02,-4.326938735177776607e+02,-9.567874750040994059e+01,-1.217086932720725372e+02,9.599730491638183594e+00,-7.649186849594116211e-01,-4.207052886486053467e-01,3.000000000000000000e+02
-3.296302108926869323e+02,-3.022535676486519947e+02,-1.647093424830585491e+02,-2.216822201301308723e+02,-3.920711653871010185e+02,-4.332529218811192777e+02,-9.535038220229978378e+01,-1.213396402900358453e+02,9.599730491638183594e+00,-7.649186849594116211e-01,-4.207052886486053467e-01,3.010000000000000000e+02
-3.330206085074709108e+02,-3.006104934525088197e+02,-1.673930294536954761e+02,-2.208060653892838445e+02,-3.941403466638131476e+02,-4.335620134146014379e+02,-9.408584464233047129e+01,-1.207351850518519996e+02,9.599730491638183594e+00,-7.649186849594116211e-01,-4.207052886486053467e-01,3.020000000000000000e+02
-3.356439116201177058e+02,-2.994964050389291401e+02,-1.690030806895875912e+02,-2.201137910561009221e+02,-3.954296255773507482e+02,-4.330816020207414567e+02,-9.197412141921176953e+01,-1.197128748939461502e+02,9.599730491638183594e+00,-7.649186849594116211e-01,-4.207052886486053467e-01,3.030000000000000000e+02
-3.370562520552583123e+02,-2.987913698253397570e+02,-1.685736662629312832e+02,-2.194225408220854661e+02,-3.953601902531341921e+02,-4.316443080498496556e+02,-8.924438732647240613e+01,-1.179431389915736190e+02,9.599730491638183594e+00,-7.649186849594116211e-01,-4.207052886486053467e-01,3.040000000000000000e+02
-3.372013780515730446e+02,-2.986443785861817446e+02,-1.663070184803070788e+02,-2.187693463871793256e+02,-3.939002017459959006e+02,-4.297529965113853905e+02,-8.641507345440891186e+01,-1.158145442938111955e+02,9.599730491638183594e+00,-7.649186849594116211e-01,-4.207052886486053467e-01,3.050000000000000000e+02
-3.363811334256143937e+02,-2.996381245064301879e+02,-1.636959590925379189e+02,-2.186596226965364167e+02,-3.918583102918818213e+02,-4.283898871203634826e+02,-8.426289232907004134e+01,-1.147166528789598487e+02,9.599730491638183594e+00,-7.649186849594116211e-01,-4.207052886486053467e-01,3.060000000000000000e+02
-3.350783113588395850e+02,-3.023929810764054196e+02,-1.625446888890000992e+02,-2.198026813806687869e+02,-3.905322141060901231e+02,-4.284120566725853223e+02,-8.342687523524386961e+01,-1.162761830705554758e+02,9.599730491638183594e+00,-7.649186849594116211e-01,-4.207052886486053467e-01,3.070000000000000000e+02
-3.337310447457222722e+02,-3.069150171261457558e+02,-1.636487426944380559e+02,-2.224712693776233436e+02,-3.908956955311721231e+02,-4.299911599027867624e+02,-8.394302170239598126e+01,-1.211732971553973357e+02,9.599730491638183594e+00,-7.649186849594116211e-01,-4.207052886486053467e-01,3.080000000000000000e+02
-3.325802293554190214e+02,-3.123298409329780156e+02,-1.662594713070163834e+02,-2.260682095025297258e+02,-3.929536351664852418e+02,-4.325375566640427678e+02,-8.522184964628650050e+01,-1.286383986533785446e+02,9.599730491638183594e+00,-7.649186849594116211e-01,-4.207052886486053467e-01,3.090000000000000000e+02
-3.316708354331035480e+02,-3.173476578073388055e+02,-1.687921165091524927e+02,-2.293798479236386356e+02,-3.958057662381502269e+02,-4.351415074435182078e+02,-8.661447000073781055e+01,-1.370972309161303428e+02,9.599730491638183594e+00,-7.649186849594116211e-01,-4.207052886486053467e-01,3.100000000000000000e+02
-3.309768075166350627e+02,-3.211162796516603635e+02,-1.701082243302580537e+02,-2.313808099546973835e+02,-3.983488488410293371e+02,-4.371401662812924087e+02,-8.805399280339236157e+01,-1.453103766397092613e+02,9.599730491638183594e+00,-7.649186849594116211e-01,-4.207052886486053467e-01,3.110000000000000000e+02
-3.305062522701393277e+02,-3.237142461240180182e+02,-1.701935101376921011e+02,-2.319182997284872272e+02,-3.999613863453922704e+02,-4.383637800137402678e+02,-9.004512319460923209e+01,-1.528927764037954375e+02,9.446745872497558594e+00,-9.179025292396545410e-01,-4.971971809864044189e-01,3.120000000000000000e+02
-3.302671893820813693e+02,-3.258558203982680084e+02,-1.697054590286951452e+02,-2.316939426156186528e+02,-4.005939074621117015e+02,-4.389593026232622606e+02,-9.288585197405654981e+01,-1.598261715201324478e+02,9.446745872497558594e+00,-9.179025292396545410e-01,-4.971971809864044189e-01,3.130000000000000000e+02
-3.301159265421696887e+02,-3.281008189312950094e+02,-1.689969556105152151e+02,-2.315896418718273253e+02,-4.003176538249152827e+02,-4.390567062790164528e+02,-9.586600001561123463e+01,-1.656547418844925232e+02,9.446745872497558594e+00,-9.179025292396545410e-01,-4.971971809864044189e-01,3.140000000000000000e+02
-3.296623134777856876e+02,-3.302780911634955032e+02,-1.676924834294795801e+02,-2.319456471685792849e+02,-3.989485025188500913e+02,-4.386165990330762838e+02,-9.737130783570421499e+01,-1.693796283388711572e+02,9.446745872497558594e+00,-9.179025292396545410e-01,-4.971971809864044189e-01,3.150000000000000000e+02
-3.284154321834613484e+02,-3.316134574440314964e+02,-1.652593206841593201e+02,-2.324036839635759861e+02,-3.962503866759726634e+02,-4.375772655871793972e+02,-9.604495490582189632e+01,-1.703184167150566282e+02,9.446745872497558594e+00,-9.179025292396545410e-01,-4.971971809864044189e-01,3.160000000000000000e+02
-3.261426872609719680e+02,-3.314219596194241149e+02,-1.619310388249180050e+02,-2.323705307420950703e+02,-3.925224062692419125e+02,-4.361027589947723868e+02,-9.207121121892350857e+01,-1.690985440533511337e+02,9.446745872497558594e+00,-9.179025292396545410e-01,-4.971971809864044189e-01,3.170000000000000000e+02
-3.231840298795826811e+02,-3.297720597065857646e+02,-1.589505619821744631e+02,-2.316125326557067865e+02,-3.888672387943258855e+02,-4.346467813083989995e+02,-8.737925498429751769e+01,-1.676994592559309467e+02,9.446745872497558594e+00,-9.179025292396545410e-01,-4.971971809864044189e-01,3.180000000000000000e+02
-3.204411061373124312e+02,-3.276215568678718455e+02,-1.578050882391711411e+02,-2.304710846396171746e+02,-3.867055231050379120e+02,-4.337527073587266955e+02,-8.447817492337276235e+01,-1.683272170168788762e+02,9.446745872497558594e+00,-9.179025292396545410e-01,-4.971971809864044189e-01,3.190000000000000000e+02
-3.189685143699838932e+02,-3.263706820195073988e+02,-1.591549617059559978e+02,-2.296071693737615078e+02,-3.868759337685613673e+02,-4.337536260381074840e+02,-8.483863935875115203e+01,-1.720072846053016065e+02,9.446745872497558594e+00,-9.179025292396545410e-01,-4.971971809864044189e-01,3.200000000000000000e+02
-3.194022026339194440e+02,-3.271675497335584168e+02,-1.624398083499881977e+02,-2.295950780980787158e+02,-3.891048195895934327e+02,-4.345983492873914429e+02,-8.810994167016235679e+01,-1.780353378682508492e+02,9.446745872497558594e+00,-9.179025292396545410e-01,-4.971971809864044189e-01,3.210000000000000000e+02
-3.215912726316938119e+02,-3.303618890162823618e+02,-1.664252761677607850e+02,-2.306929720784529536e+02,-3.922950001245645240e+02,-4.359110384382601069e+02,-9.267892636803833284e+01,-1.846379026474969578e+02,9.446745872497558594e+00,-9.179025292396545410e-01,-4.971971809864044189e-01,3.220000000000000000e+02
-3.246762521767141720e+02,-3.353355417090013475e+02,-1.700681291678579328e+02,-2.328348826232249849e+02,-3.953394125272274096e+02,-4.372320963898970945e+02,-9.692926815379087202e+01,-1.901861131280046493e+02,9.446745872497558594e+00,-9.179025292396545410e-01,-4.971971809864044189e-01,3.230000000000000000e+02
-3.275666624504753486e+02,-3.407412692090368296e+02,-1.729236514810214658e+02,-2.356896041262124299e+02,-3.977582861823850067e+02,-4.382917449164363575e+02,-1.001219420005430720e+02,-1.939934957225242442e+02,9.446745872497558594e+00,-9.179025292396545410e-01,-4.971971809864044189e-01,3.240000000000000000e+02
-3.295075336988579124e+02,-3.450466832155887573e+02,-1.749411859505386246e+02,-2.386818743849074735e+02,-3.997201878111458768e+02,-4.391457435179997901e+02,-1.023546523991269623e+02,-1.962719478715466721e+02,9.446745872497558594e+00,-9.179025292396545410e-01,-4.971971809864044189e-01,3.250000000000000000e+02
-3.303619522084737241e+02,-3.471405752447759028e+02,-1.760936896801974854e+02,-2.410283334942616875e+02,-4.015546282801990401e+02,-4.400346709250948720e+02,-1.039176541598349104e+02,-1.975468411216733102e+02,9.446745872497558594e+00,-9.179025292396545410e-01,-4.971971809864044189e-01,3.260000000000000000e+02
-3.304234585208353110e+02,-3.467048534571581513e+02,-1.762709193149840985e+02,-2.419123390333113548e+02,-4.032174940151162446e+02,-4.410030839737137853e+02,-1.047603185469640721e+02,-1.981172742768075068e+02,9.446745872497558594e+00,-9.179025292396545410e-01,-4.971971809864044189e-01,3.270000000000000000e+02
-3.299152665112548561e+02,-3.441576186223264813e+02,-1.753945164580318306e+02,-2.407823811051490566e+02,-4.040858660952694095e+02,-4.415575778864787253e+02,-1.044725940515368166e+02,-1.978917062905688908e+02,9.446745872497558594e+00,-9.179025292396545410e-01,-4.971971809864044189e-01,3.280000000000000000e+02
-3.286132809095683456e+02,-3.402582594592518603e+02,-1.734571295072978501e+02,-2.376170976860739756e+02,-4.031946095040595424e+02,-4.407540054509778429e+02,-1.026629867656284887e+02,-1.965565626476748093e+02,9.446745872497558594e+00,-9.179025292396545410e-01,-4.971971809864044189e-01,3.290000000000000000e+02
-3.259769730199084279e+02,-3.357244389771246915e+02,-1.704203017847148658e+02,-2.330051461328406504e+02,-3.998249345206124303e+02,-4.378507912814809515e+02,-9.934974693253775513e+01,-1.939000386026681326e+02,9.446745872497558594e+00,-9.179025292396545410e-01,-4.971971809864044189e-01,3.300000000000000000e+02
-3.217537800189747372e+02,-3.311583995135209193e+02,-1.662309452855017753e+02,-2.280071910690943469e+02,-3.941468559483133163e+02,-4.331187029520684746e+02,-9.510597049278601389e+01,-1.901476666048372408e+02,9.446745872497558594e+00,-9.179025292396545410e-01,-4.971971809864044189e-01,3.310000000000000000e+02
-3.165274940279671796e+02,-3.272294161830031385e+02,-1.610981204791397658e+02,-2.238411496103389027e+02,-3.874562925190975307e+02,-4.280366161251328663e+02,-9.090170011396639893e+01,-1.861181447322014719e+02,9.446745872497558594e+00,-9.179025292396545410e-01,-4.971971809864044189e-01,3.320000000000000000e+02
-3.116170971192647130e+02,-3.247366002131765867e+02,-1.557494969446839832e+02,-2.214520646613369763e+02,-3.816660471826299386e+02,-4.244665006709179806e+02,-8.771060961480191054e+01,-1.829767193808260117e+02,9.446745872497558594e+00,-9.943943619728088379e-01,-6.501809358596801758e-01,3.330000000000000000e+02
-3.082689186520244107e+02,-3.242743456504892947e+02,-1.512421741195813638e+02,-2.210978016215059370e+02,-3.782068306238645050e+02,-4.233174652550448513e+02,-8.605502345447575863e+01,-1.815914143850235405e+02,9.446745872497558594e+00,-9.943943619728088379e-01,-6.501809358596801758e-01,3.340000000000000000e+02
-3.067659330556344344e+02,-3.256736501978161300e+02,-1.483265067081134703e+02,-2.221631937537345038e+02,-3.770787098528635966e+02,-4.238125201776701374e+02,-8.572661471665185218e+01,-1.818887520505851398e+02,9.446745872497558594e+00,-9.943943619728088379e-01,-6.501809358596801758e-01,3.350000000000000000e+02
-3.062769594445156258e+02,-3.277570002228763997e+02,-1.469340822343017408e+02,-2.234004361177363762e+02,-3.768802596415197286e+02,-4.240823203500668228e+02,-8.589397132977205729e+01,-1.828010965895778099e+02,9.446745872497558594e+00,-9.943943619728088379e-01,-6.501809358596801758e-01,3.360000000000000000e+02
-3.056671843933013974e+02,-3.288015247476286618e+02,-1.463662840564127237e+02,-2.235767924793549355e+02,-3.759375932912078042e+02,-4.226604896718849886e+02,-8.560600410872575594e+01,-1.830333092210534005e+02,9.446745872497558594e+00,-9.943943619728088379e-01,-6.501809358596801758e-01,3.370000000000000000e+02
-3.045735954176104201e+02,-3.275106097362056516e+02,-1.460673243322961525e+02,-2.221669532290117104e+02,-3.736716567983926325e+02,-4.196000759591843234e+02,-8.438518365566164903e+01,-1.821284628855428309e+02,9.446745872497558594e+00,-9.943943619728088379e-01,-6.501809358596801758e-01,3.380000000000000000e+02
-3.037475775650293599e+02,-3.238043765239144136e+02,-1.462131528961656386e+02,-2.195985354043453981e+02,-3.710427550442435631e+02,-4.162498396193759618e+02,-8.249587808204626072e+01,-1.808941502133380936e+02,9.446745872497558594e+00,-9.943943619728088379e-01,-6.501809358596801758e-01,3.390000000000000000e+02
-3.042957369198741731e+02,-3.188294048363943034e+02,-1.474694073202501841e+02,-2.168485381229764926e+02,-3.696706527240417017e+02,-4.139572943647508509e+02,-8.070362338662710044e+01,-1.807124557384537411e+02,9.446745872497558594e+00,-9.943943619728088379e-01,-6.501809358596801758e-01,3.400000000000000000e+02
-3.064815148111187000e+02,-3.141965553379413905e+02,-1.500981624955842335e+02,-2.147011335146050897e+02,-3.703938528012200777e+02,-4.129194654803757203e+02,-7.973154482114682651e+01,-1.822673113496258566e+02,9.446745872497558594e+00,-9.943943619728088379e-01,-6.501809358596801758e-01,3.410000000000000000e+02
-3.092016247852911306e+02,-3.110418739972541289e+02,-1.533138678547072686e+02,-2.132747270235105361e+02,-3.725255722784411319e+02,-4.121855272012259093e+02,-7.981985452445917417e+01,-1.848376582688397320e+02,9.446745872497558594e+00,-9.943943619728088379e-01,-6.501809358596801758e-01,3.420000000000000000e+02
-3.106716563391137242e+02,-3.095653989970536486e+02,-1.555873722346877912e+02,-2.121745983406447067e+02,-3.744000341596190538e+02,-4.106691863722328435e+02,-8.064634766292385848e+01,-1.868330128248724122e+02,9.446745872497558594e+00,-9.943943619728088379e-01,-6.501809358596801758e-01,3.430000000000000000e+02
-3.097593517173484088e+02,-3.092431882517205395e+02,-1.556709153201172740e+02,-2.110563091013518715e+02,-3.746442387048630280e+02,-4.081209780624151335e+02,-8.155480864135552110e+01,-1.870996834372898547e+02,9.446745872497558594e+00,-9.943943619728088379e-01,-6.501809358596801758e-01,3.440000000000000000e+02
-3.068063396112580676e+02,-3.093919340553784423e+02,-1.534265582840466777e+02,-2.100236810681152519e+02,-3.730490531561631542e+02,-4.051916775678027989e+02,-8.186861054356677414e+01,-1.858114008445797936e+02,9.446745872497558594e+00,-9.943943619728088379e-01,-6.501809358596801758e-01,3.450000000000000000e+02
-3.032378235301456471e+02,-3.095903980938880977e+02,-1.497422970668555990e+02,-2.094776970465267141e+02,-3.703961856155285659e+02,-4.026834361834152105e+02,-8.112264817819357177e+01,-1.841445818180127389e+02,9.446745872497558594e+00,-9.943943619728088379e-01,-6.501809358596801758e-01,3.460000000000000000e+02
-3.003531501549317682e+02,-3.097286896357591104e+02,-1.457249688074690539e+02,-2.096006736580782217e+02,-3.676050491442351813e+02,-4.008276461113724736e+02,-7.921600630356465444e+01,-1.831252794163332283e+02,9.446745872497558594e+00,-9.943943619728088379e-01,-6.501809358596801758e-01,3.470000000000000000e+02
-2.983750730444021428e+02,-3.098165229893248807e+02,-1.419986615513994366e+02,-2.100332182145498336e+02,-3.650825814758836714e+02,-3.992700073936416629e+02,-7.649964566918697528e+01,-1.828108710623326942e+02,9.446745872497558594e+00,-9.943943619728088379e-01,-6.501809358596801758e-01,3.480000000000000000e+02
-2.965381823566344792e+02,-3.098172017893773500e+02,-1.387102148747731007e+02,-2.101084703440731118e+02,-3.627776686376354291e+02,-3.976406256863014050e+02,-7.371265377390943740e+01,-1.825553699049881970e+02,9.446745872497558594e+00,-9.943943619728088379e-01,-6.501809358596801758e-01,3.490000000000000000e+02
-2.940424668331603471e+02,-3.096393059321785586e+02,-1.360596130788094342e+02,-2.094326934027502602e+02,-3.606667063512736604e+02,-3.960271842199039156e+02,-7.169019177034613222e+01,-1.819739901713021482e+02,9.446745872497558594e+00,-9.943943619728088379e-01,-6.501809358596801758e-01,3.500000000000000000e+02
-2.909378710678458901e+02,-3.092244775038926718e+02,-1.346370898709249104e+02,-2.082440308243944855e+02,-3.590039623640680020e+02,-3.948492569746363188e+02,-7.093940478723334309e+01,-1.815052613082415292e+02,9.446745872497558594e+00,-9.943943619728088379e-01,-6.501809358596801758e-01,3.510000000000000000e+02
-2.881403701350128586e+02,-3.086076866895051580e+02,-1.351189731035749446e+02,-2.072034632941507653e+02,-3.580584645529587533e+02,-3.943035677209563801e+02,-7.138569960660652214e+01,-1.819420184546164592e+02,9.446745872497558594e+00,-9.943943619728088379e-01,-6.501809358596801758e-01,3.520000000000000000e+02
-2.866141137323636485e+02,-3.079049952044576912e+02,-1.375912820644633712e+02,-2.068487579826730780e+02,-3.577030962761475621e+02,-3.940156744316539061e+02,-7.253506465471082265e+01,-1.834472348108580491e+02,9.446745872497558594e+00,-9.943943619728088379e-01,-6.501809358596801758e-01,3.530000000000000000e+02
-2.864990024384317167e+02,-3.072525526690728839e+02,-1.411914789805618966e+02,-2.072600314873393472e+02,-3.574170445877082329e+02,-3.933187125723895861e+02,-7.393019000508991212e+01,-1.851548486670426428e+02,9.446745872497558594e+00,-9.943943619728088379e-01,-6.501809358596801758e-01,3.540000000000000000e+02
-2.869709542745182489e+02,-3.067339392852298943e+02,-1.444847923009596116e+02,-2.082116352435627959e+02,-3.567864966659664105e+02,-3.919277116253524582e+02,-7.548093903299650265e+01,-1.858673239485187878e+02,9.446745872497558594e+00,-9.943943619728088379e-01,-6.501809358596801758e-01,3.550000000000000000e+02
-2.869245119278623406e+02,-3.063045195524808832e+02,-1.462923944407961017e+02,-2.095403931571944440e+02,-3.559706661979028013e+02,-3.903470139988112351e+02,-7.732719803742782005e+01,-1.851809517065662476e+02,9.446745872497558594e+00,-9.943943619728088379e-01,-6.501809358596801758e-01,3.560000000000000000e+02
-2.858348370105668437e+02,-3.057167184669331164e+02,-1.462943977111771119e+02,-2.112278805301823468e+02,-3.555585582948491492e+02,-3.895338189238386803e+02,-7.934396749866039045e+01,-1.838488243234759238e+02,9.446745872497558594e+00,-9.943943619728088379e-01,-6.501809358596801758e-01,3.570000000000000000e+02
-2.840334743669013733e+02,-3.044986596100533234e+02,-1.449763913805513766e+02,-2.130557415347782353e+02,-3.558619240712553164e+02,-3.900162339928602933e+02,-8.080660460914180021e+01,-1.829373746925375599e+02,9.561484336853027344e+00,-9.561483860015869141e-01,-5.354431271553039551e-01,3.580000000000000000e+02
-2.822180370861392475e+02,-3.020574557804022788e+02,-1.430839780504315968e+02,-2.142574441212973397e+02,-3.563497602826165576e+02,-3.912208943074030003e+02,-8.066384748848065556e+01,-1.825889479121427712e+02,9.561484336853027344e+00,-9.561483860015869141e-01,-5.354431271553039551e-01,3.590000000000000000e+02
-2.807148088257763447e+02,-2.979267770217529687e+02,-1.411220834980732661e+02,-2.137057880675437218e+02,-3.558777337060723767e+02,-3.916601771833743442e+02,-7.830539034628588979e+01,-1.816783321457993452e+02,9.561484336853027344e+00,-9.561483860015869141e-01,-5.354431271553039551e-01,3.600000000000000000e+02
-2.791959958182109176e+02,-2.920654781828632167e+02,-1.392592578903273761e+02,-2.106416144155696202e+02,-3.535849008984615693e+02,-3.898997566557941354e+02,-7.416317496160002065e+01,-1.788071069515062845e+02,9.561484336853027344e+00,-9.561483860015869141e-01,-5.354431271553039551e-01,3.610000000000000000e+02
-2.770831597815770238e+02,-2.850311226897437109e+02,-1.375427194275102920e+02,-2.053252067721550702e+02,-3.496219237721397803e+02,-3.855397671203638765e+02,-6.954986294586933582e+01,-1.737376418822268533e+02,9.561484336853027344e+00,-9.561483860015869141e-01,-5.354431271553039551e-01,3.620000000000000000e+02
-2.742085493905835847e+02,-2.778899316053086750e+02,-1.360820080337103946e+02,-1.989731197379534251e+02,-3.450102428142774897e+02,-3.794329628803327523e+02,-6.581447383071213153e+01,-1.678916016446831918e+02,9.561484336853027344e+00,-9.561483860015869141e-01,-5.354431271553039551e-01,3.630000000000000000e+02
-2.710770175578875296e+02,-2.718559517661125255e+02,-1.350118023343459299e+02,-1.929878317542326158e+02,-3.408057941221954934e+02,-3.730319494630139161e+02,-6.353165888721719057e+01,-1.634008730388267168e+02,9.561484336853027344e+00,-9.561483860015869141e-01,-5.354431271553039551e-01,3.640000000000000000e+02
-2.684738038583788011e+02,-2.678137473733020215e+02,-1.343614157260655020e+02,-1.881705345094956101e+02,-3.374156932019703845e+02,-3.674841907700231332e+02,-6.240449063534993002e+01,-1.615531872647993623e+02,9.561484336853027344e+00,-9.561483860015869141e-01,-5.354431271553039551e-01,3.650000000000000000e+02
-2.667871236952215668e+02,-2.659540749670213700e+02,-1.340466617971228516e+02,-1.846082351668113688e+02,-3.346872087557476334e+02,-3.632275799702767927e+02,-6.187839241529889023e+01,-1.620075099529100271e+02,9.561484336853027344e+00,-9.561483860015869141e-01,-5.354431271553039551e-01,3.660000000000000000e+02
-2.656720801685560218e+02,-2.657167042571213642e+02,-1.339995471172059069e+02,-1.822148476948846110e+02,-3.325146236669922928e+02,-3.602550873131585831e+02,-6.179339004247856337e+01,-1.633659989368238712e+02,9.561484336853027344e+00,-9.561483860015869141e-01,-5.354431271553039551e-01,3.670000000000000000e+02
-2.643449179458564231e+02,-2.660938823571090097e+02,-1.342281716154114974e+02,-1.812216407659428796e+02,-3.311598095357345528e+02,-3.585543180774059238e+02,-6.240881318361152807e+01,-1.644236697516435015e+02,9.561484336853027344e+00,-9.561483860015869141e-01,-5.354431271553039551e-01,3.680000000000000000e+02
-2.622172604672380203e+02,-2.661496892070392732e+02,-1.346564994641169051e+02,-1.820029423810796061e+02,-3.308719048312564155e+02,-3.581625558177270250e+02,-6.382141349795972474e+01,-1.649042703868577746e+02,9.561484336853027344e+00,-9.561483860015869141e-01,-5.354431271553039551e-01,3.690000000000000000e+02
-2.593119072722361125e+02,-2.654733418418850306e+02,-1.348895288007278168e+02,-1.843795919551720317e+02,-3.312512811679230254e+02,-3.588047795495722312e+02,-6.543996587861045100e+01,-1.651347298423568191e+02,9.561484336853027344e+00,-9.561483860015869141e-01,-5.354431271553039551e-01,3.700000000000000000e+02
-2.561506123707388269e+02,-2.643131983407085954e+02,-1.342452369831016767e+02,-1.871866421490587982e+02,-3.311598290542069662e+02,-3.596146542625449456e+02,-6.614106295465467156e+01,-1.651937658743206612e+02,9.561484336853027344e+00,-9.561483860015869141e-01,-5.354431271553039551e-01,3.710000000000000000e+02
-2.532900646330706422e+02,-2.633189205011543663e+02,-1.321939986028534122e+02,-1.887316908320750599e+02,-3.294249377449705207e+02,-3.593986909798841225e+02,-6.506227457366912859e+01,-1.645104039875238868e+02,9.561484336853027344e+00,-9.561483860015869141e-01,-5.354431271553039551e-01,3.720000000000000000e+02
-2.509642619658279727e+02,-2.630610628052545508e+02,-1.289215830725846672e+02,-1.879207147413488883e+02,-3.257272347069097123e+02,-3.573488584255205751e+02,-6.234862717123678522e+01,-1.623384307293531492e+02,9.561484336853027344e+00,-9.561483860015869141e-01,-5.354431271553039551e-01,3.730000000000000000e+02
-2.491068094951899639e+02,-2.636331673946556293e+02,-1.254838401598616429e+02,-1.851235767161261947e+02,-3.208401103200367288e+02,-3.536209386565219575e+02,-5.917544628179484789e+01,-1.586068836780048059e+02,9.561484336853027344e+00,-9.561483860015869141e-01,-5.354431271553039551e-01,3.740000000000000000e+02
-2.476233568684772308e+02,-2.645725357321480260e+02,-1.232683902819347850e+02,-1.819885944944130642e+02,-3.160229206131414230e+02,-3.492612553132867106e+02,-5.698665001525660045e+01,-1.542771404466093372e+02,9.561484336853027344e+00,-9.561483860015869141e-01,-5.354431271553039551e-01,3.750000000000000000e+02
-2.465755058137052629e+02,-2.651291966538803990e+02,-1.230846885507889965e+02,-1.802958362323764732e+02,-3.121699808657908761e+02,-3.455301080775093396e+02,-5.654915756614809652e+01,-1.508354062447451724e+02,9.561484336853027344e+00,-9.561483860015869141e-01,-5.354431271553039551e-01,3.760000000000000000e+02
-2.460775730648435911e+02,-2.647071126853857095e+02,-1.245871096814794328e+02,-1.807574236270429537e+02,-3.094578853775765310e+02,-3.431595826559023408e+02,-5.753875141260209602e+01,-1.493425186520462375e+02,9.561484336853027344e+00,-9.561483860015869141e-01,-5.354431271553039551e-01,3.770000000000000000e+02
-2.460407931050735897e+02,-2.632224389007665195e+02,-1.265477550629514099e+02,-1.826915541661439875e+02,-3.076506002375006119e+02,-3.420918934732869729e+02,-5.890325790887936819e+01,-1.498241200840277543e+02,9.561484336853027344e+00,-9.561483860015869141e-01,-5.354431271553039551e-01,3.780000000000000000e+02
-2.460796003428545191e+02,-2.611893596890924982e+02,-1.278105286353546717e+02,-1.847431113212564924e+02,-3.066015751995937535e+02,-3.418059428253548049e+02,-5.967020112603836424e+01,-1.514414494937202562e+02,9.561484336853027344e+00,-9.561483860015869141e-01,-5.354431271553039551e-01,3.790000000000000000e+02
-2.456927280015313499e+02,-2.594444412900120369e+02,-1.281214211608615869e+02,-1.859371203644973320e+02,-3.063878914045665169e+02,-3.418331611505589080e+02,-5.956698537716556530e+01,-1.531632545414772721e+02,9.561484336853027344e+00,-9.561483860015869141e-01,-5.354431271553039551e-01,3.800000000000000000e+02
-2.445351625442590375e+02,-2.586023281951370336e+02,-1.280899664441816412e+02,-1.861537844293438866e+02,-3.069652229914872805e+02,-3.419695919090470397e+02,-5.900865489497982708e+01,-1.542944012064835988e+02,9.561484336853027344e+00,-9.561483860015869141e-01,-5.354431271553039551e-01,3.810000000000000000e+02
-2.425285900893877624e+02,-2.585600498096468982e+02,-1.283171286975028806e+02,-1.857549433155763836e+02,-3.077516947753117620e+02,-3.420648680876029175e+02,-5.854712176598650331e+01,-1.545121261665258316e+02,9.561484336853027344e+00,-9.561483860015869141e-01,-5.354431271553039551e-01,3.820000000000000000e+02
-2.397720603123893852e+02,-2.584438414389580885e+02,-1.285543880014447495e+02,-1.849079730821567864e+02,-3.076491468242463725e+02,-3.417242851049181809e+02,-5.830282456043232742e+01,-1.536209844556140069e+02,9.561484336853027344e+00,-9.561483860015869141e-01,-5.354431271553039551e-01,3.830000000000000000e+02
-2.364526291535305518e+02,-2.571536306297743977e+02,-1.278039229413143403e+02,-1.833788510782287631e+02,-3.056318784722611781e+02,-3.403543155056447631e+02,-5.790305104171670791e+01,-1.514822541480609743e+02,9.561484336853027344e+00,-9.561483860015869141e-01,-5.354431271553039551e-01,3.840000000000000000e+02
-2.329210625446853555e+02,-2.541847814568607191e+02,-1.253937709841334254e+02,-1.809809126725936039e+02,-3.015150619487317272e+02,-3.376136419330368881e+02,-5.698144194101087123e+01,-1.482613545382741904e+02,9.523238182067871094e+00,-9.943943619728088379e-01,-5.736890435218811035e-01,3.850000000000000000e+02
-2.298298578386288682e+02,-2.500599989882930458e+02,-1.220441418782722849e+02,-1.780872605448776085e+02,-2.962995382779622560e+02,-3.338379406821193243e+02,-5.573449817932441874e+01,-1.446483585642288290e+02,9.523238182067871094e+00,-9.943943619728088379e-01,-5.736890435218811035e-01,3.860000000000000000e+02
-2.280348905431540061e+02,-2.459249551730672465e+02,-1.197807441852692136e+02,-1.754924746457702440e+02,-2.917407238124983451e+02,-3.299178694633048963e+02,-5.492257081670504704e+01,-1.416230547332356764e+02,9.523238182067871094e+00,-9.943943619728088379e-01,-5.736890435218811035e-01,3.870000000000000000e+02
-2.281261794763490798e+02,-2.425881737545721535e+02,-1.205163035822511119e+02,-1.736352543604461971e+02,-2.893305243575102850e+02,-3.266119093119414174e+02,-5.519546078956091151e+01,-1.397962146702943755e+02,9.523238182067871094e+00,-9.943943619728088379e-01,-5.736890435218811035e-01,3.880000000000000000e+02
-2.298783848625023438e+02,-2.398845717436679479e+02,-1.244154854511070880e+02,-1.720264284978507021e+02,-2.893744772070886029e+02,-3.239237266639545396e+02,-5.634052770696439438e+01,-1.389262088666391719e+02,9.523238182067871094e+00,-9.943943619728088379e-01,-5.736890435218811035e-01,3.890000000000000000e+02
-2.321398002815342352e+02,-2.370422962070781523e+02,-1.295192977745628014e+02,-1.696925439363922123e+02,-2.908528509195459719e+02,-3.212297389125708378e+02,-5.725745220435692318e+01,-1.381952756894388585e+02,9.523238182067871094e+00,-9.943943619728088379e-01,-5.736890435218811035e-01,3.900000000000000000e+02
-2.333998696812755043e+02,-2.337838574303204950e+02,-1.330866575031564025e+02,-1.664167276622958980e+02,-2.921919019808065059e+02,-3.181461224613965442e+02,-5.685314068186448822e+01,-1.371256271755455600e+02,9.523238182067871094e+00,-9.943943619728088379e-01,-5.736890435218811035e-01,3.910000000000000000e+02
-2.327116588116950879e+02,-2.310701029967358409e+02,-1.336097707579106100e+02,-1.635578794516168273e+02,-2.923844211731793621e+02,-3.153186742398711431e+02,-5.514716189211526398e+01,-1.363067867612455757e+02,9.523238182067871094e+00,-9.943943619728088379e-01,-5.736890435218811035e-01,3.920000000000000000e+02
-2.302973226226583847e+02,-2.305949719901977915e+02,-1.318283255580240620e+02,-1.633958023833642983e+02,-2.916044459266072408e+02,-3.142466815148743535e+02,-5.355458798263225617e+01,-1.371334484875883390e+02,9.523238182067871094e+00,-9.943943619728088379e-01,-5.736890435218811035e-01,3.930000000000000000e+02
-2.273823175241382160e+02,-2.333080733543677070e+02,-1.299416983604630786e+02,-1.672958582847709295e+02,-2.908833520273533395e+02,-3.161151097664092049e+02,-5.398812243208317341e+01,-1.406245412092714560e+02,9.523238182067871094e+00,-9.943943619728088379e-01,-5.736890435218811035e-01,3.940000000000000000e+02
-2.253767975090684104e+02,-2.382809648198226569e+02,-1.297757346570729169e+02,-1.742673990309190231e+02,-2.911794222137164070e+02,-3.206137873841410055e+02,-5.745447181140207249e+01,-1.463069353967698589e+02,9.523238182067871094e+00,-9.943943619728088379e-01,-5.736890435218811035e-01,3.950000000000000000e+02
-2.249749857717949908e+02,-2.430507353414868703e+02,-1.314708961863505010e+02,-1.813231064246656388e+02,-2.926018636944932041e+02,-3.258375605082453603e+02,-6.326788786316046753e+01,-1.521821692106543651e+02,9.523238182067871094e+00,-9.943943619728088379e-01,-5.736890435218811035e-01,3.960000000000000000e+02
-2.257681556990442004e+02,-2.452633211909217152e+02,-1.336747491846945195e+02,-1.854498353550882257e+02,-2.943382006219399045e+02,-3.294085955406887933e+02,-6.945299664852336718e+01,-1.558668827397179939e+02,9.523238182067871094e+00,-9.943943619728088379e-01,-5.736890435218811035e-01,3.970000000000000000e+02
-2.265614818380840916e+02,-2.442222213012357770e+02,-1.348375755004897201e+02,-1.855098127348678645e+02,-2.952016514263004865e+02,-3.298594064806843562e+02,-7.390107039574149894e+01,-1.559634603925167085e+02,9.523238182067871094e+00,-9.943943619728088379e-01,-5.736890435218811035e-01,3.980000000000000000e+02
-2.261448816684833218e+02,-2.410426609284934329e+02,-1.343665329773994017e+02,-1.825030577113866457e+02,-2.943178911510713078e+02,-3.271772264438818638e+02,-7.537438976883549913e+01,-1.525979235572567632e+02,9.523238182067871094e+00,-9.943943619728088379e-01,-5.736890435218811035e-01,3.990000000000000000e+02
-2.240328775161547128e+02,-2.374187859792848485e+02,-1.327439664907358292e+02,-1.782085476990478128e+02,-2.915142668489058906e+02,-3.222884669827808466e+02,-7.381191254247369216e+01,-1.469007133999016332e+02,9.523238182067871094e+00,-9.943943619728088379e-01,-5.736890435218811035e-01,4.000000000000000000e+02
-2.207288309537211717e+02,-2.342402029552240492e+02,-1.307706920452833401e+02,-1.736841806876464034e+02,-2.872816607752574782e+02,-3.161925605446479040e+02,-7.003581642875542457e+01,-1.401060006099914972e+02,9.523238182067871094e+00,-9.943943619728088379e-01,-5.736890435218811035e-01,4.010000000000000000e+02
-2.173492794377602877e+02,-2.312666147173285935e+02,-1.287921658832624416e+02,-1.690005921530773776e+02,-2.824408944865899684e+02,-3.095636808045780981e+02,-6.526613049883098938e+01,-1.330860069400391694e+02,9.523238182067871094e+00,-9.943943619728088379e-01,-5.736890435218811035e-01,4.020000000000000000e+02
-2.148363212968404241e+02,-2.279130958829730389e+02,-1.265684456531716933e+02,-1.641336103290850588e+02,-2.777144766142673689e+02,-3.029332347332187965e+02,-6.067683716974579511e+01,-1.264761886406156464e+02,9.523238182067871094e+00,-9.943943619728088379e-01,-5.736890435218811035e-01,4.030000000000000000e+02
-2.132975007003415158e+02,-2.241539457287224195e+02,-1.237298357621539253e+02,-1.597467378453043239e+02,-2.734146367110909068e+02,-2.969197887762732080e+02,-5.701056183385344411e+01,-1.209012094692488972e+02,9.523238182067871094e+00,-9.943943619728088379e-01,-5.736890435218811035e-01,4.040000000000000000e+02
-2.119773724442829916e+02,-2.206261298041333703e+02,-1.202493639473168514e+02,-1.568871934540989059e+02,-2.694170013723401098e+02,-2.920765815642680536e+02,-5.434390383226082122e+01,-1.168568308260282720e+02,9.523238182067871094e+00,-9.943943619728088379e-01,-5.736890435218811035e-01,4.050000000000000000e+02
-2.099091286586899514e+02,-2.179941110701122398e+02,-1.164917478564786961e+02,-1.559707685653786484e+02,-2.654468046883432635e+02,-2.885488023645987141e+02,-5.224304636669148749e+01,-1.143886986079542112e+02,9.523238182067871094e+00,-9.943943619728088379e-01,-5.736890435218811035e-01,4.060000000000000000e+02
-2.067431163698379351e+02,-2.164010521894008434e+02,-1.129102983987618245e+02,-1.562824058619889911e+02,-2.614623109593667323e+02,-2.860468683300025532e+02,-5.035618643770021663e+01,-1.130649622218909371e+02,9.523238182067871094e+00,-9.943943619728088379e-01,-5.736890435218811035e-01,4.070000000000000000e+02
-2.030743815835871828e+02,-2.155949984282610785e+02,-1.097925686147493707e+02,-1.566549446943413386e+02,-2.578125088408264673e+02,-2.842833342608473686e+02,-4.902273950495987265e+01,-1.124191788803311738e+02,9.523238182067871094e+00,-9.943943619728088379e-01,-5.736890435218811035e-01,4.080000000000000000e+02
-1.999989973897565960e+02,-2.154482371667522784e+02,-1.072911655487446296e+02,-1.566319018883868921e+02,-2.550102205856876481e+02,-2.833985061761204634e+02,-4.923466680855517552e+01,-1.124124676632120554e+02,9.523238182067871094e+00,-9.943943619728088379e-01,-5.736890435218811035e-01,4.090000000000000000e+02
-1.982936822373321775e+02,-2.161174902538743936e+02,-1.055867211414777103e+02,-1.568243686676212292e+02,-2.533136055863665206e+02,-2.837976468897359155e+02,-5.174725205551817453e+01,-1.133225893180197090e+02,9.523238182067871094e+00,-9.943943619728088379e-01,-5.736890435218811035e-01,4.100000000000000000e+02
-1.979263411044798886e+02,-2.175747593852318005e+02,-1.048844219879422326e+02,-1.580239515311691321e+02,-2.525089678260060282e+02,-2.854425145413065366e+02,-5.600766964901072242e+01,-1.150731113469303182e+02,9.523238182067871094e+00,-9.943943619728088379e-01,-5.736890435218811035e-01,4.110000000000000000e+02
-1.982578743019412286e+02,-2.190622821289541662e+02,-1.051670296378313196e+02,-1.599833282537297237e+02,-2.520799691422259912e+02,-2.873001364433375784e+02,-5.994767713012220156e+01,-1.166992526945857662e+02,9.523238182067871094e+00,-9.943943619728088379e-01,-5.736890435218811035e-01,4.120000000000000000e+02
-1.986438896387476234e+02,-2.192200897606487615e+02,-1.059583858016085287e+02,-1.611801712003141347e+02,-2.515667539779342405e+02,-2.876329346330592216e+02,-6.105972027649204392e+01,-1.166362605921660816e+02,9.523238182067871094e+00,-9.943943619728088379e-01,-5.736890435218811035e-01,4.130000000000000000e+02
-1.988215412724771340e+02,-2.169661206997873251e+02,-1.064144445868942057e+02,-1.599155775683639149e+02,-2.507446030503131169e+02,-2.850727813345988579e+02,-5.803610158132619290e+01,-1.137468008954569996e+02,9.523238182067871094e+00,-9.943943619728088379e-01,-5.736890435218811035e-01,4.140000000000000000e+02
-1.987791921035550331e+02,-2.123550779288393642e+02,-1.057590758052672300e+02,-1.557403990084717407e+02,-2.494695927965915416e+02,-2.796234204124293683e+02,-5.167619013540274864e+01,-1.082113311543630516e+02,9.523238182067871094e+00,-9.943943619728088379e-01,-5.736890435218811035e-01,4.150000000000000000e+02
-1.983831172240400065e+02,-2.065772564241121927e+02,-1.037254684058289058e+02,-1.498611432432455786e+02,-2.474140105975518509e+02,-2.726960159792279228e+02,-4.433147552957871085e+01,-1.014449301717168055e+02,9.523238182067871094e+00,-1.032640218734741211e+00,-5.354431271553039551e-01,4.160000000000000000e+02
-1.972718711589639042e+02,-2.010782665063186414e+02,-1.006433284344279855e+02,-1.441821671984932891e+02,-2.440477049627206725e+02,-2.661003125880097286e+02,-3.837824833038462202e+01,-9.508097066788218399e+01,9.523238182067871094e+00,-1.032640218734741211e+00,-5.354431271553039551e-01,4.170000000000000000e+02
-1.952007586706527036e+02,-1.966428368392441826e+02,-9.714999060954573906e+01,-1.399410820455375415e+02,-2.389828498554038561e+02,-2.608326923474078285e+02,-3.494732021411095957e+01,-8.992529655619114237e+01,9.523238182067871094e+00,-1.032640218734741211e+00,-5.354431271553039551e-01,4.180000000000000000e+02
-1.924824448973222388e+02,-1.932641077102725831e+02,-9.384209248838897111e+01,-1.371750081855611825e+02,-2.324343926241431291e+02,-2.566668512021947208e+02,-3.376118055408551299e+01,-8.576396359082582421e+01,9.523238182067871094e+00,-1.032640218734741211e+00,-5.354431271553039551e-01,4.190000000000000000e+02
-1.900146331963740067e+02,-1.907694212637998135e+02,-9.115770443833957870e+01,-1.353292785331277628e+02,-2.253962109736739876e+02,-2.528031265147919839e+02,-3.389159980455247023e+01,-8.204340197514261490e+01,9.523238182067871094e+00,-1.032640218734741211e+00,-5.354431271553039551e-01,4.200000000000000000e+02
-1.887397784137810959e+02,-1.893898204392494335e+02,-8.944507657709232262e+01,-1.341811889341186088e+02,-2.193161969357201997e+02,-2.488707693791675410e+02,-3.458210093345132918e+01,-7.863910043153873630e+01,9.523238182067871094e+00,-1.032640218734741211e+00,-5.354431271553039551e-01,4.210000000000000000e+02
-1.889324712050167818e+02,-1.895827531892155093e+02,-8.895624608500816066e+01,-1.340721749917190664e+02,-2.154189557346767288e+02,-2.453285826208416438e+02,-3.551322365794044345e+01,-7.597437437344206046e+01,9.523238182067871094e+00,-1.032640218734741211e+00,-5.354431271553039551e-01,4.220000000000000000e+02
-1.899191947585529761e+02,-1.912958457790969078e+02,-8.964636155916468852e+01,-1.352905957862831201e+02,-2.140931637525845872e+02,-2.429495672882680992e+02,-3.658552281408856288e+01,-7.449747330803256773e+01,9.523238182067871094e+00,-1.032640218734741211e+00,-5.354431271553039551e-01,4.230000000000000000e+02
-1.904967633494811707e+02,-1.935339896962759667e+02,-9.099843047828699127e+01,-1.373828852775263840e+02,-2.147528201806553625e+02,-2.419923098699350703e+02,-3.769367510782262798e+01,-7.417973241023582887e+01,9.523238182067871094e+00,-1.032640218734741211e+00,-5.354431271553039551e-01,4.240000000000000000e+02
-1.897354982943177220e+02,-1.948131176111646710e+02,-9.216733667947573849e+01,-1.392012301099005072e+02,-2.162534465132207515e+02,-2.419056504919981307e+02,-3.871148938088435898e+01,-7.454796098377300950e+01,9.523238182067871094e+00,-1.032640218734741211e+00,-5.354431271553039551e-01,4.250000000000000000e+02
-1.875460748072796378e+02,-1.941644685828237016e+02,-9.244434182634563513e+01,-1.396778739997293997e+02,-2.175568030408876439e+02,-2.418134157586105175e+02,-3.951931561887067801e+01,-7.510800200372705149e+01,9.523238182067871094e+00,-1.032640218734741211e+00,-5.354431271553039551e-01,4.260000000000000000e+02
-1.846231644634231088e+02,-1.917681165394490108e+02,-9.169068391996756873e+01,-1.385648925257507926e+02,-2.181803871148567850e+02,-2.412194055454351655e+02,-3.990892047066108717e+01,-7.561055876945465570e+01,9.523238182067871094e+00,-1.032640218734741211e+00,-5.354431271553039551e-01,4.270000000000000000e+02
-1.818849552337846944e+02,-1.886470556266954191e+02,-9.036657212626187174e+01,-1.364366846275670468e+02,-2.181638744874117037e+02,-2.402025403786437892e+02,-3.950253159003204928e+01,-7.587681172698557930e+01,9.523238182067871094e+00,-1.032640218734741211e+00,-5.354431271553039551e-01,4.280000000000000000e+02
-1.799113256517707669e+02,-1.858005572569509241e+02,-8.917667885223158919e+01,-1.340601164181434797e+02,-2.177206061843089628e+02,-2.390146509444202820e+02,-3.797805797566343244e+01,-7.551575470264197065e+01,9.523238182067871094e+00,-1.032640218734741211e+00,-5.354431271553039551e-01,4.290000000000000000e+02
-1.787734757101056857e+02,-1.836340592880087570e+02,-8.865069795356907889e+01,-1.318293014266887440e+02,-2.169544688455084724e+02,-2.376394738259396036e+02,-3.552936346709657300e+01,-7.400660339378055141e+01,9.523238182067871094e+00,-1.032640218734741211e+00,-5.354431271553039551e-01,4.300000000000000000e+02
-1.782317112532277861e+02,-1.821206219179462096e+02,-8.892161658280269876e+01,-1.297857600271283900e+02,-2.158522571045946279e+02,-2.358493416927235558e+02,-3.305005547704104174e+01,-7.117773006370771327e+01,9.523238182067871094e+00,-1.032640218734741211e+00,-5.354431271553039551e-01,4.310000000000000000e+02
-1.779672725785280818e+02,-1.812856576001477151e+02,-8.968564325832880968e+01,-1.280440948596597082e+02,-2.144185161805889948e+02,-2.336619329051723071e+02,-3.163871570137280287e+01,-6.757448162060245522e+01,9.523238182067871094e+00,-1.032640218734741211e+00,-5.354431271553039551e-01,4.320000000000000000e+02
-1.776051804755652483e+02,-1.813066035043843840e+02,-9.022632718303998445e+01,-1.270049806904780780e+02,-2.126975262200116958e+02,-2.315823032752932704e+02,-3.170021812696722918e+01,-6.422886358107371052e+01,9.523238182067871094e+00,-1.032640218734741211e+00,-5.354431271553039551e-01,4.330000000000000000e+02
-1.766426838193310687e+02,-1.820674175247304447e+02,-8.958379576505262776e+01,-1.270329332724645610e+02,-2.106673455713607837e+02,-2.302548423323087263e+02,-3.250358996342674800e+01,-6.196282670822211003e+01,9.523238182067871094e+00,-1.032640218734741211e+00,-5.354431271553039551e-01,4.340000000000000000e+02
-1.745760642192194609e+02,-1.827558677649471974e+02,-8.704606881262043316e+01,-1.279407930220095295e+02,-2.082377946357473775e+02,-2.298466524034802205e+02,-3.276803010513049230e+01,-6.087181271211829880e+01,9.523238182067871094e+00,-1.032640218734741211e+00,-5.354431271553039551e-01,4.350000000000000000e+02
-1.712930546879472331e+02,-1.821579928497749279e+02,-8.283467925973513957e+01,-1.289040267334501095e+02,-2.054936289964002754e+02,-2.298304274993843137e+02,-3.185745604984231250e+01,-6.046207745254241672e+01,9.523238182067871094e+00,-1.032640218734741211e+00,-5.354431271553039551e-01,4.360000000000000000e+02
-1.674025923633398634e+02,-1.795620968482835451e+02,-7.840106128759043713e+01,-1.290090948713891521e+02,-2.029427436826999838e+02,-2.294316401687897269e+02,-3.046554698810041373e+01,-6.024992228479686673e+01,9.484992027282714844e+00,-9.561483860015869141e-01,-5.736890435218811035e-01,4.370000000000000000e+02
-1.640745523240800594e+02,-1.754289869818303487e+02,-7.579544304037085567e+01,-1.279572662026941998e+02,-2.013608050696911960e+02,-2.282966439290325980e+02,-3.005881142803673356e+01,-6.018235439823865818e+01,9.484992027282714844e+00,-9.561483860015869141e-01,-5.736890435218811035e-01,4.380000000000000000e+02
-1.623569599639770331e+02,-1.711143549201028691e+02,-7.633702432770360247e+01,-1.262733860443818230e+02,-2.012021974763983962e+02,-2.267392414068522157e+02,-3.154361079294267256e+01,-6.049087721420846719e+01,9.484992027282714844e+00,-9.561483860015869141e-01,-5.736890435218811035e-01,4.390000000000000000e+02
-1.624703570123747340e+02,-1.678340232852265217e+02,-7.959230645395223291e+01,-1.248378628023347119e+02,-2.020843545400762196e+02,-2.253768789290529639e+02,-3.439457455680121711e+01,-6.120501486092871346e+01,9.484992027282714844e+00,-9.561483860015869141e-01,-5.736890435218811035e-01,4.400000000000000000e+02
-1.636550763651403031e+02,-1.658046822869000607e+02,-8.357912170439590227e+01,-1.241616360238954258e+02,-2.028993369809841170e+02,-2.245465879346334077e+02,-3.702018649996216482e+01,-6.186364481879763844e+01,9.484992027282714844e+00,-9.561483860015869141e-01,-5.736890435218811035e-01,4.410000000000000000e+02
-1.646809141974495105e+02,-1.643086949952848954e+02,-8.609516804247232358e+01,-1.240213016706679809e+02,-2.025371524174661317e+02,-2.240261457909691671e+02,-3.796230336734970479e+01,-6.170133429662337221e+01,9.484992027282714844e+00,-9.561483860015869141e-01,-5.736890435218811035e-01,4.420000000000000000e+02
-1.645700210880395389e+02,-1.625024974717825899e+02,-8.606878731267624971e+01,-1.236926094258792546e+02,-2.006001042591014993e+02,-2.232144331248805429e+02,-3.682145682639657025e+01,-6.011346685735225037e+01,9.484992027282714844e+00,-9.561483860015869141e-01,-5.736890435218811035e-01,4.430000000000000000e+02
-1.629889406412528388e+02,-1.601053290120753445e+02,-8.387079941771617086e+01,-1.224879262749168447e+02,-1.974959963487312962e+02,-2.215174931674459913e+02,-3.420119958424038487e+01,-5.700928582832148095e+01,9.484992027282714844e+00,-9.561483860015869141e-01,-5.736890435218811035e-01,4.440000000000000000e+02
-1.601695552471967403e+02,-1.573566922178097229e+02,-8.056648155925472565e+01,-1.201383389830878059e+02,-1.939396868717876714e+02,-2.186434633659459905e+02,-3.096989024259983125e+01,-5.285459891904883989e+01,9.484992027282714844e+00,-9.561483860015869141e-01,-5.736890435218811035e-01,4.450000000000000000e+02
-1.566445234748312032e+02,-1.544763909831413002e+02,-7.703421972632895631e+01,-1.168213425940007255e+02,-1.904520282917128498e+02,-2.147254364994487332e+02,-2.768384187746005409e+01,-4.849232354011019197e+01,9.484992027282714844e+00,-9.561483860015869141e-01,-5.736890435218811035e-01,4.460000000000000000e+02
-1.530903427601485873e+02,-1.513654476858309863e+02,-7.378121472738348530e+01,-1.129800473498851261e+02,-1.873267094434290811e+02,-2.103103828061575769e+02,-2.462976854850603559e+01,-4.488120230439653824e+01,9.484992027282714844e+00,-9.561483860015869141e-01,-5.736890435218811035e-01,4.470000000000000000e+02
-1.502415135068260952e+02,-1.479173726851236097e+02,-7.134333490227686525e+01,-1.091615931758517490e+02,-1.849122536658774152e+02,-2.061920201223024378e+02,-2.217809490370200365e+01,-4.279333219618365547e+01,9.484992027282714844e+00,-9.561483860015869141e-01,-5.736890435218811035e-01,4.480000000000000000e+02
-1.486653248544369035e+02,-1.445315559448804379e+02,-7.047242980440159954e+01,-1.059394135665152135e+02,-1.836782865777263396e+02,-2.030599863957768321e+02,-2.086095705914021892e+01,-4.250116024000544712e+01,9.484992027282714844e+00,-9.561483860015869141e-01,-5.736890435218811035e-01,4.490000000000000000e+02
-1.483759579843172105e+02,-1.420963571744114233e+02,-7.160873376190966155e+01,-1.038065626274521946e+02,-1.838113041358910777e+02,-2.011039843351018135e+02,-2.099863209877867121e+01,-4.357821041404258722e+01,9.484992027282714844e+00,-9.561483860015869141e-01,-5.736890435218811035e-01,4.500000000000000000e+02
-1.486186024150379126e+02,-1.412798228229612505e+02,-7.409802961201557991e+01,-1.029728227983027864e+02,-1.847072627716679563e+02,-1.998572354752227511e+02,-2.225755791210713141e+01,-4.499179977552830678e+01,9.484992027282714844e+00,-9.561483860015869141e-01,-5.736890435218811035e-01,4.510000000000000000e+02
-1.481643523015636674e+02,-1.417911793236644371e+02,-7.609807072591343058e+01,-1.031944159986890099e+02,-1.849690745681245971e+02,-1.984722784426144244e+02,-2.362110108287379262e+01,-4.552384784394234885e+01,9.484992027282714844e+00,-9.561483860015869141e-01,-5.736890435218811035e-01,4.520000000000000000e+02
-1.460441579379751147e+02,-1.424326557204904020e+02,-7.555638281037931847e+01,-1.038457248700424316e+02,-1.831120058728447475e+02,-1.962785866135873221e+02,-2.386912725761249021e+01,-4.431107986133929444e+01,9.484992027282714844e+00,-9.561483860015869141e-01,-5.736890435218811035e-01,4.530000000000000000e+02
-1.422202594634850357e+02,-1.420265400063567540e+02,-7.161716277106188500e+01,-1.042677407190899430e+02,-1.785333505957391935e+02,-1.932129787624539858e+02,-2.225166720577544766e+01,-4.122591416812065290e+01,9.484992027282714844e+00,-9.561483860015869141e-01,-5.736890435218811035e-01,4.540000000000000000e+02
-1.376787469264534138e+02,-1.403894734466693990e+02,-6.533408984493939897e+01,-1.041544669547192825e+02,-1.720227275057773113e+02,-1.898074229595099496e+02,-1.893949813769222601e+01,-3.693764776994976273e+01,9.484992027282714844e+00,-9.561483860015869141e-01,-5.736890435218811035e-01,4.550000000000000000e+02
-1.338657590962793620e+02,-1.383965678942081468e+02,-5.910231395024266021e+01,-1.036377873657306736e+02,-1.654132651092459128e+02,-1.867718644997648880e+02,-1.501347418525028843e+01,-3.264687821503912346e+01,9.484992027282714844e+00,-9.561483860015869141e-01,-5.736890435218811035e-01,4.560000000000000000e+02
-1.318658491341609533e+02,-1.370448929433277954e+02,-5.523905315525553306e+01,-1.029779121635588126e+02,-1.605799335360889017e+02,-1.845083943487102260e+02,-1.198297347528114187e+01,-2.957415913976728916e+01,9.484992027282714844e+00,-9.561483860015869141e-01,-5.736890435218811035e-01,4.570000000000000000e+02
-1.318361541331050830e+02,-1.364280834272840366e+02,-5.471215807033331657e+01,-1.021571028799935448e+02,-1.584242433587260166e+02,-1.828853340810646841e+02,-1.100791254922751250e+01,-2.834787781003706186e+01,9.484992027282714844e+00,-9.561483860015869141e-01,-5.736890435218811035e-01,4.580000000000000000e+02
-1.329833765919636335e+02,-1.356603699351121577e+02,-5.679018729149970568e+01,-1.008138916620719101e+02,-1.584790185281599406e+02,-1.813840115395096291e+02,-1.219175335714862740e+01,-2.860064523209803156e+01,9.484992027282714844e+00,-9.561483860015869141e-01,-5.736890435218811035e-01,4.590000000000000000e+02
-1.340235270789187325e+02,-1.338590212187687030e+02,-5.966237855513463728e+01,-9.864421530402978533e+01,-1.593480835043978914e+02,-1.794839198575359660e+02,-1.440683527086093818e+01,-2.911396238173347228e+01,9.484992027282714844e+00,-9.561483860015869141e-01,-5.736890435218811035e-01,4.600000000000000000e+02
-1.338308517087189102e+02,-1.311909238816938341e+02,-6.148543651368891005e+01,-9.589507449402231032e+01,-1.596359325966932374e+02,-1.770135334731276089e+02,-1.589100476199109835e+01,-2.855841378473814984e+01,9.484992027282714844e+00,-9.561483860015869141e-01,-5.736890435218811035e-01,4.610000000000000000e+02
-1.319514934428827928e+02,-1.288743394945290675e+02,-6.124479215026985912e+01,-9.341082714814046994e+01,-1.587208763588473630e+02,-1.742487982827237829e+02,-1.533057629606173577e+01,-2.640229566939842698e+01,9.446745872497558594e+00,-9.943943619728088379e-01,-5.736890435218811035e-01,4.620000000000000000e+02
-1.287274283706397000e+02,-1.280379016592287371e+02,-5.906528941809892785e+01,-9.208076657872015858e+01,-1.568737277952486693e+02,-1.716951461905891847e+02,-1.268534742082601952e+01,-2.327315165514391992e+01,9.446745872497558594e+00,-9.943943619728088379e-01,-5.736890435218811035e-01,4.630000000000000000e+02
-1.249697116229824587e+02,-1.285039195676727104e+02,-5.591780147228337228e+01,-9.212924619110640378e+01,-1.547269125689263092e+02,-1.697120650429174020e+02,-9.094614269214616797e+00,-2.040170865397158195e+01,9.446745872497558594e+00,-9.943943619728088379e-01,-5.736890435218811035e-01,4.640000000000000000e+02
-1.214061426006257989e+02,-1.287396542131641581e+02,-5.293336178011941229e+01,-9.290833238565937791e+01,-1.525996304841360143e+02,-1.682701641853172987e+02,-5.906750913907217182e+00,-1.857397718036918377e+01,9.446745872497558594e+00,-9.943943619728088379e-01,-5.736890435218811035e-01,4.650000000000000000e+02
-1.183139076953825679e+02,-1.271379531638208391e+02,-5.072988580656056001e+01,-9.341571335622143124e+01,-1.502690004909782147e+02,-1.670411114124335654e+02,-3.655702909382853250e+00,-1.752551566827287388e+01,9.446745872497558594e+00,-9.943943619728088379e-01,-5.736890435218811035e-01,4.660000000000000000e+02
-1.156086177139529809e+02,-1.234896284927049237e+02,-4.917655622076267719e+01,-9.307417922918079967e+01,-1.473456648215073983e+02,-1.657215179041504598e+02,-1.875182383344508708e+00,-1.632970956717190347e+01,9.446745872497558594e+00,-9.943943619728088379e-01,-5.736890435218811035e-01,4.670000000000000000e+02
-1.132629462184938802e+02,-1.192749175018293499e+02,-4.775128372470840077e+01,-9.207031366646106108e+01,-1.438572191537728031e+02,-1.642664794129632355e+02,1.105702638155889872e-01,-1.438157592174911770e+01,9.446745872497558594e+00,-9.943943619728088379e-01,-5.736890435218811035e-01,4.680000000000000000e+02
-1.116016130273765157e+02,-1.164710859245979009e+02,-4.619910429909941740e+01,-9.099689623246717929e+01,-1.404621205602425107e+02,-1.628179582750385634e+02,2.196146822579066793e+00,-1.199562911512930441e+01,9.446745872497558594e+00,-9.943943619728088379e-01,-5.736890435218811035e-01,4.690000000000000000e+02
-1.111034565622840091e+02,-1.159262591845822499e+02,-4.489811331120972682e+01,-9.020244867573092051e+01,-1.380642599042485017e+02,-1.614358025700917096e+02,3.315668798171827802e+00,-1.003073068362891718e+01,9.446745872497558594e+00,-9.943943619728088379e-01,-5.736890435218811035e-01,4.700000000000000000e+02
-1.118400508345634989e+02,-1.167285674805013969e+02,-4.455103863981935319e+01,-8.948210144692438917e+01,-1.371433598158778295e+02,-1.599480532634333940e+02,2.351029517523784307e+00,-8.949469701799898758e+00,9.446745872497558594e+00,-9.943943619728088379e-01,-5.736890435218811035e-01,4.710000000000000000e+02
-1.131004102384877115e+02,-1.170478339995813712e+02,-4.542332819852526882e+01,-8.833844592391187689e+01,-1.373585347142975479e+02,-1.580987594792418349e+02,-6.375926467999306624e-01,-8.292217644333504722e+00,9.446745872497558594e+00,-9.943943619728088379e-01,-5.736890435218811035e-01,4.720000000000000000e+02
-1.136684541728716340e+02,-1.156064829891095087e+02,-4.684831737003992203e+01,-8.647866877425735765e+01,-1.377475921940072112e+02,-1.558257829776730432e+02,-4.027851973728274970e+00,-7.121298271613795805e+00,9.446745872497558594e+00,-9.943943619728088379e-01,-5.736890435218811035e-01,4.730000000000000000e+02
-1.126447211045879158e+02,-1.124902642179599752e+02,-4.757554699023489775e+01,-8.407143821629347258e+01,-1.373681697653996707e+02,-1.533607422416093868e+02,-5.596534161638828664e+00,-4.992591792857638211e+00,9.446745872497558594e+00,-9.943943619728088379e-01,-5.736890435218811035e-01,4.740000000000000000e+02
-1.101518622748531016e+02,-1.087558915722704569e+02,-4.675832217008428415e+01,-8.160176454028351145e+01,-1.359000212412470319e+02,-1.510415602484995361e+02,-4.140121481858386687e+00,-2.471184776094787594e+00,9.446745872497558594e+00,-9.943943619728088379e-01,-5.736890435218811035e-01,4.750000000000000000e+02
-1.072940815988772556e+02,-1.054020199092301482e+02,-4.469978339274734935e+01,-7.953751668734594205e+01,-1.337672394514270309e+02,-1.490333040043419714e+02,-4.062708777623811329e-01,-6.594212121351574751e-01,9.446745872497558594e+00,-9.943943619728088379e-01,-5.736890435218811035e-01,4.760000000000000000e+02
-1.053631676759086986e+02,-1.027070749235249423e+02,-4.262563590720174034e+01,-7.810722713314294197e+01,-1.317239919557350731e+02,-1.472516440822068944e+02,3.469506660299657597e+00,-2.000539775754077709e-01,9.446745872497558594e+00,-9.943943619728088379e-01,-5.736890435218811035e-01,4.770000000000000000e+02
-1.049284265334902102e+02,-1.004010238787052458e+02,-4.163445816968055624e+01,-7.727103066082509031e+01,-1.302543790937208996e+02,-1.455428057019798871e+02,5.572842164479880012e+00,-7.126512409720362484e-01,9.446745872497558594e+00,-9.943943619728088379e-01,-5.736890435218811035e-01,4.780000000000000000e+02
-1.055253659183877062e+02,-9.828216419960062922e+01,-4.177690633003771836e+01,-7.679684246263514069e+01,-1.292656967869618256e+02,-1.439040858971191028e+02,5.543116935418993307e+00,-1.159412907081559752e+00,9.446745872497558594e+00,-9.943943619728088379e-01,-5.736890435218811035e-01,4.790000000000000000e+02
-1.061513915704108513e+02,-9.657123098606416534e+01,-4.214486222027812801e+01,-7.638507218186623504e+01,-1.283169256332359964e+02,-1.425178683442052261e+02,4.547536423401652428e+00,-7.487790266320644150e-01,9.446745872497558594e+00,-9.943943619728088379e-01,-5.736890435218811035e-01,4.800000000000000000e+02
-1.060969853654007693e+02,-9.568271191717417423e+01,-4.185889779073090722e+01,-7.583492074251535087e+01,-1.271356803864923677e+02,-1.415606712718015388e+02,4.048453235624265290e+00,4.975157410940482805e-01,9.446745872497558594e+00,-9.943943619728088379e-01,-5.736890435218811035e-01,4.810000000000000000e+02
-1.054195805511401431e+02,-9.571729772191406482e+01,-4.096122017898733247e+01,-7.519380814360602017e+01,-1.259130078181251520e+02,-1.409801774969355392e+02,4.527169544132902956e+00,1.978318412790940783e+00,9.446745872497558594e+00,-9.943943619728088379e-01,-5.736890435218811035e-01,4.820000000000000000e+02
-1.047447126374754589e+02,-9.620628117318483419e+01,-4.033185630898128693e+01,-7.473252966793279484e+01,-1.250772126998053864e+02,-1.404563252044524688e+02,5.256726932493620552e+00,3.199723907270026757e+00,9.446745872497558594e+00,-9.943943619728088379e-01,-5.736890435218811035e-01,4.830000000000000000e+02
-1.046526547408325314e+02,-9.633080740739364956e+01,-4.072656981522459319e+01,-7.467382778457022141e+01,-1.247619158914644686e+02,-1.395936019917153317e+02,5.184428188166521068e+00,4.194152764631326136e+00,9.446745872497558594e+00,-9.943943619728088379e-01,-5.736890435218811035e-01,4.840000000000000000e+02
-1.051773266091909136e+02,-9.540260121799178705e+01,-4.192789255632351342e+01,-7.486934026430913036e+01,-1.245266960305316388e+02,-1.381993144378261604e+02,3.988569550487227389e+00,5.311951555486075449e+00,9.446745872497558594e+00,-9.943943619728088379e-01,-5.736890435218811035e-01,4.850000000000000000e+02
-1.057446319637160741e+02,-9.321492603135584432e+01,-4.284091628414921615e+01,-7.474765739475583359e+01,-1.236332794872366776e+02,-1.364153279393701723e+02,2.364741037555404546e+00,6.722049109791669252e+00,9.446745872497558594e+00,-9.943943619728088379e-01,-5.736890435218811035e-01,4.860000000000000000e+02
-1.055167277892978746e+02,-9.005509870649234472e+01,-4.241095489381746120e+01,-7.366216591549687109e+01,-1.216123588191096587e+02,-1.345739299715050947e+02,1.416105313270463739e+00,8.224914976524587473e+00,9.446745872497558594e+00,-9.943943619728088379e-01,-5.736890435218811035e-01,4.870000000000000000e+02
-1.038818956745317337e+02,-8.647298042121929029e+01,-4.045188736081945535e+01,-7.137862121446596575e+01,-1.185791785397227613e+02,-1.328647100258392584e+02,1.818889390388221727e+00,9.578255216400975769e+00,9.446745872497558594e+00,-9.943943619728088379e-01,-5.736890435218811035e-01,4.880000000000000000e+02
-1.008309925779403784e+02,-8.303920502982236940e+01,-3.765456642780691254e+01,-6.828880073509594695e+01,-1.150502156191842005e+02,-1.311008763739316691e+02,3.454544425141421016e+00,1.092062149327421139e+01,9.484992027282714844e+00,-9.943943619728088379e-01,-4.589512646198272705e-01,4.890000000000000000e+02
-9.706927495972740871e+01,-8.023576189740333575e+01,-3.492428363468980024e+01,-6.518690772232116615e+01,-1.115409836403778172e+02,-1.288482930321686126e+02,5.617416964906396970e+00,1.274296481857459185e+01,9.484992027282714844e+00,-9.943943619728088379e-01,-4.589512646198272705e-01,4.900000000000000000e+02
-9.377860412884501784e+01,-7.845213490223841291e+01,-3.279199639423381996e+01,-6.283377084055564410e+01,-1.083854581436939952e+02,-1.258798116524474153e+02,7.419431917796600828e+00,1.534709647331192173e+01,9.484992027282714844e+00,-9.943943619728088379e-01,-4.589512646198272705e-01,4.910000000000000000e+02
-9.205303823361077775e+01,-7.795349841394659052e+01,-3.140030607573612542e+01,-6.166025314775311017e+01,-1.058644286453463792e+02,-1.225721332830635220e+02,8.078792692882416304e+00,1.832420139844430196e+01,9.484992027282714844e+00,-9.943943619728088379e-01,-4.589512646198272705e-01,4.920000000000000000e+02
-9.225959780730954662e+01,-7.874047639768286899e+01,-3.085164940265690348e+01,-6.172314013977938885e+01,-1.043139921191673238e+02,-1.198135975607021919e+02,7.132086809756629009e+00,2.064752634837373080e+01,9.484992027282714844e+00,-9.943943619728088379e-01,-4.589512646198272705e-01,4.930000000000000000e+02
-9.375822055915114106e+01,-8.039414469880921388e+01,-3.136366547681450356e+01,-6.277483093918567647e+01,-1.039462093664296845e+02,-1.183983520341823805e+02,4.687534996795648112e+00,2.138114908820898563e+01,9.484992027282714844e+00,-9.943943619728088379e-01,-4.589512646198272705e-01,4.940000000000000000e+02
-9.528723714109673892e+01,-8.212345547417430680e+01,-3.301547137658826614e+01,-6.431583949039099934e+01,-1.045541274057713963e+02,-1.183880079019179448e+02,1.566850712736140849e+00,2.038945108364987391e+01,9.484992027282714844e+00,-9.943943619728088379e-01,-4.589512646198272705e-01,4.950000000000000000e+02
-9.583004276461247173e+01,-8.312947129078042963e+01,-3.542224005502066575e+01,-6.569077205804273945e+01,-1.055115086908526791e+02,-1.190235070001549502e+02,-9.840415718956592173e-01,1.839870872364849674e+01,9.484992027282714844e+00,-9.943943619728088379e-01,-4.589512646198272705e-01,4.960000000000000000e+02
-9.530540396471997155e+01,-8.311091795306788299e+01,-3.779169578435698895e+01,-6.634953530367909025e+01,-1.061833488231122828e+02,-1.193065463475886645e+02,-2.025186956135712535e+00,1.636293494359870238e+01,9.484992027282714844e+00,-9.943943619728088379e-01,-4.589512646198272705e-01,4.970000000000000000e+02
-9.448281064521358985e+01,-8.252169810214991230e+01,-3.939759700598926884e+01,-6.620078267588417020e+01,-1.063826575920419373e+02,-1.187601640540672179e+02,-1.584573360639751627e+00,1.471283705708981415e+01,9.484992027282714844e+00,-9.943943619728088379e-01,-4.589512646198272705e-01,4.980000000000000000e+02
-9.417922425496112737e+01,-8.229006348444022478e+01,-4.005346078587956526e+01,-6.576079860609775096e+01,-1.064099513347700849e+02,-1.177237298423542597e+02,-6.428847603081067064e-01,1.311999403084882942e+01,9.484992027282714844e+00,-9.943943619728088379e-01,-4.589512646198272705e-01,4.990000000000000000e+02
-9.445456182584143789e+01,-8.314017994249877574e+01,-4.015453679371762519e+01,-6.585030347414453900e+01,-1.066320611970895698e+02,-1.169635997464870343e+02,-3.464663557867879717e-01,1.091611017371678827e+01,9.484992027282714844e+00,-9.943943619728088379e-01,-4.589512646198272705e-01,5.000000000000000000e+02
-9.453599104488307603e+01,-8.504106128650801111e+01,-4.026887733850935547e+01,-6.697071321642545172e+01,-1.070356055961869970e+02,-1.169739746757077228e+02,-1.063144706963157660e+00,7.758320417688537418e+00,9.484992027282714844e+00,-9.943943619728088379e-01,-4.589512646198272705e-01,5.010000000000000000e+02
-9.351822517712059835e+01,-8.723392110676525135e+01,-4.064551143171706826e+01,-6.882440130926329402e+01,-1.071788666427360113e+02,-1.175431285526567535e+02,-2.076367581245449401e+00,3.986960134168384684e+00,9.484992027282714844e+00,-9.943943619728088379e-01,-4.589512646198272705e-01,5.020000000000000000e+02
-9.115726981030366005e+01,-8.878874684281072405e+01,-4.101792142864155721e+01,-7.037513574056958987e+01,-1.065256403207355334e+02,-1.178667870792869508e+02,-2.150509192900017297e+00,4.587285974466794869e-01,9.484992027282714844e+00,-9.943943619728088379e-01,-4.589512646198272705e-01,5.030000000000000000e+02
-8.803614893163842225e+01,-8.917785342708850749e+01,-4.081434227332789533e+01,-7.043504610028634261e+01,-1.048052931474724119e+02,-1.170481912623160952e+02,-4.582461131909667529e-01,-1.967311067697096405e+00,9.484992027282714844e+00,-9.943943619728088379e-01,-4.589512646198272705e-01,5.040000000000000000e+02
-8.504061135265908433e+01,-8.839330139022024468e+01,-3.960910087942397695e+01,-6.837999333924597067e+01,-1.021483905342187199e+02,-1.146421798468012412e+02,2.860107435519012142e+00,-2.979028180989473640e+00,9.484992027282714844e+00,-9.943943619728088379e-01,-4.589512646198272705e-01,5.050000000000000000e+02
-8.272093039210227516e+01,-8.664606448200567002e+01,-3.751455738923471017e+01,-6.453354694259547841e+01,-9.904177508543511976e+01,-1.109648362077302295e+02,6.837636855524465318e+00,-3.114694127931500134e+00,9.484992027282714844e+00,-9.943943619728088379e-01,-4.589512646198272705e-01,5.060000000000000000e+02
-8.111157244658545551e+01,-8.410947805763026963e+01,-3.524246080883216337e+01,-6.001457707258867913e+01,-9.624361947916611371e+01,-1.070289760074114156e+02,1.028080652751623347e+01,-3.631637210519102155e+00,9.484992027282714844e+00,-9.943943619728088379e-01,-4.589512646198272705e-01,5.070000000000000000e+02
-8.002306214959517661e+01,-8.104531697936175760e+01,-3.374214969248131979e+01,-5.618521956873055956e+01,-9.462599716829436147e+01,-1.041019351438914953e+02,1.233992023746648670e+01,-5.900778738117764988e+00,9.484992027282714844e+00,-9.943943619728088379e-01,-4.589512646198272705e-01,5.080000000000000000e+02
-7.935355178903982676e+01,-7.810862418659277751e+01,-3.358235912183252481e+01,-5.401400025144181427e+01,-9.480596399919033956e+01,-1.030378101563046300e+02,1.276745792911367516e+01,-1.054966438270116669e+01,9.484992027282714844e+00,-9.943943619728088379e-01,-4.589512646198272705e-01,5.090000000000000000e+02
-7.909230482984861510e+01,-7.631167538539774853e+01,-3.449912020392115153e+01,-5.367139497959556138e+01,-9.667453816486258233e+01,-1.037483689898372745e+02,1.187395267022775158e+01,-1.687957092757631017e+01,9.484992027282714844e+00,-9.943943619728088379e-01,-4.589512646198272705e-01,5.100000000000000000e+02
-7.912717771484011564e+01,-7.642731619313792635e+01,-3.549022851624934560e+01,-5.452012862714163077e+01,-9.921013830331690997e+01,-1.051878621148924537e+02,1.032979995171314869e+01,-2.306738002072727056e+01,9.484992027282714844e+00,-9.943943619728088379e-01,-4.589512646198272705e-01,5.110000000000000000e+02
-7.919291553395697747e+01,-7.828157060674422496e+01,-3.545882652815321023e+01,-5.548603991366783816e+01,-1.008919056606997344e+02,-1.059465788685653820e+02,8.901773738969069427e+00,-2.717637846333258267e+01,9.484992027282714844e+00,-9.943943619728088379e-01,-4.589512646198272705e-01,5.120000000000000000e+02
-7.907123279205711697e+01,-8.068665375159241648e+01,-3.396630402703323170e+01,-5.565099016529961773e+01,-1.005627265014705358e+02,-1.051142449306231583e+02,8.142109025913100595e+00,-2.836032860698122704e+01,9.484992027282714844e+00,-9.943943619728088379e-01,-4.589512646198272705e-01,5.130000000000000000e+02
-7.877220988963443915e+01,-8.224269297126727452e+01,-3.150612327627618470e+01,-5.476220153782480793e+01,-9.813694136391347911e+01,-1.028221232129266127e+02,8.132654427029819999e+00,-2.737424214576981285e+01,9.484992027282714844e+00,-9.943943619728088379e-01,-4.589512646198272705e-01,5.140000000000000000e+02
-7.842669837711355285e+01,-8.237808801166522699e+01,-2.907754545008964442e+01,-5.335786303888710336e+01,-9.460573334502089438e+01,-1.001020142358519820e+02,8.449587922510431781e+00,-2.597942902696041756e+01,9.484992027282714844e+00,-9.943943619728088379e-01,-4.589512646198272705e-01,5.150000000000000000e+02
-7.797885551354175959e+01,-8.167763665379072791e+01,-2.742573003577308555e+01,-5.239709429948720754e+01,-9.134718768381833343e+01,-9.819400989848759309e+01,8.442696783833525842e+00,-2.569487070216564462e+01,9.484992027282714844e+00,-9.943943619728088379e-01,-4.589512646198272705e-01,5.160000000000000000e+02
-7.704313123087501936e+01,-8.115714384243688073e+01,-2.655967092617765957e+01,-5.257552929241273887e+01,-8.927228408626274359e+01,-9.778420881203487625e+01,7.717130722206093196e+00,-2.684287871324556818e+01,9.484992027282714844e+00,-9.943943619728088379e-01,-4.589512646198272705e-01,5.170000000000000000e+02
-7.515600473297433837e+01,-8.114421901909213375e+01,-2.587620621851760916e+01,-5.373999877105995893e+01,-8.839040797748816658e+01,-9.861814873994785557e+01,6.504031913268363496e+00,-2.854966478608446323e+01,9.484992027282714844e+00,-9.943943619728088379e-01,-4.589512646198272705e-01,5.180000000000000000e+02
-7.223031824594545469e+01,-8.083404472866413926e+01,-2.470493161755564415e+01,-5.481552648366152880e+01,-8.798951342810028109e+01,-9.964032448740249492e+01,5.632625108282923065e+00,-2.955670968044933034e+01,9.484992027282714844e+00,-9.943943619728088379e-01,-4.589512646198272705e-01,5.190000000000000000e+02
-6.878661176805394462e+01,-7.897596408009121660e+01,-2.280881957250642245e+01,-5.437334788755833870e+01,-8.719451120541975797e+01,-9.955059829324500242e+01,6.055406143271397923e+00,-2.912463097702197956e+01,9.484992027282714844e+00,-1.070886254310607910e+00,-5.354431271553039551e-01,5.200000000000000000e+02
-6.573278142828792170e+01,-7.507594962408256833e+01,-2.051804367582042232e+01,-5.154487736469866377e+01,-8.550023388231670651e+01,-9.751408923254825822e+01,8.188866544763413913e+00,-2.740576970742540652e+01,9.484992027282714844e+00,-1.070886254310607910e+00,-5.354431271553039551e-01,5.210000000000000000e+02
-6.385693999792010800e+01,-7.002638339718987481e+01,-1.850730696330492719e+01,-4.669223690539024574e+01,-8.300426497600756193e+01,-9.368247777608803517e+01,1.150272213573543922e+01,-2.520106875081273756e+01,9.484992027282714844e+00,-1.070886254310607910e+00,-5.354431271553039551e-01,5.220000000000000000e+02
-6.340149630022369820e+01,-6.561074812083461438e+01,-1.742579690916363688e+01,-4.134679638159968817e+01,-8.029329452295496594e+01,-8.921121424485340867e+01,1.467713439236240447e+01,-2.345033998720145973e+01,9.484992027282714844e+00,-1.070886254310607910e+00,-5.354431271553039551e-01,5.230000000000000000e+02
-6.397022598837406804e+01,-6.333806401310130241e+01,-1.757412978981665219e+01,-3.739821893923908647e+01,-7.810960774214095181e+01,-8.567997633819959447e+01,1.629840414277873606e+01,-2.282680945622723812e+01,9.484992027282714844e+00,-1.070886254310607910e+00,-5.354431271553039551e-01,5.240000000000000000e+02
-6.477401859504880122e+01,-6.359066866274906715e+01,-1.874561746905283144e+01,-3.603907465300926560e+01,-7.698192141659046683e+01,-8.421535347134340554e+01,1.569709631162663754e+01,-2.355328564866431407e+01,9.484992027282714844e+00,-1.070886254310607910e+00,-5.354431271553039551e-01,5.250000000000000000e+02
-6.505796847413785144e+01,-6.566590694556794006e+01,-2.029966711623455922e+01,-3.716122455847516903e+01,-7.697699575004071448e+01,-8.487371313696371544e+01,1.338845479007613903e+01,-2.536709796853097032e+01,9.484992027282714844e+00,-1.070886254310607910e+00,-5.354431271553039551e-01,5.260000000000000000e+02
-6.450438117820590378e+01,-6.843368892801436232e+01,-2.145633475314025418e+01,-3.955433368381090986e+01,-7.765072524676611465e+01,-8.669642725743142364e+01,1.081540108779813636e+01,-2.758360853225167375e+01,9.484992027282714844e+00,-1.070886254310607910e+00,-5.354431271553039551e-01,5.270000000000000000e+02
-6.341061132628192354e+01,-7.092096607789221707e+01,-2.168835689513412035e+01,-4.168804027539658819e+01,-7.820921631805867946e+01,-8.834995823594999820e+01,9.533694496880343650e+00,-2.931214023980442107e+01,9.484992027282714844e+00,-1.070886254310607910e+00,-5.354431271553039551e-01,5.280000000000000000e+02
-6.248514678410379020e+01,-7.245278350646640320e+01,-2.096003249447403505e+01,-4.249642467163289439e+01,-7.783803186598015600e+01,-8.884982438931865545e+01,1.033806333285974688e+01,-2.984146784099084471e+01,9.484992027282714844e+00,-1.070886254310607910e+00,-5.354431271553039551e-01,5.290000000000000000e+02
-6.232314055145366183e+01,-7.254120513937414216e+01,-1.962323460237030304e+01,-4.168091476962786146e+01,-7.609595770689384153e+01,-8.787637625469869818e+01,1.287446627082181294e+01,-2.902098478495008749e+01,9.484992027282714844e+00,-1.070886254310607910e+00,-5.354431271553039551e-01,5.300000000000000000e+02
-6.291103330410851413e+01,-7.091752462828935677e+01,-1.806259281694656238e+01,-3.951493966815905878e+01,-7.319528731678246913e+01,-8.562094270853685885e+01,1.595845736762294109e+01,-2.737906241701648469e+01,9.484992027282714844e+00,-1.070886254310607910e+00,-5.354431271553039551e-01,5.310000000000000000e+02
-6.361011186870246092e+01,-6.778574054799673831e+01,-1.643145577887753461e+01,-3.650515065100807988e+01,-6.999040839639883416e+01,-8.251311234967033670e+01,1.833140663881977162e+01,-2.587673768828608445e+01,9.484992027282714844e+00,-1.070886254310607910e+00,-5.354431271553039551e-01,5.320000000000000000e+02
-6.374252355863018238e+01,-6.398535509082239514e+01,-1.474910749763694184e+01,-3.324749376761019448e+01,-6.761419353674909871e+01,-7.914136262603233263e+01,1.932251049083242833e+01,-2.543626839809576268e+01,9.484992027282714844e+00,-1.070886254310607910e+00,-5.354431271553039551e-01,5.330000000000000000e+02
-6.331857917220850140e+01,-6.076544491856930108e+01,-1.323860406921721733e+01,-3.048168942419215455e+01,-6.691365631167172978e+01,-7.631821702909292071e+01,1.900041201989597539e+01,-2.651989281175565338e+01,9.484992027282714844e+00,-1.070886254310607910e+00,-5.354431271553039551e-01,5.340000000000000000e+02
-6.321669741708865331e+01,-5.925565774923052231e+01,-1.249868792640154425e+01,-2.906891405554233643e+01,-6.802241287930519320e+01,-7.498561983290437638e+01,1.780733018897444708e+01,-2.896473577485721762e+01,9.484992027282714844e+00,-1.070886254310607910e+00,-5.354431271553039551e-01,5.350000000000000000e+02
-6.452418311817018548e+01,-6.000416100994516455e+01,-1.318522014189875335e+01,-2.967725119180113325e+01,-7.031914580608417964e+01,-7.579711741662231361e+01,1.606922337518790300e+01,-3.207973488943935081e+01,9.484992027282714844e+00,-1.070886254310607910e+00,-5.354431271553039551e-01,5.360000000000000000e+02
-6.752450303435534806e+01,-6.285021742915387222e+01,-1.537018532328556830e+01,-3.230973455064577138e+01,-7.275858952817952741e+01,-7.861625865138512381e+01,1.381796128199221130e+01,-3.491482235114563082e+01,9.484992027282714844e+00,-1.070886254310607910e+00,-5.354431271553039551e-01,5.370000000000000000e+02
-7.121831160500732949e+01,-6.706792946959285473e+01,-1.815586315072323487e+01,-3.607390426284518981e+01,-7.433777686681060004e+01,-8.238142707935821818e+01,1.104374034204283817e+01,-3.661132276775606442e+01,9.484992027282714844e+00,-1.070886254310607910e+00,-5.354431271553039551e-01,5.380000000000000000e+02
-7.388605778391411150e+01,-7.158030481058813166e+01,-2.002093480882922449e+01,-3.951420546658437161e+01,-7.446833835140478186e+01,-8.557908498109691209e+01,8.073768985856077052e+00,-3.674831913644084125e+01,9.484992027282714844e+00,-1.070886254310607910e+00,-5.354431271553039551e-01,5.390000000000000000e+02
-7.429976162369530357e+01,-7.518639161084684019e+01,-1.977063232229147616e+01,-4.139238017983461759e+01,-7.316453857466876798e+01,-8.707148296042396396e+01,5.653927470885264484e+00,-3.554720788092436123e+01,9.484992027282714844e+00,-1.070886254310607910e+00,-5.354431271553039551e-01,5.400000000000000000e+02
-7.259659122524453778e+01,-7.689267058604127669e+01,-1.737600965791716590e+01,-4.138381084574712077e+01,-7.101418775328238553e+01,-8.668264089707099629e+01,4.592975606300115032e+00,-3.375402727749224141e+01,9.446745872497558594e+00,-1.109132170677185059e+00,-6.119350194931030273e-01,5.410000000000000000e+02
-7.011869070210514110e+01,-7.632516994049183268e+01,-1.400692032525876130e+01,-4.014592236045382379e+01,-6.890363310001248465e+01,-8.510571978137340921e+01,5.250870914534971234e+00,-3.216369819999636093e+01,9.446745872497558594e+00,-1.109132170677185059e+00,-6.119350194931030273e-01,5.420000000000000000e+02
-6.840238027999293990e+01,-7.395094324205638259e+01,-1.119970670434122439e+01,-3.866646742172360973e+01,-6.751705661019605031e+01,-8.321371965329035447e+01,7.332541952572682931e+00,-3.103859551277491846e+01,9.446745872497558594e+00,-1.109132170677185059e+00,-6.119350194931030273e-01,5.430000000000000000e+02
-6.816756866365858514e+01,-7.082490668581795035e+01,-9.812880693633360352e+00,-3.740134834439004408e+01,-6.684789544025989017e+01,-8.134644427152761637e+01,1.015109719821430190e+01,-2.986590620752849645e+01,9.446745872497558594e+00,-1.109132170677185059e+00,-6.119350194931030273e-01,5.440000000000000000e+02
-6.904915697946853470e+01,-6.793595698717945197e+01,-9.585348792698823672e+00,-3.592271859044831217e+01,-6.614115879858491098e+01,-7.916073567374041886e+01,1.308511213843485166e+01,-2.775994452646591526e+01,9.446745872497558594e+00,-1.109132170677185059e+00,-6.119350194931030273e-01,5.450000000000000000e+02
-7.011221416718763066e+01,-6.562860024782003165e+01,-9.584874325908458559e+00,-3.339348245850214880e+01,-6.447896728212435846e+01,-7.613946353525443556e+01,1.580162273933910910e+01,-2.430834644899641717e+01,9.446745872497558594e+00,-1.109132170677185059e+00,-6.119350194931030273e-01,5.460000000000000000e+02
-7.059396425460181490e+01,-6.356634939431114617e+01,-9.092011806756090664e+00,-2.948663228062741837e+01,-6.165279134301636077e+01,-7.228453197594080848e+01,1.809595851886660967e+01,-2.019268569146152004e+01,9.446745872497558594e+00,-1.109132170677185059e+00,-6.119350194931030273e-01,5.470000000000000000e+02
-7.031056899146005890e+01,-6.122643175303892349e+01,-8.167351755110757949e+00,-2.494795946242720674e+01,-5.858014081581131904e+01,-6.836400799766124692e+01,1.962964448257662298e+01,-1.697903730439793435e+01,9.446745872497558594e+00,-1.109132170677185059e+00,-6.119350194931030273e-01,5.480000000000000000e+02
-6.960197908125337563e+01,-5.844596872000147414e+01,-7.508501665184667218e+00,-2.127133267716089904e+01,-5.680348263286850852e+01,-6.548858903756263317e+01,1.995978103404740978e+01,-1.609557056947960518e+01,9.446745872497558594e+00,-1.109132170677185059e+00,-6.119350194931030273e-01,5.490000000000000000e+02
-6.904998179508947942e+01,-5.555059722297846747e+01,-7.814435608257554122e+00,-1.970982758880109031e+01,-5.738139582843814424e+01,-6.438188531793093716e+01,1.891941765067167580e+01,-1.772264668812658783e+01,9.446745872497558594e+00,-1.109132170677185059e+00,-6.119350194931030273e-01,5.500000000000000000e+02
-6.921523821892606065e+01,-5.306090563748693967e+01,-9.217148066440131515e+00,-2.042730308862337552e+01,-6.006060777860147937e+01,-6.494998579791081283e+01,1.697534265677495569e+01,-2.049783680056134472e+01,9.446745872497558594e+00,-1.109132170677185059e+00,-6.119350194931030273e-01,5.510000000000000000e+02
-7.042553725170546386e+01,-5.135681753899552859e+01,-1.118309673236490198e+01,-2.248486287706964504e+01,-6.341857881175656075e+01,-6.646074302657689259e+01,1.511536024814358825e+01,-2.236439594314560964e+01,9.446745872497558594e+00,-1.109132170677185059e+00,-6.119350194931030273e-01,5.520000000000000000e+02
-7.255582518992923724e+01,-5.061009963469405193e+01,-1.286632382342668279e+01,-2.464304424728834420e+01,-6.582283827282662969e+01,-6.811949905350775225e+01,1.424276759117219626e+01,-2.197636330652221659e+01,9.446745872497558594e+00,-1.109132170677185059e+00,-6.119350194931030273e-01,5.530000000000000000e+02
-7.489953857377076929e+01,-5.089411832940913882e+01,-1.358771066672670713e+01,-2.625879435697788722e+01,-6.639202646711237321e+01,-6.953060724836814188e+01,1.457256735513601598e+01,-1.958346455932223762e+01,9.446745872497558594e+00,-1.109132170677185059e+00,-6.119350194931030273e-01,5.540000000000000000e+02
-7.636143056064611301e+01,-5.217687821982235619e+01,-1.311471898013769533e+01,-2.753112068064911000e+01,-6.525299970310152275e+01,-7.072238004270366218e+01,1.558399347220438358e+01,-1.670503932256178814e+01,9.446745872497558594e+00,-1.109132170677185059e+00,-6.119350194931030273e-01,5.550000000000000000e+02
-7.601252073053001368e+01,-5.412413198812191695e+01,-1.163162012851262261e+01,-2.897381924898218131e+01,-6.307902832841591589e+01,-7.183877948665758595e+01,1.658020288556963351e+01,-1.489147685158968670e+01,9.446745872497558594e+00,-1.109132170677185059e+00,-6.119350194931030273e-01,5.560000000000000000e+02
-7.368792430961366335e+01,-5.599271643818974553e+01,-9.520164035150628479e+00,-3.070198007715043786e+01,-6.048463344552328635e+01,-7.285202467238286772e+01,1.730537422993165819e+01,-1.461481166738030879e+01,9.446745872497558594e+00,-1.109132170677185059e+00,-6.119350194931030273e-01,5.570000000000000000e+02
-7.016029310893736692e+01,-5.692488268253964634e+01,-7.155564315769879613e+00,-3.224186515760993643e+01,-5.780724684727647400e+01,-7.355075357588975749e+01,1.799740465312970628e+01,-1.518171281392005767e+01,9.446745872497558594e+00,-1.109132170677185059e+00,-6.119350194931030273e-01,5.580000000000000000e+02
-6.670674266701644228e+01,-5.653768415108970657e+01,-4.857051455248438288e+00,-3.301136987551308266e+01,-5.529902958093134657e+01,-7.375672474649218202e+01,1.882755631544205244e+01,-1.563867321665020427e+01,9.446745872497558594e+00,-1.109132170677185059e+00,-6.119350194931030273e-01,5.590000000000000000e+02
-6.436637525922378700e+01,-5.528643296302288945e+01,-2.966826834191124362e+00,-3.294186467618601455e+01,-5.333260748668180895e+01,-7.351194929114717524e+01,1.937078798883430863e+01,-1.575173529494895774e+01,9.446745872497558594e+00,-1.109132170677185059e+00,-6.119350194931030273e-01,5.600000000000000000e+02
-6.343780305057225632e+01,-5.418173831461626833e+01,-1.895403734298270138e+00,-3.257098577986471355e+01,-5.229365572288770636e+01,-7.302904755273266346e+01,1.879662630138955137e+01,-1.611244358239764551e+01,9.446745872497558594e+00,-1.109132170677185059e+00,-6.119350194931030273e-01,5.610000000000000000e+02
-6.353418085087832878e+01,-5.401170332378660532e+01,-1.970542333962839621e+00,-3.246300671049630182e+01,-5.222319852132932283e+01,-7.242111684482733835e+01,1.676901634381465556e+01,-1.727497151920215401e+01,9.446745872497558594e+00,-1.109132170677185059e+00,-6.119350194931030273e-01,5.620000000000000000e+02
-6.405012010479094897e+01,-5.471651138343986531e+01,-3.144074683834332973e+00,-3.253061656864065299e+01,-5.259787637148838257e+01,-7.146938841704286460e+01,1.420479205575065862e+01,-1.881500368259003153e+01,9.446745872497558594e+00,-1.109132170677185059e+00,-6.119350194931030273e-01,5.630000000000000000e+02
-6.462814190314929874e+01,-5.546922770545643289e+01,-4.852021544942545006e+00,-3.197987580410881492e+01,-5.257466211955397739e+01,-6.969697961201563885e+01,1.297159328317320615e+01,-1.935806363536539720e+01,9.446745872497558594e+00,-1.109132170677185059e+00,-6.119350194931030273e-01,5.640000000000000000e+02
-6.529080342288943939e+01,-5.540051837775172316e+01,-6.279133493163499224e+00,-3.003854528075407870e+01,-5.162020797615332413e+01,-6.678185919990755792e+01,1.451722449070075527e+01,-1.772680920383027114e+01,9.446745872497558594e+00,-1.109132170677185059e+00,-6.119350194931030273e-01,5.650000000000000000e+02
-6.621978690522882971e+01,-5.434976227609695343e+01,-6.918956307600637956e+00,-2.685252927504006948e+01,-5.003864439649260021e+01,-6.302574469601131568e+01,1.850808326614969701e+01,-1.423226567177334800e+01,9.523238182067871094e+00,-1.032640218734741211e+00,-4.589512646198272705e-01,5.660000000000000000e+02
-6.740352989886378055e+01,-5.300416807684814557e+01,-6.957414926835554070e+00,-2.369089930508198449e+01,-4.888433563458238496e+01,-5.944695133000459464e+01,2.276782086442290165e+01,-1.083824923210158886e+01,9.523238182067871094e+00,-1.032640218734741211e+00,-4.589512646198272705e-01,5.670000000000000000e+02
-6.843120044762872567e+01,-5.232444671021949034e+01,-7.085901676858156861e+00,-2.217031689391478722e+01,-4.923132528980931966e+01,-5.731499258914845996e+01,2.476567306334800378e+01,-9.863242847704896121e+00,9.523238182067871094e+00,-1.032640218734741211e+00,-4.589512646198272705e-01,5.680000000000000000e+02
-6.857584327692893567e+01,-5.273253290834145446e+01,-7.857878168928436935e+00,-2.306697075416195730e+01,-5.132506561472291651e+01,-5.738431216711433080e+01,2.352219558604519989e+01,-1.221391488057088281e+01,9.523238182067871094e+00,-1.032640218734741211e+00,-4.589512646198272705e-01,5.690000000000000000e+02
-6.714937130475118465e+01,-5.370114338249550201e+01,-9.172127302781518665e+00,-2.568203827775141690e+01,-5.430564616890842444e+01,-5.937840937916917028e+01,2.035176999354735017e+01,-1.663786065368549316e+01,9.523238182067871094e+00,-1.032640218734741211e+00,-4.589512646198272705e-01,5.700000000000000000e+02
-6.395180845104550826e+01,-5.406002752152562607e+01,-1.037948684748880623e+01,-2.829291337234462844e+01,-5.676778021829704812e+01,-6.212776832494091650e+01,1.781419241801086173e+01,-2.065168452166290081e+01,9.523238182067871094e+00,-1.032640218734741211e+00,-4.589512646198272705e-01,5.710000000000000000e+02
-5.951397078544141550e+01,-5.281253570672561182e+01,-1.088076370050293917e+01,-2.934001046571938787e+01,-5.770991933807999885e+01,-6.425997204884333769e+01,1.778266580178387812e+01,-2.236273628088565602e+01,9.523238182067871094e+00,-1.032640218734741211e+00,-4.589512646198272705e-01,5.720000000000000000e+02
-5.488972670299335732e+01,-4.987958879118377808e+01,-1.058961262661068758e+01,-2.842659580443250888e+01,-5.707913878170438693e+01,-6.492523041059030220e+01,2.022288443901015853e+01,-2.166896123216611159e+01,9.523238182067871094e+00,-1.032640218734741211e+00,-4.589512646198272705e-01,5.730000000000000000e+02
-5.104164932615640282e+01,-4.622370935703111172e+01,-9.773221295678013121e+00,-2.640594986599353433e+01,-5.548829738249878574e+01,-6.406586665887516574e+01,2.357816757395448803e+01,-1.991697964728155057e+01,9.523238182067871094e+00,-1.032640218734741211e+00,-4.589512646198272705e-01,5.740000000000000000e+02
-4.820411819110995566e+01,-4.321644224058945838e+01,-8.467386446087402874e+00,-2.456368346096860478e+01,-5.343502987526881043e+01,-6.214745797355135437e+01,2.624027766149265517e+01,-1.846685182668807101e+01,9.523238182067871094e+00,-1.032640218734741211e+00,-4.589512646198272705e-01,5.750000000000000000e+02
-4.573134233334712917e+01,-4.164955379177081340e+01,-6.168558204743021633e+00,-2.356857939708061167e+01,-5.079582466960164311e+01,-5.966741785136582621e+01,2.777648576425053761e+01,-1.748463786276988685e+01,9.523238182067871094e+00,-1.032640218734741211e+00,-4.589512646198272705e-01,5.760000000000000000e+02
-4.262928419962372573e+01,-4.112546274015403469e+01,-2.254331511159762158e+00,-2.297286757675828994e+01,-4.706988986099349859e+01,-5.683591402704041684e+01,2.898063422939594602e+01,-1.595967058786300186e+01,9.523238182067871094e+00,-1.032640218734741211e+00,-4.589512646198272705e-01,5.770000000000000000e+02
-3.842774420391288004e+01,-4.037314013915602118e+01,3.184133250122613390e+00,-2.159563850382255623e+01,-4.211552463390580670e+01,-5.359701785761717474e+01,3.092224003848605207e+01,-1.280364190383625100e+01,9.523238182067871094e+00,-1.032640218734741211e+00,-4.589512646198272705e-01,5.780000000000000000e+02
-3.371584422160958638e+01,-3.833852665194353904e+01,8.915292824536663829e+00,-1.848843943896827113e+01,-3.666304127395778778e+01,-4.988108178957008931e+01,3.392789623047247005e+01,-7.984787475503253518e+00,9.523238182067871094e+00,-1.032640218734741211e+00,-4.589512646198272705e-01,5.790000000000000000e+02
-2.986784342941427894e+01,-3.519769874356461514e+01,1.307754355573888461e+01,-1.377532755502761574e+01,-3.209033624294352194e+01,-4.585508794719680736e+01,3.729966230918398651e+01,-2.727548877714070841e+00,9.523238182067871094e+00,-1.032640218734741211e+00,-4.589512646198272705e-01,5.800000000000000000e+02
-2.811331182613321289e+01,-3.239069713145727292e+01,1.432529229805186333e+01,-8.745693128781567793e+00,-2.960373270114541810e+01,-4.197896316496189684e+01,3.985668994642037433e+01,1.330765712920765509e+00,9.523238182067871094e+00,-1.032640218734741211e+00,-4.589512646198272705e-01,5.810000000000000000e+02
-2.863680218853914994e+01,-3.154860276428917132e+01,1.270544682465333608e+01,-5.103851657708219136e+00,-2.948130944608601567e+01,-3.882439609414723236e+01,4.074142897287674714e+01,3.255783999640698312e+00,9.523238182067871094e+00,-1.032640218734741211e+00,-4.589512646198272705e-01,5.820000000000000000e+02
-3.039038186231846339e+01,-3.316941906899592141e+01,9.572828703318009502e+00,-3.894577293956899666e+00,-3.096033370099939930e+01,-3.677280007847366505e+01,3.987495752309951058e+01,3.293975199176202295e+00,9.523238182067871094e+00,-1.032640218734741211e+00,-4.589512646198272705e-01,5.830000000000000000e+02
-3.176335213190577633e+01,-3.620638147881618352e+01,6.635268265194099513e+00,-4.900890828674164368e+00,-3.283155730766338820e+01,-3.583921680590901815e+01,3.784366883276197768e+01,2.405985826735559385e+00,9.523238182067871094e+00,-1.032640218734741211e+00,-4.589512646198272705e-01,5.840000000000000000e+02
-3.160448962041482446e+01,-3.894826294416452583e+01,4.887359922415271285e+00,-6.978008421556296526e+00,-3.425574427381616260e+01,-3.580003276195748185e+01,3.542998334266667371e+01,1.336987175016474794e+00,9.523238182067871094e+00,-1.032640218734741211e+00,-4.589512646198272705e-01,5.850000000000000000e+02
-2.985643358690322202e+01,-4.038595943137443101e+01,4.208124977583793225e+00,-9.026910309101367602e+00,-3.518016243933925580e+01,-3.652178897213343589e+01,3.319008084687266091e+01,6.006859039916889742e-02,9.523238182067871094e+00,-1.032640218734741211e+00,-4.589512646198272705e-01,5.860000000000000000e+02
-2.740662984355185472e+01,-4.081689688146434492e+01,3.787509112426050706e+00,-1.077539676466767560e+01,-3.609687656846654136e+01,-3.816505750794021878e+01,3.133106722777120012e+01,-1.951590170179770212e+00,9.523238182067871094e+00,-1.032640218734741211e+00,-4.589512646198272705e-01,5.870000000000000000e+02
-2.536605089121258061e+01,-4.118280499116372084e+01,2.913067572613726952e+00,-1.270829319010590552e+01,-3.741493296771659516e+01,-4.099311150908397394e+01,2.986890361029327323e+01,-4.925036349788570078e+00,9.523238182067871094e+00,-1.032640218734741211e+00,-4.589512646198272705e-01,5.880000000000000000e+02
-2.436494098588991619e+01,-4.187953982206636283e+01,1.481046090419113170e+00,-1.525669287433265708e+01,-3.901352149288140936e+01,-4.490315637161256745e+01,2.884204523272273946e+01,-8.239233341804720112e+00,9.523238182067871094e+00,-1.032640218734741211e+00,-4.589512646198272705e-01,5.890000000000000000e+02
-2.432990275684642256e+01,-4.226496731730549072e+01,-6.329415597792831250e-02,-1.803888715550783672e+01,-4.034485748544102535e+01,-4.912884165563082206e+01,2.838012918583444844e+01,-1.066421252250802354e+01,9.523238182067871094e+00,-1.032640218734741211e+00,-4.589512646198272705e-01,5.900000000000000000e+02
-2.474544590396726562e+01,-4.134500569201554754e+01,-1.153040984429026139e+00,-1.989832468419626821e+01,-4.092940599647772615e+01,-5.247742952701082686e+01,2.860657655377508490e+01,-1.120432438515126705e+01,9.523238182067871094e+00,-1.032640218734741211e+00,-4.589512646198272705e-01,5.910000000000000000e+02
-2.503569012416664918e+01,-3.890741568965131592e+01,-1.462644560166154406e+00,-1.972932942237457610e+01,-4.072370697923179250e+01,-5.397444240445838659e+01,2.951786505169366137e+01,-9.793655818550178083e+00,9.523238182067871094e+00,-1.032640218734741211e+00,-4.589512646198272705e-01,5.920000000000000000e+02
-2.476350001794162381e+01,-3.591667387497000163e+01,-9.719143514139432227e-01,-1.736522941441762669e+01,-4.001994498817293788e+01,-5.339350064040991128e+01,3.096128977673652116e+01,-7.227123474007385084e+00,9.484992027282714844e+00,-1.147378087043762207e+00,-4.971971809864044189e-01,5.930000000000000000e+02
-2.366072210417223687e+01,-3.374155327438711538e+01,1.569228586195094977e-01,-1.376368811656175239e+01,-3.906899687537224963e+01,-5.125761201566274394e+01,3.269166857839081786e+01,-4.446866972699353937e+00,9.484992027282714844e+00,-1.147378087043762207e+00,-4.971971809864044189e-01,5.940000000000000000e+02
-2.167281243446814187e+01,-3.295788169205843587e+01,1.667804759408682003e+00,-1.036052547226609022e+01,-3.790954536655044649e+01,-4.839525814990338404e+01,3.441913213464431465e+01,-1.899604431575426133e+00,9.484992027282714844e+00,-1.147378087043762207e+00,-4.971971809864044189e-01,5.950000000000000000e+02
-1.907142845525413577e+01,-3.288360794097025064e+01,3.204605681252360228e+00,-8.168637607077471330e+00,-3.660673772286827443e+01,-4.550369375395166571e+01,3.582895039241702762e+01,4.564597823809890542e-01,9.484992027282714844e+00,-1.147378087043762207e+00,-4.971971809864044189e-01,5.960000000000000000e+02
-1.645557463742807158e+01,-3.226636595912714256e+01,4.359449732024586410e+00,-7.306717612234933767e+00,-3.555415099817764712e+01,-4.302440011185171898e+01,3.665908836826565675e+01,2.640675467708206270e+00,9.484992027282714844e+00,-1.147378087043762207e+00,-4.971971809864044189e-01,5.970000000000000000e+02
-1.445906724083397421e+01,-3.043878239217519877e+01,4.902663107870466774e+00,-7.174984711517026881e+00,-3.531365966040903004e+01,-4.120948515444251825e+01,3.689154055994004011e+01,4.338796190491848392e+00,9.484992027282714844e+00,-1.147378087043762207e+00,-4.971971809864044189e-01,5.980000000000000000e+02
-1.329712064716295572e+01,-2.786626698895997833e+01,5.057149076132191112e+00,-6.984924844542547362e+00,-3.598008148989174515e+01,-4.010653896530857310e+01,3.689779058007479762e+01,5.234759615745133488e+00,9.484992027282714844e+00,-1.147378087043762207e+00,-4.971971809864044189e-01,5.990000000000000000e+02
-1.256361875733637135e+01,-2.565627931636481662e+01,5.483685002787751728e+00,-6.218436185707105324e+00,-3.673538268501943094e+01,-3.944141649784432957e+01,3.730097143226885237e+01,5.628216868310119025e+00,9.484992027282714844e+00,-1.147378087043762207e+00,-4.971971809864044189e-01,6.000000000000000000e+02
-1.154459972430049675e+01,-2.456359494081334560e+01,6.844362467811151873e+00,-4.791905898346158210e+00,-3.624596578043929185e+01,-3.865838193332092487e+01,3.854942872589526814e+01,6.549884212185133947e+00,9.484992027282714844e+00,-1.147378087043762207e+00,-4.971971809864044189e-01,6.010000000000000000e+02
-9.824328900765976869e+00,-2.440911047235204023e+01,9.233087123709992738e+00,-2.967062978648755234e+00,-3.375407517774510779e+01,-3.726940311055659549e+01,4.052863224229440675e+01,9.034099201060598716e+00,9.484992027282714844e+00,-1.147378087043762207e+00,-4.971971809864044189e-01,6.020000000000000000e+02
-7.636580171889363555e+00,-2.436404019639303442e+01,1.196551666551022208e+01,-1.163620560630079126e+00,-2.990436702778242761e+01,-3.528594253925984958e+01,4.260165904146924731e+01,1.312889174773954437e+01,9.484992027282714844e+00,-1.147378087043762207e+00,-4.971971809864044189e-01,6.030000000000000000e+02
-5.624065691379655618e+00,-2.375767412906134268e+01,1.397317322165690712e+01,2.174524444126291201e-01,-2.644032847182097612e+01,-3.330933419251960004e+01,4.409415151513167075e+01,1.762394809848046862e+01,9.484992027282714844e+00,-1.147378087043762207e+00,-4.971971809864044189e-01,6.040000000000000000e+02
-4.236147845283994684e+00,-2.267173030014237156e+01,1.452638172624938306e+01,9.014339427922095638e-01,-2.491530822315689875e+01,-3.212013208189091529e+01,4.479336901193528320e+01,2.087373246165225282e+01,9.484992027282714844e+00,-1.147378087043762207e+00,-4.971971809864044189e-01,6.050000000000000000e+02
-3.335951569315511733e+00,-2.184178784514369909e+01,1.374087585105735343e+01,7.861104096082272008e-01,-2.548658055106352549e+01,-3.207904253637389047e+01,4.500958031879054033e+01,2.205591750838721055e+01,9.484992027282714844e+00,-1.147378087043762207e+00,-4.971971809864044189e-01,6.060000000000000000e+02
-2.371921198435302358e+00,-2.198381789146878873e+01,1.250808179788873531e+01,-3.527778969873907045e-02,-2.682031786651350558e+01,-3.284884339956988697e+01,4.518741406953267870e+01,2.175658602633848204e+01,9.484992027282714844e+00,-1.147378087043762207e+00,-4.971971809864044189e-01,6.070000000000000000e+02
-9.143561158743978012e-01,-2.310814159307483351e+01,1.193838868550301413e+01,-1.233537531257752562e+00,-2.713976084200112382e+01,-3.364626303556360654e+01,4.550371657587311347e+01,2.138861680405534571e+01,9.484992027282714844e+00,-1.147378087043762207e+00,-4.971971809864044189e-01,6.080000000000000000e+02
9.492035210496396758e-01,-2.436596367206948344e+01,1.271449407214458915e+01,-2.214327435794984922e+00,-2.548720861497349688e+01,-3.376931872888599173e+01,4.585289976799322176e+01,2.202601422188308788e+01,9.484992027282714844e+00,-1.147378087043762207e+00,-4.971971809864044189e-01,6.090000000000000000e+02
2.669513083194033243e+00,-2.454907309200279997e+01,1.473149700000067241e+01,-2.226024449482792988e+00,-2.220910465221459162e+01,-3.295804843657242600e+01,4.615373900588747347e+01,2.371904210454158601e+01,9.484992027282714844e+00,-1.147378087043762207e+00,-4.971971809864044189e-01,6.100000000000000000e+02
3.633348873343493324e+00,-2.287535986346847494e+01,1.718787292220804375e+01,-6.940944434500124771e-01,-1.844814177399530308e+01,-3.137523518061061623e+01,4.657901809138638782e+01,2.580245670244767098e+01,9.484992027282714844e+00,-1.147378087043762207e+00,-4.971971809864044189e-01,6.110000000000000000e+02
3.559919926010479685e+00,-1.950684299963540980e+01,1.903964794262719806e+01,2.326407509252021555e+00,-1.526111869856322301e+01,-2.936534706950260443e+01,4.741916909207429853e+01,2.771379794086169568e+01,9.484992027282714844e+00,-1.147378087043762207e+00,-4.971971809864044189e-01,6.120000000000000000e+02
