F3,F4,C3,C4,P3,P4,Cz,Pz,Accel_x,Accel_y,Accel_z,Sample
-4.820321919396519661e-11,-2.637534635141491890e-11,-3.274180926382541656e-11,-3.274180926382541656e-11,-3.183231456205248833e-11,-1.455191522836685181e-11,-3.728928277269005775e-11,-3.001332515850663185e-11,9.484992027282714844e+00,-6.501809358596801758e-01,-4.589512646198272705e-01,2.010000000000000000e+02
-1.059700974485440383e+01,-7.952335049169960257e+00,-6.692466063642314111e+00,-7.673973444753755757e+00,-1.880151010080135165e+01,-1.646526631442975486e+01,-5.456497946249328379e+00,-9.237258274398300273e+00,9.484992027282714844e+00,-6.501809358596801758e-01,-4.589512646198272705e-01,2.020000000000000000e+02
-2.029372661684283230e+01,-1.618215578528543119e+01,-1.197186727126700134e+01,-1.464517484935367975e+01,-3.388977486599833355e+01,-3.062333695206143602e+01,-9.001889519699034281e+00,-1.756813941106065613e+01,9.484992027282714844e+00,-6.501809358596801758e-01,-4.589512646198272705e-01,2.030000000000000000e+02
-2.922324975310857553e+01,-2.469679256647486909e+01,-1.591688348309435241e+01,-2.065807598385526944e+01,-4.460641624871823296e+01,-4.190198348942340090e+01,-1.019047355885049910e+01,-2.492581413805146440e+01,9.484992027282714844e+00,-6.501809358596801758e-01,-4.589512646198272705e-01,2.040000000000000000e+02
-3.844276811982490472e+01,-3.318189597897890053e+01,-1.986126839848111558e+01,-2.584471147529347945e+01,-5.340574079528414586e+01,-5.156647638986305537e+01,-9.965190830534993438e+00,-3.181867368589610123e+01,9.484992027282714844e+00,-6.501809358596801758e-01,-4.589512646198272705e-01,2.050000000000000000e+02
-4.876499037213852716e+01,-4.121219070282768371e+01,-2.466580632553086616e+01,-3.026424787101586844e+01,-6.303718935061715456e+01,-6.123049506253119034e+01,-9.235232990311487811e+00,-3.825630518440357264e+01,9.484992027282714844e+00,-6.501809358596801758e-01,-4.589512646198272705e-01,2.060000000000000000e+02
-5.978769186926547263e+01,-4.857962042837698391e+01,-2.948011158928875375e+01,-3.368989574643183005e+01,-7.389191114133609517e+01,-7.140459825472407829e+01,-7.836643066373653710e+00,-4.327936801873602235e+01,9.484992027282714844e+00,-6.501809358596801758e-01,-4.589512646198272705e-01,2.070000000000000000e+02
-7.019608382808564784e+01,-5.550469693691593420e+01,-3.247434021118624514e+01,-3.601892099049109675e+01,-8.415339972633682919e+01,-8.150276267465142155e+01,-5.118036941747050150e+00,-4.590561255021020770e+01,9.561484336853027344e+00,-6.501809358596801758e-01,-4.589512646198272705e-01,2.080000000000000000e+02
-7.908815114206845465e+01,-6.258802051255861443e+01,-3.287073573903489887e+01,-3.789687333603251318e+01,-9.230241892770482082e+01,-9.106509942109278199e+01,-1.472391522437646927e+00,-4.660269869074272719e+01,9.561484336853027344e+00,-6.501809358596801758e-01,-4.589512646198272705e-01,2.090000000000000000e+02
-8.699270020161930006e+01,-7.053120958566705667e+01,-3.215331233155120572e+01,-4.076369503706155228e+01,-9.911579656142930617e+01,-1.006842014854319132e+02,1.033887678007886279e+00,-4.758137453333802114e+01,9.561484336853027344e+00,-6.501809358596801758e-01,-4.589512646198272705e-01,2.100000000000000000e+02
-9.550469976303338626e+01,-7.977055511254093290e+01,-3.311408240742639464e+01,-4.599122890258058760e+01,-1.070324568958130840e+02,-1.115419451879106418e+02,-7.003122906735370634e-02,-5.125706438649467600e+01,9.561484336853027344e+00,-6.501809358596801758e-01,-4.589512646198272705e-01,2.110000000000000000e+02
-1.058348637450353635e+02,-9.020270163792338280e+01,-3.759942894154482929e+01,-5.373563215347894584e+01,-1.177072037435445964e+02,-1.240813394271935977e+02,-5.518996706934558460e+00,-5.817265376482919237e+01,9.561484336853027344e+00,-6.501809358596801758e-01,-4.589512646198272705e-01,2.120000000000000000e+02
-1.176482848828227361e+02,-1.011435382323024896e+02,-4.506414130491612013e+01,-6.255516514482133061e+01,-1.304193207527578124e+02,-1.372975513833443983e+02,-1.333112641491516115e+01,-6.639943840087926219e+01,9.561484336853027344e+00,-6.501809358596801758e-01,-4.589512646198272705e-01,2.130000000000000000e+02
-1.292799217726087591e+02,-1.115732481050299612e+02,-5.314945590193110547e+01,-7.026771476761132362e+01,-1.429213419522575350e+02,-1.494656080991135241e+02,-1.999466825899980904e+01,-7.308352490337620111e+01,9.561484336853027344e+00,-6.501809358596801758e-01,-4.589512646198272705e-01,2.140000000000000000e+02
-1.391076771628222559e+02,-1.206185669925453112e+02,-5.954680838955846411e+01,-7.546421481833658618e+01,-1.536687648236838868e+02,-1.596145840290373599e+02,-2.285591723513516627e+01,-7.676503613731983933e+01,9.561484336853027344e+00,-6.501809358596801758e-01,-4.589512646198272705e-01,2.150000000000000000e+02
-1.468114982661836621e+02,-1.280571142153303299e+02,-6.340584649458924105e+01,-7.848955398372163472e+01,-1.630537538867274634e+02,-1.683053085838801053e+02,-2.175714141858134099e+01,-7.838454903609272151e+01,9.561484336853027344e+00,-6.501809358596801758e-01,-4.589512646198272705e-01,2.160000000000000000e+02
-1.534631328746518193e+02,-1.345187260031361802e+02,-6.532351605893472879e+01,-8.112389327691107610e+01,-1.725436368015562039e+02,-1.770228156210250745e+02,-1.880135647939550836e+01,-8.019387334262319200e+01,9.561484336853027344e+00,-6.501809358596801758e-01,-4.589512646198272705e-01,2.170000000000000000e+02
-1.605345686616083185e+02,-1.411447371939111690e+02,-6.640317182117451011e+01,-8.521953911112723290e+01,-1.828557320791614984e+02,-1.868392114413109084e+02,-1.671325165095731791e+01,-8.372005753412213380e+01,9.561484336853027344e+00,-6.501809358596801758e-01,-4.589512646198272705e-01,2.180000000000000000e+02
-1.688280663504929180e+02,-1.488177463638212430e+02,-6.747530753541104787e+01,-9.133519527221415046e+01,-1.931414061010045771e+02,-1.975977727506442534e+02,-1.717802636052056187e+01,-8.863345243157800724e+01,9.561484336853027344e+00,-6.501809358596801758e-01,-4.589512646198272705e-01,2.190000000000000000e+02
-1.781982316167968747e+02,-1.574767678222160612e+02,-6.898960772024111066e+01,-9.837096116052089201e+01,-2.018901793786471899e+02,-2.082189110503013580e+02,-2.018944334611933300e+01,-9.333680279141753999e+01,9.561484336853027344e+00,-6.501809358596801758e-01,-4.589512646198272705e-01,2.200000000000000000e+02
-1.880560420703459386e+02,-1.660858479898624864e+02,-7.120620360486918798e+01,-1.044058957140332495e+02,-2.084604559928020535e+02,-2.176534929169320094e+02,-2.446566982514195843e+01,-9.647957081405274948e+01,9.561484336853027344e+00,-6.501809358596801758e-01,-4.589512646198272705e-01,2.210000000000000000e+02
-1.979596162157904473e+02,-1.733762927903098898e+02,-7.420546967856898846e+01,-1.080933457643177462e+02,-2.137199995455957833e+02,-2.256201638128432023e+02,-2.838745528663639561e+01,-9.800840732594951987e+01,9.561484336853027344e+00,-6.501809358596801758e-01,-4.589512646198272705e-01,2.220000000000000000e+02
-2.077224010946520139e+02,-1.788265477106697290e+02,-7.775196347571181832e+01,-1.096019504937867168e+02,-2.193549720831206287e+02,-2.326723032796753614e+02,-3.087358607513488096e+01,-9.906239639763407467e+01,9.561484336853027344e+00,-6.501809358596801758e-01,-4.589512646198272705e-01,2.230000000000000000e+02
-2.171243338183976448e+02,-1.830702216139216034e+02,-8.136967160181029612e+01,-1.104509102880401770e+02,-2.266732354913074232e+02,-2.397748415992546143e+02,-3.183677374596845766e+01,-1.010748749065814991e+02,9.561484336853027344e+00,-6.501809358596801758e-01,-4.589512646198272705e-01,2.240000000000000000e+02
-2.257366947084365165e+02,-1.873762892665790787e+02,-8.471764075434748520e+01,-1.124052800374356593e+02,-2.359350370035808737e+02,-2.477966157167147685e+02,-3.209879307406117732e+01,-1.049061497301663621e+02,9.561484336853027344e+00,-6.501809358596801758e-01,-4.589512646198272705e-01,2.250000000000000000e+02
-2.331708013708548606e+02,-1.926574676303207525e+02,-8.789590067831068154e+01,-1.162988887861947660e+02,-2.464924014502312275e+02,-2.571669952557203942e+02,-3.285208315104500798e+01,-1.105296719771431526e+02,9.561484336853027344e+00,-6.501809358596801758e-01,-4.589512646198272705e-01,2.260000000000000000e+02
-2.395186599879079949e+02,-1.989019418229227085e+02,-9.132479454416716180e+01,-1.216984458300557890e+02,-2.573307747422313696e+02,-2.677748906535734932e+02,-3.499673397923197626e+01,-1.172511582421002458e+02,9.561484336853027344e+00,-6.501809358596801758e-01,-4.589512646198272705e-01,2.270000000000000000e+02
-2.454846458538559091e+02,-2.054968784576249163e+02,-9.530069630182424589e+01,-1.275937860595076927e+02,-2.675337893693167644e+02,-2.791071547996325535e+02,-3.873529762269208732e+01,-1.241508188304705982e+02,9.561484336853027344e+00,-6.501809358596801758e-01,-4.589512646198272705e-01,2.280000000000000000e+02
-2.519842015941294449e+02,-2.120208816917747754e+02,-9.968828064046101645e+01,-1.334042070601308296e+02,-2.765386286586626738e+02,-2.905495149461476103e+02,-4.359727618610941136e+01,-1.304668218153929047e+02,9.561484336853027344e+00,-6.501809358596801758e-01,-4.589512646198272705e-01,2.290000000000000000e+02
-2.594972460379176482e+02,-2.186492515339004967e+02,-1.040361319671942510e+02,-1.393425951506942511e+02,-2.842413429569551226e+02,-3.016483093582301080e+02,-4.872855867990438128e+01,-1.357770285083715862e+02,9.561484336853027344e+00,-6.501809358596801758e-01,-4.589512646198272705e-01,2.300000000000000000e+02
-2.677163414430101511e+02,-2.257737963544468585e+02,-1.079195349299243389e+02,-1.458299614533748354e+02,-2.909300063600639987e+02,-3.121093843466542239e+02,-5.318279588950736070e+01,-1.399473994742393188e+02,9.561484336853027344e+00,-6.501809358596801758e-01,-4.589512646198272705e-01,2.310000000000000000e+02
-2.757843867572159979e+02,-2.333119799871692521e+02,-1.111426507566784494e+02,-1.526332139821233795e+02,-2.970212375921446437e+02,-3.215720270894207715e+02,-5.615134547638263030e+01,-1.429511906898078450e+02,9.561484336853027344e+00,-6.501809358596801758e-01,-4.589512646198272705e-01,2.320000000000000000e+02
-2.829051197358180616e+02,-2.405212206031055757e+02,-1.136812577682121628e+02,-1.587006880393000756e+02,-3.027492936684157030e+02,-3.294858875968357097e+02,-5.722981139327566780e+01,-1.447693639819390228e+02,9.561484336853027344e+00,-6.501809358596801758e-01,-4.589512646198272705e-01,2.330000000000000000e+02
-2.888125380327692255e+02,-2.465743740473144499e+02,-1.155727709908874203e+02,-1.629550026210304168e+02,-3.080980378248459601e+02,-3.353839142335846191e+02,-5.670113232001403958e+01,-1.455193911155110982e+02,9.561484336853027344e+00,-6.501809358596801758e-01,-4.589512646198272705e-01,2.340000000000000000e+02
-2.937497615156803477e+02,-2.512894471073509521e+02,-1.169591605387367963e+02,-1.652676491882384653e+02,-3.130697956186104420e+02,-3.393952824561010857e+02,-5.553623696493013995e+01,-1.456905690385219714e+02,9.561484336853027344e+00,-6.501809358596801758e-01,-4.589512646198272705e-01,2.350000000000000000e+02
-2.980612406047057448e+02,-2.551876043000547725e+02,-1.181672567904302014e+02,-1.665649484761097483e+02,-3.179805926328363057e+02,-3.424284777824723278e+02,-5.484366772490648145e+01,-1.461207018374143445e+02,9.561484336853027344e+00,-6.501809358596801758e-01,-4.589512646198272705e-01,2.360000000000000000e+02
-3.018424332854751810e+02,-2.587745536025167894e+02,-1.195806406843903460e+02,-1.678802541356894835e+02,-3.233761839812777907e+02,-3.456667850630938119e+02,-5.501287662165668735e+01,-1.475088143434595622e+02,9.561484336853027344e+00,-6.501809358596801758e-01,-4.589512646198272705e-01,2.370000000000000000e+02
-3.049970855943533934e+02,-2.618330002802326817e+02,-1.212991473994770786e+02,-1.692902041424631534e+02,-3.295240666768531810e+02,-3.496974494970518208e+02,-5.527591011129061371e+01,-1.497560055707326683e+02,9.561484336853027344e+00,-6.501809358596801758e-01,-4.589512646198272705e-01,2.380000000000000000e+02
-3.076186275096097233e+02,-2.635598377453616195e+02,-1.229203421789757158e+02,-1.698705482625200602e+02,-3.359438185411986524e+02,-3.540779482485650078e+02,-5.424966165193200140e+01,-1.517733390866496848e+02,9.523238182067871094e+00,-6.501809358596801758e-01,-4.971971809864044189e-01,2.390000000000000000e+02
-3.102534435680272509e+02,-2.634866642583128851e+02,-1.237654212897900834e+02,-1.687796058763819929e+02,-3.415096158742026091e+02,-3.578185636965527010e+02,-5.116446740389574188e+01,-1.521310013243146386e+02,9.523238182067871094e+00,-6.501809358596801758e-01,-4.971971809864044189e-01,2.400000000000000000e+02
-3.136844973981174007e+02,-2.622421431186380687e+02,-1.234550353017170892e+02,-1.663810903688931830e+02,-3.451586931395154352e+02,-3.603775804784149841e+02,-4.673972632382037773e+01,-1.501640168467415606e+02,9.523238182067871094e+00,-6.501809358596801758e-01,-4.971971809864044189e-01,2.410000000000000000e+02
-3.183298507420345231e+02,-2.612992580475988689e+02,-1.223295365859680714e+02,-1.642272797744153650e+02,-3.466656847483832280e+02,-3.622298045537900180e+02,-4.285468718900119711e+01,-1.466111616488974505e+02,9.523238182067871094e+00,-6.501809358596801758e-01,-4.971971809864044189e-01,2.420000000000000000e+02
-3.237787315721911909e+02,-2.618669006043237459e+02,-1.212891686515667971e+02,-1.638658643286180450e+02,-3.468497600689306637e+02,-3.644647476971126707e+02,-4.120378913826789358e+01,-1.431785415312610894e+02,9.523238182067871094e+00,-6.501809358596801758e-01,-4.971971809864044189e-01,2.430000000000000000e+02
-3.289466473860406950e+02,-2.639933081415197194e+02,-1.211575985164408849e+02,-1.656445650238770213e+02,-3.470655924019197300e+02,-3.678388532711460357e+02,-4.208630539948535443e+01,-1.413646916413222243e+02,9.523238182067871094e+00,-6.501809358596801758e-01,-4.971971809864044189e-01,2.440000000000000000e+02
-3.328072728495021693e+02,-2.667664100815436541e+02,-1.221189678284040383e+02,-1.686859951755168368e+02,-3.483980505486842958e+02,-3.722365076712349037e+02,-4.437329298168197056e+01,-1.415533959602585128e+02,9.523238182067871094e+00,-6.501809358596801758e-01,-4.971971809864044189e-01,2.450000000000000000e+02
-3.351136104292781965e+02,-2.693908022849336703e+02,-1.237018277815864167e+02,-1.719515779042444592e+02,-3.511361071420360531e+02,-3.770131741435088770e+02,-4.657769265248407464e+01,-1.430812098650580992e+02,9.523238182067871094e+00,-6.501809358596801758e-01,-4.971971809864044189e-01,2.460000000000000000e+02
-3.365123008420946462e+02,-2.720473934055444261e+02,-1.252920790482162374e+02,-1.752231111264395622e+02,-3.548505115827274494e+02,-3.817847534910911236e+02,-4.799371790090708600e+01,-1.450667879545035248e+02,9.523238182067871094e+00,-6.501809358596801758e-01,-4.971971809864044189e-01,2.470000000000000000e+02
-3.379793401809015450e+02,-2.756751092148847420e+02,-1.267118589633191732e+02,-1.790113540114662101e+02,-3.589493358448871732e+02,-3.868091589601181113e+02,-4.893121587111500048e+01,-1.471391266729328891e+02,9.523238182067871094e+00,-6.501809358596801758e-01,-4.971971809864044189e-01,2.480000000000000000e+02
-3.400729308066520389e+02,-2.809009884062761557e+02,-1.283609254080211031e+02,-1.836062620017232803e+02,-3.632383943162335527e+02,-3.925830610951725248e+02,-5.001208690048088101e+01,-1.494417088823661288e+02,9.523238182067871094e+00,-6.501809358596801758e-01,-4.971971809864044189e-01,2.490000000000000000e+02
-3.426318757187063966e+02,-2.872039021788095852e+02,-1.308305481559750660e+02,-1.884528392784650350e+02,-3.680692785922428811e+02,-3.991560611759318817e+02,-5.139441432092826290e+01,-1.521506762407398128e+02,9.523238182067871094e+00,-6.501809358596801758e-01,-4.971971809864044189e-01,2.500000000000000000e+02
-3.451216478244587051e+02,-2.931690120257840135e+02,-1.343609779831335800e+02,-1.926616885930361605e+02,-3.740129871515041486e+02,-4.059831625060483020e+02,-5.274532090111824800e+01,-1.552458114762152945e+02,9.523238182067871094e+00,-6.501809358596801758e-01,-4.971971809864044189e-01,2.510000000000000000e+02
-3.472373951933491298e+02,-2.976172806942372517e+02,-1.386089755980647169e+02,-1.961393803403757374e+02,-3.813416441033996307e+02,-4.125244176997994145e+02,-5.389310907879962542e+01,-1.588314459374300895e+02,9.523238182067871094e+00,-6.501809358596801758e-01,-4.971971809864044189e-01,2.520000000000000000e+02
-3.491749345225575780e+02,-3.005372694182328814e+02,-1.428471627313892895e+02,-1.999865860350482762e+02,-3.896810956000581427e+02,-4.188816042632283825e+02,-5.530514887850904415e+01,-1.634265955439295794e+02,9.523238182067871094e+00,-6.501809358596801758e-01,-4.971971809864044189e-01,2.530000000000000000e+02
-3.513335690524345409e+02,-3.029449439800205255e+02,-1.463477352450277067e+02,-2.054520302183132117e+02,-3.980115106645303058e+02,-4.255841271794884051e+02,-5.771095710575400517e+01,-1.694726056949070880e+02,9.523238182067871094e+00,-6.501809358596801758e-01,-4.971971809864044189e-01,2.540000000000000000e+02
-3.537695048172608949e+02,-3.058004977929040251e+02,-1.486217259835038931e+02,-2.122566120712126576e+02,-4.049628538265292264e+02,-4.325134995830835578e+02,-6.112325131651368793e+01,-1.762080037269247441e+02,9.523238182067871094e+00,-6.501809358596801758e-01,-4.971971809864044189e-01,2.550000000000000000e+02
-3.559636816117013041e+02,-3.089887542895799015e+02,-1.494242388437842237e+02,-2.179899955641203633e+02,-4.092573269031590826e+02,-4.380665339711931665e+02,-6.427271974511131702e+01,-1.811319551519823108e+02,9.523238182067871094e+00,-6.501809358596801758e-01,-4.971971809864044189e-01,2.560000000000000000e+02
-3.571901395730069453e+02,-3.113243499494960815e+02,-1.487295565014842396e+02,-2.195175974879166461e+02,-4.102178650574674066e+02,-4.397814452003776751e+02,-6.524938837454010354e+01,-1.811845132163543894e+02,9.523238182067871094e+00,-6.501809358596801758e-01,-4.971971809864044189e-01,2.570000000000000000e+02
-3.572269122519119264e+02,-3.116173319001240998e+02,-1.468760495446622372e+02,-2.155023481468024329e+02,-4.082603874292276487e+02,-4.363880634455267682e+02,-6.303043038180703661e+01,-1.752359333613990202e+02,9.523238182067871094e+00,-6.501809358596801758e-01,-4.971971809864044189e-01,2.580000000000000000e+02
-3.567784174671210167e+02,-3.098775483312065262e+02,-1.447411769748564438e+02,-2.079343111577641139e+02,-4.050854135812519417e+02,-4.296366698887318307e+02,-5.861734545525405338e+01,-1.658437221946132922e+02,9.523238182067871094e+00,-6.501809358596801758e-01,-4.971971809864044189e-01,2.590000000000000000e+02
-3.571495972384009292e+02,-3.075896867435949389e+02,-1.435853684686421730e+02,-2.012070857164071640e+02,-4.031976788704077990e+02,-4.239912373545698756e+02,-5.467585164671845632e+01,-1.583439090785141161e+02,9.446745872497558594e+00,-6.884268522262573242e-01,-4.589512646198272705e-01,2.600000000000000000e+02
-3.593169326711799840e+02,-3.067568550659188986e+02,-1.444033957670408199e+02,-1.992741638399543262e+02,-4.046923098597358148e+02,-4.238825388893164927e+02,-5.377956568302806772e+01,-1.574381383270324477e+02,9.446745872497558594e+00,-6.884268522262573242e-01,-4.589512646198272705e-01,2.610000000000000000e+02
-3.630833735243563751e+02,-3.084565594376908848e+02,-1.471437331090019143e+02,-2.030375174572850483e+02,-4.099039615906285690e+02,-4.304553852688991356e+02,-5.657046806881771772e+01,-1.637750684636807819e+02,9.446745872497558594e+00,-6.884268522262573242e-01,-4.589512646198272705e-01,2.620000000000000000e+02
-3.670447574986678774e+02,-3.120998916297103278e+02,-1.505053491447429224e+02,-2.099797880913561130e+02,-4.169604034507883625e+02,-4.405431143764258195e+02,-6.130583833719947506e+01,-1.733760561776516624e+02,9.446745872497558594e+00,-6.884268522262573242e-01,-4.589512646198272705e-01,2.630000000000000000e+02
-3.694880428821375062e+02,-3.159960484078748095e+02,-1.526585750272067799e+02,-2.162131554029131166e+02,-4.228011686571726386e+02,-4.489157647975212058e+02,-6.514056930608808216e+01,-1.804941334022535102e+02,9.446745872497558594e+00,-6.884268522262573242e-01,-4.589512646198272705e-01,2.640000000000000000e+02
-3.695880743542911659e+02,-3.187292421194632652e+02,-1.524699705158448069e+02,-2.192348691657188056e+02,-4.251162969517113197e+02,-4.520792980015369267e+02,-6.611858199501648414e+01,-1.816406610063286280e+02,9.446745872497558594e+00,-6.884268522262573242e-01,-4.589512646198272705e-01,2.650000000000000000e+02
-3.679935017674907840e+02,-3.201915070830383456e+02,-1.502994743097888204e+02,-2.192963529019931457e+02,-4.238275686510107789e+02,-4.505563529568802323e+02,-6.437596438734362891e+01,-1.776154266594492128e+02,9.446745872497558594e+00,-6.884268522262573242e-01,-4.589512646198272705e-01,2.660000000000000000e+02
-3.663536771457385157e+02,-3.214524049028240142e+02,-1.477277136030031670e+02,-2.186072871143906013e+02,-4.210118348894822020e+02,-4.479338546443365203e+02,-6.179481978082185378e+01,-1.722182693862466749e+02,9.446745872497558594e+00,-6.884268522262573242e-01,-4.589512646198272705e-01,2.670000000000000000e+02
-3.661650331433700103e+02,-3.236745506563680692e+02,-1.464544455021589329e+02,-2.193737870660036151e+02,-4.194020605027258171e+02,-4.477880535775373119e+02,-6.058837225959905481e+01,-1.691513600481080175e+02,9.446745872497558594e+00,-6.884268522262573242e-01,-4.589512646198272705e-01,2.680000000000000000e+02
-3.678228707929612256e+02,-3.270745932870227080e+02,-1.472390584066201882e+02,-2.223632588064950824e+02,-4.206582660261603905e+02,-4.512495724981314424e+02,-6.194610134394679335e+01,-1.698036186629608437e+02,9.446745872497558594e+00,-6.884268522262573242e-01,-4.589512646198272705e-01,2.690000000000000000e+02
-3.705500627500159680e+02,-3.308166487758152243e+02,-1.496125719425497209e+02,-2.268945669285329814e+02,-4.246067882650960428e+02,-4.570035712843809961e+02,-6.557978761083245445e+01,-1.733134918775758706e+02,9.446745872497558594e+00,-6.884268522262573242e-01,-4.589512646198272705e-01,2.700000000000000000e+02
-3.731460231993385150e+02,-3.338242532162582847e+02,-1.523812512193658222e+02,-2.317800128734901364e+02,-4.297142911489855805e+02,-4.630755957217197647e+02,-7.019414860169604253e+01,-1.780503744203699625e+02,9.446745872497558594e+00,-6.884268522262573242e-01,-4.589512646198272705e-01,2.710000000000000000e+02
-3.748873946402954971e+02,-3.356787991163022298e+02,-1.543829745841865133e+02,-2.361084839461565252e+02,-4.341385045734103869e+02,-4.683168791119007892e+02,-7.434409489954032324e+01,-1.827196048114526548e+02,9.446745872497558594e+00,-6.884268522262573242e-01,-4.589512646198272705e-01,2.720000000000000000e+02
-3.758925955514231418e+02,-3.367847146810722734e+02,-1.549863406773054066e+02,-2.392798307140004681e+02,-4.365715790406893575e+02,-4.723183946090465497e+02,-7.712138864441635633e+01,-1.863007602330665122e+02,9.446745872497558594e+00,-6.884268522262573242e-01,-4.589512646198272705e-01,2.730000000000000000e+02
-3.767940068577514694e+02,-3.377565346272966167e+02,-1.542378010995287241e+02,-2.406545024700072872e+02,-4.365979388659180813e+02,-4.744474559991140268e+02,-7.842761406561226067e+01,-1.876213710467040983e+02,9.446745872497558594e+00,-6.884268522262573242e-01,-4.589512646198272705e-01,2.740000000000000000e+02
-3.781179634602447095e+02,-3.387351909181961105e+02,-1.528216980690366427e+02,-2.395838579526769081e+02,-4.347451519210013657e+02,-4.736366874307984745e+02,-7.886508132067433507e+01,-1.857344580958312008e+02,9.446745872497558594e+00,-6.884268522262573242e-01,-4.589512646198272705e-01,2.750000000000000000e+02
-3.799042892763217196e+02,-3.393242669501109958e+02,-1.518739726589321890e+02,-2.360355705396120811e+02,-4.323708179199992401e+02,-4.695160236680686694e+02,-7.936169379898308307e+01,-1.810813093624067278e+02,9.446745872497558594e+00,-6.884268522262573242e-01,-4.589512646198272705e-01,2.760000000000000000e+02
-3.817966860243558358e+02,-3.391619378016499127e+02,-1.525390208751344971e+02,-2.312134134792784153e+02,-4.312678693222262609e+02,-4.637158169153832432e+02,-8.068507666439211334e+01,-1.761340296007483630e+02,9.446745872497558594e+00,-6.884268522262573242e-01,-4.589512646198272705e-01,2.770000000000000000e+02
-3.834172105895920595e+02,-3.385001471393661063e+02,-1.553095488465247627e+02,-2.273624680584207454e+02,-4.328989641704803262e+02,-4.596574389745238705e+02,-8.304635609553361064e+01,-1.743481240254006934e+02,9.446745872497558594e+00,-6.884268522262573242e-01,-4.589512646198272705e-01,2.780000000000000000e+02
-3.846204077322640842e+02,-3.381603587854718285e+02,-1.595370440754364836e+02,-2.265904391284132089e+02,-4.375248775708349740e+02,-4.604908521407160151e+02,-8.595791975565100529e+01,-1.777959657750291171e+02,9.446745872497558594e+00,-6.884268522262573242e-01,-4.589512646198272705e-01,2.790000000000000000e+02
-3.854088687507392024e+02,-3.388677790079506735e+02,-1.635987717277159845e+02,-2.294793319570258063e+02,-4.438181373665240699e+02,-4.667342043409577172e+02,-8.840501400329333137e+01,-1.853206571043673421e+02,9.446745872497558594e+00,-6.884268522262573242e-01,-4.589512646198272705e-01,2.800000000000000000e+02
-3.856596068755645774e+02,-3.405742045792840713e+02,-1.657862689770968245e+02,-2.345855332030253066e+02,-4.493880904148840045e+02,-4.756679034716530623e+02,-8.924557677916106968e+01,-1.928919002115626427e+02,9.446745872497558594e+00,-6.884268522262573242e-01,-4.589512646198272705e-01,2.810000000000000000e+02
-3.850304667773474421e+02,-3.424163886394638325e+02,-1.653507821956890211e+02,-2.393125572800830696e+02,-4.520322416218650687e+02,-4.831232326753510051e+02,-8.769193252809759542e+01,-1.961309848966220670e+02,9.446745872497558594e+00,-6.884268522262573242e-01,-4.589512646198272705e-01,2.820000000000000000e+02
-3.832566461109250895e+02,-3.433960527609091287e+02,-1.629259999534112922e+02,-2.415792861329625794e+02,-4.509633376103839737e+02,-4.862904622616090364e+02,-8.373374599088060677e+01,-1.931797761131560947e+02,9.446745872497558594e+00,-6.884268522262573242e-01,-4.589512646198272705e-01,2.830000000000000000e+02
-3.806229218818116919e+02,-3.432376882797883013e+02,-1.599981192368993561e+02,-2.410635584479684894e+02,-4.471925995902035993e+02,-4.853432105572726414e+02,-7.833222844577221622e+01,-1.857638914411376163e+02,9.446745872497558594e+00,-6.884268522262573242e-01,-4.589512646198272705e-01,2.840000000000000000e+02
-3.781182085246660449e+02,-3.427160920766739309e+02,-1.578728145399219329e+02,-2.391549750703428572e+02,-4.427932049785658251e+02,-4.827536508014308083e+02,-7.321180732468837959e+01,-1.777496040785653122e+02,9.561484336853027344e+00,-5.736890435218811035e-01,-4.589512646198272705e-01,2.850000000000000000e+02
-3.769606416129822719e+02,-3.431456523827865226e+02,-1.569517171700861127e+02,-2.377531881490353953e+02,-4.395408508451009766e+02,-4.810954902073029871e+02,-7.018469271849642155e+01,-1.724233475351381912e+02,9.561484336853027344e+00,-5.736890435218811035e-01,-4.589512646198272705e-01,2.860000000000000000e+02
-3.777278153854707057e+02,-3.453702101801581534e+02,-1.568012088134660189e+02,-2.379023100452849349e+02,-4.378786423992085020e+02,-4.812353907636897361e+02,-7.025333178487585428e+01,-1.705868437800934316e+02,9.561484336853027344e+00,-5.736890435218811035e-01,-4.589512646198272705e-01,2.870000000000000000e+02
-3.797995658769704050e+02,-3.489968009043882375e+02,-1.567990081245177407e+02,-2.392790568629317249e+02,-4.369353359970075417e+02,-4.822496068896193151e+02,-7.302847689168129364e+01,-1.707413925042339997e+02,9.561484336853027344e+00,-5.736890435218811035e-01,-4.589512646198272705e-01,2.880000000000000000e+02
-3.816754588209700501e+02,-3.524734183245969348e+02,-1.567184261350525958e+02,-2.407676500915479210e+02,-4.355451218934165922e+02,-4.828104161886980705e+02,-7.692134979037132325e+01,-1.709055097501536693e+02,9.561484336853027344e+00,-5.736890435218811035e-01,-4.589512646198272705e-01,2.890000000000000000e+02
-3.820140871959189894e+02,-3.540190165721479048e+02,-1.567916911596997807e+02,-2.414788175396322458e+02,-4.334259468470784213e+02,-4.825978539155433396e+02,-8.006448528596558845e+01,-1.703903796877802961e+02,9.561484336853027344e+00,-5.736890435218811035e-01,-4.589512646198272705e-01,2.900000000000000000e+02
-3.805934472405016322e+02,-3.527750203739306585e+02,-1.573437057558844572e+02,-2.413273807272638578e+02,-4.315439479801002562e+02,-4.824779442886904235e+02,-8.136682953192587320e+01,-1.701088339907257705e+02,9.561484336853027344e+00,-5.736890435218811035e-01,-4.589512646198272705e-01,2.910000000000000000e+02
-3.784012088244190295e+02,-3.493397593266033141e+02,-1.584257214402296086e+02,-2.407933459848580924e+02,-4.313483568832169226e+02,-4.834411049286289312e+02,-8.097488669629956348e+01,-1.713559414995797852e+02,9.561484336853027344e+00,-5.736890435218811035e-01,-4.589512646198272705e-01,2.920000000000000000e+02
-3.767901768180122417e+02,-3.452874183465123679e+02,-1.597699429728080531e+02,-2.402586207629829005e+02,-4.335216718150270481e+02,-4.854227218487396271e+02,-7.988564547714099717e+01,-1.742971743357750256e+02,9.561484336853027344e+00,-5.736890435218811035e-01,-4.589512646198272705e-01,2.930000000000000000e+02
-3.764397471264992419e+02,-3.420686893573674752e+02,-1.610157470798590111e+02,-2.396308398746716648e+02,-4.372953487310433047e+02,-4.871460159593352728e+02,-7.911774665374787219e+01,-1.775500235355302721e+02,9.561484336853027344e+00,-5.736890435218811035e-01,-4.589512646198272705e-01,2.940000000000000000e+02
-3.769811034191820340e+02,-3.401886349417432029e+02,-1.619368320339931415e+02,-2.385827730326408300e+02,-4.408937151263302212e+02,-4.871127184238636119e+02,-7.910301652806356287e+01,-1.791887231898379014e+02,9.561484336853027344e+00,-5.736890435218811035e-01,-4.589512646198272705e-01,2.950000000000000000e+02
-3.775199773448655378e+02,-3.392911044090192831e+02,-1.625153577920722228e+02,-2.370986268066361617e+02,-4.427452874848137299e+02,-4.848229896111371886e+02,-7.967173401159868718e+01,-1.782560434056591703e+02,9.561484336853027344e+00,-5.736890435218811035e-01,-4.589512646198272705e-01,2.960000000000000000e+02
-3.774930999684283393e+02,-3.389330639603037412e+02,-1.629280639505506088e+02,-2.357334100839038911e+02,-4.425122050477324933e+02,-4.811730673726178793e+02,-8.048505722130630602e+01,-1.754930817125421072e+02,9.561484336853027344e+00,-5.736890435218811035e-01,-4.589512646198272705e-01,2.970000000000000000e+02
-3.770842278622458252e+02,-3.391956936529119275e+02,-1.635467169869718873e+02,-2.352994518351421220e+02,-4.412068219636938693e+02,-4.777836236143061797e+02,-8.146241088282874898e+01,-1.727421863815628740e+02,9.561484336853027344e+00,-5.736890435218811035e-01,-4.589512646198272705e-01,2.980000000000000000e+02
-3.769107370793627183e+02,-3.404844165915546910e+02,-1.648754607632179159e+02,-2.362368686016045558e+02,-4.404036330126562007e+02,-4.759095728344284453e+02,-8.284710320901410796e+01,-1.715981436981040815e+02,9.561484336853027344e+00,-5.736890435218811035e-01,-4.589512646198272705e-01,2.990000000000000000e+02
-3.773583977376417806e+02,-3.427508142501043267e+02,-1.672721134235553109e+02,-2.382100443067812421e+02,-4.411663875607582668e+02,-4.757918803467080693e+02,-8.489837109069810595e+01,-1.723901189744707381e+02,9.561484336853027344e+00,-5.736890435218811035e-01,-4.589512646198272705e-01,3.000000000000000000e+02
-3.781826503684376917e+02,-3.450379514421612726e+02,-1.705173936082393311e+02,-2.402504226069638662e+02,-4.433864415840437232e+02,-4.767796583829472183e+02,-8.747042586518398366e+01,-1.741523873775554421e+02,9.561484336853027344e+00,-5.736890435218811035e-01,-4.589512646198272705e-01,3.010000000000000000e+02
-3.786787016530014967e+02,-3.459800303863768818e+02,-1.736126908302605898e+02,-2.412993911383948671e+02,-4.458788605613387972e+02,-4.778983272044953878e+02,-8.980745849137406367e+01,-1.754106535987612006e+02,9.561484336853027344e+00,-5.736890435218811035e-01,-4.589512646198272705e-01,3.020000000000000000e+02
-3.782014140130431201e+02,-3.448980933133219651e+02,-1.751825503585575916e+02,-2.407467218383322916e+02,-4.471161286951877400e+02,-4.783670036085342190e+02,-9.076622008088497751e+01,-1.751074028874514852e+02,9.561484336853027344e+00,-5.736890435218811035e-01,-4.589512646198272705e-01,3.030000000000000000e+02
-3.765717363837244989e+02,-3.424318596578962115e+02,-1.743545414143029575e+02,-2.386365873724437279e+02,-4.461209429899303132e+02,-4.778182589485394374e+02,-8.939616098325518578e+01,-1.730753047106107942e+02,9.561484336853027344e+00,-5.736890435218811035e-01,-4.589512646198272705e-01,3.040000000000000000e+02
-3.741015853116436460e+02,-3.400204540665164359e+02,-1.714422829988272952e+02,-2.355299167302317755e+02,-4.429801018572787825e+02,-4.763020355096380740e+02,-8.556881277463105562e+01,-1.699339400213589215e+02,9.561484336853027344e+00,-5.736890435218811035e-01,-4.589512646198272705e-01,3.050000000000000000e+02
-3.713252710265448968e+02,-3.386608404842074833e+02,-1.678024000416148738e+02,-2.322392832153935842e+02,-4.386952793922133083e+02,-4.742206369396151899e+02,-8.025289092692469239e+01,-1.666654133092040411e+02,9.561484336853027344e+00,-5.736890435218811035e-01,-4.589512646198272705e-01,3.060000000000000000e+02
-3.687084458030848282e+02,-3.381198884528202484e+02,-1.649168762358142430e+02,-2.295889569831534800e+02,-4.345196084068476239e+02,-4.721931704819051561e+02,-7.517117844309984775e+01,-1.641530631592993359e+02,9.561484336853027344e+00,-5.736890435218811035e-01,-4.589512646198272705e-01,3.070000000000000000e+02
-3.665141102565939946e+02,-3.373320876154919006e+02,-1.634551474914911751e+02,-2.281890353599807213e+02,-4.312684993597064249e+02,-4.707788640168519692e+02,-7.194875557073157779e+01,-1.628245377926624542e+02,9.561484336853027344e+00,-5.736890435218811035e-01,-4.589512646198272705e-01,3.080000000000000000e+02
-3.648115008064725089e+02,-3.355408478820589266e+02,-1.630938113204053934e+02,-2.281763822774614709e+02,-4.290621797867678424e+02,-4.701287183246733434e+02,-7.125105053186041459e+01,-1.624859860752886789e+02,9.561484336853027344e+00,-5.736890435218811035e-01,-4.589512646198272705e-01,3.090000000000000000e+02
-3.635223209605262014e+02,-3.330257664685468058e+02,-1.631493292732257032e+02,-2.290305816291120209e+02,-4.275903923837871048e+02,-4.698175294042446808e+02,-7.248642680129967175e+01,-1.624335362824085678e+02,9.561484336853027344e+00,-5.736890435218811035e-01,-4.589512646198272705e-01,3.100000000000000000e+02
-3.624613089238291082e+02,-3.307425550201319311e+02,-1.633293458979863999e+02,-2.297154435211829195e+02,-4.265847570617286237e+02,-4.690901684158603757e+02,-7.431105083870068029e+01,-1.618755235051944510e+02,9.561484336853027344e+00,-5.736890435218811035e-01,-4.589512646198272705e-01,3.110000000000000000e+02
-3.614174571256762079e+02,-3.293345161301925259e+02,-1.638849318982357772e+02,-2.292600698638956374e+02,-4.260887230059603326e+02,-4.674471333108717772e+02,-7.560668046567627698e+01,-1.604976274877225251e+02,9.484992027282714844e+00,-7.649186849594116211e-01,-4.207052886486053467e-01,3.120000000000000000e+02
-3.603020957573007195e+02,-3.285715961556275033e+02,-1.651230829398026572e+02,-2.274867440888569945e+02,-4.263622501104629805e+02,-4.651497410018135952e+02,-7.623096115697148889e+01,-1.587867934140645048e+02,9.484992027282714844e+00,-7.649186849594116211e-01,-4.207052886486053467e-01,3.130000000000000000e+02
-3.592730366234873145e+02,-3.277449214515577864e+02,-1.668828977888337022e+02,-2.253017330995505745e+02,-4.275632045636123166e+02,-4.631746836206319813e+02,-7.697607716096456443e+01,-1.577775203769867858e+02,9.484992027282714844e+00,-7.649186849594116211e-01,-4.207052886486053467e-01,3.140000000000000000e+02
-3.586755410316279153e+02,-3.265032509904874019e+02,-1.685379640124299385e+02,-2.241597006465424329e+02,-4.294546830024353312e+02,-4.625089712540551545e+02,-7.876261153474013099e+01,-1.582704978802057667e+02,9.484992027282714844e+00,-7.649186849594116211e-01,-4.207052886486053467e-01,3.150000000000000000e+02
-3.587479050926887680e+02,-3.251844694328600553e+02,-1.694884589930926495e+02,-2.249715862329341007e+02,-4.313080256215249619e+02,-4.632422772490563148e+02,-8.169901826936018097e+01,-1.600511372944531558e+02,9.484992027282714844e+00,-7.649186849594116211e-01,-4.207052886486053467e-01,3.160000000000000000e+02
-3.592824157379035910e+02,-3.243016603086771283e+02,-1.695984534104238719e+02,-2.272942321669771673e+02,-4.320716191279148006e+02,-4.642140527969804680e+02,-8.478049917231896870e+01,-1.617668745129295758e+02,9.484992027282714844e+00,-7.649186849594116211e-01,-4.207052886486053467e-01,3.170000000000000000e+02
-3.595570788705479117e+02,-3.238118288275232999e+02,-1.691401763403903260e+02,-2.295395334164946917e+02,-4.308015550463112504e+02,-4.636583955955834426e+02,-8.653004629495546851e+01,-1.617028589324002041e+02,9.484992027282714844e+00,-7.649186849594116211e-01,-4.207052886486053467e-01,3.180000000000000000e+02
-3.586967469311709920e+02,-3.230219316543018522e+02,-1.683519908262946956e+02,-2.301086687162985527e+02,-4.271870407006679216e+02,-4.604561372549699172e+02,-8.608565521447906121e+01,-1.589346539684463551e+02,9.484992027282714844e+00,-7.649186849594116211e-01,-4.207052886486053467e-01,3.190000000000000000e+02
-3.562501517191877838e+02,-3.212717694068566061e+02,-1.670914094048104062e+02,-2.285101459646371040e+02,-4.218161508839884846e+02,-4.549720426106057403e+02,-8.383217772200214313e+01,-1.539208651078722596e+02,9.484992027282714844e+00,-7.649186849594116211e-01,-4.207052886486053467e-01,3.200000000000000000e+02
-3.525427371493827877e+02,-3.186803946698084928e+02,-1.649421963914404614e+02,-2.255113406693694742e+02,-4.158706271078458485e+02,-4.486990519829822688e+02,-8.102787888878879130e+01,-1.480054246856008149e+02,9.484992027282714844e+00,-7.649186849594116211e-01,-4.207052886486053467e-01,3.210000000000000000e+02
-3.485113378957863688e+02,-3.161539905265226480e+02,-1.616837957119782914e+02,-2.222540725113691451e+02,-4.103579498772713805e+02,-4.429500242379884867e+02,-7.873017573367189925e+01,-1.422393927550253920e+02,9.484992027282714844e+00,-7.649186849594116211e-01,-4.207052886486053467e-01,3.220000000000000000e+02
-3.451487603044738535e+02,-3.145991413504450520e+02,-1.577120722640659096e+02,-2.192356065675303398e+02,-4.054882402072776131e+02,-4.377782774294475985e+02,-7.697684517435857288e+01,-1.366096358661656041e+02,9.484992027282714844e+00,-7.649186849594116211e-01,-4.207052886486053467e-01,3.230000000000000000e+02
-3.429826837407606490e+02,-3.140792588799553187e+02,-1.540321677341180475e+02,-2.161274051565883383e+02,-4.007801605011331958e+02,-4.321745665305862758e+02,-7.495977523360306805e+01,-1.304275775141770737e+02,9.484992027282714844e+00,-7.649186849594116211e-01,-4.207052886486053467e-01,3.240000000000000000e+02
-3.419137689942208453e+02,-3.136850045460610090e+02,-1.517578414979188892e+02,-2.125002982276782859e+02,-3.958235027221412565e+02,-4.253727793659022609e+02,-7.200055618831174797e+01,-1.234935887359448543e+02,9.484992027282714844e+00,-7.649186849594116211e-01,-4.207052886486053467e-01,3.250000000000000000e+02
-3.413996420569284282e+02,-3.122040993740147314e+02,-1.514156785372865670e+02,-2.085981347631562812e+02,-3.909643101996573478e+02,-4.179795654725155600e+02,-6.839897792709268742e+01,-1.168476570867122746e+02,9.484992027282714844e+00,-7.649186849594116211e-01,-4.207052886486053467e-01,3.260000000000000000e+02
-3.407558037581067083e+02,-3.089934957830849953e+02,-1.525489642137544024e+02,-2.053029588185058856e+02,-3.872125764943805279e+02,-4.117666950920288400e+02,-6.534711386841649983e+01,-1.122721419221483075e+02,9.484992027282714844e+00,-7.649186849594116211e-01,-4.207052886486053467e-01,3.270000000000000000e+02
-3.394019996899455691e+02,-3.043888482629777172e+02,-1.539494602742527150e+02,-2.033454385668086388e+02,-3.854166069198251989e+02,-4.082614876037716840e+02,-6.398741759475035451e+01,-1.109157972915808159e+02,9.484992027282714844e+00,-7.649186849594116211e-01,-4.207052886486053467e-01,3.280000000000000000e+02
-3.370508067397870491e+02,-2.994718230245191535e+02,-1.544121644913533373e+02,-2.026462509642256009e+02,-3.854837910257635940e+02,-4.074764877484158205e+02,-6.448651226478523313e+01,-1.122968014248989448e+02,9.484992027282714844e+00,-7.649186849594116211e-01,-4.207052886486053467e-01,3.290000000000000000e+02
-3.338782261616046299e+02,-2.954897477377046471e+02,-1.534759932546230630e+02,-2.025058852030770140e+02,-3.863638390134190104e+02,-4.079794248516991502e+02,-6.593820990364065437e+01,-1.146039517610482790e+02,9.484992027282714844e+00,-7.649186849594116211e-01,-4.207052886486053467e-01,3.300000000000000000e+02
-3.305841605088961614e+02,-2.933264326868575154e+02,-1.515712695026296615e+02,-2.024139212140396467e+02,-3.867487483470508778e+02,-4.081732468455141998e+02,-6.711616201450044628e+01,-1.159975273667216698e+02,9.484992027282714844e+00,-7.649186849594116211e-01,-4.207052886486053467e-01,3.310000000000000000e+02
-3.281478020175122765e+02,-2.932036109662069521e+02,-1.494597218980336493e+02,-2.025459722834366403e+02,-3.858021938344892305e+02,-4.074914324843133500e+02,-6.733435338746198795e+01,-1.157090480712223552e+02,9.484992027282714844e+00,-7.649186849594116211e-01,-4.207052886486053467e-01,3.320000000000000000e+02
-3.272701115174045299e+02,-2.946262221267713812e+02,-1.474944695693280892e+02,-2.033832543098180849e+02,-3.833696413835582462e+02,-4.064268880365241330e+02,-6.670867839039067348e+01,-1.140819151469924009e+02,9.484992027282714844e+00,-7.649186849594116211e-01,-4.207052886486053467e-01,3.330000000000000000e+02
-3.278467575688766829e+02,-2.965655984712873305e+02,-1.454286352457577323e+02,-2.049062867484468597e+02,-3.797605502066123790e+02,-4.055811325172649049e+02,-6.577696740380463325e+01,-1.118279475187888465e+02,9.484992027282714844e+00,-7.649186849594116211e-01,-4.207052886486053467e-01,3.340000000000000000e+02
-3.289205375454089335e+02,-2.978702593643401997e+02,-1.429746078976567105e+02,-2.063331249980986968e+02,-3.755573560876099464e+02,-4.048904654352301122e+02,-6.500547146598205472e+01,-1.094588387521083632e+02,9.484992027282714844e+00,-7.649186849594116211e-01,-4.207052886486053467e-01,3.350000000000000000e+02
-3.292227551424781495e+02,-2.977498444857228606e+02,-1.405069756944421897e+02,-2.067636509144425645e+02,-3.716154730941914295e+02,-4.038299835466350487e+02,-6.461947399359019073e+01,-1.073809948128207452e+02,9.484992027282714844e+00,-7.649186849594116211e-01,-4.207052886486053467e-01,3.360000000000000000e+02
-3.279181311750032819e+02,-2.960507787212303583e+02,-1.390523575921100701e+02,-2.060489780080951050e+02,-3.689510936087647224e+02,-4.022155083934129607e+02,-6.468935529451084676e+01,-1.061979219177835603e+02,9.484992027282714844e+00,-7.649186849594116211e-01,-4.207052886486053467e-01,3.370000000000000000e+02
-3.249873079350870739e+02,-2.931397668097210953e+02,-1.393852779585229200e+02,-2.048906249846461378e+02,-3.682417901396345314e+02,-4.005611202345476158e+02,-6.511835084576853205e+01,-1.064878652876823253e+02,9.484992027282714844e+00,-7.649186849594116211e-01,-4.207052886486053467e-01,3.380000000000000000e+02
-3.210067097366010103e+02,-2.895101328959196962e+02,-1.410166896075254499e+02,-2.039743881904579439e+02,-3.691836785563411922e+02,-3.994965396509353468e+02,-6.541128964810798152e+01,-1.080422387680870315e+02,9.484992027282714844e+00,-7.649186849594116211e-01,-4.207052886486053467e-01,3.390000000000000000e+02
-3.166198192056579046e+02,-2.854718293406128851e+02,-1.421506175555289246e+02,-2.030511887199821786e+02,-3.703467097993342350e+02,-3.988763747033917753e+02,-6.457789143995159975e+01,-1.094314339429145093e+02,9.484992027282714844e+00,-7.649186849594116211e-01,-4.207052886486053467e-01,3.400000000000000000e+02
-3.121938183598658725e+02,-2.811774611663390715e+02,-1.408823275178243648e+02,-2.010419662500777349e+02,-3.698941318740925226e+02,-3.976415966914344153e+02,-6.157690122536394028e+01,-1.086907442547694700e+02,9.484992027282714844e+00,-7.649186849594116211e-01,-4.207052886486053467e-01,3.410000000000000000e+02
-3.078909399984698894e+02,-2.768837160019095336e+02,-1.367303448600588354e+02,-1.972111072114992112e+02,-3.667571193056051015e+02,-3.947372797735733911e+02,-5.617570728723433149e+01,-1.048245536193517182e+02,9.484992027282714844e+00,-7.649186849594116211e-01,-4.207052886486053467e-01,3.420000000000000000e+02
-3.039350156101279481e+02,-2.731002899109901136e+02,-1.311685304725541528e+02,-1.922595207059379163e+02,-3.613581588795782409e+02,-3.902380174329009606e+02,-4.951699708748299145e+01,-9.882496854022440402e+01,9.446745872497558594e+00,-8.796565532684326172e-01,-5.354431271553039551e-01,3.430000000000000000e+02
-3.006936505185885835e+02,-2.703740834917518896e+02,-1.266336175415121943e+02,-1.881178054410963796e+02,-3.552914710400493732e+02,-3.855220151141561473e+02,-4.371356025184002192e+01,-9.315284900059168649e+01,9.446745872497558594e+00,-8.796565532684326172e-01,-5.354431271553039551e-01,3.440000000000000000e+02
-2.984548194613350915e+02,-2.688467338219163594e+02,-1.247869342557113441e+02,-1.864413793852438630e+02,-3.502103689053665221e+02,-3.822171497200797603e+02,-4.056684712499475154e+01,-8.997630049956103448e+01,9.446745872497558594e+00,-8.796565532684326172e-01,-5.354431271553039551e-01,3.450000000000000000e+02
-2.971465337507249842e+02,-2.680264050698182245e+02,-1.254530058332346698e+02,-1.871564212049673870e+02,-3.468028089747904232e+02,-3.808614025040178603e+02,-4.035273903476070245e+01,-8.964090396417441298e+01,9.446745872497558594e+00,-8.796565532684326172e-01,-5.354431271553039551e-01,3.460000000000000000e+02
-2.963238641155598998e+02,-2.670873291302459620e+02,-1.270333890831782355e+02,-1.884837949540187765e+02,-3.445968601463650884e+02,-3.805285995883000396e+02,-4.170615319608418758e+01,-9.066534354758960035e+01,9.446745872497558594e+00,-8.796565532684326172e-01,-5.354431271553039551e-01,3.470000000000000000e+02
-2.954509605896614630e+02,-2.655174392234953302e+02,-1.278998994140838477e+02,-1.885099217319700529e+02,-3.426049780753855885e+02,-3.797470462144638077e+02,-4.275483832545387486e+01,-9.116137397032525769e+01,9.446745872497558594e+00,-8.796565532684326172e-01,-5.354431271553039551e-01,3.480000000000000000e+02
-2.942118804415605382e+02,-2.635741459473188115e+02,-1.275467861479826297e+02,-1.868999477745903732e+02,-3.401909917777711598e+02,-3.778288853627577737e+02,-4.260616645096524735e+01,-9.036383351891231541e+01,9.446745872497558594e+00,-8.796565532684326172e-01,-5.354431271553039551e-01,3.490000000000000000e+02
-2.925707824918016513e+02,-2.621212181081982635e+02,-1.266270353609346557e+02,-1.851700927361536060e+02,-3.374729158066945729e+02,-3.753693619161085735e+02,-4.196366372202351158e+01,-8.897912311712752853e+01,9.446745872497558594e+00,-8.796565532684326172e-01,-5.354431271553039551e-01,3.500000000000000000e+02
-2.906021343533495838e+02,-2.619359339984966937e+02,-1.260632955989282209e+02,-1.852591864041422696e+02,-3.350535132184288614e+02,-3.735089411523667877e+02,-4.238539177311167805e+01,-8.823823062904921244e+01,9.446745872497558594e+00,-8.796565532684326172e-01,-5.354431271553039551e-01,3.510000000000000000e+02
-2.883672488948500359e+02,-2.630429665410370035e+02,-1.261814878585355473e+02,-1.877213447928883170e+02,-3.334387026166955366e+02,-3.727398507331192832e+02,-4.486034103376846360e+01,-8.867883325258435434e+01,9.446745872497558594e+00,-8.796565532684326172e-01,-5.354431271553039551e-01,3.520000000000000000e+02
-2.860060291932932159e+02,-2.646305730111134835e+02,-1.266044693610916738e+02,-1.911937651454967408e+02,-3.326576603422702192e+02,-3.724283438409479459e+02,-4.892198934789371378e+01,-8.975056153557716243e+01,9.446745872497558594e+00,-8.796565532684326172e-01,-5.354431271553039551e-01,3.530000000000000000e+02
-2.838979675161431260e+02,-2.656419218212704436e+02,-1.268279282394350957e+02,-1.935902371401134587e+02,-3.323380545361537770e+02,-3.714825663818580779e+02,-5.302075593370955175e+01,-9.045520692480022262e+01,9.446745872497558594e+00,-8.796565532684326172e-01,-5.354431271553039551e-01,3.540000000000000000e+02
-2.825871462266682101e+02,-2.655546975791082787e+02,-1.267883871676457375e+02,-1.938928028026089123e+02,-3.320710482694414623e+02,-3.694940578556770561e+02,-5.578306165315461840e+01,-9.031069776087861101e+01,9.446745872497558594e+00,-8.796565532684326172e-01,-5.354431271553039551e-01,3.550000000000000000e+02
-2.823867986663951797e+02,-2.647094030765385924e+02,-1.268715811259969541e+02,-1.929416005131961356e+02,-3.317126298908110584e+02,-3.672597255059711188e+02,-5.707505842784576089e+01,-8.978194541343191304e+01,9.446745872497558594e+00,-8.796565532684326172e-01,-5.354431271553039551e-01,3.560000000000000000e+02
-2.829784507332030898e+02,-2.639360517427339801e+02,-1.274506944739895289e+02,-1.925986617726948680e+02,-3.314168445909256207e+02,-3.661934062752579848e+02,-5.800019116152407150e+01,-8.988683580730275935e+01,9.446745872497558594e+00,-8.796565532684326172e-01,-5.354431271553039551e-01,3.570000000000000000e+02
-2.834581960707425878e+02,-2.638382023545766515e+02,-1.285154805629863404e+02,-1.941311245079541550e+02,-3.314715018859844804e+02,-3.671713542184761536e+02,-5.989722034023543529e+01,-9.139564755737205815e+01,9.446745872497558594e+00,-8.796565532684326172e-01,-5.354431271553039551e-01,3.580000000000000000e+02
-2.829172491405497567e+02,-2.643472229192084342e+02,-1.297554846938242008e+02,-1.972282468717050961e+02,-3.320924121754976568e+02,-3.697889890029537128e+02,-6.317513654082904395e+01,-9.425113393988249300e+01,9.446745872497558594e+00,-8.796565532684326172e-01,-5.354431271553039551e-01,3.590000000000000000e+02
-2.811000072437382187e+02,-2.648482526709626654e+02,-1.309122830653836900e+02,-2.003413239900260123e+02,-3.332471957427690086e+02,-3.725679137442291449e+02,-6.687852468779738047e+01,-9.754347344498592065e+01,9.446745872497558594e+00,-8.796565532684326172e-01,-5.354431271553039551e-01,3.600000000000000000e+02
-2.785383294350849610e+02,-2.646718945093998627e+02,-1.319332403983655695e+02,-2.018770902878723064e+02,-3.345243640246039831e+02,-3.738677488084390461e+02,-6.928444876185494650e+01,-9.998166858021886583e+01,9.446745872497558594e+00,-8.796565532684326172e-01,-5.354431271553039551e-01,3.610000000000000000e+02
-2.760218854310676306e+02,-2.634825611567507622e+02,-1.327483925472868123e+02,-2.011911597309328954e+02,-3.351374469179966127e+02,-3.727930298162007148e+02,-6.905873609376817512e+01,-1.005567363681875577e+02,9.446745872497558594e+00,-8.796565532684326172e-01,-5.354431271553039551e-01,3.620000000000000000e+02
-2.738761825018118543e+02,-2.612951607254362898e+02,-1.329900028803908754e+02,-1.987259942928949386e+02,-3.342083787563867645e+02,-3.695510148649598250e+02,-6.614994331970683561e+01,-9.904929493316740263e+01,9.446745872497558594e+00,-8.796565532684326172e-01,-5.354431271553039551e-01,3.630000000000000000e+02
-2.717201554469156690e+02,-2.582846642167328355e+02,-1.320976269500515627e+02,-1.954560026051794921e+02,-3.312961689825481244e+02,-3.651759671014615378e+02,-6.183652894567217118e+01,-9.612197491838901442e+01,9.446745872497558594e+00,-8.031646609306335449e-01,-4.207052886486053467e-01,3.640000000000000000e+02
-2.689198092301664929e+02,-2.547177983503377163e+02,-1.298363245219857163e+02,-1.922348744100438580e+02,-3.268177120374714377e+02,-3.608784032287942409e+02,-5.793695333130813196e+01,-9.290824046791180990e+01,9.446745872497558594e+00,-8.031646609306335449e-01,-4.207052886486053467e-01,3.650000000000000000e+02
-2.652860570633263251e+02,-2.510862280876958721e+02,-1.267350547941734931e+02,-1.894753640211843049e+02,-3.219234112769190688e+02,-3.573840237919841911e+02,-5.574656015822347399e+01,-9.030229056226653483e+01,9.446745872497558594e+00,-8.031646609306335449e-01,-4.207052886486053467e-01,3.660000000000000000e+02
-2.613494376519438447e+02,-2.481699317671632343e+02,-1.239212760279328904e+02,-1.871862058798799353e+02,-3.177725916185618189e+02,-3.545817839669482510e+02,-5.540845851760013829e+01,-8.840344764094152197e+01,9.446745872497558594e+00,-8.031646609306335449e-01,-4.207052886486053467e-01,3.670000000000000000e+02
-2.579489587764969656e+02,-2.467362740652940829e+02,-1.223575311021031666e+02,-1.851536391471540810e+02,-3.147311979533642443e+02,-3.516733026150423029e+02,-5.607363262270155246e+01,-8.652380840153955432e+01,9.446745872497558594e+00,-8.031646609306335449e-01,-4.207052886486053467e-01,3.680000000000000000e+02
-2.555062975116668440e+02,-2.469558734539812122e+02,-1.220692536479095907e+02,-1.831096385185642248e+02,-3.121661326494697732e+02,-3.477575106134252110e+02,-5.661220287260016448e+01,-8.378422812988310397e+01,9.446745872497558594e+00,-8.031646609306335449e-01,-4.207052886486053467e-01,3.690000000000000000e+02
-2.536372927669867750e+02,-2.480393447727844887e+02,-1.220404477945289727e+02,-1.808536251021553198e+02,-3.090357722789610762e+02,-3.424897226955833958e+02,-5.629410798291473839e+01,-7.987146524910076550e+01,9.446745872497558594e+00,-8.031646609306335449e-01,-4.207052886486053467e-01,3.700000000000000000e+02
-2.514412098890600191e+02,-2.485737356581869335e+02,-1.209438012661453286e+02,-1.783441507811810425e+02,-3.047806027972969787e+02,-3.363727552140444459e+02,-5.501798371478298577e+01,-7.540691865313851849e+01,9.446745872497558594e+00,-8.031646609306335449e-01,-4.207052886486053467e-01,3.710000000000000000e+02
-2.482312312156063854e+02,-2.474740170919130833e+02,-1.181859372462290594e+02,-1.757647905993540007e+02,-2.997750349894511146e+02,-3.305054847557016728e+02,-5.311855571796922959e+01,-7.170312909453241446e+01,9.446745872497558594e+00,-8.031646609306335449e-01,-4.207052886486053467e-01,3.720000000000000000e+02
-2.441233847310693363e+02,-2.448711891646985350e+02,-1.144834508136368640e+02,-1.735639936175061848e+02,-2.950496362371686700e+02,-3.260505522470380129e+02,-5.111661529009415972e+01,-7.015933248029455171e+01,9.446745872497558594e+00,-8.031646609306335449e-01,-4.207052886486053467e-01,3.730000000000000000e+02
-2.400291148579835863e+02,-2.421847857468642360e+02,-1.115094993059983608e+02,-1.724315927667482811e+02,-2.916232437971118543e+02,-3.238202168048092062e+02,-4.964348439389050327e+01,-7.172825089305933943e+01,9.446745872497558594e+00,-8.031646609306335449e-01,-4.207052886486053467e-01,3.740000000000000000e+02
-2.370418983734011817e+02,-2.412149361291585592e+02,-1.108194366056686704e+02,-1.731168816819549647e+02,-2.900053017018017272e+02,-3.241265209989410323e+02,-4.938498683691250335e+01,-7.665638323967868928e+01,9.446745872497558594e+00,-8.031646609306335449e-01,-4.207052886486053467e-01,3.750000000000000000e+02
-2.356272252086714616e+02,-2.428743268381595044e+02,-1.127446423792437145e+02,-1.760006193616286509e+02,-2.900803967889612522e+02,-3.267041632601763013e+02,-5.074210069050991478e+01,-8.438575815924627932e+01,9.446745872497558594e+00,-8.031646609306335449e-01,-4.207052886486053467e-01,3.760000000000000000e+02
-2.351809451129740864e+02,-2.464845651801565509e+02,-1.159978711347910121e+02,-1.805400583316593384e+02,-2.911911569969979610e+02,-3.305373460729474573e+02,-5.326729542520274663e+01,-9.349908066251100536e+01,9.446745872497558594e+00,-8.031646609306335449e-01,-4.207052886486053467e-01,3.770000000000000000e+02
-2.343182590677301960e+02,-2.501425447861372504e+02,-1.183214781731737730e+02,-1.850196950378892780e+02,-2.922530059341288506e+02,-3.338197342172747994e+02,-5.543617149898318530e+01,-1.018749073060164392e+02,9.446745872497558594e+00,-8.031646609306335449e-01,-4.207052886486053467e-01,3.780000000000000000e+02
-2.317719241955860525e+02,-2.518518487181431738e+02,-1.178301376368192450e+02,-1.870534247582509124e+02,-2.919970177056554803e+02,-3.344405043038802887e+02,-5.528387404805107508e+01,-1.073187705392545013e+02,9.446745872497558594e+00,-8.031646609306335449e-01,-4.207052886486053467e-01,3.790000000000000000e+02
-2.273165657444551471e+02,-2.506044113478126292e+02,-1.141980009031594818e+02,-1.848053017004970116e+02,-2.894800557361447773e+02,-3.309972552088602242e+02,-5.173558102893844080e+01,-1.085872179628745471e+02,9.446745872497558594e+00,-8.031646609306335449e-01,-4.207052886486053467e-01,3.800000000000000000e+02
-2.220381688641052733e+02,-2.467622736930402425e+02,-1.088817146535852771e+02,-1.782360747631239519e+02,-2.846846752783310421e+02,-3.237227967492935932e+02,-4.567506481082114078e+01,-1.061998485441890807e+02,9.446745872497558594e+00,-8.031646609306335449e-01,-4.207052886486053467e-01,3.810000000000000000e+02
-2.176767574015277660e+02,-2.416579811162259830e+02,-1.041944862386967543e+02,-1.694224307775964462e+02,-2.787265240772419475e+02,-3.145476106069875186e+02,-3.973342639954944389e+01,-1.023169610006966650e+02,9.446745872497558594e+00,-8.031646609306335449e-01,-4.207052886486053467e-01,3.820000000000000000e+02
-2.154537975736466251e+02,-2.368212040536579934e+02,-1.018625932361708237e+02,-1.615283740105746801e+02,-2.733444585748884492e+02,-3.061105586219002817e+02,-3.670937971595890303e+01,-9.955280802406196017e+01,9.446745872497558594e+00,-8.031646609306335449e-01,-4.207052886486053467e-01,3.830000000000000000e+02
-2.152306227426968235e+02,-2.333181506473154059e+02,-1.020677550596826677e+02,-1.570263573732486293e+02,-2.699114505174072747e+02,-3.003733448806483466e+02,-3.769917362424939711e+01,-9.947137989539805858e+01,9.446745872497558594e+00,-8.031646609306335449e-01,-4.207052886486053467e-01,3.840000000000000000e+02
-2.156266988329653032e+02,-2.314498485142862592e+02,-1.035860183153795333e+02,-1.563758936114022617e+02,-2.686457295035006609e+02,-2.977694790199361705e+02,-4.135559526962833843e+01,-1.018316455788808526e+02,9.446745872497558594e+00,-8.031646609306335449e-01,-4.207052886486053467e-01,3.850000000000000000e+02
-2.150012267553140646e+02,-2.308121662245882817e+02,-1.047888801587171201e+02,-1.580441475824811732e+02,-2.685853196004386518e+02,-2.973248581707418907e+02,-4.486096926583536515e+01,-1.050973484216201541e+02,9.446745872497558594e+00,-8.031646609306335449e-01,-4.207052886486053467e-01,3.860000000000000000e+02
-2.125461075499420076e+02,-2.306252440160305923e+02,-1.046869430482540793e+02,-1.597431293579770681e+02,-2.683086954380923999e+02,-2.974483767656015516e+02,-4.586959454084717436e+01,-1.077219289927661521e+02,9.446745872497558594e+00,-8.031646609306335449e-01,-4.207052886486053467e-01,3.870000000000000000e+02
-2.086993446525461877e+02,-2.301928503965577875e+02,-1.033130326695797976e+02,-1.598935239033712605e+02,-2.668498000352658437e+02,-2.967639190116317423e+02,-4.395231126662315546e+01,-1.091527705242278898e+02,9.446745872497558594e+00,-8.031646609306335449e-01,-4.207052886486053467e-01,3.880000000000000000e+02
-2.046784086466379904e+02,-2.292729001895929741e+02,-1.013770461523181439e+02,-1.583191160844148726e+02,-2.642008045141319599e+02,-2.945919019976138316e+02,-4.057798666780172425e+01,-1.098810520829067627e+02,9.523238182067871094e+00,-9.943943619728088379e-01,-4.589512646198272705e-01,3.890000000000000000e+02
-2.015925175338409190e+02,-2.281243681343564731e+02,-9.966706412449684649e+01,-1.558912376899879746e+02,-2.611821016242081441e+02,-2.910734092687034718e+02,-3.785821961112947065e+01,-1.107493406029416292e+02,9.523238182067871094e+00,-9.943943619728088379e-01,-4.589512646198272705e-01,3.900000000000000000e+02
-1.998074938725426364e+02,-2.271784168213137036e+02,-9.868726015647871463e+01,-1.536483288630065545e+02,-2.588865200340328556e+02,-2.870433755890662724e+02,-3.714590536766286277e+01,-1.122877750259826826e+02,9.523238182067871094e+00,-9.943943619728088379e-01,-4.589512646198272705e-01,3.910000000000000000e+02
-1.989068264794552761e+02,-2.265903599672742530e+02,-9.861604615326746170e+01,-1.521413686804487497e+02,-2.580562021341370382e+02,-2.836455099915792744e+02,-3.845720560189465687e+01,-1.145907060655845271e+02,9.523238182067871094e+00,-9.943943619728088379e-01,-4.589512646198272705e-01,3.920000000000000000e+02
-1.980953312829026345e+02,-2.260733766052555893e+02,-9.935458578078100800e+01,-1.513522221179762255e+02,-2.586820142370218036e+02,-2.817194394340826875e+02,-4.086149710114341360e+01,-1.175520423285711331e+02,9.523238182067871094e+00,-9.943943619728088379e-01,-4.589512646198272705e-01,3.930000000000000000e+02
-1.966484330352047891e+02,-2.251702338738073195e+02,-1.004854124588596278e+02,-1.509806782881596519e+02,-2.599459840370641359e+02,-2.812341144758515838e+02,-4.322944591856685292e+01,-1.209364061065646183e+02,9.523238182067871094e+00,-9.943943619728088379e-01,-4.589512646198272705e-01,3.940000000000000000e+02
-1.941396049825807495e+02,-2.236976132703994153e+02,-1.012493941907348471e+02,-1.507110397887993258e+02,-2.605190935562272898e+02,-2.812104646693223913e+02,-4.470709987785176054e+01,-1.241346257646150661e+02,9.523238182067871094e+00,-9.943943619728088379e-01,-4.589512646198272705e-01,3.950000000000000000e+02
-1.904670513710125306e+02,-2.219162460805157480e+02,-1.007875989232766187e+02,-1.502841493316377637e+02,-2.591481408593995184e+02,-2.803244310534905708e+02,-4.479141487831702761e+01,-1.260466002835187282e+02,9.523238182067871094e+00,-9.943943619728088379e-01,-4.589512646198272705e-01,3.960000000000000000e+02
-1.858341712008566446e+02,-2.202521395580777153e+02,-9.863701527349689968e+01,-1.494657956129765353e+02,-2.552994338028529455e+02,-2.778127503505616005e+02,-4.330344504641402636e+01,-1.255574168684229335e+02,9.523238182067871094e+00,-9.943943619728088379e-01,-4.589512646198272705e-01,3.970000000000000000e+02
-1.807415791194141548e+02,-2.188631854355605810e+02,-9.511823931225035267e+01,-1.480805267064054078e+02,-2.494972779261584037e+02,-2.739949692276331916e+02,-4.047914414581146048e+01,-1.224223442449224422e+02,9.523238182067871094e+00,-9.943943619728088379e-01,-4.589512646198272705e-01,3.980000000000000000e+02
-1.758934336752115541e+02,-2.175078598999280075e+02,-9.120800311337006860e+01,-1.461167407046339122e+02,-2.430745508282748233e+02,-2.699843536254825267e+02,-3.704115761477419255e+01,-1.177423171792443100e+02,9.523238182067871094e+00,-9.943943619728088379e-01,-4.589512646198272705e-01,3.990000000000000000e+02
-1.719429881934695459e+02,-2.158386594722480822e+02,-8.791308321491055722e+01,-1.437725832899536726e+02,-2.374363572057832243e+02,-2.668229615719933463e+02,-3.398062581271528870e+01,-1.133972450598257637e+02,9.523238182067871094e+00,-9.943943619728088379e-01,-4.589512646198272705e-01,4.000000000000000000e+02
-1.691707925567930033e+02,-2.137929081074350961e+02,-8.566131916978201843e+01,-1.413856504867960666e+02,-2.333447646975214411e+02,-2.647732962026666428e+02,-3.207591352430199549e+01,-1.107772849269049402e+02,9.523238182067871094e+00,-9.943943619728088379e-01,-4.589512646198272705e-01,4.010000000000000000e+02
-1.673285815100664422e+02,-2.116724605908339072e+02,-8.426014546565033925e+01,-1.393304609263677776e+02,-2.307727413635875564e+02,-2.633377767620704617e+02,-3.152505796412106065e+01,-1.099261290166982690e+02,9.523238182067871094e+00,-9.943943619728088379e-01,-4.589512646198272705e-01,4.020000000000000000e+02
-1.658157558472400979e+02,-2.098355984817212629e+02,-8.343134210244716087e+01,-1.379543195113230922e+02,-2.293892602329287911e+02,-2.618904023086811321e+02,-3.200219388784307739e+01,-1.098697754686882035e+02,9.523238182067871094e+00,-9.943943619728088379e-01,-4.589512646198272705e-01,4.030000000000000000e+02
-1.640891501558844539e+02,-2.083236306166443228e+02,-8.331907329864407075e+01,-1.374913705190422206e+02,-2.291208264812853486e+02,-2.602489932204184697e+02,-3.302850778152105704e+01,-1.097402114266592434e+02,9.523238182067871094e+00,-9.943943619728088379e-01,-4.589512646198272705e-01,4.040000000000000000e+02
-1.620070564539023508e+02,-2.068001107773138756e+02,-8.437114750429009291e+01,-1.378802040456605482e+02,-2.301428027553665743e+02,-2.586359369685251295e+02,-3.425280959377141698e+01,-1.095201409899987084e+02,9.523238182067871094e+00,-9.943943619728088379e-01,-4.589512646198272705e-01,4.050000000000000000e+02
-1.598756872263616060e+02,-2.048468524279719531e+02,-8.668656946942974173e+01,-1.385891224714519012e+02,-2.323050019356401208e+02,-2.571405232469232942e+02,-3.543051929591092630e+01,-1.097077079954624423e+02,9.523238182067871094e+00,-9.943943619728088379e-01,-4.589512646198272705e-01,4.060000000000000000e+02
-1.582230028414103344e+02,-2.023322549499102934e+02,-8.959389625240419264e+01,-1.387295940243809582e+02,-2.347219320200856600e+02,-2.553547778224306057e+02,-3.632910317144296641e+01,-1.104383352083700629e+02,9.523238182067871094e+00,-9.943943619728088379e-01,-4.589512646198272705e-01,4.070000000000000000e+02
-1.574920939390265175e+02,-1.995214780741639515e+02,-9.205466667722635066e+01,-1.375932373707009901e+02,-2.362012374044425087e+02,-2.526977605826750732e+02,-3.684560931567148145e+01,-1.111946219851424758e+02,9.523238182067871094e+00,-9.943943619728088379e-01,-4.589512646198272705e-01,4.080000000000000000e+02
-1.578173423436467147e+02,-1.968689142030275434e+02,-9.357546029450577407e+01,-1.353011232975968596e+02,-2.362693805673293355e+02,-2.491852747680345601e+02,-3.724819324409554611e+01,-1.115065326600170010e+02,9.523238182067871094e+00,-9.943943619728088379e-01,-4.589512646198272705e-01,4.090000000000000000e+02
-1.589141898408422549e+02,-1.947116607208381538e+02,-9.462794378172179677e+01,-1.329625610349364706e+02,-2.357085653737040047e+02,-2.458264212050357855e+02,-3.812080237638156177e+01,-1.117998281251348089e+02,9.523238182067871094e+00,-9.943943619728088379e-01,-4.589512646198272705e-01,4.100000000000000000e+02
-1.600690953009059285e+02,-1.931078661044675755e+02,-9.596520443355507268e+01,-1.320099645882519326e+02,-2.357797404652942532e+02,-2.440511687039138451e+02,-3.980378706141164002e+01,-1.132029316286607354e+02,9.523238182067871094e+00,-9.943943619728088379e-01,-4.589512646198272705e-01,4.110000000000000000e+02
-1.602942230712237688e+02,-1.918988330531556130e+02,-9.740955297446157601e+01,-1.331053678575663071e+02,-2.366571568827871488e+02,-2.445012970976058568e+02,-4.177844817357572538e+01,-1.162187095263839183e+02,9.523238182067871094e+00,-9.943943619728088379e-01,-4.589512646198272705e-01,4.120000000000000000e+02
-1.587309642114780672e+02,-1.908827531413639917e+02,-9.745853938653544901e+01,-1.355189853596370995e+02,-2.366695806042594086e+02,-2.462466682535600739e+02,-4.274170984122929440e+01,-1.195788911343406653e+02,9.523238182067871094e+00,-9.943943619728088379e-01,-4.589512646198272705e-01,4.130000000000000000e+02
-1.551899628089768157e+02,-1.899329315755649077e+02,-9.439752277783986756e+01,-1.375499513862514505e+02,-2.333970716024655303e+02,-2.472168468839681736e+02,-4.154355166284085499e+01,-1.206775910123988069e+02,9.523238182067871094e+00,-9.943943619728088379e-01,-4.589512646198272705e-01,4.140000000000000000e+02
-1.504420240456684041e+02,-1.889763593578700238e+02,-8.804475525138332159e+01,-1.376651239139280278e+02,-2.258517430880979191e+02,-2.455707641592171058e+02,-3.821467348532451069e+01,-1.174850761891652837e+02,9.523238182067871094e+00,-9.943943619728088379e-01,-4.589512646198272705e-01,4.150000000000000000e+02
-1.459052964088016324e+02,-1.878787291651678970e+02,-8.039769986860778772e+01,-1.354071619524540893e+02,-2.156888607956007036e+02,-2.408794832052676611e+02,-3.405201717477348211e+01,-1.102777310504652633e+02,9.446745872497558594e+00,-1.070886254310607910e+00,-4.971971809864044189e-01,4.160000000000000000e+02
-1.428138725366757171e+02,-1.863736210004353779e+02,-7.435960764223068509e+01,-1.313999779304706408e+02,-2.061444708925214400e+02,-2.341957740746502168e+02,-3.058464167078864193e+01,-1.015609877449260239e+02,9.446745872497558594e+00,-1.070886254310607910e+00,-4.971971809864044189e-01,4.170000000000000000e+02
-1.414746468651578652e+02,-1.841631615742830945e+02,-7.159521131702990715e+01,-1.266600235420271474e+02,-1.995875322207771205e+02,-2.271163515131797794e+02,-2.837540910799270932e+01,-9.424560761878319681e+01,9.446745872497558594e+00,-1.070886254310607910e+00,-4.971971809864044189e-01,4.180000000000000000e+02
-1.412240907107866406e+02,-1.811717368306476601e+02,-7.147202974393530894e+01,-1.219760896107113695e+02,-1.959593614021323447e+02,-2.207742355086870703e+02,-2.679935534493233718e+01,-8.974534735071438263e+01,9.446745872497558594e+00,-1.070886254310607910e+00,-4.971971809864044189e-01,4.190000000000000000e+02
-1.410946225749976293e+02,-1.777403122808864282e+02,-7.200794299896210759e+01,-1.178436622715241811e+02,-1.934933234238214936e+02,-2.155497188156455195e+02,-2.493471197766439218e+01,-8.758677849777768643e+01,9.446745872497558594e+00,-1.070886254310607910e+00,-4.971971809864044189e-01,4.200000000000000000e+02
-1.405672434466357572e+02,-1.745407694247769541e+02,-7.180216086646919393e+01,-1.147577908742287036e+02,-1.908460822050901697e+02,-2.114794471182826783e+02,-2.259706852611680006e+01,-8.657713512094869657e+01,9.446745872497558594e+00,-1.070886254310607910e+00,-4.971971809864044189e-01,4.210000000000000000e+02
-1.397492188669311872e+02,-1.721934638072584676e+02,-7.106064488036167859e+01,-1.133044637895231972e+02,-1.884398822378188925e+02,-2.087255068278877843e+02,-2.049687927394325015e+01,-8.615122047847899012e+01,9.446745872497558594e+00,-1.070886254310607910e+00,-4.971971809864044189e-01,4.220000000000000000e+02
-1.389489925374823542e+02,-1.708510811805913363e+02,-7.088803466713829948e+01,-1.138157194498044191e+02,-1.877578094884497659e+02,-2.075933136438720794e+02,-1.948737592897941795e+01,-8.660961280950368746e+01,9.446745872497558594e+00,-1.070886254310607910e+00,-4.971971809864044189e-01,4.230000000000000000e+02
-1.382108456862531511e+02,-1.700951119626979562e+02,-7.183067199229617472e+01,-1.159299431274459948e+02,-1.895030427321694333e+02,-2.081596378474241646e+02,-1.979202087145949918e+01,-8.828967455205656734e+01,9.446745872497558594e+00,-1.070886254310607910e+00,-4.971971809864044189e-01,4.240000000000000000e+02
-1.373159338513569310e+02,-1.692503473635783848e+02,-7.328959962227941105e+01,-1.185602916480750082e+02,-1.926244311143459527e+02,-2.099505662757414939e+02,-2.097509359662490169e+01,-9.076756490891921203e+01,9.446745872497558594e+00,-1.070886254310607910e+00,-4.971971809864044189e-01,4.250000000000000000e+02
-1.361729373628777466e+02,-1.678745500292261568e+02,-7.429950730176256002e+01,-1.203891280074867609e+02,-1.951522662764036795e+02,-2.119884017666727232e+02,-2.248837111630200525e+01,-9.295000594638167968e+01,9.446745872497558594e+00,-1.070886254310607910e+00,-4.971971809864044189e-01,4.260000000000000000e+02
-1.350500204060108445e+02,-1.660277222268377955e+02,-7.460526667858312067e+01,-1.205210832137213401e+02,-1.958167645331805033e+02,-2.131491404351236270e+02,-2.401961829334504728e+01,-9.382823690653412996e+01,9.446745872497558594e+00,-1.070886254310607910e+00,-4.971971809864044189e-01,4.270000000000000000e+02
-1.343040382039478118e+02,-1.641419673070868157e+02,-7.470920873857926381e+01,-1.188433403007886682e+02,-1.946933009856916215e+02,-2.125942020983407019e+02,-2.526150194629371981e+01,-9.300908397591592802e+01,9.446745872497558594e+00,-1.070886254310607910e+00,-4.971971809864044189e-01,4.280000000000000000e+02
-1.338789841616955982e+02,-1.626584458831321172e+02,-7.481933835105883190e+01,-1.159252881157144657e+02,-1.923038106467256512e+02,-2.100784597232595843e+02,-2.552880004683811421e+01,-9.054494495171093149e+01,9.446745872497558594e+00,-1.070886254310607910e+00,-4.971971809864044189e-01,4.290000000000000000e+02
-1.331727192832072433e+02,-1.617409388450796541e+02,-7.400056665881470508e+01,-1.126347618751201480e+02,-1.883852689488444412e+02,-2.060481299085354294e+02,-2.391512908768208945e+01,-8.648631663254218438e+01,9.446745872497558594e+00,-1.070886254310607910e+00,-4.971971809864044189e-01,4.300000000000000000e+02
-1.315162520391995713e+02,-1.612349335374487964e+02,-7.072336174018914789e+01,-1.097379671527021401e+02,-1.819215619718920607e+02,-2.014789858850422206e+02,-2.006233537306889048e+01,-8.087920009794652287e+01,9.446745872497558594e+00,-1.070886254310607910e+00,-4.971971809864044189e-01,4.310000000000000000e+02
-1.288443188767832908e+02,-1.608013887836013964e+02,-6.450443145185090543e+01,-1.076439256078856488e+02,-1.726280479391953122e+02,-1.974709379454407099e+02,-1.482355150608555050e+01,-7.430935166949348059e+01,9.446745872497558594e+00,-1.070886254310607910e+00,-4.971971809864044189e-01,4.320000000000000000e+02
-1.259005760719073805e+02,-1.600680911989561537e+02,-5.705014276220299507e+01,-1.063472336431666463e+02,-1.623724067770353940e+02,-1.947705553413934467e+02,-1.009007138938613934e+01,-6.830009472766096223e+01,9.446745872497558594e+00,-1.070886254310607910e+00,-4.971971809864044189e-01,4.330000000000000000e+02
-1.237443623628930709e+02,-1.587384009766924464e+02,-5.159214149929653104e+01,-1.055549400927734496e+02,-1.548055121874199358e+02,-1.934851487106748209e+02,-7.775973965789944486e+00,-6.481910457596040942e+01,9.446745872497558594e+00,-1.070886254310607910e+00,-4.971971809864044189e-01,4.340000000000000000e+02
-1.229957722094604833e+02,-1.566869164099316549e+02,-5.075353706322584912e+01,-1.049125022566395273e+02,-1.530908526914367940e+02,-1.931443748574106394e+02,-8.707983616550336592e+00,-6.500175292572748731e+01,9.446745872497558594e+00,-1.070886254310607910e+00,-4.971971809864044189e-01,4.350000000000000000e+02
-1.234557477491714508e+02,-1.540174034432579901e+02,-5.466360988812630239e+01,-1.041577760104667050e+02,-1.574847764235405521e+02,-1.929941309912892393e+02,-1.218940672041389917e+01,-6.808321449407549153e+01,9.446745872497558594e+00,-1.070886254310607910e+00,-4.971971809864044189e-01,4.360000000000000000e+02
-1.243516499289576132e+02,-1.510203998560682521e+02,-6.085321599227859224e+01,-1.030950307844909730e+02,-1.648457740039443706e+02,-1.922813727133361681e+02,-1.642156500940745900e+01,-7.156222612435840347e+01,9.446745872497558594e+00,-1.070886254310607910e+00,-4.971971809864044189e-01,4.370000000000000000e+02
-1.249300814525306578e+02,-1.480334265827132185e+02,-6.596374343905677051e+01,-1.014937440068972592e+02,-1.706209422027836808e+02,-1.904381322316780825e+02,-1.941896831714757354e+01,-7.268466739000859889e+01,9.446745872497558594e+00,-1.070886254310607910e+00,-4.971971809864044189e-01,4.380000000000000000e+02
-1.248869297298522270e+02,-1.453198097752369904e+02,-6.785493083144547199e+01,-9.915092752827717959e+01,-1.717934662210036549e+02,-1.872465188282167219e+02,-1.992274088437670798e+01,-7.023934058599797936e+01,9.446745872497558594e+00,-1.070886254310607910e+00,-4.971971809864044189e-01,4.390000000000000000e+02
-1.243774061707911187e+02,-1.430883083520011496e+02,-6.657065478785307278e+01,-9.618851364183183250e+01,-1.685508125441801894e+02,-1.830345918851794522e+02,-1.798380688470342648e+01,-6.534811929919078466e+01,9.446745872497558594e+00,-1.070886254310607910e+00,-4.971971809864044189e-01,4.400000000000000000e+02
-1.237283579697341338e+02,-1.415918505274075869e+02,-6.373588416014354152e+01,-9.331080063807235092e+01,-1.636000380570794732e+02,-1.787445926877098827e+02,-1.500141234151396930e+01,-6.067860802242694263e+01,9.446745872497558594e+00,-1.070886254310607910e+00,-4.971971809864044189e-01,4.410000000000000000e+02
-1.231413471042264973e+02,-1.410927813793191490e+02,-6.118099043373467794e+01,-9.162233074801952171e+01,-1.599762372346172015e+02,-1.756291601925104260e+02,-1.309078612205803438e+01,-5.869725266081286463e+01,9.446745872497558594e+00,-1.070886254310607910e+00,-4.971971809864044189e-01,4.420000000000000000e+02
-1.225878270871430686e+02,-1.416012456958346775e+02,-5.992176174387168430e+01,-9.193323238420748567e+01,-1.591870273228628321e+02,-1.745888583650594228e+02,-1.392637954543170054e+01,-6.022421201768520405e+01,9.446745872497558594e+00,-1.070886254310607910e+00,-4.971971809864044189e-01,4.430000000000000000e+02
-1.218867016341996532e+02,-1.425931094626298545e+02,-5.998438960655676055e+01,-9.402196781124166591e+01,-1.608512318087655331e+02,-1.755416043994437132e+02,-1.763435113488549177e+01,-6.417448365445397940e+01,9.446745872497558594e+00,-1.070886254310607910e+00,-4.971971809864044189e-01,4.440000000000000000e+02
-1.208471451740879274e+02,-1.430909242757140873e+02,-6.076641943528875345e+01,-9.652994377513095969e+01,-1.635166267270406024e+02,-1.773181506274167987e+02,-2.252297461245598242e+01,-6.841158003694999934e+01,9.446745872497558594e+00,-1.070886254310607910e+00,-4.971971809864044189e-01,4.450000000000000000e+02
-1.193747837664404869e+02,-1.422353087555945876e+02,-6.139597919220341282e+01,-9.772399054711763711e+01,-1.655540776792572615e+02,-1.782337449804276730e+02,-2.599891712886346795e+01,-7.091517084729866838e+01,9.446745872497558594e+00,-1.070886254310607910e+00,-4.971971809864044189e-01,4.460000000000000000e+02
-1.174814185773304871e+02,-1.399654164831090384e+02,-6.090405649327021820e+01,-9.664051630762196510e+01,-1.654951580124948123e+02,-1.770053107077355889e+02,-2.615571393590721527e+01,-7.051814550578092167e+01,9.484992027282714844e+00,-1.109132170677185059e+00,-5.354431271553039551e-01,4.470000000000000000e+02
-1.152328689784264952e+02,-1.372017298797920830e+02,-5.844912216210104816e+01,-9.376654106507521647e+01,-1.621716413660828948e+02,-1.734603692896480425e+02,-2.294110925651966681e+01,-6.708152074143026766e+01,9.484992027282714844e+00,-1.109132170677185059e+00,-5.354431271553039551e-01,4.480000000000000000e+02
-1.127124932276715299e+02,-1.352573585253044257e+02,-5.378288963984641669e+01,-9.073942140292365366e+01,-1.552512283220935387e+02,-1.686432869303444022e+02,-1.807642141513224487e+01,-6.142976709267486513e+01,9.484992027282714844e+00,-1.109132170677185059e+00,-5.354431271553039551e-01,4.490000000000000000e+02
-1.100616318691020297e+02,-1.348725695161849671e+02,-4.772081523534802727e+01,-8.928103389572788728e+01,-1.460076707002563126e+02,-1.642845822448452964e+02,-1.384891557329046918e+01,-5.525494202589538872e+01,9.484992027282714844e+00,-1.109132170677185059e+00,-5.354431271553039551e-01,4.500000000000000000e+02
-1.075658808521768606e+02,-1.356411499616276615e+02,-4.209773185968356302e+01,-9.011210927636216184e+01,-1.373690819414271118e+02,-1.619082716784191689e+02,-1.172217119168726640e+01,-5.078208994122724107e+01,9.484992027282714844e+00,-1.109132170677185059e+00,-5.354431271553039551e-01,4.510000000000000000e+02
-1.056531794371408068e+02,-1.363048236258068755e+02,-3.894900326161814519e+01,-9.254708097601201189e+01,-1.325901730196005701e+02,-1.620307213497781049e+02,-1.173030284723063232e+01,-4.991285045846780122e+01,9.484992027282714844e+00,-1.109132170677185059e+00,-5.354431271553039551e-01,4.520000000000000000e+02
-1.047157277297180826e+02,-1.356884127467517374e+02,-3.934087869170889462e+01,-9.498177868690049763e+01,-1.332228342696571417e+02,-1.639091478216751057e+02,-1.290922919439572070e+01,-5.310883811277631139e+01,9.484992027282714844e+00,-1.109132170677185059e+00,-5.354431271553039551e-01,4.530000000000000000e+02
-1.048397445703351423e+02,-1.335295995586350273e+02,-4.269011783301652940e+01,-9.590167933628322317e+01,-1.380123777161618364e+02,-1.660297287718785810e+02,-1.422964129514070919e+01,-5.884611489853659805e+01,9.484992027282714844e+00,-1.109132170677185059e+00,-5.354431271553039551e-01,4.540000000000000000e+02
-1.056603193500973248e+02,-1.305658487829925889e+02,-4.711734476812057437e+01,-9.474255400961169471e+01,-1.437785825118189678e+02,-1.670465134917030809e+02,-1.523953056709342491e+01,-6.431539183812196825e+01,9.484992027282714844e+00,-1.109132170677185059e+00,-5.354431271553039551e-01,4.550000000000000000e+02
-1.065170982701370122e+02,-1.278814202192195353e+02,-5.059602081053162692e+01,-9.207735515366493928e+01,-1.476412777235009344e+02,-1.665159278688568065e+02,-1.603217176817202017e+01,-6.709937456563648084e+01,9.484992027282714844e+00,-1.109132170677185059e+00,-5.354431271553039551e-01,4.560000000000000000e+02
-1.068519311919792472e+02,-1.261125072955269388e+02,-5.206721888396396025e+01,-8.908797000738672978e+01,-1.487659546618942841e+02,-1.649205167917652943e+02,-1.679712884464515810e+01,-6.666171211609548664e+01,9.484992027282714844e+00,-1.109132170677185059e+00,-5.354431271553039551e-01,4.570000000000000000e+02
-1.065673957388273720e+02,-1.251492742564832952e+02,-5.179804082019018097e+01,-8.676810950669323574e+01,-1.483030721107998033e+02,-1.630624362823996307e+02,-1.748737756159539458e+01,-6.450358304276505805e+01,9.484992027282714844e+00,-1.109132170677185059e+00,-5.354431271553039551e-01,4.580000000000000000e+02
-1.060699474644786733e+02,-1.244820883585020965e+02,-5.090578539318721596e+01,-8.545876173557417133e+01,-1.478759916921510467e+02,-1.614241172632198413e+02,-1.789949554869917847e+01,-6.287762005222680273e+01,9.484992027282714844e+00,-1.109132170677185059e+00,-5.354431271553039551e-01,4.590000000000000000e+02
-1.059653488137014392e+02,-1.237825641880442618e+02,-5.054606463898744551e+01,-8.498814602481229485e+01,-1.481587597315055973e+02,-1.600268374620909526e+02,-1.800608181259303819e+01,-6.311249732389569544e+01,9.484992027282714844e+00,-1.109132170677185059e+00,-5.354431271553039551e-01,4.600000000000000000e+02
-1.066305749891107553e+02,-1.231558589538408341e+02,-5.132414237593525286e+01,-8.512144997475274977e+01,-1.486895561863900639e+02,-1.587299612891624747e+02,-1.811478787034684501e+01,-6.481205092742357010e+01,9.484992027282714844e+00,-1.109132170677185059e+00,-5.354431271553039551e-01,4.610000000000000000e+02
-1.079558886789077405e+02,-1.228731268575406830e+02,-5.312693176965080966e+01,-8.578639262144997701e+01,-1.486985332029757956e+02,-1.574765061692189647e+02,-1.862202144911225332e+01,-6.636965217269835193e+01,9.484992027282714844e+00,-1.109132170677185059e+00,-5.354431271553039551e-01,4.620000000000000000e+02
-1.093818669335284994e+02,-1.228956421271509498e+02,-5.523251688222944722e+01,-8.682540015426457103e+01,-1.478167814373186957e+02,-1.561433090775938126e+02,-1.953787864285527576e+01,-6.614725027012264036e+01,9.484992027282714844e+00,-1.109132170677185059e+00,-5.354431271553039551e-01,4.630000000000000000e+02
-1.101508000751509826e+02,-1.227067200239739577e+02,-5.654348183526280991e+01,-8.761584346556651326e+01,-1.459548469889678017e+02,-1.542441899406330776e+02,-2.022550727917177937e+01,-6.333394716984253137e+01,9.484992027282714844e+00,-1.109132170677185059e+00,-5.354431271553039551e-01,4.640000000000000000e+02
-1.096193476733981242e+02,-1.216748457651719946e+02,-5.596387717337097456e+01,-8.716167344787686488e+01,-1.427879900103932869e+02,-1.510480605907932841e+02,-1.968610634823062355e+01,-5.808192496378364922e+01,9.484992027282714844e+00,-1.109132170677185059e+00,-5.354431271553039551e-01,4.650000000000000000e+02
-1.075134995105013331e+02,-1.196375434363683326e+02,-5.292513897970115977e+01,-8.481714868240283067e+01,-1.377655903205070445e+02,-1.462569197589248233e+02,-1.726295361704706011e+01,-5.123377652268368365e+01,9.484992027282714844e+00,-1.109132170677185059e+00,-5.354431271553039551e-01,4.660000000000000000e+02
-1.040616000247041484e+02,-1.171447477736755900e+02,-4.783836014019584582e+01,-8.105352811362990906e+01,-1.308864451140605070e+02,-1.406680159551860925e+02,-1.324959887444288142e+01,-4.410345033438557039e+01,9.484992027282714844e+00,-1.109132170677185059e+00,-5.354431271553039551e-01,4.670000000000000000e+02
-9.995352795747885466e+01,-1.150818360775326710e+02,-4.209687441112737361e+01,-7.744789704840604827e+01,-1.234573177938059416e+02,-1.360549494219699227e+02,-8.906584796430479400e+00,-3.835988993264845703e+01,9.446745872497558594e+00,-1.147378087043762207e+00,-5.736890435218811035e-01,4.680000000000000000e+02
-9.609614140870394294e+01,-1.139531191703990771e+02,-3.747734281475925400e+01,-7.567467842330438543e+01,-1.178418030849234128e+02,-1.341276488855064599e+02,-5.803183607515393305e+00,-3.568413978757007499e+01,9.446745872497558594e+00,-1.147378087043762207e+00,-5.736890435218811035e-01,4.690000000000000000e+02
-9.324551282470872593e+01,-1.134560140503638195e+02,-3.526446505022761357e+01,-7.625101295545323410e+01,-1.161332473673778622e+02,-1.353467784366982869e+02,-4.922639329775620354e+00,-3.706653133738518591e+01,9.446745872497558594e+00,-1.147378087043762207e+00,-5.736890435218811035e-01,4.700000000000000000e+02
-9.172030803636926066e+01,-1.127554438451602437e+02,-3.570129163172532571e+01,-7.815380247124085145e+01,-1.187883634851009447e+02,-1.386284427863736255e+02,-6.164070007012696806e+00,-4.214993190918107757e+01,9.446745872497558594e+00,-1.147378087043762207e+00,-5.736890435218811035e-01,4.710000000000000000e+02
-9.137904702434741466e+01,-1.112466601738974532e+02,-3.809783331061908029e+01,-7.970744940458416750e+01,-1.243724018105272080e+02,-1.422207005735126586e+02,-8.550569606254271093e+00,-4.922106004580700755e+01,9.446745872497558594e+00,-1.147378087043762207e+00,-5.736890435218811035e-01,4.720000000000000000e+02
-9.185593093014074384e+01,-1.091495345613266181e+02,-4.138468924606706878e+01,-7.997327555532137922e+01,-1.305783069675893557e+02,-1.449688123248397460e+02,-1.091912412165163460e+01,-5.601361201533131862e+01,9.446745872497558594e+00,-1.147378087043762207e+00,-5.736890435218811035e-01,4.730000000000000000e+02
-9.282860545244489003e+01,-1.073926423197352733e+02,-4.461322378652971565e+01,-7.938825849172496874e+01,-1.355790509226349059e+02,-1.468430446354277592e+02,-1.255184400284883850e+01,-6.079463565785977153e+01,9.446745872497558594e+00,-1.147378087043762207e+00,-5.736890435218811035e-01,4.740000000000000000e+02
-9.408721687051968274e+01,-1.068509975003216823e+02,-4.712755268678017728e+01,-7.910779186337197189e+01,-1.386328233025360532e+02,-1.483168211518903945e+02,-1.335118291231083276e+01,-6.296253506391428800e+01,9.446745872497558594e+00,-1.147378087043762207e+00,-5.736890435218811035e-01,4.750000000000000000e+02
-9.540057618911419013e+01,-1.075659888246884748e+02,-4.856570016905584453e+01,-7.972342602281742074e+01,-1.397442732198676367e+02,-1.492965407607471207e+02,-1.358034398706786305e+01,-6.283450780233272326e+01,9.446745872497558594e+00,-1.147378087043762207e+00,-5.736890435218811035e-01,4.760000000000000000e+02
-9.640639806376657361e+01,-1.085961239790935906e+02,-4.895152520721012479e+01,-8.059320983705481467e+01,-1.390847648442839954e+02,-1.487559683598437914e+02,-1.350261857796294862e+01,-6.098716105441440050e+01,9.446745872497558594e+00,-1.147378087043762207e+00,-5.736890435218811035e-01,4.770000000000000000e+02
-9.671508176041163551e+01,-1.086324814573509911e+02,-4.879660208244399655e+01,-8.039137363219538202e+01,-1.368601755955564840e+02,-1.455422078929352665e+02,-1.320015172996249930e+01,-5.778398353838258572e+01,9.446745872497558594e+00,-1.147378087043762207e+00,-5.736890435218811035e-01,4.780000000000000000e+02
-9.615068967431056990e+01,-1.068873260540133288e+02,-4.887452506937268026e+01,-7.831213884922988200e+01,-1.335671364330179358e+02,-1.396484252879981796e+02,-1.259900832499863554e+01,-5.340633165296071638e+01,9.446745872497558594e+00,-1.147378087043762207e+00,-5.736890435218811035e-01,4.790000000000000000e+02
-9.486354509293767023e+01,-1.035843165129747376e+02,-4.959039569376329837e+01,-7.479277239018045975e+01,-1.300399033100972019e+02,-1.327141448537517476e+02,-1.156862743661417881e+01,-4.820132596102655498e+01,9.446745872497558594e+00,-1.147378087043762207e+00,-5.736890435218811035e-01,4.800000000000000000e+02
-9.315382436612998163e+01,-9.972691137880713086e+01,-5.041756457049717710e+01,-7.113969267228043236e+01,-1.269704361894838485e+02,-1.271387442108483583e+02,-9.995421041380325278e+00,-4.289504631032883708e+01,9.446745872497558594e+00,-1.147378087043762207e+00,-5.736890435218811035e-01,4.810000000000000000e+02
-9.119535674415033100e+01,-9.641511956676851014e+01,-5.010468943571896716e+01,-6.851737200194781963e+01,-1.243799735392967705e+02,-1.244903799687905348e+02,-7.875461842318600247e+00,-3.845507530819139674e+01,9.446745872497558594e+00,-1.147378087043762207e+00,-5.736890435218811035e-01,4.820000000000000000e+02
-8.899703215865142170e+01,-9.426774775002013484e+01,-4.774491554789145198e+01,-6.726432277104905211e+01,-1.217525089598694308e+02,-1.245615841727214672e+02,-5.464815624176083020e+00,-3.571684616672823154e+01,9.446745872497558594e+00,-1.147378087043762207e+00,-5.736890435218811035e-01,4.830000000000000000e+02
-8.667656136636547615e+01,-9.329470026848944997e+01,-4.383878645931854123e+01,-6.701818537320664859e+01,-1.188144900815191249e+02,-1.258253469218246892e+02,-3.340775268331313441e+00,-3.500669650155388979e+01,9.446745872497558594e+00,-1.147378087043762207e+00,-5.736890435218811035e-01,4.840000000000000000e+02
-8.472073747772137153e+01,-9.315365910192204524e+01,-4.024161074326976006e+01,-6.729953849400195054e+01,-1.160904843978476322e+02,-1.267738617034536617e+02,-2.190910508569594128e+00,-3.592924475337368051e+01,9.446745872497558594e+00,-1.147378087043762207e+00,-5.736890435218811035e-01,4.850000000000000000e+02
-8.383366155908987594e+01,-9.346329837864661272e+01,-3.877644620692896638e+01,-6.785404086882145691e+01,-1.144472430176384989e+02,-1.268787112420836536e+02,-2.344564343082915059e+00,-3.738473974576064052e+01,9.446745872497558594e+00,-1.147378087043762207e+00,-5.736890435218811035e-01,4.860000000000000000e+02
-8.436459737075404064e+01,-9.393070448174592002e+01,-3.960434254833781154e+01,-6.849656438360659649e+01,-1.139426545687586554e+02,-1.264267069847880691e+02,-3.372159947428684745e+00,-3.787826352008221420e+01,9.446745872497558594e+00,-1.147378087043762207e+00,-5.736890435218811035e-01,4.870000000000000000e+02
-8.580681633763907712e+01,-9.431884144208191856e+01,-4.085820477807902762e+01,-6.885763636736817261e+01,-1.132513691648545660e+02,-1.256988283642649549e+02,-4.160558678245593001e+00,-3.614690826795990120e+01,9.446745872497558594e+00,-1.147378087043762207e+00,-5.736890435218811035e-01,4.880000000000000000e+02
-8.692020690263893812e+01,-9.442418532278861676e+01,-4.003496381830905193e+01,-6.852047154412599639e+01,-1.105753123929230242e+02,-1.245642574205264168e+02,-3.546557044715996199e+00,-3.191715843398299057e+01,9.446745872497558594e+00,-1.147378087043762207e+00,-5.736890435218811035e-01,4.890000000000000000e+02
-8.650485028647693753e+01,-9.414364211015583805e+01,-3.605760267867424318e+01,-6.749159475623673643e+01,-1.054398242984686931e+02,-1.229389599991914679e+02,-1.116790900067314851e+00,-2.633643367885849784e+01,9.446745872497558594e+00,-1.147378087043762207e+00,-5.736890435218811035e-01,4.900000000000000000e+02
-8.423973405056165120e+01,-9.355088719170532841e+01,-3.026096376526459153e+01,-6.645220794214139914e+01,-9.966251032560535350e+01,-1.214542630364492197e+02,2.410284775837112647e+00,-2.163527654213407914e+01,9.446745872497558594e+00,-1.147378087043762207e+00,-5.736890435218811035e-01,4.910000000000000000e+02
-8.090341508421363415e+01,-9.286503176607516252e+01,-2.546852270151453013e+01,-6.637094009805662154e+01,-9.635137005085334749e+01,-1.213342779533293196e+02,5.520951368395799363e+00,-2.001023885777044597e+01,9.446745872497558594e+00,-1.147378087043762207e+00,-5.736890435218811035e-01,4.920000000000000000e+02
-7.784473760524599584e+01,-9.232647850584964999e+01,-2.399213873634630545e+01,-6.772222799296469020e+01,-9.761940033057442179e+01,-1.233436397579778259e+02,6.729745221551524992e+00,-2.233831895488071950e+01,9.523238182067871094e+00,-1.147378087043762207e+00,-5.354431271553039551e-01,4.930000000000000000e+02
-7.616623362773066219e+01,-9.207598841554363389e+01,-2.619516242868849076e+01,-7.000247371959699194e+01,-1.029465213676321582e+02,-1.267861526863055133e+02,5.382073012916180232e+00,-2.755464798146272187e+01,9.523238182067871094e+00,-1.147378087043762207e+00,-5.354431271553039551e-01,4.940000000000000000e+02
-7.621224430907136593e+01,-9.210853021482034819e+01,-3.059925735559829718e+01,-7.201503569927990611e+01,-1.095680977331971917e+02,-1.296830636128502192e+02,2.006720770639731199e+00,-3.314259238610759439e+01,9.523238182067871094e+00,-1.147378087043762207e+00,-5.354431271553039551e-01,4.950000000000000000e+02
-7.758801302348922491e+01,-9.228677025288743607e+01,-3.514959860499971001e+01,-7.271115623844468701e+01,-1.144727390965881568e+02,-1.301834477285190133e+02,-1.918123570339048456e+00,-3.646255250290437289e+01,9.523238182067871094e+00,-1.147378087043762207e+00,-5.354431271553039551e-01,4.960000000000000000e+02
-7.949556435947147293e+01,-9.237441655616612479e+01,-3.846648514009882547e+01,-7.189793894755166548e+01,-1.162810609455880240e+02,-1.280221698529621790e+02,-4.666795478438189093e+00,-3.611038256710048699e+01,9.523238182067871094e+00,-1.147378087043762207e+00,-5.354431271553039551e-01,4.970000000000000000e+02
-8.109531028813717057e+01,-9.211165606568374642e+01,-4.025722937302066384e+01,-7.027880221792793236e+01,-1.156209089289509393e+02,-1.247209737270250116e+02,-5.143665047053900707e+00,-3.252251467864107326e+01,9.523238182067871094e+00,-1.147378087043762207e+00,-5.354431271553039551e-01,4.980000000000000000e+02
-8.179504411083212290e+01,-9.136210778083727746e+01,-4.094899393466221227e+01,-6.886621884748797129e+01,-1.140585025518635121e+02,-1.223460218222396634e+02,-3.509839450281106110e+00,-2.754258001238099496e+01,9.523238182067871094e+00,-1.147378087043762207e+00,-5.354431271553039551e-01,4.990000000000000000e+02
-8.148226898743860147e+01,-9.025847114903422153e+01,-4.112295785357332534e+01,-6.825763065041473965e+01,-1.127408152296170556e+02,-1.219099572893794630e+02,-1.137833836553909350e+00,-2.327442782076013827e+01,9.523238182067871094e+00,-1.147378087043762207e+00,-5.354431271553039551e-01,5.000000000000000000e+02
-8.061050253982421054e+01,-8.916526383972677650e+01,-4.118020136175255175e+01,-6.827058588730824340e+01,-1.117900290372645031e+02,-1.227246082214990111e+02,2.232712197987893887e-01,-2.090777767992449299e+01,9.523238182067871094e+00,-1.147378087043762207e+00,-5.354431271553039551e-01,5.010000000000000000e+02
-7.997819867869657173e+01,-8.837857304337671849e+01,-4.125657056476757134e+01,-6.810995499683281196e+01,-1.105890398840001581e+02,-1.230886338121817971e+02,-3.730732237531810824e-01,-2.017110700615421592e+01,9.523238182067871094e+00,-1.147378087043762207e+00,-5.354431271553039551e-01,5.020000000000000000e+02
-8.020181370402542598e+01,-8.776445824735310453e+01,-4.123150175898013003e+01,-6.690304203583809795e+01,-1.084286008112248965e+02,-1.215935204407792298e+02,-2.375212792064303358e+00,-1.968029994580638231e+01,9.523238182067871094e+00,-1.147378087043762207e+00,-5.354431271553039551e-01,5.030000000000000000e+02
-8.121185237471172513e+01,-8.671474911617497128e+01,-4.080666311844288430e+01,-6.427734997861739430e+01,-1.050181354036349148e+02,-1.180069230895587680e+02,-4.109190921193203394e+00,-1.794925796278403141e+01,9.523238182067871094e+00,-1.147378087043762207e+00,-5.354431271553039551e-01,5.040000000000000000e+02
-8.220159353942312919e+01,-8.459851619209212004e+01,-3.972020691455668384e+01,-6.066326495232101479e+01,-1.007127142565959730e+02,-1.132469933721195048e+02,-4.005347974164578773e+00,-1.442017574397596036e+01,9.523238182067871094e+00,-1.147378087043762207e+00,-5.354431271553039551e-01,5.050000000000000000e+02
-8.214223979993494140e+01,-8.141256311784900390e+01,-3.802656546492517009e+01,-5.714131425196728742e+01,-9.646474329574766671e+01,-1.087247984720020213e+02,-1.738260335134327761e+00,-9.851206095941506646e+00,9.523238182067871094e+00,-1.147378087043762207e+00,-5.354431271553039551e-01,5.060000000000000000e+02
-8.048882810606983185e+01,-7.803870902614289662e+01,-3.619239449295400846e+01,-5.489599717497276288e+01,-9.347068793102653217e+01,-1.056324086350755351e+02,1.617977059148870467e+00,-5.812787999547254003e+00,9.523238182067871094e+00,-1.147378087043762207e+00,-5.354431271553039551e-01,5.070000000000000000e+02
-7.752716885521977019e+01,-7.576934874077142013e+01,-3.486237405145129742e+01,-5.458939149251773415e+01,-9.257028537165433590e+01,-1.045501980763042411e+02,4.467494772451573226e+00,-3.679460619870951632e+00,9.523238182067871094e+00,-1.147378087043762207e+00,-5.354431271553039551e-01,5.080000000000000000e+02
-7.414228978372238998e+01,-7.540341423100198881e+01,-3.445723764508738896e+01,-5.604228007582059945e+01,-9.371286094001470701e+01,-1.053970490007295666e+02,5.793327055022928107e+00,-3.856343435164490074e+00,9.523238182067871094e+00,-1.147378087043762207e+00,-5.354431271553039551e-01,5.090000000000000000e+02
-7.127560356897629390e+01,-7.665276083645403560e+01,-3.495883703542722287e+01,-5.842347309802835298e+01,-9.592911953618886400e+01,-1.075996159768997131e+02,5.581224673778706347e+00,-5.752651949193932523e+00,9.523238182067871094e+00,-1.147378087043762207e+00,-5.354431271553039551e-01,5.100000000000000000e+02
-6.952101281451814430e+01,-7.838083464845931303e+01,-3.606587986806880508e+01,-6.078556049082817481e+01,-9.794945953491060209e+01,-1.103772313172075883e+02,4.383458169792447734e+00,-8.396235986343981494e+00,9.523238182067871094e+00,-1.147378087043762207e+00,-5.354431271553039551e-01,5.110000000000000000e+02
-6.903274204097306210e+01,-7.946532971491069475e+01,-3.750217458199313114e+01,-6.251486355587485377e+01,-9.901915200888561230e+01,-1.130174550913880012e+02,2.663793972067651339e+00,-1.106137925764096508e+01,9.523238182067871094e+00,-1.147378087043762207e+00,-5.354431271553039551e-01,5.120000000000000000e+02
-6.959548774200584376e+01,-7.953074863719439236e+01,-3.910855018586471488e+01,-6.338600115589497364e+01,-9.922008576917551181e+01,-1.150070593964665022e+02,6.523924495768369525e-01,-1.336142037340232491e+01,9.523238182067871094e+00,-1.147378087043762207e+00,-5.354431271553039551e-01,5.130000000000000000e+02
-7.067235579671478263e+01,-7.894468934454516784e+01,-4.062700690062820286e+01,-6.329441465923900978e+01,-9.903546593012288213e+01,-1.159639918750272045e+02,-1.246847629278818204e+00,-1.485783279803081314e+01,9.523238182067871094e+00,-1.147378087043762207e+00,-5.354431271553039551e-01,5.140000000000000000e+02
-7.146290590192302261e+01,-7.817075304310401407e+01,-4.147398131482214012e+01,-6.201970040650712690e+01,-9.859282681625791156e+01,-1.155002622673619044e+02,-2.124687672450818354e+00,-1.475704219557610486e+01,9.523238182067871094e+00,-1.147378087043762207e+00,-5.354431271553039551e-01,5.150000000000000000e+02
-7.116336044223589852e+01,-7.716452037436738465e+01,-4.089346347451146357e+01,-5.932152876675945663e+01,-9.736153671023657807e+01,-1.132681679806373722e+02,-9.042313693166761368e-01,-1.220541948115305786e+01,9.523238182067871094e+00,-1.147378087043762207e+00,-5.354431271553039551e-01,5.160000000000000000e+02
-6.946448096781068671e+01,-7.542814994707623555e+01,-3.853776949250777761e+01,-5.532920848193407437e+01,-9.467712491635847982e+01,-1.092926248867825052e+02,2.761908999718798441e+00,-7.084863751661941933e+00,9.523238182067871094e+00,-1.147378087043762207e+00,-5.354431271553039551e-01,5.170000000000000000e+02
-6.696599615897093827e+01,-7.267918057708993729e+01,-3.501895828133910982e+01,-5.086490168169484605e+01,-9.065905657520761451e+01,-1.043504465596579394e+02,7.831003215171222109e+00,-5.999435931835250813e-01,9.523238182067871094e+00,-1.147378087043762207e+00,-5.354431271553039551e-01,5.180000000000000000e+02
-6.505110347041318164e+01,-6.946789678094137344e+01,-3.183910192093117075e+01,-4.732173588353407467e+01,-8.662134547790265060e+01,-9.995084254516405053e+01,1.217737139408109215e+01,5.026378423811365792e+00,9.523238182067871094e+00,-1.147378087043762207e+00,-5.354431271553039551e-01,5.190000000000000000e+02
-6.512039543367518490e+01,-6.709320721883796068e+01,-3.056835569970417055e+01,-4.603572619778879016e+01,-8.444056712498331763e+01,-9.770262453876694053e+01,1.379879071415871294e+01,7.715013645602994075e+00,9.484992027282714844e+00,-1.223870038986206055e+00,-5.354431271553039551e-01,5.200000000000000000e+02
-6.765834711534080270e+01,-6.678695969776254060e+01,-3.182066287694897255e+01,-4.749867510892636346e+01,-8.525598258923128014e+01,-9.838339664470186108e+01,1.204200880379175942e+01,6.755453801209114317e+00,9.484992027282714844e+00,-1.223870038986206055e+00,-5.354431271553039551e-01,5.210000000000000000e+02
-7.184340971151959820e+01,-6.879356858366736560e+01,-3.483899101327187964e+01,-5.095665311100219697e+01,-8.853600080860815069e+01,-1.013891915839994908e+02,7.917553048300760565e+00,3.171655359310534550e+00,9.484992027282714844e+00,-1.223870038986206055e+00,-5.354431271553039551e-01,5.220000000000000000e+02
-7.604522238499794184e+01,-7.209380957179291727e+01,-3.803827848096352682e+01,-5.474074463737360929e+01,-9.233335446587443585e+01,-1.050478564738295972e+02,3.318903115863577113e+00,-1.035718340110179270e+00,9.484992027282714844e+00,-1.223870038986206055e+00,-5.354431271553039551e-01,5.230000000000000000e+02
-7.886206982203748339e+01,-7.501857165518322290e+01,-4.005290176114885980e+01,-5.717744310089256032e+01,-9.458034674383452511e+01,-1.076236781816023722e+02,-1.704552149849405396e-01,-4.134260763432394015e+00,9.484992027282714844e+00,-1.223870038986206055e+00,-5.354431271553039551e-01,5.240000000000000000e+02
-7.991712444963286543e+01,-7.629853188360357308e+01,-4.043014748748373677e+01,-5.749140346921467426e+01,-9.439021916644560406e+01,-1.082851067191004404e+02,-1.963876458165032091e+00,-5.438390924011400784e+00,9.484992027282714844e+00,-1.223870038986206055e+00,-5.354431271553039551e-01,5.250000000000000000e+02
-7.985842807410244859e+01,-7.578632325150192628e+01,-3.950170632091430889e+01,-5.609838444011893444e+01,-9.235836385303264251e+01,-1.073558021718217788e+02,-2.304149086090546916e+00,-5.178245445050379203e+00,9.484992027282714844e+00,-1.223870038986206055e+00,-5.354431271553039551e-01,5.260000000000000000e+02
-7.967437048858482740e+01,-7.437054590288971667e+01,-3.775038280561966531e+01,-5.412896308149902325e+01,-8.976560021531895472e+01,-1.057770534697128824e+02,-1.648446107114068582e+00,-3.830933755918522365e+00,9.484992027282714844e+00,-1.223870038986206055e+00,-5.354431271553039551e-01,5.270000000000000000e+02
-7.993102887971781456e+01,-7.321061499241750425e+01,-3.539302355655672727e+01,-5.259488074069213326e+01,-8.750232980853161280e+01,-1.043213283927962038e+02,-2.553531450894297450e-01,-1.638667581208210322e+00,9.484992027282714844e+00,-1.223870038986206055e+00,-5.354431271553039551e-01,5.280000000000000000e+02
-8.048750970081437117e+01,-7.289195676183953765e+01,-3.253719056439149426e+01,-5.183634988370613428e+01,-8.563876803807579563e+01,-1.031894154599176545e+02,1.780256018164436682e+00,1.312806596780319524e+00,9.484992027282714844e+00,-1.223870038986206055e+00,-5.354431271553039551e-01,5.290000000000000000e+02
-8.077263549576855439e+01,-7.311270090848938707e+01,-2.957292265656087693e+01,-5.160069069642941031e+01,-8.384165674235009647e+01,-1.021886142023568027e+02,4.305865814971184591e+00,4.720966571981080051e+00,9.484992027282714844e+00,-1.223870038986206055e+00,-5.354431271553039551e-01,5.300000000000000000e+02
-8.028512454070005333e+01,-7.308053278460738511e+01,-2.721781589965576131e+01,-5.154574531606886012e+01,-8.205049790036537161e+01,-1.011880303122316036e+02,7.027416643813012342e+00,7.901709630505138193e+00,9.484992027282714844e+00,-1.223870038986206055e+00,-5.354431271553039551e-01,5.310000000000000000e+02
-7.895523045411391649e+01,-7.226053969862732629e+01,-2.611396402433092589e+01,-5.165305059716865799e+01,-8.074996980815103598e+01,-1.004061015434608635e+02,9.565029895979932917e+00,1.001144658038720081e+01,9.484992027282714844e+00,-1.223870038986206055e+00,-5.354431271553039551e-01,5.320000000000000000e+02
-7.722856560885793442e+01,-7.085326154445738212e+01,-2.644347245171229588e+01,-5.219806954809700983e+01,-8.069744185259878577e+01,-1.003179485329883391e+02,1.143530976752845163e+01,1.042122496145202604e+01,9.484992027282714844e+00,-1.223870038986206055e+00,-5.354431271553039551e-01,5.330000000000000000e+02
-7.592169873018701765e+01,-6.962111823269333399e+01,-2.800962774248000642e+01,-5.337324548708056682e+01,-8.246084061419878708e+01,-1.012935588756945435e+02,1.195895918120186252e+01,8.944846522719672066e+00,9.484992027282714844e+00,-1.223870038986206055e+00,-5.354431271553039551e-01,5.340000000000000000e+02
-7.589630385213513364e+01,-6.921270613690103346e+01,-3.060361479939547280e+01,-5.495431717737756117e+01,-8.607834250096129836e+01,-1.032248994969686464e+02,1.042231335000360559e+01,5.906645887316699373e+00,9.484992027282714844e+00,-1.223870038986206055e+00,-5.354431271553039551e-01,5.350000000000000000e+02
-7.759048439572143252e+01,-6.957497342154692888e+01,-3.405534498711040214e+01,-5.632821482114013634e+01,-9.085373241608795070e+01,-1.053977263014967320e+02,6.693652602712063526e+00,2.198777237542344665e+00,9.484992027282714844e+00,-1.223870038986206055e+00,-5.354431271553039551e-01,5.360000000000000000e+02
-8.060567455854834407e+01,-6.998851167133034323e+01,-3.776141738264777814e+01,-5.686772234865566134e+01,-9.529049775140629208e+01,-1.067595182394670701e+02,1.886091950578702381e+00,-7.270250740311894333e-01,9.484992027282714844e+00,-1.223870038986206055e+00,-5.354431271553039551e-01,5.370000000000000000e+02
-8.368314871110942477e+01,-6.970855839090836525e+01,-4.025941048834101821e+01,-5.634365038009764248e+01,-9.737570875269921089e+01,-1.065120295823926426e+02,-1.711396952448922093e+00,-1.217659097204887075e+00,9.484992027282714844e+00,-1.223870038986206055e+00,-5.354431271553039551e-01,5.380000000000000000e+02
-8.527881595881990506e+01,-6.864646473675747984e+01,-3.966692612943643326e+01,-5.506324835077339230e+01,-9.543512146964894782e+01,-1.046822267523602932e+02,-1.785864754952854128e+00,1.753567497378753615e+00,9.484992027282714844e+00,-1.223870038986206055e+00,-5.354431271553039551e-01,5.390000000000000000e+02
-8.448707104408640589e+01,-6.745499198802826868e+01,-3.501610596391219588e+01,-5.365890531210243353e+01,-8.926494869929592824e+01,-1.021973059201773140e+02,2.419963815253140638e+00,7.736660850316184224e+00,9.484992027282714844e+00,-1.223870038986206055e+00,-5.354431271553039551e-01,5.400000000000000000e+02
-8.168388243080153188e+01,-6.692076326357346261e+01,-2.744398186624675873e+01,-5.271497954396181740e+01,-8.069013485059076629e+01,-1.002954800862480624e+02,9.336471178070496535e+00,1.469065796597897133e+01,9.484992027282714844e+00,-1.223870038986206055e+00,-5.354431271553039551e-01,5.410000000000000000e+02
-7.837748543648012856e+01,-6.721969344088938669e+01,-2.001485328847502387e+01,-5.249883276472064608e+01,-7.284362974424584536e+01,-9.965670069063162373e+01,1.582489177369279787e+01,1.995756608309602598e+01,9.484992027282714844e+00,-1.223870038986206055e+00,-5.354431271553039551e-01,5.420000000000000000e+02
-7.633385430878843181e+01,-6.774200220690909191e+01,-1.602027098623784696e+01,-5.293940880537593330e+01,-6.844779383498098468e+01,-9.997374264306563418e+01,1.896840877549220750e+01,2.177474816205904062e+01,9.484992027282714844e+00,-1.223870038986206055e+00,-5.354431271553039551e-01,5.430000000000000000e+02
-7.659679514789058885e+01,-6.765487916695929016e+01,-1.696243703297568572e+01,-5.376370693594435579e+01,-6.829631749226791726e+01,-1.003365925925336342e+02,1.762585943803424016e+01,2.025720826164797472e+01,9.484992027282714844e+00,-1.223870038986206055e+00,-5.354431271553039551e-01,5.440000000000000000e+02
-7.905197195330401883e+01,-6.666374584046934615e+01,-2.176219806077097019e+01,-5.460205266483899322e+01,-7.106623502728143649e+01,-1.000498988901035773e+02,1.279933489901850407e+01,1.716041111531740171e+01,9.484992027282714844e+00,-1.223870038986206055e+00,-5.354431271553039551e-01,5.450000000000000000e+02
-8.269647684549272526e+01,-6.523714405286227702e+01,-2.770420485682734579e+01,-5.498263579402009782e+01,-7.449416660594397399e+01,-9.908506655822566245e+01,6.858760232296845061e+00,1.470396195327884925e+01,9.484992027282714844e+00,-1.223870038986206055e+00,-5.354431271553039551e-01,5.460000000000000000e+02
-8.626485992647758394e+01,-6.409136496330938826e+01,-3.223788723945472157e+01,-5.434771032369098975e+01,-7.686465913747633749e+01,-9.777976266095174651e+01,2.339337222267204197e+00,1.437136842082691146e+01,9.484992027282714844e+00,-1.223870038986206055e+00,-5.354431271553039551e-01,5.470000000000000000e+02
-8.877118974885524949e+01,-6.346371992705462617e+01,-3.427322310393356020e+01,-5.228311360413681541e+01,-7.771628363182389876e+01,-9.624399339972296730e+01,9.129793389747646870e-01,1.637234126598013972e+01,9.484992027282714844e+00,-1.223870038986206055e+00,-5.354431271553039551e-01,5.480000000000000000e+02
-8.978451445890095783e+01,-6.290885912915837253e+01,-3.427704900071694283e+01,-4.892698731120071898e+01,-7.755868744231520395e+01,-9.424010006219577917e+01,2.734287933793893899e+00,1.977343133830800070e+01,9.484992027282714844e+00,-1.223870038986206055e+00,-5.354431271553039551e-01,5.490000000000000000e+02
-8.948617820422441582e+01,-6.181007992187005584e+01,-3.350418673213971488e+01,-4.520873853220837191e+01,-7.721350849563168595e+01,-9.171893674293278309e+01,6.276972777648552437e+00,2.293819899255686323e+01,9.484992027282714844e+00,-1.223870038986206055e+00,-5.354431271553039551e-01,5.500000000000000000e+02
-8.856023118761368096e+01,-6.007838508188251581e+01,-3.315095577419742767e+01,-4.254812429468256596e+01,-7.741099030067562126e+01,-8.935731420679439907e+01,8.923478273465661914e+00,2.407187507863272913e+01,9.446745872497558594e+00,-1.338607788085937500e+00,-4.207052886486053467e-01,5.510000000000000000e+02
-8.788631029364842107e+01,-5.834789090103913622e+01,-3.389588881901545392e+01,-4.206297891671420075e+01,-7.869644481710383843e+01,-8.833717004422396712e+01,8.370149634409244754e+00,2.190796590199352067e+01,9.446745872497558594e+00,-1.338607788085937500e+00,-4.207052886486053467e-01,5.520000000000000000e+02
-8.807202388224322931e+01,-5.747939990311715519e+01,-3.578600240131891042e+01,-4.381616444155224599e+01,-8.130549275701196166e+01,-8.938902973916992778e+01,4.203799896717100637e+00,1.645728171462542377e+01,9.446745872497558594e+00,-1.338607788085937500e+00,-4.207052886486053467e-01,5.530000000000000000e+02
-8.906235574285892653e+01,-5.784437064960184216e+01,-3.828059940334969724e+01,-4.671991681977669941e+01,-8.489136583021536353e+01,-9.197793571358124609e+01,-1.527732553937312332e+00,9.341624881728421315e+00,9.446745872497558594e+00,-1.338607788085937500e+00,-4.207052886486053467e-01,5.540000000000000000e+02
-9.013614761244753026e+01,-5.901077961313058040e+01,-4.044029418327772873e+01,-4.921105911703125457e+01,-8.843060847121159895e+01,-9.447079569830202672e+01,-5.472181642731811735e+00,3.188132560328085674e+00,9.446745872497558594e+00,-1.338607788085937500e+00,-4.207052886486053467e-01,5.550000000000000000e+02
-9.037859889973333338e+01,-6.003774441371024295e+01,-4.134222288953606039e+01,-5.016696829450302175e+01,-9.065740984491276322e+01,-9.520994051484922238e+01,-5.221779694315046072e+00,1.960791629044251749e-01,9.446745872497558594e+00,-1.338607788085937500e+00,-4.207052886486053467e-01,5.560000000000000000e+02
-8.931667367839509097e+01,-6.008028457025829994e+01,-4.059986093258885376e+01,-4.937643188652691606e+01,-9.085871197321466752e+01,-9.359112009952514200e+01,-9.665509799087885767e-01,7.830801172021892853e-01,9.446745872497558594e+00,-1.338607788085937500e+00,-4.207052886486053467e-01,5.570000000000000000e+02
-8.721054142044886248e+01,-5.883397894488552993e+01,-3.860043115084044985e+01,-4.732976749015688256e+01,-8.935464731530373683e+01,-9.030375730024206860e+01,4.788226630682402174e+00,3.372858398715834483e+00,9.446745872497558594e+00,-1.338607788085937500e+00,-4.207052886486053467e-01,5.580000000000000000e+02
-8.476891015065848478e+01,-5.659835494513572485e+01,-3.617527792181863333e+01,-4.469243509154694038e+01,-8.714503416806292080e+01,-8.669364684944957844e+01,9.183133994272793643e+00,5.563786368056753417e+00,9.446745872497558594e+00,-1.338607788085937500e+00,-4.207052886486053467e-01,5.590000000000000000e+02
-8.254236596618102340e+01,-5.405881334138939565e+01,-3.390056052811451082e+01,-4.198739893735546502e+01,-8.496203515506203985e+01,-8.389251600064744707e+01,1.098021296628212440e+01,5.778943219451321056e+00,9.446745872497558594e+00,-1.338607788085937500e+00,-4.207052886486053467e-01,5.600000000000000000e+02
-8.051915732446104812e+01,-5.199196283183300693e+01,-3.160749295768437150e+01,-3.962665134290364222e+01,-8.257782172702900425e+01,-8.233481185663913493e+01,1.100357091087789740e+01,4.113619327130436432e+00,9.446745872497558594e+00,-1.338607788085937500e+00,-4.207052886486053467e-01,5.610000000000000000e+02
-7.825626294129870075e+01,-5.100340552874513378e+01,-2.856236593438916316e+01,-3.800795698003457801e+01,-7.905963758270081598e+01,-8.179068862453095790e+01,1.095978777494019596e+01,1.802733063335836050e+00,9.446745872497558594e+00,-1.338607788085937500e+00,-4.207052886486053467e-01,5.620000000000000000e+02
-7.540634296069401898e+01,-5.133078118264893419e+01,-2.422160985919435916e+01,-3.741253883067292918e+01,-7.382524019762968237e+01,-8.169223136153595988e+01,1.191201142502904986e+01,-1.050456567063520197e-01,9.446745872497558594e+00,-1.338607788085937500e+00,-4.207052886486053467e-01,5.630000000000000000e+02
-7.214903071644039301e+01,-5.276013328719636775e+01,-1.890742132836203382e+01,-3.777315012277176720e+01,-6.753386623816186329e+01,-8.149031681315318565e+01,1.374695229136523267e+01,-1.646486989347977214e+00,9.446745872497558594e+00,-1.338607788085937500e+00,-4.207052886486053467e-01,5.640000000000000000e+02
-6.912950776268189657e+01,-5.469535842041659635e+01,-1.376103573325599427e+01,-3.858561275212377950e+01,-6.189323601657451945e+01,-8.088225352871450013e+01,1.584811304397953791e+01,-3.654349400436331052e+00,9.446745872497558594e+00,-1.338607788085937500e+00,-4.207052886486053467e-01,5.650000000000000000e+02
-6.696601686772373796e+01,-5.636254906981048407e+01,-9.976997145764471497e+00,-3.910676986611906614e+01,-5.844298508121937630e+01,-7.983563870130819851e+01,1.801858184149386943e+01,-6.651961349016346503e+00,9.446745872497558594e+00,-1.338607788085937500e+00,-4.207052886486053467e-01,5.660000000000000000e+02
-6.576304050537328294e+01,-5.703667805806071556e+01,-7.964448154923957190e+00,-3.866787751079755253e+01,-5.734349028573342366e+01,-7.838989548437893973e+01,2.065482027359394124e+01,-1.002096779651765246e+01,9.446745872497558594e+00,-1.338607788085937500e+00,-4.207052886486053467e-01,5.670000000000000000e+02
-6.506225814553363307e+01,-5.622811621204164112e+01,-7.162421115648612613e+00,-3.688008734618597373e+01,-5.729621305254840991e+01,-7.641889671442550025e+01,2.409634073319466552e+01,-1.227348497301136376e+01,9.446745872497558594e+00,-1.338607788085937500e+00,-4.207052886486053467e-01,5.680000000000000000e+02
-6.425739777610579040e+01,-5.385514814150155871e+01,-6.640690180416640942e+00,-3.370760655555022822e+01,-5.672436504889265052e+01,-7.365271210470746155e+01,2.795750327365021803e+01,-1.224143865951191401e+01,9.446745872497558594e+00,-1.338607788085937500e+00,-4.207052886486053467e-01,5.690000000000000000e+02
-6.306996956403600052e+01,-5.039860638537356863e+01,-5.877625862209242769e+00,-2.952559030683369201e+01,-5.513717159386578714e+01,-7.004231415787216974e+01,3.123428743266777019e+01,-1.012201216299945372e+01,9.446745872497558594e+00,-1.338607788085937500e+00,-4.207052886486053467e-01,5.700000000000000000e+02
-6.163452247897839698e+01,-4.690518535677256295e+01,-4.977884638688919949e+00,-2.517566804758644139e+01,-5.338619834448036272e+01,-6.613070341862112400e+01,3.313995062912363210e+01,-7.413538701654033503e+00,9.446745872497558594e+00,-1.338607788085937500e+00,-4.207052886486053467e-01,5.710000000000000000e+02
-6.015292939188475430e+01,-4.465628412824298721e+01,-4.188701855176987010e+00,-2.181332329574797768e+01,-5.257796393557873671e+01,-6.293068645907624159e+01,3.386427048914993065e+01,-5.747682328576047439e+00,9.484992027282714844e+00,-1.338607788085937500e+00,-4.589512646198272705e-01,5.720000000000000000e+02
-5.852377864268419216e+01,-4.452132823380088666e+01,-3.316695087107291329e+00,-2.039843634670251049e+01,-5.273800290524013690e+01,-6.123230374500417383e+01,3.450572297444887226e+01,-5.612592293266061461e+00,9.484992027282714844e+00,-1.338607788085937500e+00,-4.589512646198272705e-01,5.730000000000000000e+02
-5.638109579181036679e+01,-4.637176588415604783e+01,-1.748564482109941309e+00,-2.107937082649004878e+01,-5.259539546718224301e+01,-6.091768753965152428e+01,3.618084654144695378e+01,-6.089661675170646049e+00,9.484992027282714844e+00,-1.338607788085937500e+00,-4.589512646198272705e-01,5.740000000000000000e+02
-5.354441138018228230e+01,-4.905553657054770156e+01,8.766288778260786785e-01,-2.299839213076120359e+01,-5.076360364693391602e+01,-6.100352998306698282e+01,3.905747796034847852e+01,-5.837538702995516360e+00,9.484992027282714844e+00,-1.338607788085937500e+00,-4.589512646198272705e-01,5.750000000000000000e+02
-5.042092479094571900e+01,-5.106537732339347713e+01,4.027236118177825119e+00,-2.481142285872920183e+01,-4.718565377212871681e+01,-6.047894651336901006e+01,4.211797103687786148e+01,-4.424910027199075557e+00,9.484992027282714844e+00,-1.338607788085937500e+00,-4.589512646198272705e-01,5.760000000000000000e+02
-4.791123227541174856e+01,-5.144583125734789064e+01,6.390731682018667925e+00,-2.558365822819541791e+01,-4.341923469413814018e+01,-5.918432599763036706e+01,4.383124412112010759e+01,-2.804929445599555038e+00,9.484992027282714844e+00,-1.338607788085937500e+00,-4.589512646198272705e-01,5.770000000000000000e+02
-4.684214069122390356e+01,-5.025543646246296703e+01,6.738639662402420072e+00,-2.532929122055793414e+01,-4.145939964072022121e+01,-5.787860716308205156e+01,4.318362493975291727e+01,-2.508880955512722721e+00,9.484992027282714844e+00,-1.338607788085937500e+00,-4.589512646198272705e-01,5.780000000000000000e+02
-4.741951902804794372e+01,-4.828050225269180373e+01,4.799509119675349211e+00,-2.476665460888398229e+01,-4.217889077952349908e+01,-5.743046130088623613e+01,4.029683069977181731e+01,-4.317029814614215866e+00,9.484992027282714844e+00,-1.338607788085937500e+00,-4.589512646198272705e-01,5.790000000000000000e+02
-4.916322116392620956e+01,-4.634174294575495878e+01,1.404857927380362526e+00,-2.456846270845926483e+01,-4.475899808798567392e+01,-5.794168279668156174e+01,3.626371148638645536e+01,-7.604533612480736338e+00,9.484992027282714844e+00,-1.338607788085937500e+00,-4.589512646198272705e-01,5.800000000000000000e+02
-5.130673944742738968e+01,-4.482761526402828167e+01,-2.121967067476361990e+00,-2.482235523028066382e+01,-4.746449310798561783e+01,-5.865916457990897470e+01,3.244861265966392239e+01,-1.088209908574208384e+01,9.484992027282714844e+00,-1.338607788085937500e+00,-4.589512646198272705e-01,5.810000000000000000e+02
-5.324478142711814144e+01,-4.375801560626496212e+01,-4.718524316514958628e+00,-2.513835470637786784e+01,-4.889792014958584332e+01,-5.870340969156313804e+01,2.982245411529584089e+01,-1.294675301170718740e+01,9.484992027282714844e+00,-1.338607788085937500e+00,-4.589512646198272705e-01,5.820000000000000000e+02
-5.466242408299149247e+01,-4.309999617006906192e+01,-5.892039825448591728e+00,-2.515869422854666482e+01,-4.865297654417736339e+01,-5.783961591999104712e+01,2.872604484017574578e+01,-1.357411024757311679e+01,9.484992027282714844e+00,-1.338607788085937500e+00,-4.589512646198272705e-01,5.830000000000000000e+02
-5.539342311720247380e+01,-4.287622104843103443e+01,-5.579971711282269098e+00,-2.487525803146854741e+01,-4.709166863143036608e+01,-5.654922283627092838e+01,2.903184554051767918e+01,-1.326768120456108591e+01,9.484992027282714844e+00,-1.338607788085937500e+00,-4.589512646198272705e-01,5.840000000000000000e+02
-5.532128193081007339e+01,-4.295325643074465916e+01,-3.976123239961452782e+00,-2.445594995094870683e+01,-4.480184580463173916e+01,-5.541891238777316175e+01,3.040435581095880480e+01,-1.253618400646882947e+01,9.484992027282714844e+00,-1.338607788085937500e+00,-4.589512646198272705e-01,5.850000000000000000e+02
-5.449995414011573303e+01,-4.286751828984779422e+01,-1.575330173309339443e+00,-2.388326676835276885e+01,-4.234686375897581456e+01,-5.453667776909423992e+01,3.240582075536440243e+01,-1.152191077630413929e+01,9.484992027282714844e+00,-1.338607788085937500e+00,-4.589512646198272705e-01,5.860000000000000000e+02
-5.330845419213801506e+01,-4.206432291464443551e+01,7.619130779057741165e-01,-2.290648354356380878e+01,-4.033543058227951406e+01,-5.349753059118665988e+01,3.446146640387451043e+01,-1.027475719393623876e+01,9.484992027282714844e+00,-1.338607788085937500e+00,-4.589512646198272705e-01,5.870000000000000000e+02
