F3,F4,C3,C4,P3,P4,Cz,Pz,Accel_x,Accel_y,Accel_z,Sample
-5.002220859751105309e-11,-4.092726157978177071e-11,-2.910383045673370361e-11,-2.819433575496077538e-11,-5.911715561524033546e-11,-6.730260793119668961e-11,-5.002220859751105309e-11,-3.910827217623591423e-11,9.446745872497558594e+00,-9.179025292396545410e-01,-4.971971809864044189e-01,2.270000000000000000e+02
-6.415767750168015482e+00,-7.528997777509175648e+00,-3.492079074358116486e-01,-2.807712408297447837e+00,1.997440260253824817e+00,-3.996345730080065550e+00,1.160942359978434979e+00,-4.000305814688545070e-01,9.446745872497558594e+00,-9.179025292396545410e-01,-4.971971809864044189e-01,2.280000000000000000e+02
-1.516124342078910558e+01,-1.646187049337459030e+01,-3.877926851103438821e+00,-9.161799639082346403e+00,-4.318456217635684879e+00,-1.427664778994039807e+01,-9.110908569946332136e-01,-4.164219575407514640e+00,9.446745872497558594e+00,-9.179025292396545410e-01,-4.971971809864044189e-01,2.290000000000000000e+02
-2.657724130843325838e+01,-2.716478264022589428e+01,-1.082727772287307744e+01,-1.973327345194411464e+01,-2.014353457769266242e+01,-3.163081046682600572e+01,-6.713628742175387742e+00,-1.191930949142169993e+01,9.446745872497558594e+00,-9.179025292396545410e-01,-4.971971809864044189e-01,2.300000000000000000e+02
-3.887454670901752252e+01,-3.876956328638698324e+01,-1.851163912933770916e+01,-3.199923249110634060e+01,-3.919821466040139057e+01,-5.117561867310814705e+01,-1.378234446084752562e+01,-2.132427921933413018e+01,9.446745872497558594e+00,-9.179025292396545410e-01,-4.971971809864044189e-01,2.310000000000000000e+02
-4.984820767345081549e+01,-4.988528294148545683e+01,-2.411246488600954763e+01,-4.256327835962838435e+01,-5.404813959740658902e+01,-6.733826443439284049e+01,-1.902469392912826152e+01,-2.937046538590038836e+01,9.446745872497558594e+00,-9.179025292396545410e-01,-4.971971809864044189e-01,2.320000000000000000e+02
-5.872492187979787559e+01,-5.953271192474130658e+01,-2.727071993329718680e+01,-4.980105389083473710e+01,-6.257307812779527012e+01,-7.877506135344901850e+01,-2.128419482572553534e+01,-3.486829937779657484e+01,9.446745872497558594e+00,-9.179025292396545410e-01,-4.971971809864044189e-01,2.330000000000000000e+02
-6.648127814135932567e+01,-6.757539808221645217e+01,-2.994807107798715151e+01,-5.456168397814235504e+01,-6.858309108054618264e+01,-8.855114921626591240e+01,-2.187345807483325189e+01,-3.888449103656876105e+01,9.446745872497558594e+00,-9.179025292396545410e-01,-4.971971809864044189e-01,2.340000000000000000e+02
-7.461080117487017560e+01,-7.449592035953264713e+01,-3.403686817055768188e+01,-5.879228665808204823e+01,-7.696042516115903709e+01,-1.001240670495435552e+02,-2.296923430614970130e+01,-4.311076366701854568e+01,9.446745872497558594e+00,-9.179025292396545410e-01,-4.971971809864044189e-01,2.350000000000000000e+02
-8.372969950439710374e+01,-8.091671804708312266e+01,-3.943656250622643711e+01,-6.380856339229012519e+01,-8.890619303474340995e+01,-1.137776688451440350e+02,-2.568263708866925299e+01,-4.810153075400921807e+01,9.446745872497558594e+00,-5.736890435218811035e-01,-4.589512646198272705e-01,2.360000000000000000e+02
-9.326942716460234806e+01,-8.729544206155514985e+01,-4.448742785093054408e+01,-6.975891889763079234e+01,-1.017870543333310707e+02,-1.269849533433489341e+02,-2.949363780257772305e+01,-5.307989965089109319e+01,9.446745872497558594e+00,-5.736890435218811035e-01,-4.589512646198272705e-01,2.370000000000000000e+02
-1.022330751298786709e+02,-9.387456865528110939e+01,-4.795802974259277107e+01,-7.622500098282671388e+01,-1.126976702219781146e+02,-1.376173447999271957e+02,-3.310294841818813438e+01,-5.713443110509524558e+01,9.446745872497558594e+00,-5.736890435218811035e-01,-4.589512646198272705e-01,2.380000000000000000e+02
-1.100676153046861145e+02,-1.007173530079644479e+02,-5.030727186397052719e+01,-8.284917077036243427e+01,-1.213755110131260153e+02,-1.461558356452496810e+02,-3.555254591035918565e+01,-6.028844740682052361e+01,9.446745872497558594e+00,-5.736890435218811035e-01,-4.589512646198272705e-01,2.390000000000000000e+02
-1.169276243446156514e+02,-1.077339898399586673e+02,-5.305169825869234046e+01,-8.933068966390965215e+01,-1.297395860160340817e+02,-1.547404586036054752e+02,-3.669229630145764531e+01,-6.336734302034165012e+01,9.446745872497558594e+00,-5.736890435218811035e-01,-4.589512646198272705e-01,2.400000000000000000e+02
-1.234055453613982536e+02,-1.147520998274276280e+02,-5.720556720825879893e+01,-9.517918534026648558e+01,-1.393889333826891743e+02,-1.646022145650940729e+02,-3.701884087882717722e+01,-6.701174090352560597e+01,9.446745872497558594e+00,-5.736890435218811035e-01,-4.589512646198272705e-01,2.410000000000000000e+02
-1.301864855035983055e+02,-1.216469575692754006e+02,-6.250886788846401032e+01,-9.986207844518594356e+01,-1.501552839558007690e+02,-1.748831870178701138e+02,-3.734900657556954684e+01,-7.097300112740867917e+01,9.446745872497558594e+00,-5.736890435218811035e-01,-4.589512646198272705e-01,2.420000000000000000e+02
-1.378305989953860262e+02,-1.284219220042004963e+02,-6.797053648160454031e+01,-1.032976020137220985e+02,-1.608694253222038242e+02,-1.838760091697286043e+02,-3.849360211962630274e+01,-7.431264728004316567e+01,9.446745872497558594e+00,-5.736890435218811035e-01,-4.589512646198272705e-01,2.430000000000000000e+02
-1.465499345445896324e+02,-1.351363167658437305e+02,-7.279219537002973084e+01,-1.060612040488758794e+02,-1.708012871955879746e+02,-1.909712950804196225e+02,-4.082388570997045463e+01,-7.614854231133540452e+01,9.446745872497558594e+00,-5.736890435218811035e-01,-4.589512646198272705e-01,2.440000000000000000e+02
-1.559744265001936583e+02,-1.417670644155596165e+02,-7.664716676459556766e+01,-1.089810677440900690e+02,-1.799561499118444772e+02,-1.971622413646691712e+02,-4.386689592728816933e+01,-7.622573774167722149e+01,9.446745872497558594e+00,-5.736890435218811035e-01,-4.589512646198272705e-01,2.450000000000000000e+02
-1.651701447587893199e+02,-1.481966586613516483e+02,-7.936050798389351257e+01,-1.125407974126674162e+02,-1.883100139891339495e+02,-2.038739887414230907e+02,-4.640742444403076661e+01,-7.499856006279242138e+01,9.446745872497558594e+00,-5.736890435218811035e-01,-4.589512646198272705e-01,2.460000000000000000e+02
-1.730915796721164952e+02,-1.543696050043472496e+02,-8.076366793348552164e+01,-1.167095681697328473e+02,-1.954233812925222082e+02,-2.116769190303893993e+02,-4.728712983832610917e+01,-7.340494888569446630e+01,9.446745872497558594e+00,-5.736890435218811035e-01,-4.589512646198272705e-01,2.470000000000000000e+02
-1.792019573777788537e+02,-1.604148931984582305e+02,-8.104665882141398470e+01,-1.212587008564769349e+02,-2.010965537541087542e+02,-2.202015023271014798e+02,-4.634617249361690483e+01,-7.254993800344982446e+01,9.446745872497558594e+00,-5.736890435218811035e-01,-4.589512646198272705e-01,2.480000000000000000e+02
-1.837481435426780081e+02,-1.665418414682171715e+02,-8.107980345003943512e+01,-1.260470422728230915e+02,-2.061233309861081580e+02,-2.289802704152098158e+02,-4.464841510840415140e+01,-7.332532154449745576e+01,9.446745872497558594e+00,-5.736890435218811035e-01,-4.589512646198272705e-01,2.490000000000000000e+02
-1.874914126568337451e+02,-1.727993533833796391e+02,-8.207810494525801914e+01,-1.308974112213882108e+02,-2.119624679861381082e+02,-2.380325133146116059e+02,-4.373353730438338971e+01,-7.602092030520543631e+01,9.446745872497558594e+00,-5.736890435218811035e-01,-4.589512646198272705e-01,2.500000000000000000e+02
-1.912109187957248650e+02,-1.789980769358362522e+02,-8.476057919204959035e+01,-1.353343854492604805e+02,-2.194998423526349143e+02,-2.476163006895721992e+02,-4.457653756575746229e+01,-8.018298338578460971e+01,9.446745872497558594e+00,-5.736890435218811035e-01,-4.589512646198272705e-01,2.510000000000000000e+02
-1.954437921115113568e+02,-1.849289331582913292e+02,-8.883967165995727555e+01,-1.387169053151728804e+02,-2.282756893304076584e+02,-2.576692357415695369e+02,-4.717548436754896102e+01,-8.494549813792036730e+01,9.446745872497558594e+00,-5.736890435218811035e-01,-4.589512646198272705e-01,2.520000000000000000e+02
-2.005350504509215170e+02,-1.906310825425871371e+02,-9.336606014775225049e+01,-1.407969262432307005e+02,-2.370498315488066510e+02,-2.676741526226360293e+02,-5.095315273672167677e+01,-8.963281476440624829e+01,9.446745872497558594e+00,-5.736890435218811035e-01,-4.589512646198272705e-01,2.530000000000000000e+02
-2.066773899492982309e+02,-1.963409326319979300e+02,-9.754747953620426415e+01,-1.421040358738600844e+02,-2.450385417988145491e+02,-2.770103198225815504e+02,-5.532397137914085761e+01,-9.408337309082799038e+01,9.446745872497558594e+00,-5.736890435218811035e-01,-4.589512646198272705e-01,2.540000000000000000e+02
-2.137447337892726864e+02,-2.021140410937869092e+02,-1.012342406042271250e+02,-1.436383004907402210e+02,-2.524882805289125827e+02,-2.852855820442364347e+02,-5.980837878716192790e+01,-9.840074395804003871e+01,9.446745872497558594e+00,-5.736890435218811035e-01,-4.589512646198272705e-01,2.550000000000000000e+02
-2.211398218066506161e+02,-2.075480247595469336e+02,-1.047061032082224301e+02,-1.460886500731912747e+02,-2.600967800094249469e+02,-2.923459469817826175e+02,-6.378445541338896874e+01,-1.024480643610440893e+02,9.446745872497558594e+00,-5.736890435218811035e-01,-4.589512646198272705e-01,2.560000000000000000e+02
-2.279929458582500956e+02,-2.120229163656204037e+02,-1.081398702670308012e+02,-1.493573761163252129e+02,-2.680725766791829301e+02,-2.981929737189711886e+02,-6.647818126333550026e+01,-1.057103377543744500e+02,9.446745872497558594e+00,-5.736890435218811035e-01,-4.589512646198272705e-01,2.570000000000000000e+02
-2.336901719550778580e+02,-2.153237250105221392e+02,-1.113893742735986052e+02,-1.528787366068672782e+02,-2.759005373176369176e+02,-3.031153236189011295e+02,-6.748632315676059079e+01,-1.077598115731670987e+02,9.446745872497558594e+00,-5.736890435218811035e-01,-4.589512646198272705e-01,2.580000000000000000e+02
-2.382653528588384688e+02,-2.180110221559289130e+02,-1.142277588685751653e+02,-1.563534296138077480e+02,-2.829413086170407041e+02,-3.078751680299501459e+02,-6.733328948915095680e+01,-1.088321428636027122e+02,9.446745872497558594e+00,-5.736890435218811035e-01,-4.589512646198272705e-01,2.590000000000000000e+02
-2.422624825536613571e+02,-2.210817302636914974e+02,-1.166646727411298343e+02,-1.600781176838881947e+02,-2.890742976717638157e+02,-3.135152083814064099e+02,-6.732777912772417039e+01,-1.098326208644712096e+02,9.446745872497558594e+00,-5.736890435218811035e-01,-4.589512646198272705e-01,2.600000000000000000e+02
-2.462252803421729368e+02,-2.251579238857202654e+02,-1.189499568332489616e+02,-1.644951085171569503e+02,-2.946858342251452996e+02,-3.206948707400024432e+02,-6.863756243684110814e+01,-1.116514494142438707e+02,9.446745872497558594e+00,-5.736890435218811035e-01,-4.589512646198272705e-01,2.610000000000000000e+02
-2.503442365156506639e+02,-2.299572094921604730e+02,-1.212938980297199123e+02,-1.694418595524525699e+02,-3.001443378138947082e+02,-3.290745661981527519e+02,-7.133790374942782364e+01,-1.143907982418786560e+02,9.446745872497558594e+00,-5.736890435218811035e-01,-4.589512646198272705e-01,2.620000000000000000e+02
-2.545851205617204869e+02,-2.345790590059914393e+02,-1.236754507022615144e+02,-1.739372067439007878e+02,-3.054424623469712969e+02,-3.374060902924611582e+02,-7.432695799924567837e+01,-1.172522759007606510e+02,9.446745872497558594e+00,-5.736890435218811035e-01,-4.589512646198272705e-01,2.630000000000000000e+02
-2.590339437203215311e+02,-2.383498693038145575e+02,-1.259518394167021142e+02,-1.768177406570598578e+02,-3.103772158082265378e+02,-3.443885018660130299e+02,-7.622373957082982088e+01,-1.191970425189201706e+02,9.446745872497558594e+00,-5.736890435218811035e-01,-4.589512646198272705e-01,2.640000000000000000e+02
-2.639427654236606031e+02,-2.414218478540105934e+02,-1.280839629666784276e+02,-1.776849344852685135e+02,-3.149481207323942726e+02,-3.495924677948587487e+02,-7.644046127397814416e+01,-1.197484274129237747e+02,9.446745872497558594e+00,-5.736890435218811035e-01,-4.589512646198272705e-01,2.650000000000000000e+02
-2.693562124779173246e+02,-2.445788229735130699e+02,-1.301619792038604828e+02,-1.772940731041376239e+02,-3.194382756241175230e+02,-3.536614633671415504e+02,-7.549131866076186270e+01,-1.192139523203468343e+02,9.446745872497558594e+00,-5.736890435218811035e-01,-4.589512646198272705e-01,2.660000000000000000e+02
-2.747583559763334051e+02,-2.484785051612093412e+02,-1.321764582802152290e+02,-1.770237818211680860e+02,-3.240770784100914170e+02,-3.576543373199010603e+02,-7.437383162786181856e+01,-1.182241890340292230e+02,9.523238182067871094e+00,-1.147378087043762207e+00,-4.589512646198272705e-01,2.670000000000000000e+02
-2.792439095413083123e+02,-2.530634499270518063e+02,-1.338089511411008061e+02,-1.778743272315932700e+02,-3.286981888751356564e+02,-3.621407377256800828e+02,-7.370089001401947826e+01,-1.171384129107168519e+02,9.523238182067871094e+00,-1.147378087043762207e+00,-4.589512646198272705e-01,2.680000000000000000e+02
-2.821755560770698139e+02,-2.576492854029256705e+02,-1.345396853170009308e+02,-1.798357500114830145e+02,-3.328153725236770697e+02,-3.668389160182773594e+02,-7.338889599583399104e+01,-1.159147836298325274e+02,9.523238182067871094e+00,-1.147378087043762207e+00,-4.589512646198272705e-01,2.690000000000000000e+02
-2.837338828712822760e+02,-2.615121486412235754e+02,-1.340307212363777580e+02,-1.820842557843670875e+02,-3.360436552428523100e+02,-3.710239490677795402e+02,-7.303898272853257367e+01,-1.144858662402389200e+02,9.523238182067871094e+00,-1.147378087043762207e+00,-4.589512646198272705e-01,2.700000000000000000e+02
-2.848207296878035777e+02,-2.643808844137788583e+02,-1.324387720249033009e+02,-1.837558815453535317e+02,-3.384228032339588026e+02,-3.742568186365056135e+02,-7.246413228494657233e+01,-1.131411437621331970e+02,9.523238182067871094e+00,-1.147378087043762207e+00,-4.589512646198272705e-01,2.710000000000000000e+02
-2.864067582942825538e+02,-2.664432863304882630e+02,-1.303825117457377019e+02,-1.846245664543994280e+02,-3.403477851254870075e+02,-3.767836297082844794e+02,-7.180408801893463533e+01,-1.124498731260414388e+02,9.523238182067871094e+00,-1.147378087043762207e+00,-4.589512646198272705e-01,2.720000000000000000e+02
-2.889195820606882990e+02,-2.680047234033977475e+02,-1.285956304834426192e+02,-1.851739278718964670e+02,-3.422168958846168607e+02,-3.792957567473522431e+02,-7.121298133067239178e+01,-1.127724895240348815e+02,9.523238182067871094e+00,-1.147378087043762207e+00,-4.589512646198272705e-01,2.730000000000000000e+02
-2.921562796606503980e+02,-2.692149075242941763e+02,-1.275680422926511710e+02,-1.860833242575413351e+02,-3.441659945031556163e+02,-3.823035065093545199e+02,-7.057349551268589494e+01,-1.138593188987379108e+02,9.523238182067871094e+00,-1.147378087043762207e+00,-4.589512646198272705e-01,2.740000000000000000e+02
-2.956559783537149997e+02,-2.700931893036781730e+02,-1.274543430321950837e+02,-1.876332932533764506e+02,-3.461541038677983124e+02,-3.857215753852087801e+02,-6.962852669894664359e+01,-1.149842175738508558e+02,9.523238182067871094e+00,-1.147378087043762207e+00,-4.589512646198272705e-01,2.750000000000000000e+02
-2.990853508306645381e+02,-2.707269179707732292e+02,-1.282323658997279381e+02,-1.895365903797901410e+02,-3.482724693332006609e+02,-3.890380371409141844e+02,-6.840048347452102462e+01,-1.155384900765816383e+02,9.523238182067871094e+00,-1.147378087043762207e+00,-4.589512646198272705e-01,2.760000000000000000e+02
-3.023085534916212964e+02,-2.713587061372440985e+02,-1.298515311576575186e+02,-1.912620308807304355e+02,-3.508557845073023600e+02,-3.918499906500460384e+02,-6.738246027019158646e+01,-1.155247446475968900e+02,9.523238182067871094e+00,-1.147378087043762207e+00,-4.589512646198272705e-01,2.770000000000000000e+02
-3.052283465706591414e+02,-2.722726662185173154e+02,-1.321674429769955168e+02,-1.924939838276022783e+02,-3.541607008128562484e+02,-3.942105833769437595e+02,-6.719403261341767575e+01,-1.154515810191323908e+02,9.523238182067871094e+00,-1.147378087043762207e+00,-4.589512646198272705e-01,2.780000000000000000e+02
-3.077219462407833817e+02,-2.736165392152606728e+02,-1.347625204283963285e+02,-1.933040800823428071e+02,-3.578801727070217567e+02,-3.964368703653367447e+02,-6.797117605957919295e+01,-1.157005605851986729e+02,9.523238182067871094e+00,-1.147378087043762207e+00,-4.589512646198272705e-01,2.790000000000000000e+02
-3.097877528353060370e+02,-2.753337796934038124e+02,-1.369457938836740141e+02,-1.939402253370349172e+02,-3.610633590828401793e+02,-3.986148490273835705e+02,-6.909654275695402248e+01,-1.159863677407151954e+02,9.523238182067871094e+00,-1.147378087043762207e+00,-4.589512646198272705e-01,2.800000000000000000e+02
-3.116891392486331824e+02,-2.772513182147263251e+02,-1.380847241790652333e+02,-1.945329348562900122e+02,-3.627246010287144600e+02,-4.004041211775424927e+02,-6.960307551796631742e+01,-1.155178206575051263e+02,9.523238182067871094e+00,-1.147378087043762207e+00,-4.589512646198272705e-01,2.810000000000000000e+02
-3.138340541867501088e+02,-2.792225909847079492e+02,-1.380748381453986440e+02,-1.950747168736970707e+02,-3.627494632767443363e+02,-4.014546127242388138e+02,-6.896872796267462036e+01,-1.138363689984826124e+02,9.523238182067871094e+00,-1.147378087043762207e+00,-4.589512646198272705e-01,2.820000000000000000e+02
-3.164300610632644748e+02,-2.812090145658039546e+02,-1.375181354934175033e+02,-1.956806649342079254e+02,-3.622711841151540284e+02,-4.020565235937692705e+02,-6.762370160373211547e+01,-1.115794633775931288e+02,9.523238182067871094e+00,-1.147378087043762207e+00,-4.589512646198272705e-01,2.830000000000000000e+02
-3.192601028589847374e+02,-2.832594360948100984e+02,-1.373667193482779112e+02,-1.967688707136421726e+02,-3.630103519123567821e+02,-4.032658793761397646e+02,-6.670556027097291008e+01,-1.103230356420485805e+02,9.523238182067871094e+00,-1.147378087043762207e+00,-4.589512646198272705e-01,2.840000000000000000e+02
-3.218499602116798997e+02,-2.854156609544834282e+02,-1.382525781672370613e+02,-1.988286293515252510e+02,-3.660024599896009931e+02,-4.061674184931775926e+02,-6.723354988837991186e+01,-1.114145090080464797e+02,9.523238182067871094e+00,-1.147378087043762207e+00,-4.589512646198272705e-01,2.850000000000000000e+02
-3.239116046736980934e+02,-2.876142610167603380e+02,-1.400311147772877121e+02,-2.018992992334033261e+02,-3.707820587888868431e+02,-4.108356560932147659e+02,-6.936529107098613167e+01,-1.147129399953387292e+02,9.523238182067871094e+00,-1.147378087043762207e+00,-4.589512646198272705e-01,2.860000000000000000e+02
-3.256423626003215759e+02,-2.896770951392659299e+02,-1.419212968662536696e+02,-2.052877024246668043e+02,-3.757730386599855592e+02,-4.160056855648876990e+02,-7.231069283010174331e+01,-1.184264057560999390e+02,9.523238182067871094e+00,-1.147378087043762207e+00,-4.589512646198272705e-01,2.870000000000000000e+02
-3.275582767868049814e+02,-2.914394953052951678e+02,-1.431457755018641365e+02,-2.079386794230658779e+02,-3.795915741896897089e+02,-4.199270429375769709e+02,-7.493690773613525380e+01,-1.203923826244185875e+02,9.370253562927246094e+00,-9.943943619728088379e-01,-5.736890435218811035e-01,2.880000000000000000e+02
-3.300086986965675351e+02,-2.929464990857186422e+02,-1.435715309949173388e+02,-2.092702200875341987e+02,-3.821467150518965354e+02,-4.217813343658194754e+02,-7.659175045633492118e+01,-1.198557276259971331e+02,9.370253562927246094e+00,-9.943943619728088379e-01,-5.736890435218811035e-01,2.890000000000000000e+02
-3.328465879091196484e+02,-2.945211121558934337e+02,-1.438276815432579951e+02,-2.097401987249843387e+02,-3.845706440344873727e+02,-4.224076432437177573e+02,-7.751114215134020924e+01,-1.181817737523356300e+02,9.370253562927246094e+00,-9.943943619728088379e-01,-5.736890435218811035e-01,2.900000000000000000e+02
-3.355780162289738655e+02,-2.965336715850136216e+02,-1.447693315480664751e+02,-2.105225996073107808e+02,-3.880329130489780027e+02,-4.235972676773933472e+02,-7.847977269472903572e+01,-1.177275349059295877e+02,9.370253562927246094e+00,-9.943943619728088379e-01,-5.736890435218811035e-01,2.910000000000000000e+02
-3.378520187003018691e+02,-2.989863687704391850e+02,-1.467026236497060836e+02,-2.124705146774116429e+02,-3.925007500928237505e+02,-4.265032390335538821e+02,-8.001947006526961559e+01,-1.197406414807687725e+02,9.370253562927246094e+00,-9.943943619728088379e-01,-5.736890435218811035e-01,2.920000000000000000e+02
-3.398061594676153163e+02,-3.013113197007673989e+02,-1.490148407349330455e+02,-2.152691994331366914e+02,-3.965556250651441133e+02,-4.305693793665619751e+02,-8.177947576885730996e+01,-1.231264794696232912e+02,9.370253562927246094e+00,-9.943943619728088379e-01,-5.736890435218811035e-01,2.930000000000000000e+02
-3.419130957110930922e+02,-3.027084306915758134e+02,-1.505612052478486476e+02,-2.175936752260080311e+02,-3.984446419841375473e+02,-4.339524639698649935e+02,-8.268679063921581474e+01,-1.252421393687359341e+02,9.370253562927246094e+00,-9.943943619728088379e-01,-5.736890435218811035e-01,2.940000000000000000e+02
-3.444782594363881572e+02,-3.028678822366180157e+02,-1.505726945859040597e+02,-2.182269389853195207e+02,-3.974978849153837928e+02,-4.350936502672066126e+02,-8.183635091061842104e+01,-1.241052387249567346e+02,9.370253562927246094e+00,-9.943943619728088379e-01,-5.736890435218811035e-01,2.950000000000000000e+02
-3.472748639090823417e+02,-3.024466608834106864e+02,-1.493678600791234885e+02,-2.171721666617931987e+02,-3.947279903012034765e+02,-4.340419597461278727e+02,-7.943066991578393754e+01,-1.200913611969224348e+02,9.370253562927246094e+00,-9.943943619728088379e-01,-5.736890435218811035e-01,2.960000000000000000e+02
-3.496721901416331093e+02,-3.027525634069052103e+02,-1.482213896785665384e+02,-2.157325234192178414e+02,-3.921174810567147233e+02,-4.323581550243579841e+02,-7.691463609167703908e+01,-1.156272305781935756e+02,9.370253562927246094e+00,-9.943943619728088379e-01,-5.736890435218811035e-01,2.970000000000000000e+02
-3.511569799373821752e+02,-3.047763983136126171e+02,-1.484218076883125832e+02,-2.154629956151986789e+02,-3.911932180273245194e+02,-4.317380699486986941e+02,-7.606440430505267614e+01,-1.131899889249975786e+02,9.370253562927246094e+00,-9.943943619728088379e-01,-5.736890435218811035e-01,2.980000000000000000e+02
-3.517817916595496399e+02,-3.083721954565356782e+02,-1.502568436929035443e+02,-2.169396477334873907e+02,-3.920645612840514787e+02,-4.326575900961979642e+02,-7.769786283513712988e+01,-1.134236305165645717e+02,9.370253562927246094e+00,-9.943943619728088379e-01,-5.736890435218811035e-01,2.990000000000000000e+02
-3.521515339566350349e+02,-3.123326216838518121e+02,-1.528118925279278528e+02,-2.194438268988446907e+02,-3.936825617313216981e+02,-4.342674508639116766e+02,-8.107402355419003470e+01,-1.149926880920038457e+02,9.370253562927246094e+00,-9.943943619728088379e-01,-5.736890435218811035e-01,3.000000000000000000e+02
-3.529630916325801309e+02,-3.153047445927679746e+02,-1.547813939413639446e+02,-2.217702537340804838e+02,-3.949987196746739073e+02,-4.355107192383427446e+02,-8.449990281236216561e+01,-1.161039696593643384e+02,9.370253562927246094e+00,-9.943943619728088379e-01,-5.736890435218811035e-01,3.010000000000000000e+02
-3.545048677523363949e+02,-3.167290915791624570e+02,-1.555889738937988795e+02,-2.232996880281554013e+02,-3.959365761646122337e+02,-4.362650916618387100e+02,-8.662805709326630677e+01,-1.161331161805608190e+02,9.370253562927246094e+00,-9.943943619728088379e-01,-5.736890435218811035e-01,3.020000000000000000e+02
-3.565195890142131816e+02,-3.170018903579039034e+02,-1.558109696614349104e+02,-2.243031332008133631e+02,-3.973003888453763466e+02,-4.373490869181804328e+02,-8.732707475595316282e+01,-1.158694375420868710e+02,9.370253562927246094e+00,-9.943943619728088379e-01,-5.736890435218811035e-01,3.030000000000000000e+02
-3.585024203923678670e+02,-3.168596670724919591e+02,-1.565243010212377612e+02,-2.252960159729097995e+02,-3.997517105083815068e+02,-4.394347640886948057e+02,-8.743132821328890714e+01,-1.163507927845162158e+02,9.370253562927246094e+00,-9.943943619728088379e-01,-5.736890435218811035e-01,3.040000000000000000e+02
-3.601308624271713370e+02,-3.167242742089530338e+02,-1.582053175731158490e+02,-2.262444586521110068e+02,-4.028909700492705497e+02,-4.420624634249852534e+02,-8.772903228466759629e+01,-1.176150356020530126e+02,9.370253562927246094e+00,-9.943943619728088379e-01,-5.736890435218811035e-01,3.050000000000000000e+02
-3.614273987793968672e+02,-3.166410904554745116e+02,-1.602134133902735584e+02,-2.265269859916711539e+02,-4.053781868549958745e+02,-4.438505669127844158e+02,-8.817914347915018425e+01,-1.186091201134887569e+02,9.370253562927246094e+00,-9.943943619728088379e-01,-5.736890435218811035e-01,3.060000000000000000e+02
-3.625231543028583019e+02,-3.166900700147584189e+02,-1.613126259349252223e+02,-2.256968494650915318e+02,-4.060063553805229049e+02,-4.437478098717929242e+02,-8.802314590825835694e+01,-1.182307123518252183e+02,9.370253562927246094e+00,-9.943943619728088379e-01,-5.736890435218811035e-01,3.070000000000000000e+02
-3.632779282627186603e+02,-3.172154019792927215e+02,-1.607132358564871311e+02,-2.242036019202366788e+02,-4.047033545430805361e+02,-4.420803262654466153e+02,-8.657645384328873206e+01,-1.163783387989096809e+02,9.370253562927246094e+00,-9.943943619728088379e-01,-5.736890435218811035e-01,3.080000000000000000e+02
-3.631862813362814109e+02,-3.184862422468667091e+02,-1.586842739341781225e+02,-2.232309424693904703e+02,-4.025253533666611929e+02,-4.403306892243141419e+02,-8.389768643547461124e+01,-1.139846200437283414e+02,9.370253562927246094e+00,-9.943943619728088379e-01,-5.736890435218811035e-01,3.090000000000000000e+02
-3.617820812261444985e+02,-3.201608153140736590e+02,-1.562737785623053242e+02,-2.237219623556175065e+02,-4.007100239492585843e+02,-4.398481569606419725e+02,-8.078289247660927686e+01,-1.121061995655165902e+02,9.370253562927246094e+00,-9.943943619728088379e-01,-5.736890435218811035e-01,3.100000000000000000e+02
-3.592607495398299875e+02,-3.212676861470252447e+02,-1.545042796691549256e+02,-2.255020466526342489e+02,-3.997307191699800342e+02,-4.407326195342071742e+02,-7.821024253544749172e+01,-1.110230343448299664e+02,9.370253562927246094e+00,-9.943943619728088379e-01,-5.736890435218811035e-01,3.110000000000000000e+02
-3.567204486223018307e+02,-3.209024518751203345e+02,-1.537659628363604725e+02,-2.273307257824459384e+02,-3.991864561973609398e+02,-4.419091473026068115e+02,-7.676908340968111588e+01,-1.101540056890577262e+02,9.370253562927246094e+00,-9.943943619728088379e-01,-5.736890435218811035e-01,3.120000000000000000e+02
-3.556311672931495309e+02,-3.190504452563732229e+02,-1.538144471005790592e+02,-2.278682775924619364e+02,-3.984750890414060791e+02,-4.422303497467776197e+02,-7.649446170617022744e+01,-1.087737829943872612e+02,9.370253562927246094e+00,-1.262115836143493652e+00,-4.589512646198272705e-01,3.130000000000000000e+02
-3.568107571789713575e+02,-3.167470686138663041e+02,-1.541994856654359864e+02,-2.267296592590089404e+02,-3.974760190072810246e+02,-4.415149770687109481e+02,-7.710006786694009406e+01,-1.068212429069330938e+02,9.370253562927246094e+00,-1.262115836143493652e+00,-4.589512646198272705e-01,3.140000000000000000e+02
-3.597157474066289069e+02,-3.153909158914211730e+02,-1.546638922704851211e+02,-2.247679691847398544e+02,-3.966110589082236970e+02,-4.406094244250671181e+02,-7.829223752081611565e+01,-1.050963293663703553e+02,9.370253562927246094e+00,-1.262115836143493652e+00,-4.589512646198272705e-01,3.150000000000000000e+02
-3.627133234009145326e+02,-3.158097673839615140e+02,-1.552233955217013772e+02,-2.234317967390800277e+02,-3.963835018837758071e+02,-4.405561336613546928e+02,-7.990156596366693975e+01,-1.047321096963879654e+02,9.370253562927246094e+00,-1.262115836143493652e+00,-4.589512646198272705e-01,3.160000000000000000e+02
-3.642152848434658381e+02,-3.178623861479508150e+02,-1.560054213763971802e+02,-2.237790341011088913e+02,-3.969833331693429272e+02,-4.417249578165287289e+02,-8.181424947289110605e+01,-1.064039024086703193e+02,9.370253562927246094e+00,-1.262115836143493652e+00,-4.589512646198272705e-01,3.170000000000000000e+02
-3.637678254425358659e+02,-3.207711541997476274e+02,-1.570470200312870475e+02,-2.258812724297539489e+02,-3.982957822273000374e+02,-4.436309943078031210e+02,-8.383082772514342196e+01,-1.098438734206260960e+02,9.370253562927246094e+00,-1.262115836143493652e+00,-4.589512646198272705e-01,3.180000000000000000e+02
-3.622063177374747056e+02,-3.237247168517454270e+02,-1.582020566883857100e+02,-2.289425636884342339e+02,-4.001286173711906144e+02,-4.454529452694910105e+02,-8.561180111601720455e+01,-1.139810407343577481e+02,9.370253562927246094e+00,-1.262115836143493652e+00,-4.589512646198272705e-01,3.190000000000000000e+02
-3.608168268376491596e+02,-3.261979208327064725e+02,-1.592075671237709003e+02,-2.319067490824029392e+02,-4.023030920338338774e+02,-4.467139627198390599e+02,-8.680230500515040148e+01,-1.176232837206979411e+02,9.370253562927246094e+00,-1.262115836143493652e+00,-4.589512646198272705e-01,3.200000000000000000e+02
-3.603097479326742132e+02,-3.278973771590825663e+02,-1.598563596310930279e+02,-2.340477447002655254e+02,-4.045322791655415244e+02,-4.475523325633726586e+02,-8.725817770374067095e+01,-1.202128348728389255e+02,9.370253562927246094e+00,-1.262115836143493652e+00,-4.589512646198272705e-01,3.210000000000000000e+02
-3.605002641889654456e+02,-3.286446902819022853e+02,-1.601596815117300139e+02,-2.351514612239308235e+02,-4.063377160526055150e+02,-4.484119395609288290e+02,-8.716679477719208080e+01,-1.220829105262629355e+02,9.370253562927246094e+00,-1.262115836143493652e+00,-4.589512646198272705e-01,3.220000000000000000e+02
-3.608236195166613243e+02,-3.284340987604027760e+02,-1.603546408835599095e+02,-2.352410344287731050e+02,-4.072020141673092439e+02,-4.494088033621040950e+02,-8.687405892403864982e+01,-1.239583715129147095e+02,9.370253562927246094e+00,-1.262115836143493652e+00,-4.589512646198272705e-01,3.230000000000000000e+02
-3.610137277244752454e+02,-3.275722481422434953e+02,-1.607032275350233022e+02,-2.341879505328715823e+02,-4.068469374917322625e+02,-4.498983992335319044e+02,-8.650783401324736133e+01,-1.260941481810308460e+02,9.370253562927246094e+00,-1.262115836143493652e+00,-4.589512646198272705e-01,3.240000000000000000e+02
-3.612387139489372316e+02,-3.266390902453746889e+02,-1.612402034880921065e+02,-2.316725340485573952e+02,-4.053868879432869790e+02,-4.487126815235970980e+02,-8.576554023243920710e+01,-1.278705120108702431e+02,9.370253562927246094e+00,-1.262115836143493652e+00,-4.589512646198272705e-01,3.250000000000000000e+02
-3.616669347611928060e+02,-3.262010778912936644e+02,-1.617116726527227684e+02,-2.276428479494098838e+02,-4.032554791245407841e+02,-4.450690145802302595e+02,-8.416040321047978523e+01,-1.283654143627004487e+02,9.370253562927246094e+00,-1.262115836143493652e+00,-4.589512646198272705e-01,3.260000000000000000e+02
-3.620489653931969087e+02,-3.265090565161107747e+02,-1.617706896276863517e+02,-2.228720996356222486e+02,-4.010031046631461891e+02,-4.395218033694502537e+02,-8.158166591705560222e+01,-1.274837288227423642e+02,9.370253562927246094e+00,-1.262115836143493652e+00,-4.589512646198272705e-01,3.270000000000000000e+02
-3.618150595105342404e+02,-3.274387304767803926e+02,-1.612237964273454054e+02,-2.189528014613078994e+02,-3.990813025570593595e+02,-4.340604820515194433e+02,-7.861921772760570093e+01,-1.265413053552368865e+02,9.370253562927246094e+00,-1.262115836143493652e+00,-4.589512646198272705e-01,3.280000000000000000e+02
-3.605796891261509245e+02,-3.286809551956205269e+02,-1.600832171136918305e+02,-2.174534162777571282e+02,-3.976689018859098042e+02,-4.309953104626248432e+02,-7.623989849375811900e+01,-1.275544774905819168e+02,9.370253562927246094e+00,-1.262115836143493652e+00,-4.589512646198272705e-01,3.290000000000000000e+02
-3.585027620056730484e+02,-3.299707951320360735e+02,-1.584340652231886679e+02,-2.187669631816636411e+02,-3.965904241439160955e+02,-4.313430087646947868e+02,-7.505567043848634512e+01,-1.316991063827091466e+02,9.370253562927246094e+00,-1.262115836143493652e+00,-4.589512646198272705e-01,3.300000000000000000e+02
-3.561578139263527873e+02,-3.311687716132526589e+02,-1.563666557443344800e+02,-2.216481644147766019e+02,-3.954184939163492345e+02,-4.340541747320618242e+02,-7.487469590448881718e+01,-1.382895617828735340e+02,9.370253562927246094e+00,-1.262115836143493652e+00,-4.589512646198272705e-01,3.310000000000000000e+02
-3.540869707459507936e+02,-3.321866513641393794e+02,-1.541143702137071614e+02,-2.239701694172524640e+02,-3.937754316361890687e+02,-4.368114008063361098e+02,-7.497386066920216763e+01,-1.452253665251104167e+02,9.370253562927246094e+00,-1.262115836143493652e+00,-4.589512646198272705e-01,3.320000000000000000e+02
-3.525070818762246176e+02,-3.329024275507375705e+02,-1.522104620140960378e+02,-2.241859327008523906e+02,-3.916520229513548088e+02,-4.377568496515341394e+02,-7.480889377888877334e+01,-1.505215614093689283e+02,9.370253562927246094e+00,-1.262115836143493652e+00,-4.589512646198272705e-01,3.330000000000000000e+02
-3.513764614390880752e+02,-3.331884694679399104e+02,-1.513532624457670863e+02,-2.223286392852074869e+02,-3.894618831009005930e+02,-4.366648426984453408e+02,-7.444584381243953430e+01,-1.535731255306618550e+02,9.370253562927246094e+00,-1.262115836143493652e+00,-4.589512646198272705e-01,3.340000000000000000e+02
-3.506008488839368624e+02,-3.330322323707691226e+02,-1.519344371793627033e+02,-2.197605477130243798e+02,-3.877314574813741501e+02,-4.346233182528590078e+02,-7.430933223718568570e+01,-1.551363047077387591e+02,9.370253562927246094e+00,-1.262115836143493652e+00,-4.589512646198272705e-01,3.350000000000000000e+02
-3.500866567085606675e+02,-3.326289574150800945e+02,-1.536223946431208560e+02,-2.179747609950014748e+02,-3.866778212035318347e+02,-4.327294169920751301e+02,-7.458313000545331306e+01,-1.562846015344736088e+02,9.370253562927246094e+00,-1.262115836143493652e+00,-4.589512646198272705e-01,3.360000000000000000e+02
-3.496355054195342973e+02,-3.323283164667643064e+02,-1.554488642198468824e+02,-2.175211651068283345e+02,-3.860452360833964462e+02,-4.311607071589020279e+02,-7.494133956286805187e+01,-1.574807621573922916e+02,9.370253562927246094e+00,-1.262115836143493652e+00,-4.589512646198272705e-01,3.370000000000000000e+02
-3.489290564629709479e+02,-3.324038519107074308e+02,-1.564084514480199459e+02,-2.178572502847107444e+02,-3.853149094111670365e+02,-4.294112123150110847e+02,-7.486644939797167808e+01,-1.585523668500200074e+02,9.370253562927246094e+00,-1.262115836143493652e+00,-4.589512646198272705e-01,3.380000000000000000e+02
-3.477613901145779209e+02,-3.327855262340015088e+02,-1.561216778097956421e+02,-2.180418514563366443e+02,-3.840942325759722280e+02,-4.272104199809691636e+02,-7.418741161618800106e+01,-1.593337023702754323e+02,9.370253562927246094e+00,-1.262115836143493652e+00,-4.589512646198272705e-01,3.390000000000000000e+02
-3.463324263431837267e+02,-3.330090167659463987e+02,-1.550728911400346988e+02,-2.175553264278196366e+02,-3.824044858323122753e+02,-4.250425331956855644e+02,-7.329095926959189455e+01,-1.601473457309355126e+02,9.370253562927246094e+00,-1.568083524703979492e+00,-5.736890435218811035e-01,3.400000000000000000e+02
-3.452498130071934952e+02,-3.325263721963758599e+02,-1.543052050256078473e+02,-2.166158579911259494e+02,-3.807274374741663223e+02,-4.237669944653648599e+02,-7.285850209228658514e+01,-1.616478728316279785e+02,9.370253562927246094e+00,-1.568083524703979492e+00,-5.736890435218811035e-01,3.410000000000000000e+02
-3.451328037296432854e+02,-3.312073637061057525e+02,-1.548366733125094470e+02,-2.159155858963929404e+02,-3.798160463503988922e+02,-4.238441377309065956e+02,-7.343208218499182749e+01,-1.642834018152021827e+02,9.370253562927246094e+00,-1.568083524703979492e+00,-5.736890435218811035e-01,3.420000000000000000e+02
-3.461085498443812298e+02,-3.296032697659892392e+02,-1.571150719217663436e+02,-2.161012660366056934e+02,-3.803075867236088925e+02,-4.249858300878072441e+02,-7.513780338811864112e+01,-1.679392092440208444e+02,9.370253562927246094e+00,-1.568083524703979492e+00,-5.736890435218811035e-01,3.430000000000000000e+02
-3.476409914140945148e+02,-3.286375044744992238e+02,-1.606991932693646277e+02,-2.173418948451977144e+02,-3.822425198806740809e+02,-4.264541965282355704e+02,-7.762886507085386256e+01,-1.719924999738118458e+02,9.370253562927246094e+00,-1.568083524703979492e+00,-5.736890435218811035e-01,3.440000000000000000e+02
-3.488468824214315873e+02,-3.288465450006553965e+02,-1.642729829409289550e+02,-2.191312010559772716e+02,-3.847450814322593260e+02,-4.275202589648146159e+02,-8.011620406199142508e+01,-1.755449518861607885e+02,9.370253562927246094e+00,-1.568083524703979492e+00,-5.736890435218811035e-01,3.450000000000000000e+02
-3.490299731808881916e+02,-3.297843493180494079e+02,-1.661028321093057230e+02,-2.203945464362872144e+02,-3.862140281614110791e+02,-4.276104240050412955e+02,-8.149738040666102279e+01,-1.776126493294594866e+02,9.370253562927246094e+00,-1.568083524703979492e+00,-5.736890435218811035e-01,3.460000000000000000e+02
-3.480243007261196908e+02,-3.301883833218385007e+02,-1.649140060793803286e+02,-2.199539698585098222e+02,-3.851263325976826764e+02,-4.262297611079704893e+02,-8.076475915710022946e+01,-1.773748228602050858e+02,9.370253562927246094e+00,-1.568083524703979492e+00,-5.736890435218811035e-01,3.470000000000000000e+02
-3.461363362079448507e+02,-3.288793516011202200e+02,-1.607426294746156827e+02,-2.172108715382939863e+02,-3.810101410117927117e+02,-4.230608595638921088e+02,-7.765816173686539514e+01,-1.746166312098571325e+02,9.370253562927246094e+00,-1.568083524703979492e+00,-5.736890435218811035e-01,3.480000000000000000e+02
-3.438383285018485367e+02,-3.256797521566031719e+02,-1.550997775102358673e+02,-2.126280061681400184e+02,-3.748433366411178440e+02,-4.183169106591396940e+02,-7.310691626578682190e+01,-1.701468275120032558e+02,9.370253562927246094e+00,-1.568083524703979492e+00,-5.736890435218811035e-01,3.490000000000000000e+02
-3.415283020382805717e+02,-3.215562421295569493e+02,-1.501602015595053672e+02,-2.075862406664277842e+02,-3.685088488258861616e+02,-4.129415064004315354e+02,-6.893028269021306187e+01,-1.656833032904124821e+02,9.370253562927246094e+00,-1.568083524703979492e+00,-5.736890435218811035e-01,3.500000000000000000e+02
-3.395063305106849612e+02,-3.178635428986558509e+02,-1.474581486661985537e+02,-2.035986826078863032e+02,-3.636957387184486379e+02,-4.082493823309682739e+02,-6.679728922864762808e+01,-1.630047584722103693e+02,9.370253562927246094e+00,-1.568083524703979492e+00,-5.736890435218811035e-01,3.510000000000000000e+02
-3.380416224044520277e+02,-3.153648959618481058e+02,-1.470569718892545552e+02,-2.014200292363452718e+02,-3.610747051509486027e+02,-4.051633637658306952e+02,-6.716111808199502775e+01,-1.628739131094757795e+02,9.370253562927246094e+00,-1.568083524703979492e+00,-5.736890435218811035e-01,3.520000000000000000e+02
-3.373003026156693522e+02,-3.138692681530110349e+02,-1.478009546765615596e+02,-2.007222837419411690e+02,-3.602496826115690283e+02,-4.036778611935665140e+02,-6.902971998008320043e+01,-1.645958301811523370e+02,9.370253562927246094e+00,-1.568083524703979492e+00,-5.736890435218811035e-01,3.530000000000000000e+02
-3.371115045093358731e+02,-3.127144966821545040e+02,-1.483328856354255549e+02,-2.005435115042823782e+02,-3.602785119483370408e+02,-4.030154576606352066e+02,-7.077980531091861849e+01,-1.666214157052302198e+02,9.370253562927246094e+00,-1.568083524703979492e+00,-5.736890435218811035e-01,3.540000000000000000e+02
-3.368270489661344982e+02,-3.115243921624451104e+02,-1.479735226345835599e+02,-2.000714450530559816e+02,-3.602189707504217040e+02,-4.022997243082750174e+02,-7.133235228261867178e+01,-1.676953497514757601e+02,9.370253562927246094e+00,-1.568083524703979492e+00,-5.736890435218811035e-01,3.550000000000000000e+02
-3.355618337974885890e+02,-3.104704626402185568e+02,-1.468436912073326539e+02,-1.991041159010236470e+02,-3.594049161652831117e+02,-4.011187792358682600e+02,-7.072225884712918287e+01,-1.675655079141680517e+02,9.370253562927246094e+00,-1.568083524703979492e+00,-5.736890435218811035e-01,3.560000000000000000e+02
-3.327853964727569291e+02,-3.098362313837767488e+02,-1.453892146420987501e+02,-1.979009632085284238e+02,-3.575651551736893907e+02,-3.995406532326934439e+02,-6.969104499906484307e+01,-1.667275304466096486e+02,9.370253562927246094e+00,-1.568083524703979492e+00,-5.736890435218811035e-01,3.570000000000000000e+02
-3.288201975261342795e+02,-3.094109347858241108e+02,-1.439339655584492448e+02,-1.967008924564913741e+02,-3.549275167586724820e+02,-3.977077729422057928e+02,-6.880269758617612297e+01,-1.655883928134863936e+02,9.370253562927246094e+00,-1.568083524703979492e+00,-5.736890435218811035e-01,3.580000000000000000e+02
-3.247613486248970958e+02,-3.084189131802288557e+02,-1.426247200400835027e+02,-1.954390342488729857e+02,-3.521914440852302732e+02,-3.955227757191707951e+02,-6.795762021919381368e+01,-1.639505678313714725e+02,9.370253562927246094e+00,-1.568083524703979492e+00,-5.736890435218811035e-01,3.590000000000000000e+02
-3.217576422987458500e+02,-3.061351740166976469e+02,-1.415791597986067245e+02,-1.938796702405441010e+02,-3.501424630545795935e+02,-3.927487033446551550e+02,-6.669360950318377945e+01,-1.613077997978285794e+02,9.370253562927246094e+00,-1.568083524703979492e+00,-5.736890435218811035e-01,3.600000000000000000e+02
-3.201616063242413475e+02,-3.026265844982667659e+02,-1.408620261273993037e+02,-1.919492365297395509e+02,-3.490226401821887521e+02,-3.893848641423866184e+02,-6.486262982345726869e+01,-1.575827965557550669e+02,9.370253562927246094e+00,-1.568083524703979492e+00,-5.736890435218811035e-01,3.610000000000000000e+02
-3.192544101037382234e+02,-2.989068131888483322e+02,-1.402692388023799595e+02,-1.899108470461953857e+02,-3.482006138153642496e+02,-3.859050288155317503e+02,-6.295797349475265037e+01,-1.535172052980464059e+02,9.370253562927246094e+00,-1.568083524703979492e+00,-5.736890435218811035e-01,3.620000000000000000e+02
-3.178070791385944176e+02,-2.962988777222088856e+02,-1.392685094602122717e+02,-1.882319594920595591e+02,-3.465783308476377442e+02,-3.830776892125902577e+02,-6.175654169349445510e+01,-1.502857980833241527e+02,9.370253562927246094e+00,-1.568083524703979492e+00,-5.736890435218811035e-01,3.630000000000000000e+02
-3.150274434690378484e+02,-2.955120530394751768e+02,-1.373301436484155147e+02,-1.872958861491952121e+02,-3.435086828265424401e+02,-3.814755571796067670e+02,-6.162541845883527003e+01,-1.486603915100580480e+02,9.370253562927246094e+00,-1.568083524703979492e+00,-5.736890435218811035e-01,3.640000000000000000e+02
-3.111177286591782831e+02,-2.961726857154205845e+02,-1.344182379580279303e+02,-1.871915551458220079e+02,-3.394281958227707037e+02,-3.810566065443520074e+02,-6.216281278079839012e+01,-1.484625593008792066e+02,9.370253562927246094e+00,-1.568083524703979492e+00,-5.736890435218811035e-01,3.650000000000000000e+02
-3.070187655835575242e+02,-2.971317282021802839e+02,-1.311450663972326538e+02,-1.876669278725337335e+02,-3.355761469032955802e+02,-3.811310479588373710e+02,-6.249807250969263350e+01,-1.487406766603339747e+02,9.370253562927246094e+00,-1.568083524703979492e+00,-5.736890435218811035e-01,3.660000000000000000e+02
-3.036282941448139354e+02,-2.972253330128257858e+02,-1.283734532216054731e+02,-1.881977105647428061e+02,-3.329876382944208899e+02,-3.807301333184745999e+02,-6.194661362696649576e+01,-1.484522067182274441e+02,9.370253562927246094e+00,-1.568083524703979492e+00,-5.736890435218811035e-01,3.670000000000000000e+02
-3.011984691960204827e+02,-2.958742832293787615e+02,-1.266177610013872936e+02,-1.881365739394406091e+02,-3.316517509454461106e+02,-3.791254037112466904e+02,-6.043329432520249611e+01,-1.470722184542447621e+02,9.370253562927246094e+00,-1.568083524703979492e+00,-5.736890435218811035e-01,3.680000000000000000e+02
-2.993718271983229897e+02,-2.931731564490380606e+02,-1.258021502974772829e+02,-1.869653652300496560e+02,-3.306102985262045877e+02,-3.761848975686675658e+02,-5.838798372190387909e+01,-1.447419894432148340e+02,9.370253562927246094e+00,-1.568083524703979492e+00,-5.736890435218811035e-01,3.690000000000000000e+02
-2.976968049806276895e+02,-2.896114104800146833e+02,-1.255522634816838945e+02,-1.846268303119758230e+02,-3.289163938967612921e+02,-3.724084984354540211e+02,-5.634025939608909539e+01,-1.420230366636548069e+02,9.370253562927246094e+00,-1.568083524703979492e+00,-5.736890435218811035e-01,3.700000000000000000e+02
-2.960618333712977801e+02,-2.857851681514528082e+02,-1.256402577339382560e+02,-1.817270715488475616e+02,-3.265635779558820104e+02,-3.686707730017283211e+02,-5.463325848632484849e+01,-1.395584580694153374e+02,9.446745872497558594e+00,-1.644575238227844238e+00,-6.884268522262573242e-01,3.710000000000000000e+02
-2.946470567162405132e+02,-2.822771215671416485e+02,-1.260795172224915177e+02,-1.793407898306048764e+02,-3.244995879932851039e+02,-3.658049756315767809e+02,-5.343569749430116644e+01,-1.378235009628338048e+02,9.446745872497558594e+00,-1.644575238227844238e+00,-6.884268522262573242e-01,3.720000000000000000e+02
-2.935339055439583262e+02,-2.795862334859775729e+02,-1.267935161362967165e+02,-1.783989976098059742e+02,-3.236744108016887367e+02,-3.641946121500693607e+02,-5.287172895362573399e+01,-1.369475111151782585e+02,9.446745872497558594e+00,-1.644575238227844238e+00,-6.884268522262573242e-01,3.730000000000000000e+02
-2.924420502215334636e+02,-2.779531319060467922e+02,-1.272895131442446655e+02,-1.790341174948277967e+02,-3.239782860450527551e+02,-3.635448004762251912e+02,-5.300377095160365570e+01,-1.365689506681458170e+02,9.446745872497558594e+00,-1.644575238227844238e+00,-6.884268522262573242e-01,3.740000000000000000e+02
-2.908940679570497423e+02,-2.771443974753028670e+02,-1.267956323466074764e+02,-1.804169600852767417e+02,-3.240798645128595581e+02,-3.629907340885768008e+02,-5.367340355298301802e+01,-1.358702660169531100e+02,9.446745872497558594e+00,-1.644575238227844238e+00,-6.884268522262573242e-01,3.750000000000000000e+02
-2.886495593172762710e+02,-2.764623842305163635e+02,-1.248345570521383934e+02,-1.812901902742437414e+02,-3.224037785403729686e+02,-3.615608355192675845e+02,-5.444801459753330164e+01,-1.339680673813818430e+02,9.446745872497558594e+00,-1.644575238227844238e+00,-6.884268522262573242e-01,3.760000000000000000e+02
-2.859595432848227574e+02,-2.751201752554068207e+02,-1.217107058020167187e+02,-1.808010689497908743e+02,-3.184450238302861180e+02,-3.587516199096255605e+02,-5.482323737617775805e+01,-1.305313170845256536e+02,9.446745872497558594e+00,-1.644575238227844238e+00,-6.884268522262573242e-01,3.770000000000000000e+02
-2.833584249780453774e+02,-2.727617060445397783e+02,-1.184105144233711826e+02,-1.789543698153233890e+02,-3.132479808185134971e+02,-3.548138824502643729e+02,-5.452113074116505231e+01,-1.261610294072675060e+02,9.446745872497558594e+00,-1.644575238227844238e+00,-6.884268522262573242e-01,3.780000000000000000e+02
-2.811758104244202059e+02,-2.697072148569545789e+02,-1.159556960385441471e+02,-1.763523678345334247e+02,-3.085976199863664533e+02,-3.505166051049409361e+02,-5.359503137705723930e+01,-1.221225355022588701e+02,9.446745872497558594e+00,-1.644575238227844238e+00,-6.884268522262573242e-01,3.790000000000000000e+02
-2.792402146038589308e+02,-2.667140911607543785e+02,-1.147579110817965784e+02,-1.735595676643893057e+02,-3.056246281996404832e+02,-3.465724231525705363e+02,-5.227795054240004902e+01,-1.195247280490675621e+02,9.446745872497558594e+00,-1.644575238227844238e+00,-6.884268522262573242e-01,3.800000000000000000e+02
-2.770760430389532303e+02,-2.644617802018337898e+02,-1.145027664239112255e+02,-1.707605999026791324e+02,-3.040462838836092487e+02,-3.432086545589404523e+02,-5.081022133775218208e+01,-1.185709826679080834e+02,9.446745872497558594e+00,-1.644575238227844238e+00,-6.884268522262573242e-01,3.810000000000000000e+02
-2.744342438018175017e+02,-2.631886594071293075e+02,-1.146062551297843584e+02,-1.680218106537563472e+02,-3.026836719189202540e+02,-3.402404214228306500e+02,-4.949684781541736811e+01,-1.185157694154743240e+02,9.446745872497558594e+00,-1.644575238227844238e+00,-6.884268522262573242e-01,3.820000000000000000e+02
-2.716564988593186172e+02,-2.627168200468811392e+02,-1.147697039448462419e+02,-1.657672596497432096e+02,-3.006898837937285407e+02,-3.375029740550066890e+02,-4.888080265431608495e+01,-1.183610277998782294e+02,9.446745872497558594e+00,-1.644575238227844238e+00,-6.884268522262573242e-01,3.830000000000000000e+02
-2.694974082022790753e+02,-2.627030132487495848e+02,-1.151405461718982224e+02,-1.647940965303728262e+02,-2.982960705085906739e+02,-3.351428316312219522e+02,-4.964818033895517146e+01,-1.176608069253743452e+02,9.446745872497558594e+00,-1.644575238227844238e+00,-6.884268522262573242e-01,3.840000000000000000e+02
-2.684963097676240977e+02,-2.627911466308316903e+02,-1.159949159820876048e+02,-1.656099565683848596e+02,-2.964252390779745383e+02,-3.334244068638149656e+02,-5.208947099314332263e+01,-1.167208719531274710e+02,9.446745872497558594e+00,-1.644575238227844238e+00,-6.884268522262573242e-01,3.850000000000000000e+02
-2.684103933857331867e+02,-2.625622721760692002e+02,-1.172960639817156334e+02,-1.676581195842982197e+02,-2.956564466921788608e+02,-3.322610589180662828e+02,-5.551217901883774175e+01,-1.160891409669607128e+02,9.446745872497558594e+00,-1.644575238227844238e+00,-6.884268522262573242e-01,3.860000000000000000e+02
-2.682017840722855908e+02,-2.614843580115793884e+02,-1.185408993061173533e+02,-1.692875783450415383e+02,-2.955953816591782015e+02,-3.310127951294512059e+02,-5.826817274778181854e+01,-1.158868637819468859e+02,9.446745872497558594e+00,-1.644575238227844238e+00,-6.884268522262573242e-01,3.870000000000000000e+02
-2.666395269615125017e+02,-2.591141337911726623e+02,-1.190005346207244656e+02,-1.687362106112609581e+02,-2.952094754891886623e+02,-3.288673886963788391e+02,-5.864500071108750490e+01,-1.156389448221295879e+02,9.446745872497558594e+00,-1.644575238227844238e+00,-6.884268522262573242e-01,3.880000000000000000e+02
-2.630801146688431800e+02,-2.554869283066439039e+02,-1.181320320373215509e+02,-1.654540982145010730e+02,-2.937037610061006490e+02,-3.255277434307677140e+02,-5.606424153568650581e+01,-1.147281929133973790e+02,9.446745872497558594e+00,-1.644575238227844238e+00,-6.884268522262573242e-01,3.890000000000000000e+02
-2.578705408944442752e+02,-2.513245159373332172e+02,-1.158664791342507669e+02,-1.606661519217730074e+02,-2.910694237473944668e+02,-3.215723830694603294e+02,-5.160882596730175464e+01,-1.129829395231417948e+02,9.446745872497558594e+00,-1.644575238227844238e+00,-6.884268522262573242e-01,3.900000000000000000e+02
-2.521084273782059881e+02,-2.477530179264042545e+02,-1.126214199843486767e+02,-1.565975633586181175e+02,-2.878724724312535272e+02,-3.180934759388878774e+02,-4.734659288513057618e+01,-1.108084475596615448e+02,9.446745872497558594e+00,-1.644575238227844238e+00,-6.884268522262573242e-01,3.910000000000000000e+02
-2.469383684579879628e+02,-2.456339384793432146e+02,-1.090770848928691521e+02,-1.548706865320903034e+02,-2.846449595880421839e+02,-3.158465876731920616e+02,-4.490991904897327913e+01,-1.087588691487915185e+02,9.408499717712402344e+00,-1.759313106536865234e+00,-7.266727685928344727e-01,3.920000000000000000e+02
-2.428821553999973730e+02,-2.449963192580312352e+02,-1.058739507539592068e+02,-1.553085137698276412e+02,-2.815506486858371318e+02,-3.146148488698877372e+02,-4.446029029497640295e+01,-1.070222512160844417e+02,9.408499717712402344e+00,-1.759313106536865234e+00,-7.266727685928344727e-01,3.930000000000000000e+02
-2.396505639629681355e+02,-2.450182527671559001e+02,-1.033790600087966141e+02,-1.561000510054466304e+02,-2.785585555380089318e+02,-3.133232401393570399e+02,-4.484524096032509988e+01,-1.053338487276553224e+02,9.408499717712402344e+00,-1.759313106536865234e+00,-7.266727685928344727e-01,3.940000000000000000e+02
-2.365378142578608731e+02,-2.445675060864425632e+02,-1.016143043427116481e+02,-1.552129205094515783e+02,-2.757846307773688750e+02,-3.108295295219800209e+02,-4.472591657329076043e+01,-1.033663840979666020e+02,9.408499717712402344e+00,-1.759313106536865234e+00,-7.266727685928344727e-01,3.950000000000000000e+02
-2.330906062726346590e+02,-2.428753761129742088e+02,-1.003640667288327677e+02,-1.519503012012007730e+02,-2.735512253424053597e+02,-3.067867326192183555e+02,-4.365091731599659397e+01,-1.011726819588786839e+02,9.408499717712402344e+00,-1.759313106536865234e+00,-7.266727685928344727e-01,3.960000000000000000e+02
-2.295382095983050021e+02,-2.398750907366875254e+02,-9.938632735145392871e+01,-1.474434520681616050e+02,-2.721095345986143457e+02,-3.019206131840173839e+02,-4.220201691187003235e+01,-9.922412652249749954e+01,9.408499717712402344e+00,-1.759313106536865234e+00,-7.266727685928344727e-01,3.970000000000000000e+02
-2.266404636395850503e+02,-2.360547011792671128e+02,-9.858211191969212450e+01,-1.437140600339409957e+02,-2.713587696477479767e+02,-2.975039108567218591e+02,-4.122233544308892306e+01,-9.799206743284298682e+01,9.408499717712402344e+00,-1.759313106536865234e+00,-7.266727685928344727e-01,3.980000000000000000e+02
-2.250471905153724492e+02,-2.320501136301004408e+02,-9.800481108937174213e+01,-1.420612484674968528e+02,-2.708636806585859631e+02,-2.944173126861819583e+02,-4.092455823789191527e+01,-9.744825614015508108e+01,9.408499717712402344e+00,-1.759313106536865234e+00,-7.266727685928344727e-01,3.990000000000000000e+02
-2.246740006469603941e+02,-2.283257914619048279e+02,-9.773242523026488016e+01,-1.420660302247688378e+02,-2.701393851580241972e+02,-2.925133309575153362e+02,-4.070206016694510254e+01,-9.695210915969983034e+01,9.408499717712402344e+00,-1.759313106536865234e+00,-7.266727685928344727e-01,4.000000000000000000e+02
-2.246333745260158139e+02,-2.251240266135421280e+02,-9.775175283365933865e+01,-1.420120002829414716e+02,-2.689256380152592101e+02,-2.907749954296018586e+02,-3.975874084076258441e+01,-9.566608750949490059e+01,9.408499717712402344e+00,-1.759313106536865234e+00,-7.266727685928344727e-01,4.010000000000000000e+02
-2.238053638046499145e+02,-2.225814127621811167e+02,-9.794162839237469598e+01,-1.403570732643822794e+02,-2.672307557009935408e+02,-2.881405774574484440e+02,-3.790392694354113701e+01,-9.319121931642075651e+01,9.408499717712402344e+00,-1.759313106536865234e+00,-7.266727685928344727e-01,4.020000000000000000e+02
-2.215930307907501629e+02,-2.207947854767837725e+02,-9.812806142989461478e+01,-1.370293619677904644e+02,-2.651900681611227810e+02,-2.843470525131424438e+02,-3.577810200715885003e+01,-8.994903110529958212e+01,9.408499717712402344e+00,-1.759313106536865234e+00,-7.266727685928344727e-01,4.030000000000000000e+02
-2.182481567016627650e+02,-2.197508586061480855e+02,-9.813446384747135198e+01,-1.334936337577864833e+02,-2.629352741550030714e+02,-2.801462149006256368e+02,-3.436938245246096812e+01,-8.702276772514005643e+01,9.408499717712402344e+00,-1.759313106536865234e+00,-7.266727685928344727e-01,4.040000000000000000e+02
-2.145196099812683315e+02,-2.192193050311066145e+02,-9.780170283019924682e+01,-1.315768823482137577e+02,-2.605936285085783766e+02,-2.767617619561769970e+02,-3.431121278313185030e+01,-8.554477906821648503e+01,9.408499717712402344e+00,-1.759313106536865234e+00,-7.266727685928344727e-01,4.050000000000000000e+02
-2.109969072599005813e+02,-2.187742325632166285e+02,-9.704759887124782836e+01,-1.320659299753076539e+02,-2.583607297120431667e+02,-2.750540605552655506e+02,-3.556337393991202589e+01,-8.602491821690819052e+01,9.408499717712402344e+00,-1.759313106536865234e+00,-7.266727685928344727e-01,4.060000000000000000e+02
-2.077566831055937655e+02,-2.179936833893148105e+02,-9.598235876203489170e+01,-1.342091986265818377e+02,-2.564899638741799208e+02,-2.750170739887712443e+02,-3.761720167511089130e+01,-8.803133096184183159e+01,9.408499717712402344e+00,-1.759313106536865234e+00,-7.266727685928344727e-01,4.070000000000000000e+02
-2.045657922764855812e+02,-2.166960728809240209e+02,-9.495399920061072407e+01,-1.364199635056154420e+02,-2.551331627968042994e+02,-2.758799511332604197e+02,-3.988053686532316533e+01,-9.041049924154162909e+01,9.408499717712402344e+00,-1.759313106536865234e+00,-7.266727685928344727e-01,4.080000000000000000e+02
-2.013344762792632991e+02,-2.150098216059163860e+02,-9.438630136601796039e+01,-1.374602250807156452e+02,-2.541597631186375565e+02,-2.765971662325764555e+02,-4.185525113251196672e+01,-9.191529281835005349e+01,9.408499717712402344e+00,-1.759313106536865234e+00,-7.266727685928344727e-01,4.090000000000000000e+02
-1.983010534836494116e+02,-2.132138514718894839e+02,-9.445570166932884604e+01,-1.371064724523953373e+02,-2.531651177294197623e+02,-2.763307449528169855e+02,-4.308582778493928345e+01,-9.186874928582983557e+01,9.408499717712402344e+00,-1.759313106536865234e+00,-7.266727685928344727e-01,4.100000000000000000e+02
-1.957663597548471444e+02,-2.114960695456925350e+02,-9.487100517824592316e+01,-1.359009681351835752e+02,-2.517228515307447196e+02,-2.747015361902165296e+02,-4.314514226028381927e+01,-9.045126774509935785e+01,9.408499717712402344e+00,-1.759313106536865234e+00,-7.266727685928344727e-01,4.110000000000000000e+02
-1.937073911349948503e+02,-2.098489589008522671e+02,-9.500603402497245042e+01,-1.344481352628110926e+02,-2.496839317018404927e+02,-2.718384669984891389e+02,-4.183076018181373001e+01,-8.843876165532537925e+01,9.408499717712402344e+00,-1.759313106536865234e+00,-7.266727685928344727e-01,4.120000000000000000e+02
-1.917165627027029586e+02,-2.081790378469572715e+02,-9.432845036681260353e+01,-1.329979375518985307e+02,-2.472320796401895677e+02,-2.682996634783899026e+02,-3.942179978134095109e+01,-8.657016993462798382e+01,9.408499717712402344e+00,-1.759313106536865234e+00,-7.266727685928344727e-01,4.130000000000000000e+02
-1.893475583451131570e+02,-2.064859599550547955e+02,-9.277860258780583536e+01,-1.316000757588874421e+02,-2.446051142913054264e+02,-2.648428780093740897e+02,-3.668180504132851638e+01,-8.499910846637294526e+01,9.408499717712402344e+00,-1.759313106536865234e+00,-7.266727685928344727e-01,4.140000000000000000e+02
-1.865044174993158776e+02,-2.048898339749725892e+02,-9.076239682008008458e+01,-1.304635705152441005e+02,-2.417396186567391396e+02,-2.620399779256367765e+02,-3.449055122524646322e+01,-8.322582955492953261e+01,9.408499717712402344e+00,-1.759313106536865234e+00,-7.266727685928344727e-01,4.150000000000000000e+02
-1.834679956023771865e+02,-2.034410671402181379e+02,-8.874682757541972933e+01,-1.299755378253612434e+02,-2.382232401743058290e+02,-2.599021487926665941e+02,-3.334676191334483519e+01,-8.055438944522711608e+01,9.408499717712402344e+00,-1.759313106536865234e+00,-7.266727685928344727e-01,4.160000000000000000e+02
-1.805668153658452866e+02,-2.019117753808000089e+02,-8.683423938928785901e+01,-1.302865773644605270e+02,-2.336864762048526245e+02,-2.578368751411549056e+02,-3.313025840394243460e+01,-7.673312816577231388e+01,9.408499717712402344e+00,-1.950542807579040527e+00,-6.501809358596801758e-01,4.170000000000000000e+02
-1.778716800017152764e+02,-1.998399675342341197e+02,-8.472625204064502213e+01,-1.309206285031964399e+02,-2.283296297742626848e+02,-2.550857755235474542e+02,-3.329183710630786663e+01,-7.229516494550102834e+01,9.408499717712402344e+00,-1.950542807579040527e+00,-6.501809358596801758e-01,4.180000000000000000e+02
-1.752432461149940082e+02,-1.968777603649346020e+02,-8.211627772860856567e+01,-1.309206523999944238e+02,-2.230734564124359167e+02,-2.513751192009904116e+02,-3.326603458491285892e+01,-6.833158869604835672e+01,9.408499717712402344e+00,-1.950542807579040527e+00,-6.501809358596801758e-01,4.190000000000000000e+02
-1.726526016700104265e+02,-1.931772723255794517e+02,-7.915099002055308119e+01,-1.295414030930267018e+02,-2.191150166417742184e+02,-2.472544292697680248e+02,-3.276448236524038293e+01,-6.584791106135367045e+01,9.408499717712402344e+00,-1.950542807579040527e+00,-6.501809358596801758e-01,4.200000000000000000e+02
-1.703614183006338862e+02,-1.894408327420808291e+02,-7.650035200211982556e+01,-1.269147504700833906e+02,-2.171704115784650639e+02,-2.437781871960992248e+02,-3.177190464322734442e+01,-6.513537607792613926e+01,9.408499717712402344e+00,-1.950542807579040527e+00,-6.501809358596801758e-01,4.210000000000000000e+02
-1.686979725566275192e+02,-1.865170736233553725e+02,-7.489260464181552379e+01,-1.240523048861598454e+02,-2.169556206227825896e+02,-2.417206276102351694e+02,-3.035830196274946502e+01,-6.555797800883101445e+01,9.408499717712402344e+00,-1.950542807579040527e+00,-6.501809358596801758e-01,4.220000000000000000e+02
-1.676302522749583659e+02,-1.848335448442428515e+02,-7.447350122743773682e+01,-1.221115286777026085e+02,-2.172997287691568999e+02,-2.409474190180412734e+02,-2.856473746931010282e+01,-6.589587935974805077e+01,9.408499717712402344e+00,-1.950542807579040527e+00,-6.501809358596801758e-01,4.230000000000000000e+02
-1.666067964328983635e+02,-1.841227669272834646e+02,-7.456906397748343807e+01,-1.215170239183394187e+02,-2.168209195773811189e+02,-2.404885848979797629e+02,-2.650113434275181135e+01,-6.504752415360235318e+01,9.408499717712402344e+00,-1.950542807579040527e+00,-6.501809358596801758e-01,4.240000000000000000e+02
-1.649259952259690181e+02,-1.836559721043995523e+02,-7.414648294804828765e+01,-1.216819933896338171e+02,-2.147256242467901757e+02,-2.392900781238299714e+02,-2.452670210943915663e+01,-6.267479801971330744e+01,9.408499717712402344e+00,-1.950542807579040527e+00,-6.501809358596801758e-01,4.250000000000000000e+02
-1.623591918606023228e+02,-1.827684755907198451e+02,-7.265938060464554837e+01,-1.215463882767039649e+02,-2.112318506977712786e+02,-2.370317346370839005e+02,-2.322442892971412221e+01,-5.938715770878025069e+01,9.408499717712402344e+00,-1.950542807579040527e+00,-6.501809358596801758e-01,4.260000000000000000e+02
-1.594459675368261742e+02,-1.812149536882543543e+02,-7.054903826441659476e+01,-1.204115475383036937e+02,-2.073466814536213860e+02,-2.343085095625756367e+02,-2.302880930679202720e+01,-5.630465814995432083e+01,9.408499717712402344e+00,-1.950542807579040527e+00,-6.501809358596801758e-01,4.270000000000000000e+02
-1.571470568344379899e+02,-1.790977548118275990e+02,-6.890193018461900465e+01,-1.183347025556947756e+02,-2.041357406638257999e+02,-2.320075261236802362e+02,-2.374203171352473873e+01,-5.423970393470062845e+01,9.408499717712402344e+00,-1.950542807579040527e+00,-6.501809358596801758e-01,4.280000000000000000e+02
-1.561271429053890643e+02,-1.765494361870819375e+02,-6.850817938645900540e+01,-1.158102738726461212e+02,-2.019855030568992333e+02,-2.304323391615434957e+02,-2.442949485780945906e+01,-5.308306067550938678e+01,9.408499717712402344e+00,-1.950542807579040527e+00,-6.501809358596801758e-01,4.290000000000000000e+02
-1.562704040440614790e+02,-1.735696357545298270e+02,-6.914712832251188956e+01,-1.131696690074711569e+02,-2.004031775854346051e+02,-2.289830063778017575e+02,-2.397909029937409287e+01,-5.190047777954850972e+01,9.408499717712402344e+00,-1.950542807579040527e+00,-6.501809358596801758e-01,4.300000000000000000e+02
-1.568065636796250146e+02,-1.702018529578867856e+02,-6.976963760855392138e+01,-1.103484401911237001e+02,-1.985257094861035512e+02,-2.267081429379995825e+02,-2.199796235774374509e+01,-4.971215734078896276e+01,9.408499717712402344e+00,-1.950542807579040527e+00,-6.501809358596801758e-01,4.310000000000000000e+02
-1.568705370628917990e+02,-1.668199717734896694e+02,-6.941820442105199618e+01,-1.072183207532882534e+02,-1.959190377613167584e+02,-2.232270734897256261e+02,-1.926939624259557604e+01,-4.634192858400319892e+01,9.408499717712402344e+00,-1.950542807579040527e+00,-6.501809358596801758e-01,4.320000000000000000e+02
-1.559741236571180707e+02,-1.641241566941412202e+02,-6.801839305624139342e+01,-1.040583835799668577e+02,-1.929577048208557244e+02,-2.191534132130846046e+02,-1.723833476080562832e+01,-4.261009781389930140e+01,9.408499717712402344e+00,-1.950542807579040527e+00,-6.501809358596801758e-01,4.330000000000000000e+02
-1.540844993386965598e+02,-1.627288450558457953e+02,-6.631679705315445972e+01,-1.015891122529917538e+02,-1.904332049433278371e+02,-2.156246554187441689e+02,-1.686179915597040235e+01,-3.969668806293429952e+01,9.408499717712402344e+00,-1.950542807579040527e+00,-6.501809358596801758e-01,4.340000000000000000e+02
-1.514607063738308170e+02,-1.626778007926941427e+02,-6.510744523091580049e+01,-1.004797191916707106e+02,-1.887948048843823017e+02,-2.134043299196091539e+02,-1.784900141866364720e+01,-3.826068462277544313e+01,9.408499717712402344e+00,-1.950542807579040527e+00,-6.501809358596801758e-01,4.350000000000000000e+02
-1.485476267571514200e+02,-1.633441997836971495e+02,-6.457900732206098837e+01,-1.008057346319785665e+02,-1.877872010972778298e+02,-2.123968897997629028e+02,-1.901943159107077008e+01,-3.809363018806425316e+01,9.408499717712402344e+00,-1.950542807579040527e+00,-6.501809358596801758e-01,4.360000000000000000e+02
-1.459871212205375741e+02,-1.638414135196080679e+02,-6.441402883539490176e+01,-1.019863033519538931e+02,-1.868354601567575628e+02,-2.119551578205519036e+02,-1.944441078467161788e+01,-3.854612753315541340e+01,9.408499717712402344e+00,-1.950542807579040527e+00,-6.501809358596801758e-01,4.370000000000000000e+02
-1.444980490480547815e+02,-1.636006486375276836e+02,-6.438586707154900068e+01,-1.032360415125028794e+02,-1.857142239270497157e+02,-2.115480502918107959e+02,-1.922729772255479475e+01,-3.920934679710671844e+01,9.408499717712402344e+00,-1.950542807579040527e+00,-6.501809358596801758e-01,4.380000000000000000e+02
-1.444454734057385394e+02,-1.626151460953778951e+02,-6.466553057841292684e+01,-1.040429670000571605e+02,-1.847344293921996723e+02,-2.110450950258709781e+02,-1.911564113538861420e+01,-4.013785754362606895e+01,9.408499717712402344e+00,-1.950542807579040527e+00,-6.501809358596801758e-01,4.390000000000000000e+02
-1.453750538957851859e+02,-1.611788481948728986e+02,-6.544706533674320781e+01,-1.042370244589394588e+02,-1.842388344708401746e+02,-2.104035618949819764e+02,-1.938532038726725659e+01,-4.145574702878275275e+01,9.408499717712402344e+00,-1.950542807579040527e+00,-6.501809358596801758e-01,4.400000000000000000e+02
-1.460578486881508979e+02,-1.594368544638650746e+02,-6.636050805415743525e+01,-1.037107730434142923e+02,-1.840097023192984125e+02,-2.092589486040274096e+02,-1.926862249520900150e+01,-4.286501571816643263e+01,9.408499717712402344e+00,-1.950542807579040527e+00,-6.501809358596801758e-01,4.410000000000000000e+02
-1.452412886688885010e+02,-1.572255641424167152e+02,-6.647983487572219019e+01,-1.022513540238669520e+02,-1.833380712812336242e+02,-2.070345972222175988e+02,-1.766698170865174689e+01,-4.367763144369382644e+01,9.408499717712402344e+00,-1.950542807579040527e+00,-6.501809358596801758e-01,4.420000000000000000e+02
-1.425923817757588949e+02,-1.543521651443179508e+02,-6.508385140658674572e+01,-9.978597407800293695e+01,-1.817436347770772045e+02,-2.035569108481167859e+02,-1.448083068477853885e+01,-4.339452769397848897e+01,9.408499717712402344e+00,-1.950542807579040527e+00,-6.501809358596801758e-01,4.430000000000000000e+02
-1.389880329410812010e+02,-1.510069191669567772e+02,-6.242071251943548305e+01,-9.679847732929920312e+01,-1.795360360657973615e+02,-1.995177505356173242e+02,-1.110970369642564037e+01,-4.222482913117437420e+01,9.484992027282714844e+00,-1.721067190170288086e+00,-6.119350194931030273e-01,4.440000000000000000e+02
-1.358245237034816455e+02,-1.478613986243285581e+02,-5.961898870400546002e+01,-9.437917478510189540e+01,-1.775436960667093444e+02,-1.962017457967449445e+02,-9.444736946211833128e+00,-4.096967472560572787e+01,9.484992027282714844e+00,-1.721067190170288086e+00,-6.119350194931030273e-01,4.450000000000000000e+02
-1.339245829531791969e+02,-1.456915634604251863e+02,-5.774720082375552010e+01,-9.364999512977601626e+01,-1.762501155122517957e+02,-1.946066194968393575e+02,-1.023349884259414466e+01,-4.033478134715096530e+01,9.484992027282714844e+00,-1.721067190170288086e+00,-6.119350194931030273e-01,4.460000000000000000e+02
-1.330215252286579926e+02,-1.448101802925616539e+02,-5.693408707235630573e+01,-9.493003963782530263e+01,-1.752663982779886283e+02,-1.947000709664589522e+02,-1.239637537305952719e+01,-4.030940425344942923e+01,9.484992027282714844e+00,-1.721067190170288086e+00,-6.119350194931030273e-01,4.470000000000000000e+02
-1.322557390818033127e+02,-1.447933001961500850e+02,-5.642729534795716972e+01,-9.735277834931594043e+01,-1.737339319470474948e+02,-1.954489535247821550e+02,-1.396989071783400505e+01,-4.017013618412465803e+01,9.484992027282714844e+00,-1.721067190170288086e+00,-6.119350194931030273e-01,4.480000000000000000e+02
-1.311237405530878277e+02,-1.447432711763681255e+02,-5.547432111537796118e+01,-9.932730378987753284e+01,-1.712277005397850189e+02,-1.955484868228613777e+02,-1.373993028055656396e+01,-3.906364434731176516e+01,9.484992027282714844e+00,-1.721067190170288086e+00,-6.119350194931030273e-01,4.490000000000000000e+02
-1.298969242043222039e+02,-1.438838654358951317e+02,-5.406266464328450638e+01,-9.953617075676811510e+01,-1.681779368398488259e+02,-1.942260724295701948e+02,-1.199659871807762102e+01,-3.662578863652333894e+01,9.484992027282714844e+00,-1.721067190170288086e+00,-6.119350194931030273e-01,4.500000000000000000e+02
-1.291171155306055880e+02,-1.420206056064957920e+02,-5.276293677220974132e+01,-9.772019947543367380e+01,-1.653602342401791248e+02,-1.915480757285808977e+02,-9.835480730355811829e+00,-3.315947859618108851e+01,9.484992027282714844e+00,-1.721067190170288086e+00,-6.119350194931030273e-01,4.510000000000000000e+02
-1.287637437189423508e+02,-1.395291210565915208e+02,-5.193126280562637476e+01,-9.469272451287451986e+01,-1.630232496480557529e+02,-1.881438027401936779e+02,-7.928135498423216632e+00,-2.934920873013106757e+01,9.484992027282714844e+00,-1.721067190170288086e+00,-6.119350194931030273e-01,4.520000000000000000e+02
-1.280422127467313658e+02,-1.369467050608732279e+02,-5.123832362981420374e+01,-9.167053888452983301e+01,-1.606328519649682676e+02,-1.847106031974658436e+02,-6.118488908472045296e+00,-2.587330269196081645e+01,9.484992027282714844e+00,-1.721067190170288086e+00,-6.119350194931030273e-01,4.530000000000000000e+02
-1.260907344543747968e+02,-1.345480157916863391e+02,-5.010877966023463159e+01,-8.951983912430841883e+01,-1.575511149781632412e+02,-1.817089100748721648e+02,-4.165730184301992267e+00,-2.323958527844933997e+01,9.484992027282714844e+00,-1.721067190170288086e+00,-6.119350194931030273e-01,4.540000000000000000e+02
-1.229274528261271371e+02,-1.322534310409982936e+02,-4.860429714185738703e+01,-8.846324074558515349e+01,-1.539565163464699253e+02,-1.793905703655345860e+02,-2.634841250499903254e+00,-2.184053866155954893e+01,9.484992027282714844e+00,-1.721067190170288086e+00,-6.119350194931030273e-01,4.550000000000000000e+02
-1.196544595474606467e+02,-1.298806107444775080e+02,-4.771363527167750362e+01,-8.829398571840920340e+01,-1.510115375377581586e+02,-1.779886451544216470e+02,-2.769133943359065597e+00,-2.198576795931603556e+01,9.484992027282714844e+00,-1.721067190170288086e+00,-6.119350194931030273e-01,4.560000000000000000e+02
-1.176171490276215081e+02,-1.274237772156043320e+02,-4.855905244328914705e+01,-8.869120726027404089e+01,-1.499951969199064479e+02,-1.777635910854837675e+02,-5.311126654769395827e+00,-2.373695059606416180e+01,9.484992027282714844e+00,-1.721067190170288086e+00,-6.119350194931030273e-01,4.570000000000000000e+02
-1.172417266897214176e+02,-1.250850114539439346e+02,-5.118795504440095101e+01,-8.929129116362491914e+01,-1.511510691635303374e+02,-1.787713757134320076e+02,-9.457880006560117181e+00,-2.665405139356516884e+01,9.484992027282714844e+00,-1.721067190170288086e+00,-6.119350194931030273e-01,4.580000000000000000e+02
-1.176361294382559208e+02,-1.230749350997789406e+02,-5.416700040761361379e+01,-8.960086452824180014e+01,-1.533196590052443753e+02,-1.805314235690357236e+02,-1.311995903641854966e+01,-2.975947509133220592e+01,9.484992027282714844e+00,-1.721067190170288086e+00,-6.119350194931030273e-01,4.590000000000000000e+02
-1.173435357428111274e+02,-1.214540295762799360e+02,-5.551833063995059092e+01,-8.910382858109687731e+01,-1.547219396480204523e+02,-1.819803083062374753e+02,-1.440044405733488020e+01,-3.189576192401409571e+01,9.484992027282714844e+00,-1.721067190170288086e+00,-6.119350194931030273e-01,4.600000000000000000e+02
-1.155869036237345426e+02,-1.201934931132554993e+02,-5.426249873044275773e+01,-8.766572178536375759e+01,-1.542183912765212881e+02,-1.819450763428212667e+02,-1.297877561988025263e+01,-3.230915020875909249e+01,9.484992027282714844e+00,-1.721067190170288086e+00,-6.119350194931030273e-01,4.610000000000000000e+02
-1.128992063417135796e+02,-1.193211380446527983e+02,-5.119751817392034354e+01,-8.584642335571243166e+01,-1.519669140987075480e+02,-1.799042712395394119e+02,-1.016015292873180442e+01,-3.103488753899591757e+01,9.484992027282714844e+00,-1.721067190170288086e+00,-6.119350194931030273e-01,4.620000000000000000e+02
-1.106087532174151420e+02,-1.188787989589077370e+02,-4.819446134001327664e+01,-8.461990284488751968e+01,-1.489923723115084613e+02,-1.764227234201825922e+02,-7.612376899614901049e+00,-2.876257758463225400e+01,9.484992027282714844e+00,-1.721067190170288086e+00,-6.119350194931030273e-01,4.630000000000000000e+02
-1.096800154513512098e+02,-1.186473381929063180e+02,-4.662801720156744523e+01,-8.453183405516392668e+01,-1.461666883960847372e+02,-1.727748218008068761e+02,-5.991216015572263132e+00,-2.625453491503094483e+01,9.484992027282714844e+00,-1.721067190170288086e+00,-6.119350194931030273e-01,4.640000000000000000e+02
-1.099447870804547165e+02,-1.179733203587293247e+02,-4.634495791716722124e+01,-8.503145984461025364e+01,-1.435948367066534956e+02,-1.699749689013219722e+02,-4.692291484025645332e+00,-2.379505615134394247e+01,9.484992027282714844e+00,-1.721067190170288086e+00,-6.119350194931030273e-01,4.650000000000000000e+02
-1.103410360890006814e+02,-1.160611786683934952e+02,-4.605319246467183802e+01,-8.475405870633403538e+01,-1.409249835139999050e+02,-1.680279734450750766e+02,-2.827536310016967036e+00,-2.114471661065817898e+01,9.484992027282714844e+00,-1.721067190170288086e+00,-6.119350194931030273e-01,4.660000000000000000e+02
-1.098464905229450324e+02,-1.126243066136439666e+02,-4.468042809851090169e+01,-8.267467544576106775e+01,-1.381210929380845300e+02,-1.660634890979831653e+02,-3.597792157102048805e-01,-1.801622448045918645e+01,9.484992027282714844e+00,-1.721067190170288086e+00,-6.119350194931030273e-01,4.670000000000000000e+02
-1.082328761087692328e+02,-1.083100059594275990e+02,-4.239651378037478935e+01,-7.912168569262394158e+01,-1.357846532959219985e+02,-1.632196204827810107e+02,1.727559209718492639e+00,-1.459185734858738215e+01,9.484992027282714844e+00,-1.721067190170288086e+00,-6.119350194931030273e-01,4.680000000000000000e+02
-1.060363350499826538e+02,-1.043722285485337125e+02,-4.037045789443936883e+01,-7.562181017627904112e+01,-1.346174348077488503e+02,-1.594397426131872635e+02,2.354336436500489071e+00,-1.153757678594411118e+01,9.484992027282714844e+00,-1.721067190170288086e+00,-6.119350194931030273e-01,4.690000000000000000e+02
-1.039246506748572756e+02,-1.017589274681645293e+02,-3.957875747773778130e+01,-7.362816934445527295e+01,-1.345832438002671552e+02,-1.554828761711296465e+02,1.425106939630040870e+00,-9.459320586813191767e+00,9.484992027282714844e+00,-1.721067190170288086e+00,-6.119350194931030273e-01,4.700000000000000000e+02
-1.021444458200858207e+02,-1.004150068030917282e+02,-3.984034523861055277e+01,-7.330131601093694371e+01,-1.347052530074342940e+02,-1.522366703767820582e+02,4.539335444178504986e-02,-8.305079840312828310e+00,9.484992027282714844e+00,-1.721067190170288086e+00,-6.119350194931030273e-01,4.710000000000000000e+02
-1.005043119038566601e+02,-9.946181254164002894e+01,-3.996745960771954742e+01,-7.348938487376381090e+01,-1.338017237124513485e+02,-1.500513750063601037e+02,-2.876479552937780682e-01,-7.315203176459363021e+00,9.484992027282714844e+00,-1.721067190170288086e+00,-6.119350194931030273e-01,4.720000000000000000e+02
-9.876080599785586855e+01,-9.808215540314949976e+01,-3.883837956524212132e+01,-7.289667666953050684e+01,-1.314831337152477317e+02,-1.486735204245351269e+02,1.224975785841252218e+00,-5.629096090850453038e+00,9.484992027282714844e+00,-1.721067190170288086e+00,-6.119350194931030273e-01,4.730000000000000000e+02
-9.692136187323399099e+01,-9.623689508105303503e+01,-3.635386494396470880e+01,-7.124242223128385376e+01,-1.284187683312638910e+02,-1.476505501189344614e+02,4.223295819457689504e+00,-3.010529141621191229e+00,9.484992027282714844e+00,-1.721067190170288086e+00,-6.119350194931030273e-01,4.740000000000000000e+02
-9.516808705701191684e+01,-9.450281620867826859e+01,-3.342513077610374239e+01,-6.927354597886869669e+01,-1.256197111210972253e+02,-1.466626819786847591e+02,7.606987742211003933e+00,-4.202878657952169306e-02,9.255517005920410156e+00,-1.874050855636596680e+00,-6.501809358596801758e-01,4.750000000000000000e+02
-9.359578733361468039e+01,-9.326088528185005089e+01,-3.112075185391722698e+01,-6.774263980531713969e+01,-1.235167414049556101e+02,-1.455144003792611329e+02,1.031655210311328119e+01,2.341541107417015155e+00,9.255517005920410156e+00,-1.874050855636596680e+00,-6.501809358596801758e-01,4.760000000000000000e+02
-9.213718702625646984e+01,-9.215540837486423698e+01,-2.984288829793626974e+01,-6.653534182639396022e+01,-1.217805469504232860e+02,-1.440177735497582034e+02,1.181186827406213524e+01,3.510438139793222945e+00,9.255517005920410156e+00,-1.874050855636596680e+00,-6.501809358596801758e-01,4.770000000000000000e+02
-9.076062357282171433e+01,-9.046276687385329751e+01,-2.924842664910624990e+01,-6.492376455045769035e+01,-1.199827673198069533e+02,-1.420993680874771599e+02,1.204872598743577328e+01,3.423985503261746999e+00,9.255517005920410156e+00,-1.874050855636596680e+00,-6.501809358596801758e-01,4.780000000000000000e+02
-8.965270274419071939e+01,-8.801320084228063934e+01,-2.884021394320370746e+01,-6.264997792066151305e+01,-1.182828492255548554e+02,-1.400722120288419319e+02,1.123566219354756868e+01,2.410181646530190847e+00,9.255517005920410156e+00,-1.874050855636596680e+00,-6.501809358596801758e-01,4.790000000000000000e+02
-8.909894955954928264e+01,-8.565384680217448476e+01,-2.853731214011418160e+01,-6.060364935593702285e+01,-1.173376496363109709e+02,-1.386627889960327593e+02,9.715267767358454876e+00,8.150110808951467334e-01,9.255517005920410156e+00,-1.874050855636596680e+00,-6.501809358596801758e-01,4.800000000000000000e+02
-8.915364023673896554e+01,-8.465150108684201768e+01,-2.866483209419561717e+01,-6.024448307477086928e+01,-1.175315473522766752e+02,-1.385566042302039023e+02,8.002326733543441151e+00,-1.067565409990720582e+00,9.255517005920410156e+00,-1.874050855636596680e+00,-6.501809358596801758e-01,4.810000000000000000e+02
-8.947747859983610397e+01,-8.549867775484813137e+01,-2.945941522821567560e+01,-6.223400857975707368e+01,-1.183946052216065254e+02,-1.397662337976555591e+02,6.750902139702247950e+00,-2.781313333542811961e+00,9.255517005920410156e+00,-1.874050855636596680e+00,-6.501809358596801758e-01,4.820000000000000000e+02
-8.958880289672811159e+01,-8.725475833170935402e+01,-3.067605851044095289e+01,-6.560271261797015541e+01,-1.188746648817768801e+02,-1.414204190218549684e+02,6.505806526211472374e+00,-3.586663087129181804e+00,9.255517005920410156e+00,-1.874050855636596680e+00,-6.501809358596801758e-01,4.830000000000000000e+02
-8.932896338074669984e+01,-8.811418937832149822e+01,-3.173441109107125158e+01,-6.831644190137194528e+01,-1.182104519074143809e+02,-1.422541561278146673e+02,7.373233845934919373e+00,-2.757261878261488164e+00,9.255517005920410156e+00,-1.874050855636596680e+00,-6.501809358596801758e-01,4.840000000000000000e+02
-8.908100900523527343e+01,-8.677022136264145047e+01,-3.226496215264432976e+01,-6.879552588300862226e+01,-1.165364474854413857e+02,-1.414486340211321931e+02,8.889116423778204990e+00,-1.582416286273655714e-01,9.255517005920410156e+00,-1.874050855636596680e+00,-6.501809358596801758e-01,4.850000000000000000e+02
-8.947902863620265634e+01,-8.340069858180004303e+01,-3.248085930593924786e+01,-6.705922749574119734e+01,-1.146601749880821899e+02,-1.391440586850819727e+02,1.025242032942719561e+01,3.421645075170999917e+00,9.255517005920410156e+00,-1.874050855636596680e+00,-6.501809358596801758e-01,4.860000000000000000e+02
-9.082373800593086344e+01,-7.945315595760439464e+01,-3.296285849317723660e+01,-6.454411936728615728e+01,-1.132971189654283535e+02,-1.362325897076527781e+02,1.081096967405915166e+01,6.600829362335161932e+00,9.255517005920410156e+00,-1.874050855636596680e+00,-6.501809358596801758e-01,4.870000000000000000e+02
-9.271496094223243745e+01,-7.650195643155893777e+01,-3.402901613893777721e+01,-6.286068429140618719e+01,-1.125093225309035461e+02,-1.336463992611820686e+02,1.048353404651993515e+01,8.274570482808258021e+00,9.255517005920410156e+00,-1.874050855636596680e+00,-6.501809358596801758e-01,4.880000000000000000e+02
-9.422180991951586293e+01,-7.520133210677931856e+01,-3.528175788809016922e+01,-6.260573992041986457e+01,-1.117783630794363035e+02,-1.317248165676223834e+02,9.833050385315800668e+00,8.401114929063851378e+00,9.255517005920410156e+00,-1.874050855636596680e+00,-6.501809358596801758e-01,4.890000000000000000e+02
-9.447756566883867890e+01,-7.515367182460795448e+01,-3.581733439966433252e+01,-6.316390473966703212e+01,-1.105129856130783992e+02,-1.301294355717170674e+02,9.697011902176427611e+00,8.054221723951286549e+00,9.255517005920410156e+00,-1.874050855636596680e+00,-6.501809358596801758e-01,4.900000000000000000e+02
-9.325424957061750320e+01,-7.558371508070376876e+01,-3.496678543667303529e+01,-6.346155659305895824e+01,-1.084722930330331110e+02,-1.282886086956659710e+02,1.059851330405922454e+01,8.650211783672602905e+00,9.255517005920410156e+00,-1.874050855636596680e+00,-6.501809358596801758e-01,4.910000000000000000e+02
-9.110957564148043275e+01,-7.600744617350073895e+01,-3.291315718962937353e+01,-6.285921891398356820e+01,-1.058101466404991697e+02,-1.259308199049280574e+02,1.236257972168982633e+01,1.092288519794306012e+01,9.255517005920410156e+00,-1.874050855636596680e+00,-6.501809358596801758e-01,4.920000000000000000e+02
-8.902430018876793838e+01,-7.626653023784183461e+01,-3.061581770915813649e+01,-6.143307241479010372e+01,-1.028690328679831509e+02,-1.232576220521168580e+02,1.424347225512974546e+01,1.443299227207580770e+01,9.255517005920410156e+00,-1.874050855636596680e+00,-6.501809358596801758e-01,4.930000000000000000e+02
-8.779812536908798393e+01,-7.607795872707129092e+01,-2.908977402703339976e+01,-5.959474930117244185e+01,-1.000013669562315499e+02,-1.206687057503993401e+02,1.549032453329459713e+01,1.796129152904632065e+01,9.255517005920410156e+00,-1.874050855636596680e+00,-6.501809358596801758e-01,4.940000000000000000e+02
-8.762445595197982584e+01,-7.481410742211528486e+01,-2.868277410332348154e+01,-5.760305952542057639e+01,-9.753890610688767993e+01,-1.183717799127077797e+02,1.589342956174095889e+01,2.040132186393657321e+01,9.255517005920410156e+00,-1.874050855636596680e+00,-6.501809358596801758e-01,4.950000000000000000e+02
-8.810919401393448425e+01,-7.197743356663477243e+01,-2.897354640194703279e+01,-5.550431193567465016e+01,-9.581166101712824457e+01,-1.163021299514280145e+02,1.583415140775196051e+01,2.139256393282630597e+01,9.446745872497558594e+00,-1.759313106536865234e+00,-4.589512646198272705e-01,4.960000000000000000e+02
-8.866305310763073066e+01,-6.799663736600314223e+01,-2.928960794448323668e+01,-5.347011422751313603e+01,-9.506657982771525894e+01,-1.144144766996801081e+02,1.582804593684295469e+01,2.125678350507905634e+01,9.446745872497558594e+00,-1.759313106536865234e+00,-4.589512646198272705e-01,4.970000000000000000e+02
-8.891572225846732636e+01,-6.443823072231384685e+01,-2.927717772999017143e+01,-5.203040551612912168e+01,-9.528055374730956828e+01,-1.129753191636564225e+02,1.605607473667464546e+01,2.047584341182050593e+01,9.446745872497558594e+00,-1.759313106536865234e+00,-4.589512646198272705e-01,4.980000000000000000e+02
-8.881893176971834691e+01,-6.313300923887425142e+01,-2.898849560787687096e+01,-5.180991193320517141e+01,-9.602761642852328805e+01,-1.124412880395100274e+02,1.636917758045706250e+01,1.931493689991020801e+01,9.446745872497558594e+00,-1.759313106536865234e+00,-4.589512646198272705e-01,4.990000000000000000e+02
-8.841668898437160351e+01,-6.475472412757403617e+01,-2.853445712821451252e+01,-5.292917090286493931e+01,-9.659161227455626886e+01,-1.129459888371073930e+02,1.671858522913032630e+01,1.791426786061606435e+01,9.446745872497558594e+00,-1.759313106536865234e+00,-4.589512646198272705e-01,5.000000000000000000e+02
-8.759454031371262772e+01,-6.807756725219292093e+01,-2.783151894853926933e+01,-5.466151784736530317e+01,-9.635916852161926727e+01,-1.139172044379432691e+02,1.744515977898367964e+01,1.657961619600143877e+01,9.446745872497558594e+00,-1.759313106536865234e+00,-4.589512646198272705e-01,5.010000000000000000e+02
-8.614120327530974919e+01,-7.071993429920939889e+01,-2.678815593601416367e+01,-5.578967639139307266e+01,-9.525932619534796686e+01,-1.143226954834333355e+02,1.896627473176988588e+01,1.576700384091122942e+01,9.446745872497558594e+00,-1.759313106536865234e+00,-4.589512646198272705e-01,5.020000000000000000e+02
-8.410410353218230739e+01,-7.090934962253174945e+01,-2.567649010142770294e+01,-5.546565097567531666e+01,-9.387631288151044373e+01,-1.134336990636271594e+02,2.110384399437100456e+01,1.565800256704937965e+01,9.446745872497558594e+00,-1.759313106536865234e+00,-4.589512646198272705e-01,5.030000000000000000e+02
-8.204184320189528989e+01,-6.883662690354003644e+01,-2.512600696274262191e+01,-5.386383272803686850e+01,-9.303772042576486001e+01,-1.114209239764995800e+02,2.283139552960642504e+01,1.579785398016019826e+01,9.446745872497558594e+00,-1.759313106536865234e+00,-4.589512646198272705e-01,5.040000000000000000e+02
-8.080287987895735569e+01,-6.644453614517556161e+01,-2.557708755231305986e+01,-5.206056040383936079e+01,-9.312180607334801152e+01,-1.092031453859273142e+02,2.292083785764964432e+01,1.531512577740579673e+01,9.446745872497558594e+00,-1.759313106536865234e+00,-4.589512646198272705e-01,5.050000000000000000e+02
-8.091883172917300726e+01,-6.581305374976238909e+01,-2.670473307718646083e+01,-5.122243318521174160e+01,-9.365486499788210040e+01,-1.076740013886829956e+02,2.106041365213332028e+01,1.364286181681200105e+01,9.446745872497558594e+00,-1.759313106536865234e+00,-4.589512646198272705e-01,5.060000000000000000e+02
-8.212439718765665475e+01,-6.750226126869455356e+01,-2.747941076391373372e+01,-5.175832040903503639e+01,-9.359780468304404621e+01,-1.070153563328014457e+02,1.841765553780589926e+01,1.107460136263051709e+01,9.446745872497558594e+00,-1.759313106536865234e+00,-4.589512646198272705e-01,5.070000000000000000e+02
-8.348504270734463262e+01,-7.021595163506282233e+01,-2.694603301678282037e+01,-5.308884780997709640e+01,-9.214591498771204670e+01,-1.066896847860838307e+02,1.697685230263175526e+01,8.562018773982572384e+00,9.446745872497558594e+00,-1.759313106536865234e+00,-4.589512646198272705e-01,5.080000000000000000e+02
-8.406520541380533018e+01,-7.195870412104326874e+01,-2.504332556324453662e+01,-5.412140519749272016e+01,-8.937119941219668817e+01,-1.059882994128944915e+02,1.810231767452836493e+01,6.898616335424094359e+00,9.446745872497558594e+00,-1.759313106536865234e+00,-4.589512646198272705e-01,5.090000000000000000e+02
-8.356486040956970385e+01,-7.161517889814840032e+01,-2.269414159215318705e+01,-5.399036898698076925e+01,-8.615779370746948018e+01,-1.045382232117801777e+02,2.151605174731867010e+01,6.059949928694706500e+00,9.446745872497558594e+00,-1.759313106536865234e+00,-4.589512646198272705e-01,5.100000000000000000e+02
-8.239694887458324501e+01,-6.964546567218701512e+01,-2.107627935595360213e+01,-5.251727311839906065e+01,-8.351363927111805197e+01,-1.023570247408205205e+02,2.553949633021979082e+01,5.328946411462680999e+00,9.446745872497558594e+00,-1.759313106536865234e+00,-4.589512646198272705e-01,5.110000000000000000e+02
-8.121024524709413583e+01,-6.748247166764193139e+01,-2.073791710966645496e+01,-5.016795124174045384e+01,-8.189192537843825903e+01,-9.960924508098744923e+01,2.835765433379126677e+01,4.037475213878188640e+00,9.446745872497558594e+00,-1.759313106536865234e+00,-4.589512646198272705e-01,5.120000000000000000e+02
-8.034477684554252619e+01,-6.635126903421840439e+01,-2.130896271700834177e+01,-4.768588132495915488e+01,-8.108345423497689808e+01,-9.649713940949021662e+01,2.921822021396047830e+01,2.138119344128199373e+00,9.446745872497558594e+00,-1.759313106536865234e+00,-4.589512646198272705e-01,5.130000000000000000e+02
-7.969267013339663208e+01,-6.654854029993805398e+01,-2.194295042420571917e+01,-4.571384291921640397e+01,-8.063951979180546914e+01,-9.340735419234999881e+01,2.865506678311282940e+01,7.080045581108151964e-02,9.446745872497558594e+00,-1.759313106536865234e+00,-4.589512646198272705e-01,5.140000000000000000e+02
-7.898845109482294902e+01,-6.761048752837882603e+01,-2.198518581348520229e+01,-4.457014522310885241e+01,-8.030639156153404201e+01,-9.098024654672155975e+01,2.776909133290803311e+01,-1.828442565547561571e+00,9.446745872497558594e+00,-1.759313106536865234e+00,-4.589512646198272705e-01,5.150000000000000000e+02
-7.813096045664383382e+01,-6.895394952828348778e+01,-2.128227264600968738e+01,-4.418764665126002456e+01,-8.003794039711715413e+01,-8.977988222649878480e+01,2.736149193384926548e+01,-3.656978700004060556e+00,9.446745872497558594e+00,-1.759313106536865234e+00,-4.589512646198272705e-01,5.160000000000000000e+02
-7.719095487642596254e+01,-7.029284482456432670e+01,-2.001458443959910483e+01,-4.418657406106615326e+01,-7.967359539645713085e+01,-8.975468662618504823e+01,2.764293989892769332e+01,-5.640726084245329730e+00,9.446745872497558594e+00,-1.759313106536865234e+00,-4.589512646198272705e-01,5.170000000000000000e+02
-7.616553848069065680e+01,-7.155155085862475062e+01,-1.837806577153628496e+01,-4.407508708790942364e+01,-7.874405249100982473e+01,-9.008165947360771497e+01,2.852956226948276708e+01,-7.592657982475543577e+00,9.446745872497558594e+00,-1.759313106536865234e+00,-4.589512646198272705e-01,5.180000000000000000e+02
-7.483002457148177200e+01,-7.255734704554674863e+01,-1.646538771806604018e+01,-4.352642987314561651e+01,-7.672657227436104677e+01,-8.972323133411919116e+01,2.997128040901327495e+01,-8.856182373727847335e+00,9.446745872497558594e+00,-1.759313106536865234e+00,-4.589512646198272705e-01,5.190000000000000000e+02
-7.292545656161007628e+01,-7.295009032754660439e+01,-1.439110692269980518e+01,-4.257545357756475823e+01,-7.357795008202378995e+01,-8.830384397245984474e+01,3.186907543839367918e+01,-8.933189942113585857e+00,9.446745872497558594e+00,-1.759313106536865234e+00,-4.589512646198272705e-01,5.200000000000000000e+02
-7.053748959279778319e+01,-7.243391350331376088e+01,-1.244912603641205351e+01,-4.157212191351209185e+01,-7.005071447439900112e+01,-8.649086582211430141e+01,3.372654897613722369e+01,-8.194654324187240491e+00,9.332008361816406250e+00,-1.759313106536865234e+00,-6.119350194931030273e-01,5.210000000000000000e+02
-6.825878456819509665e+01,-7.109816296359122134e+01,-1.108156848807755068e+01,-4.087536166188681364e+01,-6.739254598594357049e+01,-8.542372305379467434e+01,3.460709890056659788e+01,-7.845065349048581993e+00,9.332008361816406250e+00,-1.759313106536865234e+00,-6.119350194931030273e-01,5.220000000000000000e+02
-6.689039733440154123e+01,-6.946580785163223482e+01,-1.064154079540594466e+01,-4.051075412796149067e+01,-6.653677674407072118e+01,-8.563661855816872048e+01,3.370298949478092254e+01,-9.002495165198524774e+00,9.332008361816406250e+00,-1.759313106536865234e+00,-6.119350194931030273e-01,5.230000000000000000e+02
-6.685889626978564593e+01,-6.820274363827297748e+01,-1.110519786809823017e+01,-4.011215289541587481e+01,-6.735541440231190791e+01,-8.646991874008199375e+01,3.113519368254901565e+01,-1.167539440237987947e+01,9.332008361816406250e+00,-1.759313106536865234e+00,-6.119350194931030273e-01,5.240000000000000000e+02
-6.782182123914412841e+01,-6.772329263899678153e+01,-1.194609230902347008e+01,-3.924398877056955826e+01,-6.860399282056391712e+01,-8.657771575216497695e+01,2.820102605922215844e+01,-1.462619266287038045e+01,9.332008361816406250e+00,-1.759313106536865234e+00,-6.119350194931030273e-01,5.250000000000000000e+02
-6.881230086971004312e+01,-6.796579894354863427e+01,-1.233053043083668854e+01,-3.784364980652094346e+01,-6.872332708857493344e+01,-8.512840584526929888e+01,2.665979343590083772e+01,-1.634760983387423039e+01,9.332008361816406250e+00,-1.759313106536865234e+00,-6.119350194931030273e-01,5.260000000000000000e+02
-6.884459727893272429e+01,-6.845471768400943802e+01,-1.159901333735797380e+01,-3.636756089475079534e+01,-6.697889578418107703e+01,-8.260011046802992496e+01,2.749765074803917742e+01,-1.634190614185081358e+01,9.332008361816406250e+00,-1.759313106536865234e+00,-6.119350194931030273e-01,5.270000000000000000e+02
-6.752756267620907238e+01,-6.858362349409185299e+01,-9.755052989331943536e+00,-3.545587627640088613e+01,-6.407093974270969738e+01,-8.040482773133226146e+01,3.015111380353164350e+01,-1.556924632152299637e+01,9.332008361816406250e+00,-1.759313106536865234e+00,-6.119350194931030273e-01,5.280000000000000000e+02
-6.524075260860377057e+01,-6.794760421942191897e+01,-7.569553640040339815e+00,-3.536588657542552028e+01,-6.167172468434773691e+01,-7.964287637622783222e+01,3.287503258821925556e+01,-1.563800215769833812e+01,9.332008361816406250e+00,-1.759313106536865234e+00,-6.119350194931030273e-01,5.290000000000000000e+02
-6.280090765902650674e+01,-6.655640140429704843e+01,-6.122748292112646595e+00,-3.567803104152244487e+01,-6.118459843578057189e+01,-8.012633292737064039e+01,3.399855870924466217e+01,-1.743283307985075226e+01,9.332008361816406250e+00,-1.759313106536865234e+00,-6.119350194931030273e-01,5.300000000000000000e+02
-6.093430567731911651e+01,-6.482243080513853783e+01,-6.061983369611880335e+00,-3.558621691352050220e+01,-6.269970470377393212e+01,-8.058085857155310805e+01,3.306584492157162458e+01,-2.037450032261676824e+01,9.332008361816406250e+00,-1.759313106536865234e+00,-6.119350194931030273e-01,5.310000000000000000e+02
-5.995620540151912792e+01,-6.331144284683159640e+01,-7.161412484927723199e+00,-3.455197854839298088e+01,-6.499622650416677061e+01,-7.981798798553472807e+01,3.099387673748333327e+01,-2.291087752453995563e+01,9.332008361816406250e+00,-1.759313106536865234e+00,-6.119350194931030273e-01,5.320000000000000000e+02
-5.979664751077598339e+01,-6.238083500849097618e+01,-8.557674621180012764e+00,-3.274530733475103261e+01,-6.655508430326108282e+01,-7.776292154115617450e+01,2.924131235586719413e+01,-2.376244286216069668e+01,9.332008361816406250e+00,-1.759313106536865234e+00,-6.119350194931030273e-01,5.330000000000000000e+02
-6.020534730027975456e+01,-6.194579383690006580e+01,-9.459077575750598044e+00,-3.088061398862510032e+01,-6.669490641006086662e+01,-7.540541081893343289e+01,2.875039922492305777e+01,-2.285117234933431973e+01,9.332008361816406250e+00,-1.759313106536865234e+00,-6.119350194931030273e-01,5.340000000000000000e+02
-6.088703131674719771e+01,-6.157242001219128724e+01,-9.692331625169117615e+00,-2.961884580129253663e+01,-6.589048352990175772e+01,-7.381050926875650475e+01,2.946687054316862486e+01,-2.120428069571016749e+01,9.332008361816406250e+00,-1.759313106536865234e+00,-6.119350194931030273e-01,5.350000000000000000e+02
-6.149766424797735453e+01,-6.084591338857171650e+01,-9.600461386969527666e+00,-2.907735841210524086e+01,-6.509351879350879244e+01,-7.320575712589061368e+01,3.065243322321248343e+01,-2.003327084707734684e+01,9.332008361816406250e+00,-1.759313106536865234e+00,-6.119350194931030273e-01,5.360000000000000000e+02
-6.164529299989317224e+01,-5.971553683371621446e+01,-9.461804710842443455e+00,-2.885422610430214263e+01,-6.477251315786543273e+01,-7.299350492416533598e+01,3.155204069412866374e+01,-1.984356658510887428e+01,9.332008361816406250e+00,-1.759313106536865234e+00,-6.119350194931030273e-01,5.370000000000000000e+02
-6.103358273487083352e+01,-5.851697035465531371e+01,-9.078037271163793775e+00,-2.847493027477867145e+01,-6.456374015056007920e+01,-7.255112409439061594e+01,3.183228030885993576e+01,-2.028341849370872296e+01,9.332008361816406250e+00,-1.759313106536865234e+00,-6.119350194931030273e-01,5.380000000000000000e+02
-5.969708116375477402e+01,-5.767298657375204129e+01,-7.988989431063146185e+00,-2.781922813120991123e+01,-6.377579425617477682e+01,-7.193210908713217577e+01,3.156390987198847142e+01,-2.071975953965829831e+01,9.332008361816406250e+00,-1.759313106536865234e+00,-6.119350194931030273e-01,5.390000000000000000e+02
-5.808791503531301714e+01,-5.735512394837041938e+01,-6.083223292658658465e+00,-2.716747788019938525e+01,-6.217681739949284747e+01,-7.176534549503776361e+01,3.095297588492849172e+01,-2.091572013087488813e+01,9.332008361816406250e+00,-1.759313106536865234e+00,-6.119350194931030273e-01,5.400000000000000000e+02
-5.684974719613455818e+01,-5.740563236272419090e+01,-3.938229395495000063e+00,-2.690517837788593170e+01,-6.029538379712357710e+01,-7.253908418545688619e+01,3.014293178824300412e+01,-2.120651414601843499e+01,9.332008361816406250e+00,-1.759313106536865234e+00,-6.119350194931030273e-01,5.410000000000000000e+02
-5.640710692819857286e+01,-5.754000929554558752e+01,-2.482127093350300129e+00,-2.720559122062877577e+01,-5.898784813300517271e+01,-7.405548638228628988e+01,2.922257174697642768e+01,-2.209067578259055153e+01,9.332008361816406250e+00,-1.759313106536865234e+00,-6.119350194931030273e-01,5.420000000000000000e+02
-5.668515908701192529e+01,-5.756389395160204003e+01,-2.253112536218850437e+00,-2.790978697886430382e+01,-5.870084678509829246e+01,-7.554726481319266895e+01,2.835895053502736118e+01,-2.365591668374145229e+01,9.332008361816406250e+00,-1.759313106536865234e+00,-6.119350194931030273e-01,5.430000000000000000e+02
-5.717400103789668719e+01,-5.737067719314563874e+01,-2.948431365264696069e+00,-2.859228887230074179e+01,-5.908161722888053191e+01,-7.621896705532981287e+01,2.789603428119971795e+01,-2.532886148351462907e+01,9.332008361816406250e+00,-1.759313106536865234e+00,-6.119350194931030273e-01,5.440000000000000000e+02
-5.727614331962286087e+01,-5.679055150722251710e+01,-3.676953495254565496e+00,-2.871179932025052040e+01,-5.923215705843267642e+01,-7.564629492671610933e+01,2.829547006328175485e+01,-2.612959353174755961e+01,9.332008361816406250e+00,-1.759313106536865234e+00,-6.119350194931030273e-01,5.450000000000000000e+02
-5.665307997531908768e+01,-5.557222260597427521e+01,-3.650919696327491693e+00,-2.781574616306352254e+01,-5.834780970431529568e+01,-7.379385114664364664e+01,2.989099830905706767e+01,-2.522201726992989279e+01,9.332008361816406250e+00,-1.759313106536865234e+00,-6.119350194931030273e-01,5.460000000000000000e+02
-5.533239713201328414e+01,-5.362793291181333188e+01,-2.673813059892381716e+00,-2.579274331678516319e+01,-5.621474564379877847e+01,-7.088070099264041346e+01,3.258582228456270968e+01,-2.238618705253975349e+01,9.332008361816406250e+00,-1.759313106536865234e+00,-6.119350194931030273e-01,5.470000000000000000e+02
-5.357774507010162779e+01,-5.131987953401949198e+01,-1.071108128760897671e+00,-2.306754582902794937e+01,-5.323847417126489745e+01,-6.737389663556223240e+01,3.572110994222384761e+01,-1.814346327971998107e+01,9.408499717712402344e+00,-1.950542807579040527e+00,-5.354431271553039551e-01,5.480000000000000000e+02
-5.170154626130079123e+01,-4.942119607102631562e+01,7.105949327296912088e-01,-2.054317727153829765e+01,-5.010175037347289617e+01,-6.404690232634766289e+01,3.829979638720851653e+01,-1.350738559607725620e+01,9.408499717712402344e+00,-1.950542807579040527e+00,-5.354431271553039551e-01,5.490000000000000000e+02
-4.997061079836021236e+01,-4.864861977191594633e+01,2.360237640549712523e+00,-1.919655617408079706e+01,-4.740251852097298979e+01,-6.181012749494402669e+01,3.951656152531450061e+01,-9.523027928865303693e+00,9.408499717712402344e+00,-1.950542807579040527e+00,-5.354431271553039551e-01,5.500000000000000000e+02
-4.859671110118051729e+01,-4.910406020150821860e+01,3.642192697401696933e+00,-1.951610769328453898e+01,-4.550378948821708036e+01,-6.124170327760384680e+01,3.925303418487237650e+01,-6.827614194864509045e+00,9.408499717712402344e+00,-1.950542807579040527e+00,-5.354431271553039551e-01,5.510000000000000000e+02
-4.771139123674947768e+01,-5.010851102409196756e+01,4.297060023232916137e+00,-2.115015013011452538e+01,-4.452784548643103335e+01,-6.214812486379923939e+01,3.814928126070208236e+01,-5.409821587360966078e+00,9.408499717712402344e+00,-1.950542807579040527e+00,-5.354431271553039551e-01,5.520000000000000000e+02
-4.730137692782045633e+01,-5.058916438357209699e+01,4.194900949060865969e+00,-2.300881554562965903e+01,-4.431084862534316926e+01,-6.356506856962641905e+01,3.718570819204342115e+01,-4.640323795892982162e+00,9.408499717712402344e+00,-1.950542807579040527e+00,-5.354431271553039551e-01,5.530000000000000000e+02
-4.719090206954115274e+01,-4.973110444283884135e+01,3.643819521175828413e+00,-2.375892763513093087e+01,-4.429905301574035548e+01,-6.423744805857495521e+01,3.711085437724887015e+01,-3.547189163147777435e+00,9.408499717712402344e+00,-1.950542807579040527e+00,-5.354431271553039551e-01,5.540000000000000000e+02
-4.714882251233484567e+01,-4.742883347381030035e+01,3.422519063478830503e+00,-2.244400476191367488e+01,-4.361157797491068777e+01,-6.322927104977406998e+01,3.815304136093982379e+01,-1.233977216909806884e+00,9.408499717712402344e+00,-1.950542807579040527e+00,-5.354431271553039551e-01,5.550000000000000000e+02
-4.705296817273574561e+01,-4.427895483745123784e+01,4.304996926438434457e+00,-1.895523294086979149e+01,-4.147133848219527863e+01,-6.030353034270319768e+01,4.013475065908369288e+01,2.685271685892985261e+00,9.408499717712402344e+00,-1.950542807579040527e+00,-5.354431271553039551e-01,5.560000000000000000e+02
-4.693992363881989149e+01,-4.121150043825764442e+01,6.416967247853790468e+00,-1.418093323040920950e+01,-3.782088311652660195e+01,-5.597344556793814263e+01,4.272127172394812078e+01,7.800621633758964890e+00,9.408499717712402344e+00,-1.950542807579040527e+00,-5.354431271553039551e-01,5.570000000000000000e+02
-4.684535339094509254e+01,-3.902030352491692611e+01,9.047429691622710379e+00,-9.716551393717054452e+00,-3.359638507332692825e+01,-5.131661667267781013e+01,4.550277884824572538e+01,1.294272830109275674e+01,9.408499717712402344e+00,-1.950542807579040527e+00,-5.354431271553039551e-01,5.580000000000000000e+02
-4.659045529210379755e+01,-3.801330552535637253e+01,1.115395469025224884e+01,-7.168551338067118195e+00,-3.030079396699511562e+01,-4.764130489763920195e+01,4.790209827679336740e+01,1.658587186880504305e+01,9.408499717712402344e+00,-1.950542807579040527e+00,-5.354431271553039551e-01,5.590000000000000000e+02
-4.581416988458386186e+01,-3.791673751275629911e+01,1.210148646222387470e+01,-7.344446045013683033e+00,-2.911313080667878239e+01,-4.602352235016769555e+01,4.918795223856795928e+01,1.748635337972973502e+01,9.408499717712402344e+00,-1.950542807579040527e+00,-5.354431271553039551e-01,5.600000000000000000e+02
-4.432587845011948957e+01,-3.807186923579683935e+01,1.195848077311529778e+01,-9.812300385851813189e+00,-3.020606051631330047e+01,-4.681148943286643771e+01,4.879492217028109735e+01,1.527812659086339409e+01,9.408499717712402344e+00,-1.950542807579040527e+00,-5.354431271553039551e-01,5.610000000000000000e+02
-4.248984199073856871e+01,-3.786720055788191530e+01,1.115302837635226751e+01,-1.318895882344440906e+01,-3.278352623302453139e+01,-4.938546606514501036e+01,4.675119158745019377e+01,1.070746481219248381e+01,9.408499717712402344e+00,-1.950542807579040527e+00,-5.354431271553039551e-01,5.620000000000000000e+02
-4.120112981238980865e+01,-3.717032831156575412e+01,9.969324148556552245e+00,-1.599483594889170490e+01,-3.569832459065764851e+01,-5.241886159941168444e+01,4.379691207637370098e+01,5.362704354945890373e+00,9.408499717712402344e+00,-1.950542807579040527e+00,-5.354431271553039551e-01,5.630000000000000000e+02
-4.131963125511902035e+01,-3.643299577016296098e+01,8.479501251732472156e+00,-1.742672146481072559e+01,-3.804332147111745144e+01,-5.454486034150068008e+01,4.102139999644350610e+01,1.034774141686284565e+00,9.408499717712402344e+00,-1.950542807579040527e+00,-5.354431271553039551e-01,5.640000000000000000e+02
-4.296284806165385817e+01,-3.633299851799711178e+01,6.922117397552028706e+00,-1.748006625611924392e+01,-3.930121395642527204e+01,-5.500227123168951948e+01,3.928789535448595416e+01,-9.687365276695345528e-01,9.408499717712402344e+00,-1.950542807579040527e+00,-5.354431271553039551e-01,5.650000000000000000e+02
-4.528529231569882540e+01,-3.718646162491131690e+01,5.945339779703317618e+00,-1.647593031366704963e+01,-3.920503434399324760e+01,-5.384832969754461374e+01,3.890337457852729131e+01,-2.434112670071044704e-01,9.408499717712402344e+00,-1.950542807579040527e+00,-5.354431271553039551e-01,5.660000000000000000e+02
-4.702203245038435853e+01,-3.864031504583181231e+01,6.232323158465078450e+00,-1.461484053935600969e+01,-3.772318640860976302e+01,-5.169974357129831333e+01,3.971094633588472789e+01,2.667463522318939795e+00,9.408499717712402344e+00,-1.950542807579040527e+00,-5.354431271553039551e-01,5.670000000000000000e+02
-4.738775425175299461e+01,-3.994440599355402810e+01,7.778718469711748185e+00,-1.207007367487858573e+01,-3.526222693834461097e+01,-4.930906497438627412e+01,4.135206532161464565e+01,6.533962416137001128e+00,9.408499717712402344e+00,-1.950542807579040527e+00,-5.354431271553039551e-01,5.680000000000000000e+02
-4.660289960318368685e+01,-4.058027650741496473e+01,9.597154508509447624e+00,-9.439862108371016802e+00,-3.274937078556104098e+01,-4.729557067789210123e+01,4.333826385895190469e+01,9.871545659672847250e+00,9.408499717712402344e+00,-1.950542807579040527e+00,-5.354431271553039551e-01,5.690000000000000000e+02
-4.561509969518556318e+01,-4.067011929749423871e+01,1.031849813966073270e+01,-7.864331199383741478e+00,-3.127241492540633772e+01,-4.609884605283878045e+01,4.492590566093713278e+01,1.143111430421049590e+01,9.408499717712402344e+00,-1.950542807579040527e+00,-5.354431271553039551e-01,5.700000000000000000e+02
-4.528557134589209454e+01,-4.077746385158388875e+01,9.262224235113535542e+00,-8.396959257295748102e+00,-3.143045584258652525e+01,-4.599216943977808114e+01,4.515931606065169035e+01,1.064600726054050028e+01,9.408499717712402344e+00,-1.950542807579040527e+00,-5.354431271553039551e-01,5.710000000000000000e+02
-4.575426741033152211e+01,-4.130304371255988372e+01,7.007499411065509776e+00,-1.106722821368748555e+01,-3.293531187808730465e+01,-4.700248597384779714e+01,4.334739218337563216e+01,7.889044012224985636e+00,9.408499717712402344e+00,-1.950542807579040527e+00,-5.354431271553039551e-01,5.720000000000000000e+02
-4.647176905120977608e+01,-4.207460428952981601e+01,4.922171894646453438e+00,-1.456199323962755443e+01,-3.482921204888953071e+01,-4.878396437971787236e+01,3.971911456718953559e+01,4.370725948947438155e+00,9.408499717712402344e+00,-1.950542807579040527e+00,-5.354431271553039551e-01,5.730000000000000000e+02
-4.678325940909962810e+01,-4.252540161503929994e+01,4.072800446694600396e+00,-1.698558789838898520e+01,-3.612133853177692799e+01,-5.062105060668909573e+01,3.561595033372213948e+01,1.617879102610459086e+00,9.408499717712402344e+00,-1.950542807579040527e+00,-5.354431271553039551e-01,5.740000000000000000e+02
-4.650326035898069676e+01,-4.225487723141122842e+01,4.490484368987381458e+00,-1.714059565587376710e+01,-3.631050429311471817e+01,-5.165888611819536891e+01,3.284541373787033081e+01,7.320424521858512890e-01,9.408499717712402344e+00,-1.950542807579040527e+00,-5.354431271553039551e-01,5.750000000000000000e+02
-4.599238369510385382e+01,-4.139144161039985192e+01,5.376060226799381780e+00,-1.524631175922877446e+01,-3.547010118213620444e+01,-5.127820426048492664e+01,3.256147211736060854e+01,1.840925916987544042e+00,9.408499717712402344e+00,-1.950542807579040527e+00,-5.354431271553039551e-01,5.760000000000000000e+02
-4.572320073337323265e+01,-4.040845039490159252e+01,5.939648834182662540e+00,-1.252053379500102892e+01,-3.402001216145072249e+01,-4.940340088406992436e+01,3.454774190725220251e+01,4.103510864486452192e+00,9.408499717712402344e+00,-1.950542807579040527e+00,-5.354431271553039551e-01,5.770000000000000000e+02
-4.575540376736171311e+01,-3.961155159322152031e+01,6.062372108197450871e+00,-1.009324391088739503e+01,-3.248205304227485613e+01,-4.655196787638305977e+01,3.751794591808720725e+01,6.287144343034015037e+00,9.408499717712402344e+00,-1.950542807579040527e+00,-5.354431271553039551e-01,5.780000000000000000e+02
-4.559346347624705231e+01,-3.884584309517958900e+01,6.250971240335275070e+00,-8.285461277671856806e+00,-3.132815459925404866e+01,-4.358851288839287008e+01,4.015992277165423729e+01,7.533085015162214404e+00,9.370253562927246094e+00,-1.759313106536865234e+00,-5.354431271553039551e-01,5.790000000000000000e+02
-4.457770051772786246e+01,-3.772647587311985262e+01,7.054755559212935623e+00,-6.805405880892067216e+00,-3.083961928629832983e+01,-4.131357788802779396e+01,4.201149664461809152e+01,7.796084442545179627e+00,9.370253562927246094e+00,-1.759313106536865234e+00,-5.354431271553039551e-01,5.800000000000000000e+02
-4.250782974841786199e+01,-3.613452953940031875e+01,8.556038711736619007e+00,-5.446559248966877931e+00,-3.095036522781447275e+01,-4.009858053901734820e+01,4.347340545159931935e+01,7.708463688290066784e+00,9.370253562927246094e+00,-1.759313106536865234e+00,-5.354431271553039551e-01,5.810000000000000000e+02
-3.997899698769469978e+01,-3.444703627448325278e+01,1.034206649476800521e+01,-4.446797664106270531e+00,-3.123973916868453671e+01,-3.975685041164979339e+01,4.508379489666549489e+01,8.027481749417347601e+00,9.370253562927246094e+00,-1.759313106536865234e+00,-5.354431271553039551e-01,5.820000000000000000e+02
-3.809912127846109797e+01,-3.325328291613732290e+01,1.186926497724743967e+01,-4.156053631042595953e+00,-3.120434578550703009e+01,-3.971258743028192839e+01,4.683210177615001157e+01,9.095641917412649491e+00,9.370253562927246094e+00,-1.759313106536865234e+00,-5.354431271553039551e-01,5.830000000000000000e+02
-3.772799177406159288e+01,-3.284320642158309056e+01,1.283384097638008825e+01,-4.474226283156895079e+00,-3.064181707649186137e+01,-3.935979683248842775e+01,4.815546168743094313e+01,1.068049681174124999e+01,9.370253562927246094e+00,-1.759313106536865234e+00,-5.354431271553039551e-01,5.840000000000000000e+02
-3.881479912166832946e+01,-3.299168622401703033e+01,1.325754743970355776e+01,-4.772480367202661000e+00,-2.978675551190826809e+01,-3.840391284057841403e+01,4.853738963612340740e+01,1.223387805990932975e+01,9.370253562927246094e+00,-1.759313106536865234e+00,-5.354431271553039551e-01,5.850000000000000000e+02
-4.039135647662988049e+01,-3.321551520927641832e+01,1.332076163750207343e+01,-4.421345232856765506e+00,-2.903509526153538900e+01,-3.697522852306246932e+01,4.806593244223950023e+01,1.332737855812047201e+01,9.370253562927246094e+00,-1.759313106536865234e+00,-5.354431271553039551e-01,5.860000000000000000e+02
-4.127971042964236403e+01,-3.319121104974692571e+01,1.316772239539932343e+01,-3.343191412950545782e+00,-2.853472210654035734e+01,-3.544885864982279600e+01,4.741428964764963894e+01,1.392632337121904129e+01,9.370253562927246094e+00,-1.759313106536865234e+00,-5.354431271553039551e-01,5.870000000000000000e+02
-4.095540056159188680e+01,-3.289748952685658878e+01,1.285082376657192071e+01,-1.974172849044407485e+00,-2.809243279318252462e+01,-3.411226106668982538e+01,4.730673297475732397e+01,1.431086778409007820e+01,9.370253562927246094e+00,-1.759313106536865234e+00,-5.354431271553039551e-01,5.880000000000000000e+02
-3.984400452549380134e+01,-3.238099665169102082e+01,1.239924139437789563e+01,-6.850454923824145226e-01,-2.750867255049161031e+01,-3.293631322779765469e+01,4.798194330833575805e+01,1.473714762126655842e+01,9.370253562927246094e+00,-1.759313106536865234e+00,-5.354431271553039551e-01,5.890000000000000000e+02
-3.881328157782627386e+01,-3.148370677455568512e+01,1.189791773741126235e+01,6.552229610097128898e-01,-2.695311398561898386e+01,-3.165040677217621123e+01,4.910326439633172413e+01,1.513541311007793411e+01,9.370253562927246094e+00,-1.759313106536865234e+00,-5.354431271553039551e-01,5.900000000000000000e+02
-3.834051019038997765e+01,-2.991025268357043387e+01,1.151010126202709216e+01,2.437556470391427865e+00,-2.689529715367098106e+01,-3.008168053502959083e+01,5.012296739185148908e+01,1.514247848049490131e+01,9.370253562927246094e+00,-1.759313106536865234e+00,-5.354431271553039551e-01,5.910000000000000000e+02
-3.812777444864332210e+01,-2.760145814207498915e+01,1.145377554823062383e+01,4.647550376428625896e+00,-2.755720568805190851e+01,-2.844282466276490595e+01,5.075719400064554065e+01,1.450581103151489515e+01,9.370253562927246094e+00,-1.759313106536865234e+00,-5.354431271553039551e-01,5.920000000000000000e+02
-3.747817942229630717e+01,-2.498158795865674620e+01,1.195888559674494900e+01,6.570139595920409192e+00,-2.841189524250148679e+01,-2.723542541374263237e+01,5.122101030402336619e+01,1.354474470196510083e+01,9.370253562927246094e+00,-1.759313106536865234e+00,-5.354431271553039551e-01,5.930000000000000000e+02
-3.601968689548630209e+01,-2.273861803429099382e+01,1.318970463508412649e+01,7.311112295530620031e+00,-2.832438377123617101e+01,-2.678378498210076941e+01,5.207598934622365050e+01,1.319010505026017199e+01,9.370253562927246094e+00,-1.759313106536865234e+00,-5.354431271553039551e-01,5.940000000000000000e+02
-3.406167251787155692e+01,-2.127271939032289083e+01,1.511987571352256055e+01,6.701496482653965359e+00,-2.636919655878227786e+01,-2.679857277288829209e+01,5.380476428009569645e+01,1.442417115156422369e+01,9.370253562927246094e+00,-1.759313106536865234e+00,-5.354431271553039551e-01,5.950000000000000000e+02
-3.227032035314186942e+01,-2.034235678442928474e+01,1.742732784119471035e+01,5.654070422906443127e+00,-2.267991720560166868e+01,-2.644444646283591283e+01,5.638565270583421807e+01,1.747988169552991167e+01,9.370253562927246094e+00,-1.759313106536865234e+00,-5.354431271553039551e-01,5.960000000000000000e+02
-3.103032821683154907e+01,-1.929440968409107882e+01,1.954411848992822343e+01,5.513192681388318306e+00,-1.854813853262385237e+01,-2.496775801068361034e+01,5.914978025733216782e+01,2.147569270511667128e+01,9.370253562927246094e+00,-1.759313106536865234e+00,-5.354431271553039551e-01,5.970000000000000000e+02
-3.013759139343164861e+01,-1.770019846942523145e+01,2.091544412439361622e+01,6.918699156634829706e+00,-1.560158237590439967e+01,-2.239676747361590969e+01,6.105908891553917783e+01,2.488161643436615122e+01,9.370253562927246094e+00,-1.759313106536865234e+00,-5.354431271553039551e-01,5.980000000000000000e+02
-2.909388040229896433e+01,-1.581924587795947446e+01,2.132248106415136135e+01,9.202515854478406254e+00,-1.471065289202670101e+01,-1.969861422758185654e+01,6.127049944120881264e+01,2.648704036708295462e+01,9.370253562927246094e+00,-1.759313106536865234e+00,-5.354431271553039551e-01,5.990000000000000000e+02
-2.766812682626550668e+01,-1.446340713422250701e+01,2.100046225020196289e+01,1.084730633639992448e+01,-1.552345974760464742e+01,-1.821469152079589549e+01,5.960912148809075006e+01,2.608338108483440010e+01,9.332008361816406250e+00,-1.950542807579040527e+00,-4.971971809864044189e-01,6.000000000000000000e+02
-2.615864614166639512e+01,-1.437333121560368454e+01,2.041895992224453948e+01,1.059686332734054304e+01,-1.695652697998957592e+01,-1.880260720846854383e+01,5.662629094808653463e+01,2.435359147134295199e+01,9.332008361816406250e+00,-1.950542807579040527e+00,-4.971971809864044189e-01,6.010000000000000000e+02
-2.511318557042613975e+01,-1.564201745440368541e+01,1.991550066977652023e+01,8.308424665472557535e+00,-1.809729406366750482e+01,-2.132333637043848285e+01,5.326027322590744006e+01,2.222070776918553747e+01,9.332008361816406250e+00,-1.950542807579040527e+00,-4.971971809864044189e-01,6.020000000000000000e+02
-2.480398032233642880e+01,-1.764360334910816164e+01,1.953175634836588870e+01,4.963007394970190944e+00,-1.867015089711276232e+01,-2.476853734958058340e+01,5.041928614896824001e+01,2.035578218592490884e+01,9.332008361816406250e+00,-1.950542807579040527e+00,-4.971971809864044189e-01,6.030000000000000000e+02
-2.496781247679609805e+01,-1.948141117864724947e+01,1.918680001555185299e+01,1.972307432675734162e+00,-1.876102028851892101e+01,-2.784363057593145641e+01,4.876882100436341716e+01,1.921510956002020976e+01,9.332008361816406250e+00,-1.950542807579040527e+00,-4.971971809864044189e-01,6.040000000000000000e+02
-2.503464517019892810e+01,-2.055124240451914375e+01,1.894500443712604465e+01,3.743430606918991543e-01,-1.829648927487505716e+01,-2.958844073987347656e+01,4.869230658824380953e+01,1.928517282660322962e+01,9.332008361816406250e+00,-1.950542807579040527e+00,-4.971971809864044189e-01,6.050000000000000000e+02
-2.461506371943687554e+01,-2.078429318068083376e+01,1.902550190512556583e+01,4.141208143919357099e-01,-1.697569495205607382e+01,-2.972906423027961864e+01,5.019966735697744298e+01,2.097353580713752308e+01,9.332008361816406250e+00,-1.950542807579040527e+00,-4.971971809864044189e-01,6.060000000000000000e+02
-2.380024932613378041e+01,-2.046152130869450048e+01,1.949854681244687526e+01,1.606830779706797330e+00,-1.476659733349879389e+01,-2.869018781060003676e+01,5.273437123994881404e+01,2.408701328777533490e+01,9.332008361816406250e+00,-1.950542807579040527e+00,-4.971971809864044189e-01,6.070000000000000000e+02
-2.302082171756774187e+01,-1.984822799451649189e+01,2.002644861629960360e+01,3.106226690797484480e+00,-1.235154991529634572e+01,-2.731875500184105476e+01,5.515993703476124210e+01,2.750928837071478483e+01,9.332008361816406250e+00,-1.950542807579040527e+00,-4.971971809864044189e-01,6.080000000000000000e+02
-2.261088583063246915e+01,-1.898768240842400701e+01,2.003085855628160061e+01,4.161365989788464503e+00,-1.087490501298816525e+01,-2.642139172612951370e+01,5.623105565012519946e+01,2.968753792567440541e+01,9.332008361816406250e+00,-1.950542807579040527e+00,-4.971971809864044189e-01,6.090000000000000000e+02
-2.248415646690773428e+01,-1.779163375887947041e+01,1.920605805257582688e+01,4.475969893788715126e+00,-1.109548314920903067e+01,-2.632337769086734625e+01,5.539571483816689579e+01,2.973317501509154681e+01,9.332008361816406250e+00,-1.950542807579040527e+00,-4.971971809864044189e-01,6.100000000000000000e+02
-2.220552594638138544e+01,-1.628612977041484555e+01,1.788215222140934202e+01,4.312994394538691267e+00,-1.273455047242168803e+01,-2.672964172367574065e+01,5.330696230445391848e+01,2.819525506579884677e+01,9.332008361816406250e+00,-1.950542807579040527e+00,-4.971971809864044189e-01,6.110000000000000000e+02
-2.138501208086745464e+01,-1.474253508535184665e+01,1.683092148053037818e+01,4.284353414241195424e+00,-1.465805956441909075e+01,-2.700981632607363281e+01,5.151083114599168766e+01,2.674883216915623052e+01,9.332008361816406250e+00,-1.950542807579040527e+00,-4.971971809864044189e-01,6.120000000000000000e+02
-2.003020818870572839e+01,-1.352634315238901763e+01,1.668615066937854863e+01,4.970100853006442776e+00,-1.568617817652193480e+01,-2.667958092272237991e+01,5.144822354177085799e+01,2.702522279137701844e+01,9.332008361816406250e+00,-1.950542807579040527e+00,-4.971971809864044189e-01,6.130000000000000000e+02
