F3,F4,C3,C4,P3,P4,Cz,Pz,Accel_x,Accel_y,Accel_z,Sample
-3.137756721116602421e-11,-7.003109203651547432e-11,-4.547473508864641190e-11,-3.728928277269005775e-11,-6.275513442233204842e-11,-6.184563972055912018e-11,-3.456079866737127304e-11,-4.820321919396519661e-11,9.370253562927246094e+00,-6.884268522262573242e-01,-1.529837548732757568e-01,2.010000000000000000e+02
-6.642310357446876878e+01,-8.199050299938153330e+01,-6.159698322634721990e+01,-6.266720289614477224e+01,-6.823877731937136559e+01,-6.839037390366411273e+01,-4.938887557823636598e+01,-5.898688032689460670e+01,9.370253562927246094e+00,-6.884268522262573242e-01,-1.529837548732757568e-01,2.020000000000000000e+02
-1.310937317764032741e+02,-1.594135374082716226e+02,-1.167882408935884087e+02,-1.196133470671202303e+02,-1.420606327036321090e+02,-1.405285215909489125e+02,-9.441731048439396545e+01,-1.111812817907057251e+02,9.370253562927246094e+00,-6.884268522262573242e-01,-1.529837548732757568e-01,2.030000000000000000e+02
-1.922916839722183795e+02,-2.307503764682587644e+02,-1.642129647090105209e+02,-1.695900331028587971e+02,-2.217682859682208800e+02,-2.159499302018666640e+02,-1.346737282281528678e+02,-1.554933742955436173e+02,9.370253562927246094e+00,-6.884268522262573242e-01,-1.529837548732757568e-01,2.040000000000000000e+02
-2.485277097413004412e+02,-2.978384619445614589e+02,-2.078280152793513480e+02,-2.163938504624347843e+02,-3.023630442240237244e+02,-2.904037085512836711e+02,-1.738162517879172810e+02,-1.968498315380984423e+02,9.370253562927246094e+00,-6.884268522262573242e-01,-1.529837548732757568e-01,2.050000000000000000e+02
-2.990869413823161267e+02,-3.634681829237697457e+02,-2.524833373744195342e+02,-2.652192534705227445e+02,-3.785258590062248913e+02,-3.603799982270693363e+02,-2.158827400290292644e+02,-2.410972583382526864e+02,9.370253562927246094e+00,-6.884268522262573242e-01,-1.529837548732757568e-01,2.060000000000000000e+02
-3.448008743636796680e+02,-4.288620475836441983e+02,-2.994291886881092069e+02,-3.182308835781423113e+02,-4.493284728493299554e+02,-4.267110897019974800e+02,-2.615104883168960441e+02,-2.896679240007188127e+02,9.370253562927246094e+00,-6.884268522262573242e-01,-1.529837548732757568e-01,2.070000000000000000e+02
-3.883084289202247419e+02,-4.933686974426964298e+02,-3.460311877063550128e+02,-3.732298273398964739e+02,-5.181426649813274707e+02,-4.933936564337454911e+02,-3.076458815115483958e+02,-3.390457346873517963e+02,9.561484336853027344e+00,-6.884268522262573242e-01,-3.824593871831893921e-02,2.080000000000000000e+02
-4.330087136806960189e+02,-5.561113704416893597e+02,-3.893542572194828608e+02,-4.262128982662134149e+02,-5.885112838131744866e+02,-5.631440397509895774e+02,-3.506901131299700864e+02,-3.849992663137109048e+02,9.561484336853027344e+00,-6.884268522262573242e-01,-3.824593871831893921e-02,2.090000000000000000e+02
-4.809395191310586597e+02,-6.174304711921886337e+02,-4.294747919670694500e+02,-4.751527693267416907e+02,-6.606716992821793610e+02,-6.346394809550174614e+02,-3.897926801837693347e+02,-4.269512750103112921e+02,9.561484336853027344e+00,-6.884268522262573242e-01,-3.824593871831893921e-02,2.100000000000000000e+02
-5.311411654054609244e+02,-6.786275880634584610e+02,-4.692084652561879921e+02,-5.216072348207389950e+02,-7.320467925904376898e+02,-7.042593001292452755e+02,-4.272957363100513248e+02,-4.682778090293613786e+02,9.561484336853027344e+00,-6.884268522262573242e-01,-3.824593871831893921e-02,2.110000000000000000e+02
-5.801618349692612355e+02,-7.406253136472178085e+02,-5.110660680784590113e+02,-5.690811512899881563e+02,-8.004776451276065927e+02,-7.701028865210346339e+02,-4.664128256667063397e+02,-5.128290188635164668e+02,9.561484336853027344e+00,-6.884268522262573242e-01,-3.824593871831893921e-02,2.120000000000000000e+02
-6.246361866508132152e+02,-8.032159977183082447e+02,-5.550312783278823190e+02,-6.199723411690624744e+02,-8.664598016916042980e+02,-8.338238627692899172e+02,-5.087375522820057085e+02,-5.616217387492119997e+02,9.561484336853027344e+00,-6.884268522262573242e-01,-3.824593871831893921e-02,2.130000000000000000e+02
-6.638356168698978763e+02,-8.655693070783036092e+02,-5.994131873141109281e+02,-6.738145256137177057e+02,-9.324339118178659191e+02,-8.986066961174910830e+02,-5.537510313757575204e+02,-6.128957973945957747e+02,9.561484336853027344e+00,-6.884268522262573242e-01,-3.824593871831893921e-02,2.140000000000000000e+02
-6.999686607901739990e+02,-9.271147346462671521e+02,-6.434475961211055619e+02,-7.279888091868374431e+02,-1.000546173664440175e+03,-9.658667522724099399e+02,-6.001159576999857563e+02,-6.648260916966210061e+02,9.561484336853027344e+00,-6.884268522262573242e-01,-3.824593871831893921e-02,2.150000000000000000e+02
-7.360664952280012585e+02,-9.877081834953401085e+02,-6.885237699248336867e+02,-7.799094584242952806e+02,-1.071355598942882352e+03,-1.034238774119579830e+03,-6.469618025406698507e+02,-7.175467415411139882e+02,9.561484336853027344e+00,-6.884268522262573242e-01,-3.824593871831893921e-02,2.160000000000000000e+02
-7.735232952205078618e+02,-1.047150013247154220e+03,-7.366332038580267181e+02,-8.287498246989448489e+02,-1.144168866349516975e+03,-1.101483152304385840e+03,-6.939316987034135309e+02,-7.723191234308528692e+02,9.561484336853027344e+00,-6.884268522262573242e-01,-3.824593871831893921e-02,2.170000000000000000e+02
-8.115425872304654149e+02,-1.105010069590028252e+03,-7.877510449979363329e+02,-8.755594343682114413e+02,-1.217749459092521647e+03,-1.166759790456540031e+03,-7.404355594152789308e+02,-8.290301794972924654e+02,9.561484336853027344e+00,-6.884268522262573242e-01,-3.824593871831893921e-02,2.180000000000000000e+02
-8.486915652547472746e+02,-1.161179681425653598e+03,-8.389698552647587348e+02,-9.220562249305698970e+02,-1.290388733489798142e+03,-1.230787360019367952e+03,-7.853376365549320326e+02,-8.849832956662171455e+02,9.561484336853027344e+00,-6.884268522262573242e-01,-3.824593871831893921e-02,2.190000000000000000e+02
-8.846767899785995724e+02,-1.216404783941129608e+03,-8.863535086022875475e+02,-9.692368825925618694e+02,-1.359876621150546271e+03,-1.294181526861179009e+03,-8.275727677268873776e+02,-9.364588140924224717e+02,9.561484336853027344e+00,-6.884268522262573242e-01,-3.824593871831893921e-02,2.200000000000000000e+02
-9.205016507721275048e+02,-1.271847367081416905e+03,-9.277906972310638594e+02,-1.016806564993417396e+03,-1.424313611149556891e+03,-1.356243604183657226e+03,-8.670170278014320502e+02,-9.815480507135926018e+02,9.561484336853027344e+00,-6.884268522262573242e-01,-3.824593871831893921e-02,2.210000000000000000e+02
-9.571182284387527943e+02,-1.327858486161052497e+03,-9.642841695446418271e+02,-1.063629678321886786e+03,-1.483414820967222568e+03,-1.415573449975402582e+03,-9.046488683756333558e+02,-1.021447088947350039e+03,9.561484336853027344e+00,-6.884268522262573242e-01,-3.824593871831893921e-02,2.220000000000000000e+02
-9.943030384549965675e+02,-1.383282611645773613e+03,-9.987199476556884292e+02,-1.108661500901787349e+03,-1.538807173730045179e+03,-1.471553213706632050e+03,-9.417802355915023327e+02,-1.058992080906634328e+03,9.561484336853027344e+00,-6.884268522262573242e-01,-3.824593871831893921e-02,2.230000000000000000e+02
-1.031026722113001142e+03,-1.436255158631322956e+03,-1.033416296079135009e+03,-1.151584288689886762e+03,-1.592610248597864484e+03,-1.524860669860955568e+03,-9.790016507544009983e+02,-1.095920178919560385e+03,9.561484336853027344e+00,-6.884268522262573242e-01,-3.824593871831893921e-02,2.240000000000000000e+02
-1.066773474585159192e+03,-1.485903582129521055e+03,-1.068594502602695229e+03,-1.192700899831969764e+03,-1.645525084497172429e+03,-1.576519595122455485e+03,-1.015664950585564384e+03,-1.131465115579643225e+03,9.561484336853027344e+00,-6.884268522262573242e-01,-3.824593871831893921e-02,2.250000000000000000e+02
-1.102195914353653279e+03,-1.533296555865854316e+03,-1.102852359162149241e+03,-1.232264975095574755e+03,-1.696402192041600756e+03,-1.626718203852517945e+03,-1.050244135327586264e+03,-1.163497852749861977e+03,9.561484336853027344e+00,-6.884268522262573242e-01,-3.824593871831893921e-02,2.260000000000000000e+02
-1.138257241854062841e+03,-1.580603249574627625e+03,-1.134907639960371398e+03,-1.269910567665599501e+03,-1.743803987244584732e+03,-1.674739762911333855e+03,-1.081307678513986957e+03,-1.191012929958586483e+03,9.561484336853027344e+00,-6.884268522262573242e-01,-3.824593871831893921e-02,2.270000000000000000e+02
-1.174792259190475079e+03,-1.629155236453093494e+03,-1.164967879686577817e+03,-1.304725947790375812e+03,-1.787928034257465242e+03,-1.719895979454265216e+03,-1.108504759901150919e+03,-1.215589213810343608e+03,9.561484336853027344e+00,-6.884268522262573242e-01,-3.824593871831893921e-02,2.280000000000000000e+02
-1.210188792027860245e+03,-1.678158857938381061e+03,-1.194599954710099155e+03,-1.335921995953706755e+03,-1.830848374492952644e+03,-1.762254667486553444e+03,-1.132941970946287711e+03,-1.240454800187558703e+03,9.484992027282714844e+00,-6.501809358596801758e-01,-1.147378161549568176e-01,2.290000000000000000e+02
-1.242746492017987293e+03,-1.725214331168175704e+03,-1.225302747071349586e+03,-1.363532221052449586e+03,-1.874771729138530191e+03,-1.802405660734207231e+03,-1.156631887950549299e+03,-1.267969009284419826e+03,9.484992027282714844e+00,-6.501809358596801758e-01,-1.147378161549568176e-01,2.300000000000000000e+02
-1.272462971722747625e+03,-1.768153586627772256e+03,-1.257046430796766799e+03,-1.388574959434730317e+03,-1.919998502556552012e+03,-1.840748254369513688e+03,-1.181260156726048535e+03,-1.297711120856816706e+03,9.484992027282714844e+00,-6.501809358596801758e-01,-1.147378161549568176e-01,2.310000000000000000e+02
-1.301402296173945842e+03,-1.806577680135222636e+03,-1.288018504980754642e+03,-1.412599899219650524e+03,-1.964534976976892267e+03,-1.877292394144746595e+03,-1.207080235367794558e+03,-1.326814045460806028e+03,9.484992027282714844e+00,-6.501809358596801758e-01,-1.147378161549568176e-01,2.320000000000000000e+02
-1.332060418082469596e+03,-1.841877835128007973e+03,-1.315801960637311822e+03,-1.437016296552360473e+03,-2.005622936297003889e+03,-1.912188036539039331e+03,-1.232800163256084033e+03,-1.352251020985824653e+03,9.484992027282714844e+00,-6.501809358596801758e-01,-1.147378161549568176e-01,2.330000000000000000e+02
-1.365110274599088143e+03,-1.875899790636350644e+03,-1.339061796107124337e+03,-1.462606005354547051e+03,-2.041762082283548807e+03,-1.946205062357565566e+03,-1.256622267461599222e+03,-1.373153764421760116e+03,9.484992027282714844e+00,-6.501809358596801758e-01,-1.147378161549568176e-01,2.340000000000000000e+02
-1.398528702623657409e+03,-1.909509229268986473e+03,-1.358458328689216160e+03,-1.489337239266967572e+03,-2.073608995287767357e+03,-1.980416288890894066e+03,-1.277645418145546955e+03,-1.391295468743687707e+03,9.484992027282714844e+00,-6.501809358596801758e-01,-1.147378161549568176e-01,2.350000000000000000e+02
-1.428920053308756223e+03,-1.942237061070736218e+03,-1.376143522193347735e+03,-1.516387666059998537e+03,-2.103281577733889662e+03,-2.015255621341740152e+03,-1.296461229559944059e+03,-1.409456511757429325e+03,9.484992027282714844e+00,-6.501809358596801758e-01,-1.147378161549568176e-01,2.360000000000000000e+02
-1.453961681305997445e+03,-1.973120007891473051e+03,-1.394304115622769814e+03,-1.542370004950218572e+03,-2.132858289732981575e+03,-2.049899626116032778e+03,-1.314447637369713448e+03,-1.429148097938106730e+03,9.484992027282714844e+00,-6.501809358596801758e-01,-1.147378161549568176e-01,2.370000000000000000e+02
-1.473968431212799942e+03,-2.001834974792162484e+03,-1.413874285104864157e+03,-1.565864799462945939e+03,-2.163180498709913991e+03,-2.082652234842067628e+03,-1.332454067255050632e+03,-1.449603948111667250e+03,9.484992027282714844e+00,-6.501809358596801758e-01,-1.147378161549568176e-01,2.380000000000000000e+02
-1.491444782071789405e+03,-2.029056522364699504e+03,-1.434254960962695577e+03,-1.586127117425457527e+03,-2.193577686287123925e+03,-2.112035718054105018e+03,-1.350112598764406812e+03,-1.468724448215286884e+03,9.484992027282714844e+00,-6.501809358596801758e-01,-1.147378161549568176e-01,2.390000000000000000e+02
-1.509237655804020733e+03,-2.055743573265366649e+03,-1.454023508192203735e+03,-1.603493676376579060e+03,-2.222506202169098742e+03,-2.137650238402794457e+03,-1.366370679545052553e+03,-1.484960727001831401e+03,9.484992027282714844e+00,-6.501809358596801758e-01,-1.147378161549568176e-01,2.400000000000000000e+02
-1.528885522308985401e+03,-2.082097580530580672e+03,-1.471960263729279859e+03,-1.619059704232742206e+03,-2.248653942343470590e+03,-2.160150693719471292e+03,-1.380669755252234609e+03,-1.498459531053269075e+03,9.484992027282714844e+00,-6.501809358596801758e-01,-1.147378161549568176e-01,2.410000000000000000e+02
-1.550273036320937535e+03,-2.107256235143388949e+03,-1.487701341073433923e+03,-1.633773984176339582e+03,-2.271867285819458175e+03,-2.180527099731569706e+03,-1.393603530347525520e+03,-1.510607965141870409e+03,9.484992027282714844e+00,-6.501809358596801758e-01,-1.147378161549568176e-01,2.420000000000000000e+02
-1.572361435196539787e+03,-2.130114074205862380e+03,-1.501774147094280806e+03,-1.647731489295259053e+03,-2.293304427393386959e+03,-2.199404232895995847e+03,-1.406450622299773840e+03,-1.522618242639652181e+03,9.484992027282714844e+00,-6.501809358596801758e-01,-1.147378161549568176e-01,2.430000000000000000e+02
-1.593988295226961100e+03,-2.150552664109727175e+03,-1.515188374261905210e+03,-1.660351688007375742e+03,-2.314640351174165062e+03,-2.216904749367788554e+03,-1.420076464351607001e+03,-1.534533715868616355e+03,9.484992027282714844e+00,-6.501809358596801758e-01,-1.147378161549568176e-01,2.440000000000000000e+02
-1.614146869043392144e+03,-2.169878827968047972e+03,-1.528883236467726192e+03,-1.671292632540833893e+03,-2.336856055866845054e+03,-2.233019006163348422e+03,-1.434222614104583727e+03,-1.545438033687789584e+03,9.484992027282714844e+00,-6.501809358596801758e-01,-1.147378161549568176e-01,2.450000000000000000e+02
-1.631970202906530858e+03,-2.189903399087336311e+03,-1.543270665969801257e+03,-1.681155792703966426e+03,-2.359586043713552044e+03,-2.248025169920797453e+03,-1.447736490590774110e+03,-1.554452639479123263e+03,9.484992027282714844e+00,-6.501809358596801758e-01,-1.147378161549568176e-01,2.460000000000000000e+02
-1.646909123287498005e+03,-2.211372486904492234e+03,-1.558062324641856321e+03,-1.691202917771801367e+03,-2.381599337498038039e+03,-2.262558906475012009e+03,-1.459411307376437662e+03,-1.561532828196848868e+03,9.484992027282714844e+00,-6.501809358596801758e-01,-1.147378161549568176e-01,2.470000000000000000e+02
-1.659080918243799715e+03,-2.233145937696430337e+03,-1.572472583177521983e+03,-1.702326329631305043e+03,-2.401988136044793009e+03,-2.277306868844145811e+03,-1.468681479898781618e+03,-1.567494855386994004e+03,9.484992027282714844e+00,-6.501809358596801758e-01,-1.147378161549568176e-01,2.480000000000000000e+02
-1.669227717581471779e+03,-2.252892840417640855e+03,-1.585657258570696285e+03,-1.714320451287317837e+03,-2.420976458050959536e+03,-2.292665778471427075e+03,-1.475749196920304939e+03,-1.573503391197095652e+03,9.484992027282714844e+00,-6.501809358596801758e-01,-1.147378161549568176e-01,2.490000000000000000e+02
-1.678040776405468478e+03,-2.268765531254761299e+03,-1.597070162638267902e+03,-1.726225748805848752e+03,-2.439569551308355585e+03,-2.308695683758053747e+03,-1.481321321386952377e+03,-1.580590443831878929e+03,9.484992027282714844e+00,-6.501809358596801758e-01,-1.147378161549568176e-01,2.500000000000000000e+02
-1.685462697081995884e+03,-2.280692995600302766e+03,-1.606510333777189999e+03,-1.737403532562448163e+03,-2.458333063250346186e+03,-2.325353500180362516e+03,-1.486359371317198793e+03,-1.589472140805726212e+03,9.484992027282714844e+00,-6.501809358596801758e-01,-1.147378161549568176e-01,2.510000000000000000e+02
-1.690845129553968945e+03,-2.290353241070749391e+03,-1.613968440081332801e+03,-1.748231165760099884e+03,-2.476473718793367880e+03,-2.342679365266718378e+03,-1.491950763341784977e+03,-1.600484367285308053e+03,9.484992027282714844e+00,-6.501809358596801758e-01,-1.147378161549568176e-01,2.520000000000000000e+02
-1.694071800903707981e+03,-2.300031964143096047e+03,-1.619588902942672803e+03,-1.759684499189240569e+03,-2.492192507251312236e+03,-2.360660396546650190e+03,-1.499081372159846296e+03,-1.613405569028961509e+03,9.484992027282714844e+00,-6.501809358596801758e-01,-1.147378161549568176e-01,2.530000000000000000e+02
-1.696573142269793152e+03,-2.311350425692624412e+03,-1.623884016661303576e+03,-1.772223104321230721e+03,-2.504158527952336499e+03,-2.378889913001820787e+03,-1.508185443967099218e+03,-1.627277200601051618e+03,9.484992027282714844e+00,-6.884268522262573242e-01,-7.649187743663787842e-02,2.540000000000000000e+02
-1.701014184595219604e+03,-2.324664393453370394e+03,-1.627925982188186026e+03,-1.785115207525425603e+03,-2.512876075629652405e+03,-2.396433471599471886e+03,-1.518724269331259848e+03,-1.640556621584163850e+03,9.484992027282714844e+00,-6.884268522262573242e-01,-7.649187743663787842e-02,2.550000000000000000e+02
-1.709668095010033539e+03,-2.339228371411445096e+03,-1.633103725903252325e+03,-1.796882019691691085e+03,-2.520674989106707926e+03,-2.412162782259576488e+03,-1.529248459499837963e+03,-1.651711248901104454e+03,9.484992027282714844e+00,-6.884268522262573242e-01,-7.649187743663787842e-02,2.560000000000000000e+02
-1.722807037293147005e+03,-2.353761179478393387e+03,-1.640403275437824732e+03,-1.806438589464131837e+03,-2.530190370647183045e+03,-2.425365794062710847e+03,-1.538089906935430918e+03,-1.659923559192729272e+03,9.484992027282714844e+00,-6.884268522262573242e-01,-7.649187743663787842e-02,2.570000000000000000e+02
-1.738538857101298618e+03,-2.367067593155126360e+03,-1.649718872603256841e+03,-1.813866916380530711e+03,-2.542519054919202972e+03,-2.436132253428959302e+03,-1.544244818430326859e+03,-1.665396778250669286e+03,9.484992027282714844e+00,-6.884268522262573242e-01,-7.649187743663787842e-02,2.580000000000000000e+02
-1.754186898222110131e+03,-2.378551134798579369e+03,-1.659815553898452208e+03,-1.820163773301701895e+03,-2.556550980030045139e+03,-2.445187767480547336e+03,-1.547784419758525246e+03,-1.669048520123417347e+03,9.484992027282714844e+00,-6.884268522262573242e-01,-7.649187743663787842e-02,2.590000000000000000e+02
-1.767896158151458849e+03,-2.388460421749996840e+03,-1.669092055381080399e+03,-1.826322787769322758e+03,-2.569988688927713156e+03,-2.453360153979302595e+03,-1.549553149750095145e+03,-1.671881252612306071e+03,9.484992027282714844e+00,-6.884268522262573242e-01,-7.649187743663787842e-02,2.600000000000000000e+02
-1.779152684660789873e+03,-2.397663496929695611e+03,-1.676594212739948034e+03,-1.832653784933411316e+03,-2.581116913481337178e+03,-2.461139354525892941e+03,-1.550549543604809514e+03,-1.674512851597938152e+03,9.484992027282714844e+00,-6.884268522262573242e-01,-7.649187743663787842e-02,2.610000000000000000e+02
-1.788202173002342079e+03,-2.406960962890861083e+03,-1.682488059988382474e+03,-1.838852459433056993e+03,-2.589794695642632178e+03,-2.468620480212474831e+03,-1.551578774504840112e+03,-1.677109534134639262e+03,9.484992027282714844e+00,-6.884268522262573242e-01,-7.649187743663787842e-02,2.620000000000000000e+02
-1.795402373232682748e+03,-2.416373779238490442e+03,-1.687681308473016998e+03,-1.844542848536497331e+03,-2.596964625571768011e+03,-2.475711521695775446e+03,-1.553353943400912840e+03,-1.679594977341615277e+03,9.484992027282714844e+00,-6.884268522262573242e-01,-7.649187743663787842e-02,2.630000000000000000e+02
-1.801224887838876839e+03,-2.425017876658475416e+03,-1.692985536356560033e+03,-1.849640473277361707e+03,-2.603412363674981862e+03,-2.482313572017640126e+03,-1.556656200447037236e+03,-1.681877699476338876e+03,9.484992027282714844e+00,-6.884268522262573242e-01,-7.649187743663787842e-02,2.640000000000000000e+02
-1.806508198122353861e+03,-2.431762831920642384e+03,-1.698529790127808610e+03,-1.854223540518477876e+03,-2.609171453439212200e+03,-2.488361277515103666e+03,-1.562085718612296887e+03,-1.683981180871052857e+03,9.484992027282714844e+00,-6.884268522262573242e-01,-7.649187743663787842e-02,2.650000000000000000e+02
-1.812148376106816613e+03,-2.436160299992767250e+03,-1.703862007713659523e+03,-1.858208684106149349e+03,-2.614166570400057026e+03,-2.493836104422828157e+03,-1.569487904261734684e+03,-1.686133716533028746e+03,9.484992027282714844e+00,-6.884268522262573242e-01,-7.649187743663787842e-02,2.660000000000000000e+02
-1.818221934371879797e+03,-2.438852490158082219e+03,-1.708538365470455119e+03,-1.861304896601333894e+03,-2.619267729423688252e+03,-2.498851378978606590e+03,-1.577666603109693369e+03,-1.688833455056649882e+03,9.484992027282714844e+00,-6.884268522262573242e-01,-7.649187743663787842e-02,2.670000000000000000e+02
-1.823488693543645695e+03,-2.441147260459555127e+03,-1.712621965804410820e+03,-1.863352730711066442e+03,-2.626410480880179421e+03,-2.503709153381874785e+03,-1.584877378433348895e+03,-1.692759502574693670e+03,9.484992027282714844e+00,-6.884268522262573242e-01,-7.649187743663787842e-02,2.680000000000000000e+02
-1.826148867110134688e+03,-2.444186895483381704e+03,-1.716646810489660311e+03,-1.864664244369579137e+03,-2.637385799676289935e+03,-2.508769995346423002e+03,-1.589866086226870493e+03,-1.698405043813119619e+03,9.484992027282714844e+00,-6.884268522262573242e-01,-7.649187743663787842e-02,2.690000000000000000e+02
-1.825464941367426718e+03,-2.448413821224079584e+03,-1.721080930032959714e+03,-1.865929967255859538e+03,-2.652300429782935680e+03,-2.514161428403324862e+03,-1.592608119070480143e+03,-1.705525230465376126e+03,9.484992027282714844e+00,-6.884268522262573242e-01,-7.649187743663787842e-02,2.700000000000000000e+02
-1.822770515773487205e+03,-2.453627435466952193e+03,-1.725783266049461872e+03,-1.867724724187346965e+03,-2.669144283340174297e+03,-2.519560799543290159e+03,-1.594104717010067816e+03,-1.712814488940655338e+03,9.484992027282714844e+00,-6.884268522262573242e-01,-7.649187743663787842e-02,2.710000000000000000e+02
-1.820796486732580661e+03,-2.459348035423557121e+03,-1.729973927591371194e+03,-1.870107107887925395e+03,-2.684927600270388211e+03,-2.524285011114028748e+03,-1.595447957980859655e+03,-1.718235913253451372e+03,9.484992027282714844e+00,-6.884268522262573242e-01,-7.649187743663787842e-02,2.720000000000000000e+02
-1.821781026557063115e+03,-2.465072455235588222e+03,-1.732788536568084055e+03,-1.872740346534066020e+03,-2.697396919067090039e+03,-2.527639512222763187e+03,-1.597014686143436393e+03,-1.719981058204284409e+03,9.484992027282714844e+00,-6.884268522262573242e-01,-7.649187743663787842e-02,2.730000000000000000e+02
-1.825962082026660028e+03,-2.470307983534234609e+03,-1.733959002862943180e+03,-1.875411937699142982e+03,-2.705901062676041420e+03,-2.529267105529845594e+03,-1.598455474436797658e+03,-1.717518750067576093e+03,9.484992027282714844e+00,-6.884268522262573242e-01,-7.649187743663787842e-02,2.740000000000000000e+02
-1.831638299478583122e+03,-2.474584553139632590e+03,-1.734003541810872548e+03,-1.878366048956138457e+03,-2.710926744954294463e+03,-2.529299878384558724e+03,-1.599336941493590530e+03,-1.712025574833927749e+03,9.484992027282714844e+00,-6.884268522262573242e-01,-7.649187743663787842e-02,2.750000000000000000e+02
-1.836545876452577886e+03,-2.477591359437616120e+03,-1.733729716278065553e+03,-1.882016167705861335e+03,-2.713069543450259516e+03,-2.528278830151336933e+03,-1.599704971137769917e+03,-1.705854116555062774e+03,9.484992027282714844e+00,-6.884268522262573242e-01,-7.649187743663787842e-02,2.760000000000000000e+02
-1.839272905848829851e+03,-2.479307412220782226e+03,-1.733513982172778469e+03,-1.886275893400797713e+03,-2.712547600180904737e+03,-2.526933665197097980e+03,-1.600032102462118928e+03,-1.701345960479774021e+03,9.484992027282714844e+00,-6.884268522262573242e-01,-7.649187743663787842e-02,2.770000000000000000e+02
-1.839669289077962048e+03,-2.479957107721830198e+03,-1.733046740391388084e+03,-1.890215522886353710e+03,-2.709544846713410607e+03,-2.525880859346010766e+03,-1.600689075817838102e+03,-1.699703126448338708e+03,9.484992027282714844e+00,-6.884268522262573242e-01,-7.649187743663787842e-02,2.780000000000000000e+02
-1.838308763188667626e+03,-2.479842566054546296e+03,-1.731789440942609872e+03,-1.892527531335443655e+03,-2.704735558710752230e+03,-2.525319497960252193e+03,-1.601532315198910510e+03,-1.700545606582806613e+03,9.484992027282714844e+00,-6.884268522262573242e-01,-7.649187743663787842e-02,2.790000000000000000e+02
-1.835811325878638854e+03,-2.479249127615608359e+03,-1.729692071526461405e+03,-1.892481602163062234e+03,-2.699251065896886757e+03,-2.524898849629197230e+03,-1.601995989827365975e+03,-1.702321533895716129e+03,9.484992027282714844e+00,-6.884268522262573242e-01,-7.649187743663787842e-02,2.800000000000000000e+02
-1.832608226619493053e+03,-2.478476303923630894e+03,-1.727440983225709260e+03,-1.890514432673721785e+03,-2.694081557696122218e+03,-2.523939956383446770e+03,-1.601537271015060696e+03,-1.703285103133790926e+03,9.484992027282714844e+00,-6.884268522262573242e-01,-7.649187743663787842e-02,2.810000000000000000e+02
-1.829061117731159811e+03,-2.477803943979190990e+03,-1.725943969992134953e+03,-1.887885657797152135e+03,-2.689558840019854415e+03,-2.521963882761445348e+03,-1.599981026133758860e+03,-1.702497556640463245e+03,9.484992027282714844e+00,-6.884268522262573242e-01,-7.649187743663787842e-02,2.820000000000000000e+02
-1.825528091545490952e+03,-2.477238181271786743e+03,-1.725533806133752478e+03,-1.885689906697444030e+03,-2.685445905905408381e+03,-2.519150130805003755e+03,-1.597504100939183900e+03,-1.700308278915199026e+03,9.484992027282714844e+00,-6.884268522262573242e-01,-7.649187743663787842e-02,2.830000000000000000e+02
-1.822180836438623828e+03,-2.476269762254593843e+03,-1.725665826526158980e+03,-1.884133954919232110e+03,-2.681475603768360088e+03,-2.516304348063264115e+03,-1.594392203689232019e+03,-1.698033438918493630e+03,9.484992027282714844e+00,-6.884268522262573242e-01,-7.649187743663787842e-02,2.840000000000000000e+02
-1.818736637286785026e+03,-2.474108112356965648e+03,-1.725391969034033991e+03,-1.882705271950047063e+03,-2.677716296360642446e+03,-2.514275813768151238e+03,-1.590856854366121979e+03,-1.696970675594284330e+03,9.484992027282714844e+00,-6.884268522262573242e-01,-7.649187743663787842e-02,2.850000000000000000e+02
-1.814425725903607599e+03,-2.470445111270879806e+03,-1.724141760818937200e+03,-1.880957329622036923e+03,-2.674366017288115472e+03,-2.513252629994439303e+03,-1.587037562659036894e+03,-1.697350665504530753e+03,9.484992027282714844e+00,-6.884268522262573242e-01,-7.649187743663787842e-02,2.860000000000000000e+02
-1.808334123581520544e+03,-2.466112708385601309e+03,-1.722074813352631281e+03,-1.879049046033033846e+03,-2.671245498017796308e+03,-2.512519418558373673e+03,-1.583107550224524630e+03,-1.698002006043269830e+03,9.484992027282714844e+00,-6.884268522262573242e-01,-7.649187743663787842e-02,2.870000000000000000e+02
-1.800010133879516843e+03,-2.462822319276197049e+03,-1.719716982924673630e+03,-1.877495133866876586e+03,-2.667610523673623902e+03,-2.510891903241208183e+03,-1.579327704489023972e+03,-1.697083493610171899e+03,9.484992027282714844e+00,-6.884268522262573242e-01,-7.649187743663787842e-02,2.880000000000000000e+02
-1.789999343706051832e+03,-2.461892837221228092e+03,-1.717310266557810110e+03,-1.876442601596220356e+03,-2.662596609561543573e+03,-2.507488897067115886e+03,-1.575977558642525764e+03,-1.693423911682912603e+03,9.484992027282714844e+00,-6.884268522262573242e-01,-7.649187743663787842e-02,2.890000000000000000e+02
-1.779879804001319826e+03,-2.462917355716879683e+03,-1.714571859666289356e+03,-1.875279333070948496e+03,-2.655969328099459290e+03,-2.502259035187601057e+03,-1.573210351998569422e+03,-1.687454067693965953e+03,9.484992027282714844e+00,-6.884268522262573242e-01,-7.649187743663787842e-02,2.900000000000000000e+02
-1.771576734453914696e+03,-2.463620946360327252e+03,-1.711112957138835782e+03,-1.873021367551907815e+03,-2.648508023281830447e+03,-2.495911949930084575e+03,-1.570926910471064275e+03,-1.680960629531291488e+03,9.484992027282714844e+00,-6.884268522262573242e-01,-7.649187743663787842e-02,2.910000000000000000e+02
-1.766242176298780578e+03,-2.461243462215666113e+03,-1.707059422266287356e+03,-1.869092485485951329e+03,-2.641614430779173745e+03,-2.489372855302975950e+03,-1.568739209092238980e+03,-1.675815216117860473e+03,9.484992027282714844e+00,-6.884268522262573242e-01,-7.649187743663787842e-02,2.920000000000000000e+02
-1.763445834732216554e+03,-2.454437889115165490e+03,-1.703193675811333378e+03,-1.863728543334419101e+03,-2.636374243332131755e+03,-2.483179630086453017e+03,-1.566080771775436915e+03,-1.672674938514576752e+03,9.484992027282714844e+00,-6.884268522262573242e-01,-7.649187743663787842e-02,2.930000000000000000e+02
-1.761387240719386227e+03,-2.444177836733718323e+03,-1.700373447595917241e+03,-1.857672482268198792e+03,-2.632776891422469362e+03,-2.477232991155570744e+03,-1.562453923967927722e+03,-1.670670086037350075e+03,9.484992027282714844e+00,-6.884268522262573242e-01,-7.649187743663787842e-02,2.940000000000000000e+02
-1.758134853946181465e+03,-2.433013940974965408e+03,-1.698693773028146097e+03,-1.851558173206835363e+03,-2.629676423852506105e+03,-2.471027046098645314e+03,-1.557682184674447853e+03,-1.668241975706989251e+03,9.484992027282714844e+00,-6.884268522262573242e-01,-7.649187743663787842e-02,2.950000000000000000e+02
-1.752959253661404318e+03,-2.423398513815787737e+03,-1.697169525378068101e+03,-1.845634826602224393e+03,-2.625501038786184836e+03,-2.464139118007998150e+03,-1.552005566402949626e+03,-1.664372425575844090e+03,9.484992027282714844e+00,-6.884268522262573242e-01,-7.649187743663787842e-02,2.960000000000000000e+02
-1.746622326081165284e+03,-2.416411696862343433e+03,-1.694312266678852438e+03,-1.840014149634703244e+03,-2.619178908753478481e+03,-2.456618211782939397e+03,-1.545962024014996132e+03,-1.659241671863845113e+03,9.484992027282714844e+00,-6.884268522262573242e-01,-7.649187743663787842e-02,2.970000000000000000e+02
-1.740395261859789571e+03,-2.411634304711384175e+03,-1.689188532867860886e+03,-1.835005892863985082e+03,-2.610637326241724622e+03,-2.449000419142352712e+03,-1.540146066480745276e+03,-1.653927812596409240e+03,9.484992027282714844e+00,-6.884268522262573242e-01,-7.649187743663787842e-02,2.980000000000000000e+02
-1.734752505447956082e+03,-2.407852791925890415e+03,-1.682088846245835157e+03,-1.831028793694856176e+03,-2.600645084955792754e+03,-2.441935472945559013e+03,-1.534990705915288345e+03,-1.649513620832281958e+03,9.484992027282714844e+00,-6.884268522262573242e-01,-7.649187743663787842e-02,2.990000000000000000e+02
-1.729027262120299383e+03,-2.403815685955103618e+03,-1.674239559437866546e+03,-1.828127380377986583e+03,-2.590279689337032778e+03,-2.435698430387524695e+03,-1.530627543759509535e+03,-1.646296868669626974e+03,9.484992027282714844e+00,-6.884268522262573242e-01,-7.649187743663787842e-02,3.000000000000000000e+02
-1.722322498011821381e+03,-2.398621037914879707e+03,-1.666838131655823190e+03,-1.825655492736389533e+03,-2.580469253807978021e+03,-2.429945305606316197e+03,-1.526789756706214803e+03,-1.643587370664977698e+03,9.484992027282714844e+00,-6.884268522262573242e-01,-7.649187743663787842e-02,3.010000000000000000e+02
-1.714653552847183164e+03,-2.391860638924901650e+03,-1.660285351360422510e+03,-1.822585452077257742e+03,-2.571854245370902390e+03,-2.423908722106228652e+03,-1.522802974287760208e+03,-1.640144442605675295e+03,9.484992027282714844e+00,-6.884268522262573242e-01,-7.649187743663787842e-02,3.020000000000000000e+02
-1.707038857964394765e+03,-2.383718306017512077e+03,-1.654263770861197827e+03,-1.818246055625731742e+03,-2.564868334818949734e+03,-2.416905835887135709e+03,-1.517820275529792525e+03,-1.634967303110899820e+03,9.484992027282714844e+00,-6.884268522262573242e-01,-7.649187743663787842e-02,3.030000000000000000e+02
-1.700378548867292011e+03,-2.374915576800422969e+03,-1.648453307503093129e+03,-1.812791817327427452e+03,-2.559767164293687074e+03,-2.408807022205043722e+03,-1.511348026959567733e+03,-1.627974368959981348e+03,9.484992027282714844e+00,-6.884268522262573242e-01,-7.649187743663787842e-02,3.040000000000000000e+02
-1.694389729851288621e+03,-2.366325357468643233e+03,-1.643038638492783321e+03,-1.806936434618870180e+03,-2.556451619380940883e+03,-2.400127570613195530e+03,-1.503774268404419672e+03,-1.620108457173450461e+03,9.484992027282714844e+00,-6.884268522262573242e-01,-7.649187743663787842e-02,3.050000000000000000e+02
-1.687906242260372892e+03,-2.358454197021850632e+03,-1.638429040619953867e+03,-1.801222694733799017e+03,-2.554209438802317891e+03,-2.391645099375141854e+03,-1.496416220201970418e+03,-1.612716823060533443e+03,9.484992027282714844e+00,-6.884268522262573242e-01,-7.649187743663787842e-02,3.060000000000000000e+02
-1.680348906424619599e+03,-2.351290986754835558e+03,-1.634507541647657945e+03,-1.795583722572911483e+03,-2.551650670169316982e+03,-2.383795401819135805e+03,-1.490848381278410216e+03,-1.606580615126631983e+03,9.484992027282714844e+00,-6.884268522262573242e-01,-7.649187743663787842e-02,3.070000000000000000e+02
-1.672811191448212639e+03,-2.344703005846055021e+03,-1.630313322561427867e+03,-1.789606777345759838e+03,-2.547057825605138987e+03,-2.376277342462087290e+03,-1.487881524383744818e+03,-1.601332114985374801e+03,9.484992027282714844e+00,-6.884268522262573242e-01,-7.649187743663787842e-02,3.080000000000000000e+02
-1.667479054895113904e+03,-2.338884117360863911e+03,-1.624669995859255096e+03,-1.783132589530709083e+03,-2.539103894278784537e+03,-2.368190370856856134e+03,-1.486969154912617796e+03,-1.595790418164579023e+03,9.484992027282714844e+00,-6.884268522262573242e-01,-7.649187743663787842e-02,3.090000000000000000e+02
-1.665788790099361904e+03,-2.334172466794488628e+03,-1.617251817794568069e+03,-1.776475683126410786e+03,-2.527562991564250297e+03,-2.358649463478846883e+03,-1.486557184598648064e+03,-1.588976598313736531e+03,9.484992027282714844e+00,-6.884268522262573242e-01,-7.649187743663787842e-02,3.100000000000000000e+02
-1.667130268453558074e+03,-2.330268152988236125e+03,-1.609021813965208594e+03,-1.770004875878063558e+03,-2.513507268014480360e+03,-2.347425350272602373e+03,-1.485121367947795079e+03,-1.580925707806315359e+03,9.484992027282714844e+00,-6.884268522262573242e-01,-7.649187743663787842e-02,3.110000000000000000e+02
-1.669382097266427309e+03,-2.325759230561704499e+03,-1.601523901903695105e+03,-1.763597016835728937e+03,-2.498747791821701867e+03,-2.335093494402096439e+03,-1.482064171286505143e+03,-1.572564888575905798e+03,9.484992027282714844e+00,-6.884268522262573242e-01,-3.824593871831893921e-02,3.120000000000000000e+02
-1.670680873939748381e+03,-2.318810129225465062e+03,-1.595619721817592108e+03,-1.756682390423682136e+03,-2.484802104059818248e+03,-2.322568372661455669e+03,-1.477810472537234546e+03,-1.564811732332355859e+03,9.484992027282714844e+00,-6.884268522262573242e-01,-3.824593871831893921e-02,3.130000000000000000e+02
-1.670574823915796742e+03,-2.308702430877732240e+03,-1.590809620634841394e+03,-1.748946837602465166e+03,-2.472088019061164232e+03,-2.310441107163487686e+03,-1.473173976420986946e+03,-1.557811460129670650e+03,9.484992027282714844e+00,-6.884268522262573242e-01,-3.824593871831893921e-02,3.140000000000000000e+02
-1.669498980397183459e+03,-2.296784230838778967e+03,-1.585719949827621349e+03,-1.740939861630830364e+03,-2.459952328292191851e+03,-2.298719146566731069e+03,-1.468661461647422129e+03,-1.551049734217177956e+03,9.484992027282714844e+00,-6.884268522262573242e-01,-3.824593871831893921e-02,3.150000000000000000e+02
-1.667454904017938134e+03,-2.285661779511347504e+03,-1.579238978657732105e+03,-1.733818475700350518e+03,-2.447482754047301569e+03,-2.287154376202076492e+03,-1.464304556748358209e+03,-1.544140160684204602e+03,9.484992027282714844e+00,-6.884268522262573242e-01,-3.824593871831893921e-02,3.160000000000000000e+02
-1.663667901952330340e+03,-2.277091283578432012e+03,-1.571259818859242841e+03,-1.728324839947305463e+03,-2.434383259683449523e+03,-2.275751071843315003e+03,-1.459985489423936315e+03,-1.537360889357396218e+03,9.484992027282714844e+00,-6.884268522262573242e-01,-3.824593871831893921e-02,3.170000000000000000e+02
-1.657724968747645789e+03,-2.270421793427167358e+03,-1.562511931616037600e+03,-1.723964837042632098e+03,-2.421168788209177819e+03,-2.264864128015811275e+03,-1.455743506419344385e+03,-1.531306761991620760e+03,9.484992027282714844e+00,-6.884268522262573242e-01,-3.824593871831893921e-02,3.180000000000000000e+02
-1.650720152690920713e+03,-2.263083164959935857e+03,-1.553853855846428587e+03,-1.719265859787888530e+03,-2.408558780242007742e+03,-2.254772306602585559e+03,-1.451676454231338312e+03,-1.526029892866871705e+03,9.484992027282714844e+00,-6.884268522262573242e-01,-3.824593871831893921e-02,3.190000000000000000e+02
-1.644691044316827629e+03,-2.252717595203007477e+03,-1.545746063948528445e+03,-1.712948600065010396e+03,-2.396686018060466267e+03,-2.245211044154882075e+03,-1.447593898770380974e+03,-1.520654508021661968e+03,9.484992027282714844e+00,-6.884268522262573242e-01,-3.824593871831893921e-02,3.200000000000000000e+02
-1.640563067300719013e+03,-2.239022914297926036e+03,-1.538219834114045398e+03,-1.704933314580033311e+03,-2.384854766545467555e+03,-2.235426390189347330e+03,-1.442931359385160249e+03,-1.513985538163681895e+03,9.484992027282714844e+00,-6.884268522262573242e-01,-3.824593871831893921e-02,3.210000000000000000e+02
-1.636803678002815104e+03,-2.223722310035772352e+03,-1.531099050898324094e+03,-1.696256999536978128e+03,-2.372027176261674867e+03,-2.224749042868137167e+03,-1.437186575407611144e+03,-1.505563196734608255e+03,9.484992027282714844e+00,-6.884268522262573242e-01,-3.824593871831893921e-02,3.220000000000000000e+02
-1.630632138164277876e+03,-2.208911570599997958e+03,-1.524115597297190789e+03,-1.688023418888195010e+03,-2.357568389743732041e+03,-2.213099018542807244e+03,-1.430517755573714567e+03,-1.496087049077652864e+03,9.484992027282714844e+00,-6.884268522262573242e-01,-3.824593871831893921e-02,3.230000000000000000e+02
-1.620971897830393118e+03,-2.195492525119501352e+03,-1.516907272577446520e+03,-1.680426389877482052e+03,-2.341651655348285203e+03,-2.200905547249411939e+03,-1.423832809702078521e+03,-1.486751445814822546e+03,9.484992027282714844e+00,-6.884268522262573242e-01,-3.824593871831893921e-02,3.240000000000000000e+02
-1.610164904720614686e+03,-2.183062268122531350e+03,-1.509125034942792809e+03,-1.672731986201242762e+03,-2.325096019548315780e+03,-2.188561433779869276e+03,-1.418108817017248384e+03,-1.478138715866751227e+03,9.484992027282714844e+00,-6.884268522262573242e-01,-3.824593871831893921e-02,3.250000000000000000e+02
-1.602322839955637392e+03,-2.170995973507957387e+03,-1.500703341572045929e+03,-1.664131121867051206e+03,-2.308854648744418682e+03,-2.176035537235376978e+03,-1.413478688512003373e+03,-1.469780788449377269e+03,9.484992027282714844e+00,-6.884268522262573242e-01,-3.824593871831893921e-02,3.260000000000000000e+02
-1.599509053017785163e+03,-2.159323039424176386e+03,-1.492011054436502491e+03,-1.654586915316296654e+03,-2.293538610119402620e+03,-2.163078227434401470e+03,-1.408993423385388724e+03,-1.460830178425562053e+03,9.484992027282714844e+00,-6.884268522262573242e-01,-3.824593871831893921e-02,3.270000000000000000e+02
-1.599352257749905448e+03,-2.148473157205819916e+03,-1.483612454634506776e+03,-1.644927349468501689e+03,-2.279202475587328081e+03,-2.149765878620102740e+03,-1.403446302821826066e+03,-1.451142393197581669e+03,9.484992027282714844e+00,-6.884268522262573242e-01,-3.824593871831893921e-02,3.280000000000000000e+02
-1.596564906738915397e+03,-2.138366720940336108e+03,-1.475787788282715155e+03,-1.636214923039862924e+03,-2.265460897431486046e+03,-2.136741242888589113e+03,-1.396608015803661601e+03,-1.441649281533318344e+03,9.484992027282714844e+00,-6.884268522262573242e-01,-3.824593871831893921e-02,3.290000000000000000e+02
-1.587140942956664958e+03,-2.128048993554873505e+03,-1.468294135770348930e+03,-1.629005007886335989e+03,-2.251876871637742624e+03,-2.124822295410146126e+03,-1.389679922179437654e+03,-1.433601715182363478e+03,9.484992027282714844e+00,-6.884268522262573242e-01,-3.824593871831893921e-02,3.300000000000000000e+02
-1.571439292388617559e+03,-2.116396096779554227e+03,-1.460643035404100374e+03,-1.623015382604352453e+03,-2.238408443092367634e+03,-2.114304170106302081e+03,-1.384369640397893136e+03,-1.427379147357193915e+03,9.484992027282714844e+00,-6.884268522262573242e-01,-3.824593871831893921e-02,3.310000000000000000e+02
-1.553451461924310479e+03,-2.103136457426605375e+03,-1.452614876635538621e+03,-1.617281205912063115e+03,-2.225581285557263982e+03,-2.104599739838745791e+03,-1.381285392218131619e+03,-1.421989631037464960e+03,9.484992027282714844e+00,-6.884268522262573242e-01,-3.824593871831893921e-02,3.320000000000000000e+02
-1.537170590877070481e+03,-2.089046363550774913e+03,-1.444457021801663359e+03,-1.610590774123892288e+03,-2.214144568514530874e+03,-2.094546035087676955e+03,-1.379129832299117197e+03,-1.415754445045444299e+03,9.523238182067871094e+00,-6.501809358596801758e-01,-3.824593871831893921e-02,3.330000000000000000e+02
-1.523561322176037720e+03,-2.075086762479876597e+03,-1.436545114804230707e+03,-1.602014574594255919e+03,-2.204367353226487012e+03,-2.083120772826994198e+03,-1.375561933162976175e+03,-1.407586170389305607e+03,9.523238182067871094e+00,-6.501809358596801758e-01,-3.824593871831893921e-02,3.340000000000000000e+02
-1.510752385711711668e+03,-2.061417657832766054e+03,-1.428883806405438918e+03,-1.591404959902634346e+03,-2.195533549814836988e+03,-2.070029065010626255e+03,-1.369052496678313219e+03,-1.397773540430298453e+03,9.523238182067871094e+00,-6.501809358596801758e-01,-3.824593871831893921e-02,3.350000000000000000e+02
-1.496798479872577445e+03,-2.047399253217924525e+03,-1.421033143828034781e+03,-1.579645895274676832e+03,-2.186126343006785646e+03,-2.055786985749092764e+03,-1.360083246057330598e+03,-1.387672800129062125e+03,9.523238182067871094e+00,-6.501809358596801758e-01,-3.824593871831893921e-02,3.360000000000000000e+02
-1.482036304870526692e+03,-2.032605122245355687e+03,-1.412583402903335354e+03,-1.568352953823433381e+03,-2.174645547344134684e+03,-2.041329544781534878e+03,-1.350612399622058092e+03,-1.378651901684974746e+03,9.523238182067871094e+00,-6.501809358596801758e-01,-3.824593871831893921e-02,3.370000000000000000e+02
-1.468818235953932799e+03,-2.017710814046333098e+03,-1.403649840584031381e+03,-1.558977272146196810e+03,-2.160454906660861980e+03,-2.027441354716283968e+03,-1.342336768639384445e+03,-1.371168601472881846e+03,9.523238182067871094e+00,-6.501809358596801758e-01,-3.824593871831893921e-02,3.380000000000000000e+02
-1.459171345748609838e+03,-2.004145486351393629e+03,-1.394772907645673058e+03,-1.551803751003769776e+03,-2.144027076336775735e+03,-2.014347810795388796e+03,-1.335400023684547705e+03,-1.364620419257376398e+03,9.523238182067871094e+00,-6.501809358596801758e-01,-3.824593871831893921e-02,3.390000000000000000e+02
-1.452853578619792188e+03,-1.992658877722561556e+03,-1.386239088790763162e+03,-1.545604988649522511e+03,-2.126507580270319522e+03,-2.001681824720054010e+03,-1.328695651554669212e+03,-1.357910988660857583e+03,9.523238182067871094e+00,-6.501809358596801758e-01,-3.824593871831893921e-02,3.400000000000000000e+02
-1.447635708329386489e+03,-1.982184690850749575e+03,-1.377542982012055518e+03,-1.538337567337601740e+03,-2.109040173324295210e+03,-1.988811070150436990e+03,-1.321286799043335577e+03,-1.350175435816111076e+03,9.523238182067871094e+00,-6.501809358596801758e-01,-3.824593871831893921e-02,3.410000000000000000e+02
-1.441333231662476237e+03,-1.970264548596388067e+03,-1.367676065917444930e+03,-1.528453877935497530e+03,-2.092334550300061437e+03,-1.975294364221120532e+03,-1.313392673728301133e+03,-1.341154750593188282e+03,9.523238182067871094e+00,-6.501809358596801758e-01,-3.824593871831893921e-02,3.420000000000000000e+02
-1.433549864574485355e+03,-1.954872913417126256e+03,-1.356122716271678655e+03,-1.515861570220670728e+03,-2.076583208965950234e+03,-1.961127999130387707e+03,-1.305929970113850686e+03,-1.331094593322179890e+03,9.523238182067871094e+00,-6.501809358596801758e-01,-3.824593871831893921e-02,3.430000000000000000e+02
-1.425578511925631574e+03,-1.936115067695438029e+03,-1.343638558130372303e+03,-1.501836317588391694e+03,-2.061560576081053114e+03,-1.946595888696380825e+03,-1.299167912791584058e+03,-1.320383685073068818e+03,9.523238182067871094e+00,-6.501809358596801758e-01,-3.824593871831893921e-02,3.440000000000000000e+02
-1.418759980815851350e+03,-1.916286947904554381e+03,-1.331939951316773659e+03,-1.488044254490562253e+03,-2.046783207259050869e+03,-1.931892279903806866e+03,-1.291999348321393654e+03,-1.309239025202481571e+03,9.523238182067871094e+00,-6.501809358596801758e-01,-3.824593871831893921e-02,3.450000000000000000e+02
-1.412956077164051067e+03,-1.898225136515521399e+03,-1.322412734109053645e+03,-1.475498493183504706e+03,-2.031728906843237610e+03,-1.916894203035262080e+03,-1.282685807747771833e+03,-1.297617836466309200e+03,9.523238182067871094e+00,-6.501809358596801758e-01,-3.824593871831893921e-02,3.460000000000000000e+02
-1.406480532242572735e+03,-1.883353907981139855e+03,-1.314930128169312638e+03,-1.464210967711857165e+03,-2.016108170666285559e+03,-1.901312588026502453e+03,-1.270401528352049809e+03,-1.285359512289300028e+03,9.523238182067871094e+00,-6.501809358596801758e-01,-3.824593871831893921e-02,3.470000000000000000e+02
-1.397404790620763606e+03,-1.870986034009309151e+03,-1.307870798085051774e+03,-1.453607050151444582e+03,-2.000045924717307116e+03,-1.885066642819710069e+03,-1.256065011643290291e+03,-1.272443424816042807e+03,9.523238182067871094e+00,-6.501809358596801758e-01,-3.824593871831893921e-02,3.480000000000000000e+02
-1.385037811442940892e+03,-1.859220781344584793e+03,-1.299372602145597511e+03,-1.443144890187129477e+03,-1.984029756959554106e+03,-1.868487348276512421e+03,-1.241658904433711314e+03,-1.259175408520033670e+03,9.523238182067871094e+00,-6.501809358596801758e-01,-3.824593871831893921e-02,3.490000000000000000e+02
-1.370455793582410024e+03,-1.846431251584429901e+03,-1.288714871145912412e+03,-1.432572980400148708e+03,-1.968664141739841625e+03,-1.852134980115838516e+03,-1.228733959350895248e+03,-1.246148806144106402e+03,9.523238182067871094e+00,-6.501809358596801758e-01,-3.824593871831893921e-02,3.500000000000000000e+02
-1.355851128943997082e+03,-1.832099471590097892e+03,-1.276607905662896883e+03,-1.421754289504560120e+03,-1.954423926087071777e+03,-1.836405163971018055e+03,-1.217506265434226634e+03,-1.233956305703382441e+03,9.523238182067871094e+00,-6.501809358596801758e-01,-3.824593871831893921e-02,3.510000000000000000e+02
-1.343274542073956809e+03,-1.816620214856218126e+03,-1.264214037449999296e+03,-1.410443931280812649e+03,-1.941558239991827577e+03,-1.821306661180973379e+03,-1.207260443653668517e+03,-1.222832302430526397e+03,9.523238182067871094e+00,-6.501809358596801758e-01,-3.824593871831893921e-02,3.520000000000000000e+02
-1.333607607686132724e+03,-1.800637505298384440e+03,-1.251902873201952843e+03,-1.398375294138216987e+03,-1.930092501478712620e+03,-1.806592253417036773e+03,-1.197430919675181030e+03,-1.212490383297361859e+03,9.523238182067871094e+00,-6.501809358596801758e-01,-3.824593871831893921e-02,3.530000000000000000e+02
-1.326283679628769278e+03,-1.784638904118834489e+03,-1.238961974828382836e+03,-1.385599647458047457e+03,-1.919773658528854185e+03,-1.792053750780832615e+03,-1.188151158465878098e+03,-1.202278443977621919e+03,9.523238182067871094e+00,-6.501809358596801758e-01,-3.824593871831893921e-02,3.540000000000000000e+02
-1.319809475149633272e+03,-1.768963375046173496e+03,-1.224553825046084057e+03,-1.372701455172428268e+03,-1.909985832481341959e+03,-1.777669538895861024e+03,-1.179791353210242960e+03,-1.191573631492702816e+03,9.523238182067871094e+00,-6.501809358596801758e-01,-3.824593871831893921e-02,3.550000000000000000e+02
-1.312744365385887249e+03,-1.753890589746236401e+03,-1.209011952806934914e+03,-1.360615828586159296e+03,-1.899862780444618693e+03,-1.763516972860058104e+03,-1.172174933587506985e+03,-1.180203342903652128e+03,9.523238182067871094e+00,-6.501809358596801758e-01,-3.824593871831893921e-02,3.560000000000000000e+02
-1.304543317386143599e+03,-1.739568223429793761e+03,-1.194208051451212668e+03,-1.350137942856199970e+03,-1.888698644362045343e+03,-1.749635416536065804e+03,-1.164470945987047344e+03,-1.168660944289644249e+03,9.523238182067871094e+00,-6.501809358596801758e-01,-3.824593871831893921e-02,3.570000000000000000e+02
-1.295706163775767436e+03,-1.725910216379114445e+03,-1.182547107222616660e+03,-1.341486850387885625e+03,-1.876426055904263876e+03,-1.736047140119628693e+03,-1.155971072192256088e+03,-1.158006789200369212e+03,9.561484336853027344e+00,-5.354431271553039551e-01,-3.824593871831893921e-02,3.580000000000000000e+02
-1.287067573040236311e+03,-1.712678976526250835e+03,-1.175366543810077928e+03,-1.334221196116415285e+03,-1.863769817130909814e+03,-1.722899559012205827e+03,-1.146954567557760583e+03,-1.149474115323984734e+03,9.561484336853027344e+00,-5.354431271553039551e-01,-3.824593871831893921e-02,3.590000000000000000e+02
-1.278757153838985232e+03,-1.699678277229384548e+03,-1.172059409740008505e+03,-1.327515682548781569e+03,-1.851919241111406791e+03,-1.710508696216549197e+03,-1.138711590513887813e+03,-1.143918642985076531e+03,9.561484336853027344e+00,-5.354431271553039551e-01,-3.824593871831893921e-02,3.600000000000000000e+02
-1.269772937213126170e+03,-1.686787138885707009e+03,-1.170629646141092053e+03,-1.320601282597856198e+03,-1.841947006114975693e+03,-1.699189163535437274e+03,-1.132653162044123519e+03,-1.141369189914698381e+03,9.561484336853027344e+00,-5.354431271553039551e-01,-3.824593871831893921e-02,3.610000000000000000e+02
-1.258746760630848485e+03,-1.673814126749962725e+03,-1.169170717030007381e+03,-1.313160548657656591e+03,-1.834361749722535251e+03,-1.689020782921580576e+03,-1.129323172496141069e+03,-1.140969204930604292e+03,9.561484336853027344e+00,-5.354431271553039551e-01,-3.824593871831893921e-02,3.620000000000000000e+02
-1.245440474168317678e+03,-1.660502595910215405e+03,-1.167034817333614683e+03,-1.305559634950584723e+03,-1.829002592285723495e+03,-1.679833901118816357e+03,-1.128173436964400253e+03,-1.141422958379633201e+03,9.561484336853027344e+00,-5.354431271553039551e-01,-3.824593871831893921e-02,3.630000000000000000e+02
-1.231645177108835014e+03,-1.646935082158625391e+03,-1.164800419681704170e+03,-1.298840259760957451e+03,-1.825190749168420552e+03,-1.671497351848828657e+03,-1.128187725672803708e+03,-1.141715879972013454e+03,9.561484336853027344e+00,-5.354431271553039551e-01,-3.824593871831893921e-02,3.640000000000000000e+02
-1.220432700003581658e+03,-1.634031993649337437e+03,-1.163234901885447698e+03,-1.294393729471296865e+03,-1.821944912650707465e+03,-1.664255645437320482e+03,-1.128673418396550005e+03,-1.141625018092920754e+03,9.561484336853027344e+00,-5.354431271553039551e-01,-3.824593871831893921e-02,3.650000000000000000e+02
-1.214082277708612082e+03,-1.623439167333993055e+03,-1.162305628624789279e+03,-1.293321241824131903e+03,-1.818180063076038550e+03,-1.658717736242140290e+03,-1.129527920138741592e+03,-1.141641578447342226e+03,9.561484336853027344e+00,-5.354431271553039551e-01,-3.824593871831893921e-02,3.660000000000000000e+02
-1.212304671851469948e+03,-1.616484042009300765e+03,-1.161156538415034447e+03,-1.295711340486426479e+03,-1.812953844245447499e+03,-1.655383683769821801e+03,-1.130909268353944753e+03,-1.142379903118349375e+03,9.561484336853027344e+00,-5.354431271553039551e-01,-3.824593871831893921e-02,3.670000000000000000e+02
-1.212286234919370145e+03,-1.612883106954416462e+03,-1.158988593870594968e+03,-1.300293533708502309e+03,-1.805775315299936210e+03,-1.654065868420743300e+03,-1.132776746545489686e+03,-1.143975787251033807e+03,9.561484336853027344e+00,-5.354431271553039551e-01,-3.824593871831893921e-02,3.680000000000000000e+02
-1.210553658318350017e+03,-1.610426458272947002e+03,-1.155914665195280122e+03,-1.304831928542712376e+03,-1.796836203563170784e+03,-1.653745072281622015e+03,-1.134743932734427744e+03,-1.145961650591461193e+03,9.561484336853027344e+00,-5.354431271553039551e-01,-3.824593871831893921e-02,3.690000000000000000e+02
-1.205135486579837789e+03,-1.606211743708726772e+03,-1.152915580410980510e+03,-1.307180988468479427e+03,-1.786959095907532856e+03,-1.653072663334498884e+03,-1.136271856377160020e+03,-1.147663216892950231e+03,9.561484336853027344e+00,-5.354431271553039551e-01,-3.824593871831893921e-02,3.700000000000000000e+02
-1.196339076792404740e+03,-1.598642753976295808e+03,-1.150915537441092965e+03,-1.306393640617378423e+03,-1.777204103847374427e+03,-1.651139439161140217e+03,-1.136929650462817335e+03,-1.148694969985755051e+03,9.561484336853027344e+00,-5.354431271553039551e-01,-3.824593871831893921e-02,3.710000000000000000e+02
-1.185842402853619660e+03,-1.588582236521737514e+03,-1.149851296647671688e+03,-1.303105883320243038e+03,-1.768306120817748933e+03,-1.647845783860779420e+03,-1.136500545660983789e+03,-1.149064084246726452e+03,9.561484336853027344e+00,-5.354431271553039551e-01,-3.824593871831893921e-02,3.720000000000000000e+02
-1.175270172172238290e+03,-1.578637743830663567e+03,-1.148600002661105236e+03,-1.298870867750633352e+03,-1.760249104590554680e+03,-1.643545299122017923e+03,-1.134936209726233983e+03,-1.148789643297539897e+03,9.561484336853027344e+00,-5.354431271553039551e-01,-3.824593871831893921e-02,3.730000000000000000e+02
-1.165567119723465566e+03,-1.571092751979508193e+03,-1.145803625289112688e+03,-1.294878531606184424e+03,-1.752270676929018464e+03,-1.638332258483297664e+03,-1.132259032250143036e+03,-1.147446938189160392e+03,9.561484336853027344e+00,-5.354431271553039551e-01,-3.824593871831893921e-02,3.740000000000000000e+02
-1.157369705062155163e+03,-1.566130103085725068e+03,-1.140816871662733092e+03,-1.291014723665163274e+03,-1.743370140801533125e+03,-1.631697431805896713e+03,-1.128453798121243153e+03,-1.144147052268368043e+03,9.561484336853027344e+00,-5.354431271553039551e-01,-3.824593871831893921e-02,3.750000000000000000e+02
-1.151423454692796440e+03,-1.561733371415185047e+03,-1.133998023109223368e+03,-1.286004861167244144e+03,-1.733042054303781470e+03,-1.622910644393685743e+03,-1.123365789906733426e+03,-1.138077240251102012e+03,9.561484336853027344e+00,-5.354431271553039551e-01,-3.824593871831893921e-02,3.760000000000000000e+02
-1.148199788612807197e+03,-1.555233302099311004e+03,-1.126259643466371472e+03,-1.278550656975457059e+03,-1.721735191514943608e+03,-1.611751971550507960e+03,-1.116667945174948045e+03,-1.129200084565822408e+03,9.561484336853027344e+00,-5.354431271553039551e-01,-3.824593871831893921e-02,3.770000000000000000e+02
-1.147049075801286790e+03,-1.545183320335021563e+03,-1.118426425609924991e+03,-1.268537350450911845e+03,-1.710637577408507696e+03,-1.598858043827022584e+03,-1.107993047068223859e+03,-1.118524463517003596e+03,9.561484336853027344e+00,-5.354431271553039551e-01,-3.824593871831893921e-02,3.780000000000000000e+02
-1.146040578346928896e+03,-1.532133458776003408e+03,-1.110930673994311746e+03,-1.257290174643824685e+03,-1.700849041285963040e+03,-1.585329923310137474e+03,-1.097213330191095793e+03,-1.107675620109488818e+03,9.561484336853027344e+00,-5.354431271553039551e-01,-3.824593871831893921e-02,3.790000000000000000e+02
-1.143065389109568287e+03,-1.517887158197298049e+03,-1.103862812217411147e+03,-1.246643410672986647e+03,-1.692516048160473247e+03,-1.571985160112849826e+03,-1.084709978909976144e+03,-1.098064931423269627e+03,9.561484336853027344e+00,-5.354431271553039551e-01,-3.824593871831893921e-02,3.800000000000000000e+02
-1.137404370977192229e+03,-1.504040721335186163e+03,-1.097090122263373587e+03,-1.237606598515274982e+03,-1.684586301540470458e+03,-1.558970632633441710e+03,-1.071456856510459147e+03,-1.090290397536116416e+03,9.561484336853027344e+00,-5.354431271553039551e-01,-3.824593871831893921e-02,3.810000000000000000e+02
-1.130253361960385519e+03,-1.491013250681216050e+03,-1.090308365208021087e+03,-1.229779027041221525e+03,-1.675397800136181559e+03,-1.546040747820840807e+03,-1.058856695630700642e+03,-1.084184822596417234e+03,9.561484336853027344e+00,-5.354431271553039551e-01,-3.824593871831893921e-02,3.820000000000000000e+02
-1.123567376475475612e+03,-1.478181243374661108e+03,-1.083181537168683008e+03,-1.221963447719937903e+03,-1.663693380150007442e+03,-1.533108227653769063e+03,-1.048359125477835732e+03,-1.079338408167372563e+03,9.561484336853027344e+00,-5.354431271553039551e-01,-3.824593871831893921e-02,3.830000000000000000e+02
-1.118244711617480789e+03,-1.464777838584965593e+03,-1.075658580061655812e+03,-1.213318403963029368e+03,-1.649324370034603362e+03,-1.520426404367899522e+03,-1.040898810623261625e+03,-1.075482516918905503e+03,9.561484336853027344e+00,-5.354431271553039551e-01,-3.824593871831893921e-02,3.840000000000000000e+02
-1.113391597274970991e+03,-1.450687254443655320e+03,-1.068216340863082451e+03,-1.203917490997009963e+03,-1.633172165588098551e+03,-1.508198094090493669e+03,-1.036292152832415013e+03,-1.072309803133307469e+03,9.446745872497558594e+00,-6.884268522262573242e-01,-3.824593871831893921e-02,3.850000000000000000e+02
-1.107390664695494252e+03,-1.436526383561497369e+03,-1.061642345296902931e+03,-1.194231623256875082e+03,-1.616415985684577663e+03,-1.496058127024906980e+03,-1.032953780513513266e+03,-1.068978996915977859e+03,9.446745872497558594e+00,-6.884268522262573242e-01,-3.824593871831893921e-02,3.860000000000000000e+02
-1.099680635429926724e+03,-1.423078711940702760e+03,-1.056349619349671912e+03,-1.184181205481014331e+03,-1.599705869930034169e+03,-1.483043966444520947e+03,-1.028359127045659079e+03,-1.064001344656456467e+03,9.446745872497558594e+00,-6.884268522262573242e-01,-3.824593871831893921e-02,3.870000000000000000e+02
-1.091447814652558463e+03,-1.410648504952713665e+03,-1.051761378853520682e+03,-1.172865632565039277e+03,-1.582787447720395448e+03,-1.468206668513019849e+03,-1.020295329467600368e+03,-1.055920242389939176e+03,9.446745872497558594e+00,-6.884268522262573242e-01,-3.824593871831893921e-02,3.880000000000000000e+02
-1.084553376381642920e+03,-1.398855678127609508e+03,-1.046382553334607792e+03,-1.159362970270218284e+03,-1.564792419542055768e+03,-1.451391590027858911e+03,-1.008211498576720487e+03,-1.044354152804279011e+03,9.446745872497558594e+00,-6.884268522262573242e-01,-3.824593871831893921e-02,3.890000000000000000e+02
-1.079809118525430222e+03,-1.386941572668054960e+03,-1.038623529695159505e+03,-1.143827113334182513e+03,-1.544987507508444651e+03,-1.433516975641112595e+03,-9.935971427889833194e+02,-1.030443016930824797e+03,9.446745872497558594e+00,-6.884268522262573242e-01,-3.824593871831893921e-02,3.900000000000000000e+02
-1.076355328918759369e+03,-1.374241640134519002e+03,-1.027781597849849732e+03,-1.127709684526150568e+03,-1.523488315655758925e+03,-1.416065637735755899e+03,-9.788959102186895507e+02,-1.016169887791895690e+03,9.446745872497558594e+00,-6.884268522262573242e-01,-3.824593871831893921e-02,3.910000000000000000e+02
-1.072702351896612981e+03,-1.360443228760762395e+03,-1.014459804298875952e+03,-1.112763273543345122e+03,-1.501472173358001555e+03,-1.400146140968793134e+03,-9.657226144552048481e+02,-1.003079907702711580e+03,9.446745872497558594e+00,-6.884268522262573242e-01,-3.824593871831893921e-02,3.920000000000000000e+02
-1.068251534137386216e+03,-1.345517311252887794e+03,-1.000196625104007580e+03,-1.099714356150902859e+03,-1.480704213409620934e+03,-1.385819148226890320e+03,-9.539022560276380318e+02,-9.915322985910588613e+02,9.446745872497558594e+00,-6.884268522262573242e-01,-3.824593871831893921e-02,3.930000000000000000e+02
-1.063632109908452321e+03,-1.329530253591763767e+03,-9.866634700929596420e+02,-1.087853855056688190e+03,-1.462619903866971981e+03,-1.372183581248431665e+03,-9.421950030227044408e+02,-9.810954153090058298e+02,9.446745872497558594e+00,-6.884268522262573242e-01,-3.824593871831893921e-02,3.940000000000000000e+02
-1.059508420556690908e+03,-1.312638979245093651e+03,-9.749639936049229618e+02,-1.075911127062739524e+03,-1.447514096945654728e+03,-1.358138944559067795e+03,-9.299887347882743143e+02,-9.715266143378016750e+02,9.446745872497558594e+00,-6.884268522262573242e-01,-3.824593871831893921e-02,3.950000000000000000e+02
-1.055242076987471592e+03,-1.295339432933193848e+03,-9.653064107450725260e+02,-1.063354670448661636e+03,-1.434355691495901283e+03,-1.343228032930497193e+03,-9.182421040143735809e+02,-9.631777748983172387e+02,9.446745872497558594e+00,-6.884268522262573242e-01,-3.824593871831893921e-02,3.960000000000000000e+02
-1.049065547596491569e+03,-1.278710298606969445e+03,-9.570278868962711840e+02,-1.050897219504993927e+03,-1.421365036300639531e+03,-1.327906708257207356e+03,-9.086318558425889478e+02,-9.563108883771501496e+02,9.446745872497558594e+00,-6.884268522262573242e-01,-3.824593871831893921e-02,3.970000000000000000e+02
-1.039834760031171527e+03,-1.264267808172273817e+03,-9.488875819220302219e+02,-1.039806477520609633e+03,-1.406984935752170713e+03,-1.313042740485871491e+03,-9.016607262716684090e+02,-9.500691630739318043e+02,9.446745872497558594e+00,-6.884268522262573242e-01,-3.824593871831893921e-02,3.980000000000000000e+02
-1.028629673976271079e+03,-1.253294760612778646e+03,-9.395875338947025739e+02,-1.030750322676125961e+03,-1.390643870048398639e+03,-1.299088586293624758e+03,-8.956487100560136696e+02,-9.423771593451310764e+02,9.446745872497558594e+00,-6.884268522262573242e-01,-3.824593871831893921e-02,3.990000000000000000e+02
-1.018409538315859891e+03,-1.245963356705748765e+03,-9.284016742725750646e+02,-1.023232325995593783e+03,-1.372903876054815555e+03,-1.285651766932472128e+03,-8.877955353971726709e+02,-9.312047722732540933e+02,9.446745872497558594e+00,-6.884268522262573242e-01,-3.824593871831893921e-02,4.000000000000000000e+02
-1.011755627843944922e+03,-1.240884503586715709e+03,-9.156096047582748270e+02,-1.015994834305529594e+03,-1.355021657421954387e+03,-1.271848976517453593e+03,-8.765032165915224596e+02,-9.162206817261985634e+02,9.446745872497558594e+00,-6.884268522262573242e-01,-3.824593871831893921e-02,4.010000000000000000e+02
-1.008619795321730180e+03,-1.235561547031670671e+03,-9.024170188249431703e+02,-1.007878663123867454e+03,-1.338296622626834505e+03,-1.257141288715095470e+03,-8.628578141322279862e+02,-8.993583597740273490e+02,9.446745872497558594e+00,-6.884268522262573242e-01,-3.824593871831893921e-02,4.020000000000000000e+02
-1.006135959172008825e+03,-1.227587922442833133e+03,-8.903330077411380898e+02,-9.983737879623167828e+02,-1.323590718644382378e+03,-1.241916869823131037e+03,-8.498457337820982502e+02,-8.837225244960052351e+02,9.446745872497558594e+00,-6.884268522262573242e-01,-3.824593871831893921e-02,4.030000000000000000e+02
-1.000716845574300123e+03,-1.215828947183384344e+03,-8.803509231898162852e+02,-9.875697247179866736e+02,-1.311187045686507190e+03,-1.227298369257414834e+03,-8.399234100742853570e+02,-8.716825489492248380e+02,9.446745872497558594e+00,-6.884268522262573242e-01,-3.824593871831893921e-02,4.040000000000000000e+02
-9.906665990961814714e+02,-1.200798095785626401e+03,-8.724348207642308353e+02,-9.758080308095818509e+02,-1.300901650790332496e+03,-1.214318929543740524e+03,-8.330501647220689847e+02,-8.636156924685842569e+02,9.446745872497558594e+00,-6.884268522262573242e-01,-3.824593871831893921e-02,4.050000000000000000e+02
-9.772170788448045187e+02,-1.184073326010948904e+03,-8.656085282598332924e+02,-9.634442634305864885e+02,-1.292234110910475465e+03,-1.203134659327798545e+03,-8.268427088741018451e+02,-8.580878635372264398e+02,9.446745872497558594e+00,-6.884268522262573242e-01,-3.824593871831893921e-02,4.060000000000000000e+02
-9.633956868714276425e+02,-1.167352355003808043e+03,-8.585392868729670681e+02,-9.508161162292258268e+02,-1.284417704511873580e+03,-1.192876415469716449e+03,-8.185968809606497416e+02,-8.530271939630010820e+02,9.446745872497558594e+00,-6.884268522262573242e-01,-3.824593871831893921e-02,4.070000000000000000e+02
-9.518909695443512646e+02,-1.151890301024591054e+03,-8.502399003927719150e+02,-9.382603810462560432e+02,-1.276411795835173507e+03,-1.182200956496144954e+03,-8.073790156246534480e+02,-8.468512005078573566e+02,9.446745872497558594e+00,-6.884268522262573242e-01,-3.824593871831893921e-02,4.080000000000000000e+02
-9.435903670043776401e+02,-1.138502297245014688e+03,-8.404846335411577911e+02,-9.260669871834445530e+02,-1.267002325393667434e+03,-1.170088790684599189e+03,-7.945180350427663143e+02,-8.388848183798302216e+02,9.446745872497558594e+00,-6.884268522262573242e-01,-3.824593871831893921e-02,4.090000000000000000e+02
-9.375611462484171170e+02,-1.127672476429114795e+03,-8.297587341553398801e+02,-9.144517414000974895e+02,-1.255146485258502707e+03,-1.156340146730115521e+03,-7.823524660238772412e+02,-8.291866445152616052e+02,9.446745872497558594e+00,-6.884268522262573242e-01,-3.824593871831893921e-02,4.100000000000000000e+02
-9.320701889527276762e+02,-1.119316126058470218e+03,-8.188396675781868908e+02,-9.036325607115131788e+02,-1.240453635974968165e+03,-1.141512877115120318e+03,-7.724976861896238916e+02,-8.182514366773498296e+02,9.446745872497558594e+00,-6.884268522262573242e-01,-3.824593871831893921e-02,4.110000000000000000e+02
-9.257464250370276204e+02,-1.112385560927580627e+03,-8.083151245812291563e+02,-8.939190065839945873e+02,-1.223476891192804487e+03,-1.126473403471753954e+03,-7.650241052314422632e+02,-8.068343171060610075e+02,9.446745872497558594e+00,-6.884268522262573242e-01,-3.824593871831893921e-02,4.120000000000000000e+02
-9.182479607021230095e+02,-1.104988322178784074e+03,-7.983736990430782043e+02,-8.856387383364158268e+02,-1.205525886928456202e+03,-1.111948723969656839e+03,-7.589081186265582346e+02,-7.958154889623692725e+02,9.446745872497558594e+00,-6.884268522262573242e-01,-3.824593871831893921e-02,4.130000000000000000e+02
-9.102543041661658663e+02,-1.095350160968394903e+03,-7.889888856744180430e+02,-8.788717851121982676e+02,-1.188034123464379718e+03,-1.098358649532017807e+03,-7.530249644321404503e+02,-7.859654818987989984e+02,9.446745872497558594e+00,-6.884268522262573242e-01,-3.824593871831893921e-02,4.140000000000000000e+02
-9.028913355318923095e+02,-1.083048698154090289e+03,-7.802633304519358717e+02,-8.731993637595451219e+02,-1.171876734475132253e+03,-1.085919435568319386e+03,-7.467414584698994986e+02,-7.776606017620058537e+02,9.446745872497558594e+00,-6.884268522262573242e-01,-3.824593871831893921e-02,4.150000000000000000e+02
-8.968724928778199228e+02,-1.069412066247945631e+03,-7.725199015847017563e+02,-8.677365586716391590e+02,-1.157102499414041631e+03,-1.074771860271622245e+03,-7.398194467697703658e+02,-7.707345678488502472e+02,9.484992027282714844e+00,-6.884268522262573242e-01,-1.529837548732757568e-01,4.160000000000000000e+02
-8.918570928333601842e+02,-1.056544973256429557e+03,-7.659577821785699143e+02,-8.614585217550788911e+02,-1.143232619520485059e+03,-1.064895344245375782e+03,-7.320521979808668220e+02,-7.645597646014082329e+02,9.484992027282714844e+00,-6.884268522262573242e-01,-1.529837548732757568e-01,4.170000000000000000e+02
-8.865632188720537670e+02,-1.045699880470235712e+03,-7.601656194521324323e+02,-8.535532071210357117e+02,-1.129850257176688501e+03,-1.055845496857754370e+03,-7.231599101423687443e+02,-7.582983772007191874e+02,9.484992027282714844e+00,-6.884268522262573242e-01,-1.529837548732757568e-01,4.180000000000000000e+02
-8.796816185090924591e+02,-1.036378724018569756e+03,-7.540402979889220205e+02,-8.435692007197621933e+02,-1.117008197234707950e+03,-1.046663105791731141e+03,-7.130408152139789308e+02,-7.512070227772890121e+02,9.484992027282714844e+00,-6.884268522262573242e-01,-1.529837548732757568e-01,4.190000000000000000e+02
-8.709590585690280022e+02,-1.026943544149866739e+03,-7.463992997493280654e+02,-8.313963516558619631e+02,-1.105148700522966465e+03,-1.036252809810657709e+03,-7.020674117067853786e+02,-7.429113504430456487e+02,9.484992027282714844e+00,-6.884268522262573242e-01,-1.529837548732757568e-01,4.200000000000000000e+02
-8.615534992092398170e+02,-1.016147026981842828e+03,-7.369235375976054456e+02,-8.172994577974943695e+02,-1.094621283560518350e+03,-1.024083365435742508e+03,-6.911187079054082005e+02,-7.335844166890510678e+02,9.484992027282714844e+00,-6.884268522262573242e-01,-1.529837548732757568e-01,4.210000000000000000e+02
-8.533083834993240089e+02,-1.004193373998493371e+03,-7.266217070759109902e+02,-8.020746290199385840e+02,-1.085173482005734968e+03,-1.010632042961736715e+03,-6.813126765534459537e+02,-7.239110418820473569e+02,9.484992027282714844e+00,-6.884268522262573242e-01,-1.529837548732757568e-01,4.220000000000000000e+02
-8.475135395369804883e+02,-9.924438530080019518e+02,-7.172730601341581860e+02,-7.870824585762634342e+02,-1.075810084447859481e+03,-9.970884752586971445e+02,-6.736239985706472453e+02,-7.147554886981065465e+02,9.484992027282714844e+00,-6.884268522262573242e-01,-1.529837548732757568e-01,4.230000000000000000e+02
-8.441630607823485661e+02,-9.821623101243972087e+02,-7.101466325646347286e+02,-7.738536323511343653e+02,-1.065200774784220812e+03,-9.844821780492611651e+02,-6.685260685102111893e+02,-7.066610546370993688e+02,9.484992027282714844e+00,-6.884268522262573242e-01,-1.529837548732757568e-01,4.240000000000000000e+02
-8.422421013404230052e+02,-9.735118120909421577e+02,-7.049984874768488226e+02,-7.633401673520259010e+02,-1.052425866681272055e+03,-9.729838430374766176e+02,-6.656990893278150452e+02,-6.995162916569342997e+02,9.484992027282714844e+00,-6.884268522262573242e-01,-1.529837548732757568e-01,4.250000000000000000e+02
-8.406304290978187055e+02,-9.656256772603949230e+02,-7.002119438130525850e+02,-7.553549908771162791e+02,-1.037581383891886162e+03,-9.620223456208032076e+02,-6.639158916117567060e+02,-6.926855316048936402e+02,9.484992027282714844e+00,-6.884268522262573242e-01,-1.529837548732757568e-01,4.260000000000000000e+02
-8.387763891581132611e+02,-9.574831511336587937e+02,-6.940462805928502803e+02,-7.487410033006128742e+02,-1.021816870194601506e+03,-9.510725139477340235e+02,-6.613351578827705453e+02,-6.855413795553495220e+02,9.484992027282714844e+00,-6.884268522262573242e-01,-1.529837548732757568e-01,4.270000000000000000e+02
-8.366725072245822048e+02,-9.486380728784347411e+02,-6.860188987000917678e+02,-7.422132212742421871e+02,-1.006749947788333429e+03,-9.402929675183804648e+02,-6.563083641951125173e+02,-6.779766488203513291e+02,9.484992027282714844e+00,-6.884268522262573242e-01,-1.529837548732757568e-01,4.280000000000000000e+02
-8.343780790814023476e+02,-9.391857430431289231e+02,-6.772867505887090829e+02,-7.351925615855197975e+02,-9.936183461143273234e+02,-9.303635659020092135e+02,-6.483360648399270758e+02,-6.704636687365336911e+02,9.484992027282714844e+00,-6.884268522262573242e-01,-1.529837548732757568e-01,4.290000000000000000e+02
-8.317101555867809566e+02,-9.292475733787441641e+02,-6.697133927952106660e+02,-7.279265767104238876e+02,-9.826977042988614812e+02,-9.217045073059698552e+02,-6.384618714714890757e+02,-6.635944057565350249e+02,9.484992027282714844e+00,-6.884268522262573242e-01,-1.529837548732757568e-01,4.300000000000000000e+02
-8.284461745866981346e+02,-9.187238958620573612e+02,-6.644120260849999795e+02,-7.208686713119532214e+02,-9.733122086787989247e+02,-9.138954906775220479e+02,-6.286448164559940324e+02,-6.574877373297931626e+02,9.484992027282714844e+00,-6.884268522262573242e-01,-1.529837548732757568e-01,4.310000000000000000e+02
-8.247387908702239656e+02,-9.076555805351163144e+02,-6.609632814434196462e+02,-7.140285812150466427e+02,-9.643360077420097696e+02,-9.059053143180335610e+02,-6.204452647276443713e+02,-6.515780905858264305e+02,9.484992027282714844e+00,-6.884268522262573242e-01,-1.529837548732757568e-01,4.320000000000000000e+02
-8.212311106717879738e+02,-8.967265821604523808e+02,-6.578763094076944071e+02,-7.069948221940967414e+02,-9.548189467443680769e+02,-8.969101517052877170e+02,-6.140080769538253662e+02,-6.449777767568066338e+02,9.484992027282714844e+00,-6.884268522262573242e-01,-1.529837548732757568e-01,4.330000000000000000e+02
-8.186326599925969276e+02,-8.871619753976240190e+02,-6.537750103837533970e+02,-6.995697885216891336e+02,-9.444042987500733943e+02,-8.869272159865540743e+02,-6.081508787134944214e+02,-6.371414972113864224e+02,9.484992027282714844e+00,-6.884268522262573242e-01,-1.529837548732757568e-01,4.340000000000000000e+02
-8.170317561117026344e+02,-8.798691876920911454e+02,-6.482428419048651449e+02,-6.922517394432261426e+02,-9.333835737369745402e+02,-8.767417689270732808e+02,-6.014413636827930532e+02,-6.283381208676580627e+02,9.484992027282714844e+00,-6.884268522262573242e-01,-1.529837548732757568e-01,4.350000000000000000e+02
-8.155527568198208428e+02,-8.745276650797816274e+02,-6.417014785082096751e+02,-6.859129481174322791e+02,-9.224025066655217415e+02,-8.672972876000026190e+02,-5.933134700355094537e+02,-6.195848982181623796e+02,9.484992027282714844e+00,-6.884268522262573242e-01,-1.529837548732757568e-01,4.360000000000000000e+02
-8.127593990569876041e+02,-8.695672315003164385e+02,-6.346529182212243541e+02,-6.808953678067045985e+02,-9.119744047124886492e+02,-8.591269355323383934e+02,-5.843245060951703636e+02,-6.120735870920748312e+02,9.484992027282714844e+00,-6.119350194931030273e-01,-3.824593871831893921e-02,4.370000000000000000e+02
-8.076153970354091598e+02,-8.632558506334944468e+02,-6.271516910388461383e+02,-6.764491153424014556e+02,-9.020797341585584945e+02,-8.521765060089219332e+02,-5.755179344243501873e+02,-6.064447193724772660e+02,9.484992027282714844e+00,-6.119350194931030273e-01,-3.824593871831893921e-02,4.380000000000000000e+02
-8.003284768611852087e+02,-8.550576773048458108e+02,-6.190129163145791154e+02,-6.711827886014575597e+02,-8.921845759888005887e+02,-8.459282542939513405e+02,-5.676580964956938260e+02,-6.023678614684718013e+02,9.484992027282714844e+00,-6.119350194931030273e-01,-3.824593871831893921e-02,4.390000000000000000e+02
-7.924218193299032009e+02,-8.460852651456680178e+02,-6.104290420467782496e+02,-6.642046819247677831e+02,-8.817724441389136700e+02,-8.395894273743624581e+02,-5.610338776714334017e+02,-5.987031970104960692e+02,9.484992027282714844e+00,-6.119350194931030273e-01,-3.824593871831893921e-02,4.400000000000000000e+02
-7.859328577594360468e+02,-8.382097087205947901e+02,-6.022392511112982447e+02,-6.558988634169704710e+02,-8.709913337507709912e+02,-8.323065324947010595e+02,-5.557703266315211295e+02,-5.941721935748939813e+02,9.484992027282714844e+00,-6.119350194931030273e-01,-3.824593871831893921e-02,4.410000000000000000e+02
-7.822784072801018738e+02,-8.325757877150053901e+02,-5.954820289269550813e+02,-6.475985961316973771e+02,-8.607682433661902905e+02,-8.235061409666263899e+02,-5.520174201234290194e+02,-5.881438130194294445e+02,9.484992027282714844e+00,-6.119350194931030273e-01,-3.824593871831893921e-02,4.420000000000000000e+02
-7.815713206692762469e+02,-8.287798667108422705e+02,-5.906170423966618728e+02,-6.404595969997239990e+02,-8.521119590105563475e+02,-8.132955768577676281e+02,-5.496304435195377209e+02,-5.810319234409669207e+02,9.484992027282714844e+00,-6.119350194931030273e-01,-3.824593871831893921e-02,4.430000000000000000e+02
-7.827825013052649865e+02,-8.253359291582537480e+02,-5.871379764386665556e+02,-6.345898766898494614e+02,-8.451250538240665264e+02,-8.026097248248452161e+02,-5.477156179003131911e+02,-5.740216409548643242e+02,9.484992027282714844e+00,-6.119350194931030273e-01,-3.824593871831893921e-02,4.440000000000000000e+02
-7.844659000945875960e+02,-8.208805573191070835e+02,-5.839200652047302356e+02,-6.291968981083791732e+02,-8.386787208096261566e+02,-7.928418627697719785e+02,-5.447496535508657871e+02,-5.682868773703778515e+02,9.484992027282714844e+00,-6.119350194931030273e-01,-3.824593871831893921e-02,4.450000000000000000e+02
-7.854239199751118576e+02,-8.149860273173403584e+02,-5.799807666000101563e+02,-6.235004477006764319e+02,-8.312188168906263854e+02,-7.850947098048736734e+02,-5.394625184024707778e+02,-5.642383866834848050e+02,9.484992027282714844e+00,-6.119350194931030273e-01,-3.824593871831893921e-02,4.460000000000000000e+02
-7.849259690191702248e+02,-8.079667672031068832e+02,-5.750145822773961299e+02,-6.174777259103220786e+02,-8.220861323937979250e+02,-7.795533776891220441e+02,-5.318048651997723937e+02,-5.613230385024944553e+02,9.484992027282714844e+00,-6.119350194931030273e-01,-3.824593871831893921e-02,4.470000000000000000e+02
-7.826485824104643143e+02,-8.001018647496671292e+02,-5.693435769675290885e+02,-6.117517287182399741e+02,-8.121090351329667101e+02,-7.754150230989803276e+02,-5.230639821146462509e+02,-5.584574265126252612e+02,9.484992027282714844e+00,-6.119350194931030273e-01,-3.824593871831893921e-02,4.480000000000000000e+02
-7.787163114359518659e+02,-7.912249965075552609e+02,-5.634545511732940213e+02,-6.068141528308892703e+02,-8.028214384309310390e+02,-7.713689095894178536e+02,-5.149016841342890984e+02,-5.546772748638877601e+02,9.484992027282714844e+00,-6.119350194931030273e-01,-3.824593871831893921e-02,4.490000000000000000e+02
-7.738905463628284451e+02,-7.811145934452933943e+02,-5.575829130212741802e+02,-6.023824229875785932e+02,-7.949614115021399812e+02,-7.662264150399469145e+02,-5.081194834392154007e+02,-5.494985075757995219e+02,9.484992027282714844e+00,-6.119350194931030273e-01,-3.824593871831893921e-02,4.500000000000000000e+02
-7.695748307750727690e+02,-7.701719218082994303e+02,-5.516631035693148988e+02,-5.975119399989930571e+02,-7.876722156314299355e+02,-7.593162624664057603e+02,-5.022380101016715344e+02,-5.428696412227129713e+02,9.484992027282714844e+00,-6.119350194931030273e-01,-3.824593871831893921e-02,4.510000000000000000e+02
-7.673028589050118171e+02,-7.595198210345834013e+02,-5.455922518267373107e+02,-5.913612795120388910e+02,-7.792242064881854731e+02,-7.505765057067694670e+02,-4.962179026730750593e+02,-5.350050073521515515e+02,9.484992027282714844e+00,-6.119350194931030273e-01,-3.824593871831893921e-02,4.520000000000000000e+02
-7.678291138457059333e+02,-7.502430433612453271e+02,-5.395225689155827240e+02,-5.839226339598126287e+02,-7.686534172089068306e+02,-7.405075649439352219e+02,-4.895878453086811533e+02,-5.264078262213824928e+02,9.484992027282714844e+00,-6.119350194931030273e-01,-3.824593871831893921e-02,4.530000000000000000e+02
-7.704500462794619580e+02,-7.424387949863948961e+02,-5.339012341301061042e+02,-5.760900493536535123e+02,-7.568327659107214913e+02,-7.300897976968394687e+02,-4.828785170384473986e+02,-5.179920156977959778e+02,9.484992027282714844e+00,-6.119350194931030273e-01,-3.824593871831893921e-02,4.540000000000000000e+02
-7.732193766185841923e+02,-7.350475638267371323e+02,-5.291759258812039661e+02,-5.689997379487731450e+02,-7.459656222652479300e+02,-7.205384021464524267e+02,-4.769693576298541302e+02,-5.108873075302392408e+02,9.484992027282714844e+00,-6.119350194931030273e-01,-3.824593871831893921e-02,4.550000000000000000e+02
-7.740729699111593618e+02,-7.267279079212962642e+02,-5.253500176737575202e+02,-5.631703672741195987e+02,-7.378703776132247185e+02,-7.127718668415554930e+02,-4.720472099624735165e+02,-5.057682898423574898e+02,9.484992027282714844e+00,-6.119350194931030273e-01,-3.824593871831893921e-02,4.560000000000000000e+02
-7.721066366937482144e+02,-7.170342008971749692e+02,-5.217359816907874119e+02,-5.581206499092222657e+02,-7.324808028219449625e+02,-7.067915000644661632e+02,-4.672499263227682604e+02,-5.021519279495098544e+02,9.484992027282714844e+00,-6.119350194931030273e-01,-3.824593871831893921e-02,4.570000000000000000e+02
-7.680454903740783266e+02,-7.068098426927645050e+02,-5.171918408795397681e+02,-5.527587912014805624e+02,-7.278141314151553161e+02,-7.014843707423092383e+02,-4.613917902088460323e+02,-4.984199508734182018e+02,9.484992027282714844e+00,-6.119350194931030273e-01,-3.824593871831893921e-02,4.580000000000000000e+02
-7.635154982409243303e+02,-6.974047275670582167e+02,-5.107875623271174845e+02,-5.462282249104537186e+02,-7.214455988695990527e+02,-6.952113506984442211e+02,-4.541118638136526897e+02,-4.928200857326401092e+02,9.484992027282714844e+00,-6.119350194931030273e-01,-3.824593871831893921e-02,4.590000000000000000e+02
-7.596790057433148604e+02,-6.894075115142841241e+02,-5.024738605565462422e+02,-5.385360143483760567e+02,-7.123048008872094670e+02,-6.869099024006368381e+02,-4.463499567934968582e+02,-4.847662917033560461e+02,9.484992027282714844e+00,-6.119350194931030273e-01,-3.824593871831893921e-02,4.600000000000000000e+02
-7.562983648697170338e+02,-6.820473703756942996e+02,-4.932310656690010546e+02,-5.304785051366325206e+02,-7.013707949301301596e+02,-6.768826644629286875e+02,-4.396548102892315910e+02,-4.753234835254927475e+02,9.484992027282714844e+00,-6.119350194931030273e-01,-3.824593871831893921e-02,4.610000000000000000e+02
-7.519573125256674757e+02,-6.738222757397286387e+02,-4.845201884206635441e+02,-5.229625032895201002e+02,-6.907432309461114528e+02,-6.665684134228017683e+02,-4.349023632136550077e+02,-4.663747476490509598e+02,9.484992027282714844e+00,-6.884268522262573242e-01,-7.649187743663787842e-02,4.620000000000000000e+02
-7.453002715049656217e+02,-6.637799783006425969e+02,-4.773893063868047193e+02,-5.163068499151443120e+02,-6.818849689045616742e+02,-6.574008759242069573e+02,-4.315210150569880625e+02,-4.591399118504866692e+02,9.484992027282714844e+00,-6.884268522262573242e-01,-7.649187743663787842e-02,4.630000000000000000e+02
-7.363165608086054590e+02,-6.522981533528086402e+02,-4.718704281068407909e+02,-5.100768904344481598e+02,-6.745152145625979756e+02,-6.496849875134591912e+02,-4.278710043004148247e+02,-4.533332340022825520e+02,9.484992027282714844e+00,-6.884268522262573242e-01,-7.649187743663787842e-02,4.640000000000000000e+02
-7.266366624467243582e+02,-6.406857355833776637e+02,-4.670924885667377566e+02,-5.035028585061716058e+02,-6.670901540818429112e+02,-6.424563882044328693e+02,-4.224382257792262862e+02,-4.476819225724752869e+02,9.484992027282714844e+00,-6.884268522262573242e-01,-7.649187743663787842e-02,4.650000000000000000e+02
-7.185654302329528491e+02,-6.300035613502882370e+02,-4.619669288798742173e+02,-4.960670450795582838e+02,-6.584452437572424515e+02,-6.344311307719672186e+02,-4.148773022609593681e+02,-4.412896232539533230e+02,9.484992027282714844e+00,-6.884268522262573242e-01,-7.649187743663787842e-02,4.660000000000000000e+02
-7.135443265772142922e+02,-6.202021902799797317e+02,-4.559037251181059673e+02,-4.878032996513206854e+02,-6.491221265344263429e+02,-6.251854967497065445e+02,-4.061508249438659277e+02,-4.345661756203228379e+02,9.484992027282714844e+00,-6.884268522262573242e-01,-7.649187743663787842e-02,4.670000000000000000e+02
-7.111697613406961409e+02,-6.103532918479727414e+02,-4.490682357931129900e+02,-4.792253798621794658e+02,-6.411181578707955850e+02,-6.155340016603881850e+02,-3.977949496771456097e+02,-4.288809551359855732e+02,9.484992027282714844e+00,-6.884268522262573242e-01,-7.649187743663787842e-02,4.680000000000000000e+02
-7.095361879821269895e+02,-5.997078929276166264e+02,-4.420854302161835676e+02,-4.710895016228397481e+02,-6.361881569220558958e+02,-6.068491827744173861e+02,-3.909567743478031616e+02,-4.252811074224609911e+02,9.484992027282714844e+00,-6.884268522262573242e-01,-7.649187743663787842e-02,4.690000000000000000e+02
-7.067097308876245734e+02,-5.885517397775819290e+02,-4.354991184561130240e+02,-4.641423565133347893e+02,-6.341726128730106211e+02,-5.999977636394046385e+02,-3.858513006104810756e+02,-4.234405810070527423e+02,9.484992027282714844e+00,-6.884268522262573242e-01,-7.649187743663787842e-02,4.700000000000000000e+02
-7.023266405934492695e+02,-5.780560950170734031e+02,-4.293938033228879476e+02,-4.588143753778535938e+02,-6.328644220385119752e+02,-5.947888816977429087e+02,-3.818255195850945256e+02,-4.217332211074044608e+02,9.484992027282714844e+00,-6.884268522262573242e-01,-7.649187743663787842e-02,4.710000000000000000e+02
-6.981026718483390141e+02,-5.692950965439605397e+02,-4.233921752417137441e+02,-4.548588902377539398e+02,-6.296015812199584616e+02,-5.902471686868955203e+02,-3.777880534249859465e+02,-4.183045353809095559e+02,9.484992027282714844e+00,-6.884268522262573242e-01,-7.649187743663787842e-02,4.720000000000000000e+02
-6.967170737482651930e+02,-5.623648829720038975e+02,-4.169695399622504510e+02,-4.512387735610482196e+02,-6.232360334349513096e+02,-5.853019848597792816e+02,-3.726927292373547971e+02,-4.122162071469314242e+02,9.484992027282714844e+00,-6.884268522262573242e-01,-7.649187743663787842e-02,4.730000000000000000e+02
-6.997274478996268954e+02,-5.564010422024632589e+02,-4.098445907457221438e+02,-4.466270860467800503e+02,-6.148190190895581964e+02,-5.793061323763073460e+02,-3.659432712360473943e+02,-4.038269449454769529e+02,9.484992027282714844e+00,-6.884268522262573242e-01,-7.649187743663787842e-02,4.740000000000000000e+02
-7.060272940406629232e+02,-5.504122381465998615e+02,-4.021953885909510973e+02,-4.403859447120107689e+02,-6.065224237312745572e+02,-5.721646889084956911e+02,-3.576838229653153576e+02,-3.943430454798686924e+02,9.484992027282714844e+00,-6.884268522262573242e-01,-7.649187743663787842e-02,4.750000000000000000e+02
-7.121665658038973561e+02,-5.440917892960884501e+02,-3.945858973977692585e+02,-4.332433719049521414e+02,-5.998393520229974456e+02,-5.642237822717318068e+02,-3.488743147305651746e+02,-3.850866811842718107e+02,9.484992027282714844e+00,-6.884268522262573242e-01,-7.649187743663787842e-02,4.760000000000000000e+02
-7.145530150738394468e+02,-5.378438270022597862e+02,-3.876779112053571339e+02,-4.268656674979584977e+02,-5.946090386157840157e+02,-5.560693288059758288e+02,-3.409733642223879997e+02,-3.770127930134830194e+02,9.484992027282714844e+00,-6.884268522262573242e-01,-7.649187743663787842e-02,4.770000000000000000e+02
-7.120244960845583364e+02,-5.320829526959460054e+02,-3.819138362202817802e+02,-4.224310695212520841e+02,-5.895065189036041602e+02,-5.482366029428660568e+02,-3.352117850117282387e+02,-3.705540699104961959e+02,9.484992027282714844e+00,-6.884268522262573242e-01,-7.649187743663787842e-02,4.780000000000000000e+02
-7.068044173746209253e+02,-5.265664638873463446e+02,-3.773452389959904281e+02,-4.193939447433447185e+02,-5.833176821239277388e+02,-5.408825315971701002e+02,-3.318256305573715963e+02,-3.655876136861865575e+02,9.484992027282714844e+00,-6.884268522262573242e-01,-7.649187743663787842e-02,4.790000000000000000e+02
-7.029748346909717611e+02,-5.204486169680358216e+02,-3.736650726593896366e+02,-4.156912383448600394e+02,-5.758098620117656310e+02,-5.336693459388715155e+02,-3.298176415023643813e+02,-3.614379634765518290e+02,9.484992027282714844e+00,-6.884268522262573242e-01,-7.649187743663787842e-02,4.800000000000000000e+02
-7.034847120008363390e+02,-5.130101297241324119e+02,-3.703760552037514913e+02,-4.094135045674834146e+02,-5.675947134844232096e+02,-5.260623276050781669e+02,-3.275388540199923000e+02,-3.570769240983761961e+02,9.484992027282714844e+00,-6.884268522262573242e-01,-7.649187743663787842e-02,4.810000000000000000e+02
-7.079641765021210631e+02,-5.043449385971393895e+02,-3.669756310561473356e+02,-4.005180086739590024e+02,-5.593552155654077751e+02,-5.178699625066610679e+02,-3.237585890803379129e+02,-3.516438658644552788e+02,9.484992027282714844e+00,-6.884268522262573242e-01,-7.649187743663787842e-02,4.820000000000000000e+02
-7.130645820262926691e+02,-4.953320773788789211e+02,-3.630856826070024681e+02,-3.909698285086756187e+02,-5.512609931751316026e+02,-5.095040054665723801e+02,-3.184189642026833553e+02,-3.450316094138679546e+02,9.484992027282714844e+00,-6.884268522262573242e-01,-7.649187743663787842e-02,4.830000000000000000e+02
-7.149933000401123309e+02,-4.869119166102240115e+02,-3.585175210908694226e+02,-3.830982907903882051e+02,-5.430358823815622600e+02,-5.016138227167632522e+02,-3.124554789580270153e+02,-3.380100587639550440e+02,9.484992027282714844e+00,-6.884268522262573242e-01,-7.649187743663787842e-02,4.840000000000000000e+02
-7.122058499161108784e+02,-4.793533140814556646e+02,-3.532773319852601617e+02,-3.776441609721202894e+02,-5.344524245643339100e+02,-4.943906240096486044e+02,-3.068456713713825366e+02,-3.316345036141678975e+02,9.484992027282714844e+00,-6.884268522262573242e-01,-7.649187743663787842e-02,4.850000000000000000e+02
-7.062173073737542381e+02,-4.721942993688800243e+02,-3.475171646888624082e+02,-3.732846791732329166e+02,-5.256977391435107165e+02,-4.872634358385809037e+02,-3.017454380465928807e+02,-3.263620750832951671e+02,9.484992027282714844e+00,-6.884268522262573242e-01,-7.649187743663787842e-02,4.860000000000000000e+02
-7.001171057228408472e+02,-4.648861163951083881e+02,-3.414458921292053901e+02,-3.680083459016349252e+02,-5.172819597249813341e+02,-4.793881398846474440e+02,-2.964858486843838818e+02,-3.216565340935785571e+02,9.484992027282714844e+00,-6.884268522262573242e-01,-7.649187743663787842e-02,4.870000000000000000e+02
-6.961951348729676283e+02,-4.574727072053851771e+02,-3.352316315212948439e+02,-3.609481824760881636e+02,-5.096203400517811133e+02,-4.705059494624517811e+02,-2.903871712045348659e+02,-3.164711413358307937e+02,9.484992027282714844e+00,-6.884268522262573242e-01,-7.649187743663787842e-02,4.880000000000000000e+02
-6.946010081153008286e+02,-4.505809329502565106e+02,-3.289514426788268793e+02,-3.529325578507736054e+02,-5.026911485646055553e+02,-4.613217524409378711e+02,-2.835639646541850425e+02,-3.101931653322509419e+02,9.523238182067871094e+00,-6.501809358596801758e-01,-7.649187743663787842e-02,4.890000000000000000e+02
-6.938819236566680502e+02,-4.446826203705006719e+02,-3.226082939267987513e+02,-3.453721348837791538e+02,-4.960464929144437747e+02,-4.529910348053966800e+02,-2.769212247184211719e+02,-3.031907947469046576e+02,9.523238182067871094e+00,-6.501809358596801758e-01,-7.649187743663787842e-02,4.900000000000000000e+02
-6.926538056358148197e+02,-4.393548415623859000e+02,-3.161982741679249784e+02,-3.387654077889114888e+02,-4.891365470960448647e+02,-4.461719223438650488e+02,-2.713688993536259204e+02,-2.964847929426446171e+02,9.523238182067871094e+00,-6.501809358596801758e-01,-7.649187743663787842e-02,4.910000000000000000e+02
-6.908843774539997185e+02,-4.333621705484117683e+02,-3.097920702503572556e+02,-3.323863770601512897e+02,-4.816872086893714595e+02,-4.405365303340167884e+02,-2.670753684371213694e+02,-2.908927235295545870e+02,9.523238182067871094e+00,-6.501809358596801758e-01,-7.649187743663787842e-02,4.920000000000000000e+02
-6.897958180405921667e+02,-4.256518637945100636e+02,-3.036023256776180688e+02,-3.253987705759591336e+02,-4.738903319520900368e+02,-4.351690495993182140e+02,-2.635030258587241860e+02,-2.864560681504630111e+02,9.523238182067871094e+00,-6.501809358596801758e-01,-7.649187743663787842e-02,4.930000000000000000e+02
-6.906057743228150230e+02,-4.164315179088545165e+02,-2.980039598112300610e+02,-3.181237452368253571e+02,-4.663401770729799409e+02,-4.294239968267540917e+02,-2.601017245717422384e+02,-2.826087452871176993e+02,9.523238182067871094e+00,-6.501809358596801758e-01,-7.649187743663787842e-02,4.940000000000000000e+02
-6.932688079228544211e+02,-4.073000361690544651e+02,-2.934345704013411478e+02,-3.120435302437742848e+02,-4.597727524536094279e+02,-4.234299402656811253e+02,-2.568192276144964126e+02,-2.787885898499230279e+02,9.523238182067871094e+00,-6.501809358596801758e-01,-7.649187743663787842e-02,4.950000000000000000e+02
-6.963149770961865670e+02,-4.001815171307262062e+02,-2.901459835305311117e+02,-3.084723634579647751e+02,-4.547135853962954570e+02,-4.178430436011103666e+02,-2.538318472658825158e+02,-2.748428733468231258e+02,9.523238182067871094e+00,-6.501809358596801758e-01,-7.649187743663787842e-02,4.960000000000000000e+02
-6.978933113706389122e+02,-3.958996156480006903e+02,-2.879184217807201094e+02,-3.072343113882400303e+02,-4.511601641410766206e+02,-4.131928598059307660e+02,-2.508345447898932434e+02,-2.709206931311487097e+02,9.523238182067871094e+00,-6.501809358596801758e-01,-7.649187743663787842e-02,4.970000000000000000e+02
-6.971101782309843884e+02,-3.936190375509468140e+02,-2.859782598323877210e+02,-3.066995560054858743e+02,-4.484735958454459706e+02,-4.094751113635936690e+02,-2.468343572655799107e+02,-2.671281063166127296e+02,9.523238182067871094e+00,-6.501809358596801758e-01,-7.649187743663787842e-02,4.980000000000000000e+02
-6.944757171202751351e+02,-3.916460831986510129e+02,-2.832929183781561733e+02,-3.051750290899969968e+02,-4.456373839885309280e+02,-4.063094148631053031e+02,-2.409173286017071405e+02,-2.634037392435116089e+02,9.523238182067871094e+00,-6.501809358596801758e-01,-7.649187743663787842e-02,4.990000000000000000e+02
-6.910775090384067880e+02,-3.888471805607437091e+02,-2.791586093562020778e+02,-3.022993272034616439e+02,-4.418346035850865974e+02,-4.033828239249132821e+02,-2.333664708209248602e+02,-2.597157963139311505e+02,9.523238182067871094e+00,-6.501809358596801758e-01,-7.649187743663787842e-02,5.000000000000000000e+02
-6.873240680977887678e+02,-3.854018704387883645e+02,-2.737268649237087175e+02,-2.991152276506002181e+02,-4.370012417675093275e+02,-4.006631007581033828e+02,-2.259702518166930076e+02,-2.562869958564308490e+02,9.523238182067871094e+00,-6.501809358596801758e-01,-7.649187743663787842e-02,5.010000000000000000e+02
-6.825303600837103204e+02,-3.822794419729057154e+02,-2.680508583234659454e+02,-2.968254045849332670e+02,-4.318872894102109967e+02,-3.981846423869765204e+02,-2.210079499295850383e+02,-2.535312013416435093e+02,9.523238182067871094e+00,-6.501809358596801758e-01,-7.649187743663787842e-02,5.020000000000000000e+02
-6.757722148121106329e+02,-3.800332043783344034e+02,-2.635237267272250392e+02,-2.955141249049584076e+02,-4.274668723093859626e+02,-3.957070220255504864e+02,-2.196624538659289101e+02,-2.517250694155309247e+02,9.523238182067871094e+00,-6.501809358596801758e-01,-7.649187743663787842e-02,5.030000000000000000e+02
-6.671040088308982376e+02,-3.781275881058850246e+02,-2.610472361466152051e+02,-2.940882226820249343e+02,-4.241176123825871400e+02,-3.926970635081925138e+02,-2.212152840348533118e+02,-2.507297543031013447e+02,9.523238182067871094e+00,-6.501809358596801758e-01,-7.649187743663787842e-02,5.040000000000000000e+02
-6.577599955336304447e+02,-3.754547883374343655e+02,-2.605124423248048515e+02,-2.914469846877670989e+02,-4.212774517236939573e+02,-3.887462419831626903e+02,-2.236972333564458495e+02,-2.500179108962893224e+02,9.523238182067871094e+00,-6.501809358596801758e-01,-7.649187743663787842e-02,5.050000000000000000e+02
-6.489777366334196813e+02,-3.715116054667441858e+02,-2.609617467109510471e+02,-2.876956395558463555e+02,-4.179309260550517138e+02,-3.840407118162820552e+02,-2.253759900575905704e+02,-2.489735053397266711e+02,9.523238182067871094e+00,-6.501809358596801758e-01,-7.649187743663787842e-02,5.060000000000000000e+02
-6.406125711634688287e+02,-3.670505043278044468e+02,-2.612752303874135578e+02,-2.842224804036477508e+02,-4.135418944921052571e+02,-3.793850417839530564e+02,-2.258040287959775014e+02,-2.472323425810134268e+02,9.523238182067871094e+00,-6.501809358596801758e-01,-7.649187743663787842e-02,5.070000000000000000e+02
-6.310851311595233710e+02,-3.635201684135745381e+02,-2.608411781400513973e+02,-2.825612950017643925e+02,-4.085989921453074203e+02,-3.756718008177722368e+02,-2.256892343771278320e+02,-2.448749073208696245e+02,9.523238182067871094e+00,-6.501809358596801758e-01,-7.649187743663787842e-02,5.080000000000000000e+02
-6.188130482027004291e+02,-3.617749405353156362e+02,-2.597348960492590777e+02,-2.830762281379988963e+02,-4.042579472711349808e+02,-3.732263515055328753e+02,-2.259488515572675169e+02,-2.424144133840945869e+02,9.523238182067871094e+00,-6.501809358596801758e-01,-7.649187743663787842e-02,5.090000000000000000e+02
-6.036032430997286156e+02,-3.612426338531945476e+02,-2.583909425477258992e+02,-2.846282088156231111e+02,-4.013987835396806076e+02,-3.716106966124416431e+02,-2.269065978187672954e+02,-2.405822868560503593e+02,9.523238182067871094e+00,-6.501809358596801758e-01,-7.649187743663787842e-02,5.100000000000000000e+02
-5.864203247367267977e+02,-3.603559878717860556e+02,-2.571799447622947810e+02,-2.854671805366224362e+02,-3.999466456992586245e+02,-3.700474600815191479e+02,-2.282403619726655961e+02,-2.399446991223153418e+02,9.523238182067871094e+00,-6.501809358596801758e-01,-7.649187743663787842e-02,5.110000000000000000e+02
-5.677187144804529453e+02,-3.579186832446557673e+02,-2.562737965239894038e+02,-2.845503814373955720e+02,-3.990285393793478761e+02,-3.680559733741274613e+02,-2.294804145923053511e+02,-2.405063815237499512e+02,9.523238182067871094e+00,-6.501809358596801758e-01,-7.649187743663787842e-02,5.120000000000000000e+02
-5.463451699021684362e+02,-3.542091139468971051e+02,-2.557859922613060917e+02,-2.822203717343099925e+02,-3.977351013458460329e+02,-3.657300727177448607e+02,-2.304180106607495873e+02,-2.415848998096580544e+02,9.523238182067871094e+00,-6.501809358596801758e-01,-7.649187743663787842e-02,5.130000000000000000e+02
-5.206666911953648196e+02,-3.508346772969734957e+02,-2.558576205168756132e+02,-2.797937846557974808e+02,-3.957600423785511339e+02,-3.634844778262545333e+02,-2.310827247363577044e+02,-2.421442024797843260e+02,9.523238182067871094e+00,-6.501809358596801758e-01,-7.649187743663787842e-02,5.140000000000000000e+02
-4.911469848097735849e+02,-3.494355555956472017e+02,-2.564568944600359828e+02,-2.785031774366193531e+02,-3.934054963482089988e+02,-3.616188201409004250e+02,-2.314800923714738019e+02,-2.414374794280629430e+02,9.523238182067871094e+00,-6.501809358596801758e-01,-7.649187743663787842e-02,5.150000000000000000e+02
-4.616716704502296125e+02,-3.503142962800397981e+02,-2.570989543138884983e+02,-2.786576401425772929e+02,-3.910917218132426569e+02,-3.601539787077454093e+02,-2.314917348965395831e+02,-2.395059980268733852e+02,9.523238182067871094e+00,-6.501809358596801758e-01,-7.649187743663787842e-02,5.160000000000000000e+02
-4.377177909037604877e+02,-3.521179759654910413e+02,-2.569373299598332778e+02,-2.795823469947554258e+02,-3.889397124663864815e+02,-3.590172984910404921e+02,-2.310662701597220803e+02,-2.371359421753045353e+02,9.523238182067871094e+00,-6.501809358596801758e-01,-7.649187743663787842e-02,5.170000000000000000e+02
-4.224658046602321519e+02,-3.528160789454977930e+02,-2.553677314003575702e+02,-2.802406888199184323e+02,-3.868305827347958257e+02,-3.582460498417076451e+02,-2.304541559570570826e+02,-2.353144252254264757e+02,9.523238182067871094e+00,-6.501809358596801758e-01,-7.649187743663787842e-02,5.180000000000000000e+02
-4.142093312411720945e+02,-3.511812683185835340e+02,-2.526972534007149989e+02,-2.799823820357296427e+02,-3.848017762209819921e+02,-3.579102271810643288e+02,-2.301731124726966300e+02,-2.346232910039925628e+02,9.523238182067871094e+00,-6.501809358596801758e-01,-7.649187743663787842e-02,5.190000000000000000e+02
-4.075261957216198425e+02,-3.476251979313428819e+02,-2.502037940977261314e+02,-2.788809602163041745e+02,-3.832946637122950051e+02,-3.578508880057424903e+02,-2.306807352643172635e+02,-2.350000456123143522e+02,9.523238182067871094e+00,-6.884268522262573242e-01,-3.824593871831893921e-02,5.200000000000000000e+02
-3.972959354237068510e+02,-3.438342303072240611e+02,-2.493739163170530446e+02,-2.775244357752076212e+02,-3.829298716594239522e+02,-3.575925900148722576e+02,-2.320389915741397999e+02,-2.359357749898690599e+02,9.523238182067871094e+00,-6.884268522262573242e-01,-3.824593871831893921e-02,5.210000000000000000e+02
-3.820389513384589009e+02,-3.415955757973424625e+02,-2.508593142069071291e+02,-2.765388430940356557e+02,-3.839648488214661484e+02,-3.566236941197666965e+02,-2.338717134953817549e+02,-2.368491951935329780e+02,9.523238182067871094e+00,-6.884268522262573242e-01,-3.824593871831893921e-02,5.220000000000000000e+02
-3.638372881725617844e+02,-3.417056891638931120e+02,-2.539976301128308478e+02,-2.762308121088190092e+02,-3.859136240065990933e+02,-3.548330768861042088e+02,-2.356445479283947861e+02,-2.373660968124358988e+02,9.523238182067871094e+00,-6.884268522262573242e-01,-3.824593871831893921e-02,5.230000000000000000e+02
-3.454334612426860076e+02,-3.436254248426876075e+02,-2.572685780330043599e+02,-2.765334900200468837e+02,-3.877038797939003416e+02,-3.527004984039231203e+02,-2.370046694041402588e+02,-2.374336203558532361e+02,9.523238182067871094e+00,-6.884268522262573242e-01,-3.824593871831893921e-02,5.240000000000000000e+02
-3.276014560121743671e+02,-3.459230056699043416e+02,-2.592617789283231104e+02,-2.771568074385322689e+02,-3.883066490645169324e+02,-3.510564251131754645e+02,-2.379051808755511956e+02,-2.373255095947533846e+02,9.523238182067871094e+00,-6.884268522262573242e-01,-3.824593871831893921e-02,5.250000000000000000e+02
-3.092088100115151974e+02,-3.471066452460991059e+02,-2.593834242733473729e+02,-2.777492248772596213e+02,-3.873774397323231824e+02,-3.506035656110616401e+02,-2.384701029394627767e+02,-2.375301638973787703e+02,9.523238182067871094e+00,-6.884268522262573242e-01,-3.824593871831893921e-02,5.260000000000000000e+02
-2.894648299296568439e+02,-3.463683183942430333e+02,-2.578882758341014778e+02,-2.779926636685740959e+02,-3.854167343549379439e+02,-3.515452519434838905e+02,-2.388072150805310230e+02,-2.384768550233729911e+02,9.523238182067871094e+00,-6.884268522262573242e-01,-3.824593871831893921e-02,5.270000000000000000e+02
-2.696584597510804997e+02,-3.439415636194962644e+02,-2.554690303314328048e+02,-2.777002163318529711e+02,-3.833475171263635275e+02,-3.535055543628159285e+02,-2.389918568116954702e+02,-2.401990708884213745e+02,9.523238182067871094e+00,-6.884268522262573242e-01,-3.824593871831893921e-02,5.280000000000000000e+02
-2.524207368388551913e+02,-3.409501708426141704e+02,-2.528910776434859145e+02,-2.769582360968843204e+02,-3.818826155417700647e+02,-3.557137954310283021e+02,-2.392216701669776739e+02,-2.421996542926744951e+02,9.523238182067871094e+00,-6.884268522262573242e-01,-3.824593871831893921e-02,5.290000000000000000e+02
-2.392508151581455422e+02,-3.387963102710273233e+02,-2.508891866287785888e+02,-2.762011762502424972e+02,-3.811932070680013567e+02,-3.573339496021308150e+02,-2.399235058595559167e+02,-2.437287926057388177e+02,9.523238182067871094e+00,-6.884268522262573242e-01,-3.824593871831893921e-02,5.300000000000000000e+02
-2.289016996213003949e+02,-3.383598649504765490e+02,-2.501429306982463459e+02,-2.760626640460450290e+02,-3.810583049801689413e+02,-3.578173098690231200e+02,-2.415862231892269847e+02,-2.443376360769689200e+02,9.523238182067871094e+00,-6.884268522262573242e-01,-3.824593871831893921e-02,5.310000000000000000e+02
-2.183465944800655052e+02,-3.394786341463686767e+02,-2.510759889024138829e+02,-2.769992721659828021e+02,-3.812274911519307352e+02,-3.571461908762858002e+02,-2.443542993747005312e+02,-2.442347873337039346e+02,9.523238182067871094e+00,-6.884268522262573242e-01,-3.824593871831893921e-02,5.320000000000000000e+02
-2.054515859934253967e+02,-3.411247674390669999e+02,-2.535160452198133498e+02,-2.789352498140397074e+02,-3.815680625304294153e+02,-3.558100071075114101e+02,-2.476923866627985262e+02,-2.440642265244659939e+02,9.523238182067871094e+00,-6.884268522262573242e-01,-3.824593871831893921e-02,5.330000000000000000e+02
-1.908406467697423068e+02,-3.422091353685364084e+02,-2.565374669273178370e+02,-2.812238204505429167e+02,-3.818682537394997780e+02,-3.544669983890971707e+02,-2.504409268765912202e+02,-2.442386614399074460e+02,9.523238182067871094e+00,-6.884268522262573242e-01,-3.824593871831893921e-02,5.340000000000000000e+02
-1.773191400369196344e+02,-3.424012117816319005e+02,-2.587594033851546556e+02,-2.829945976434401018e+02,-3.816171049259037318e+02,-3.534786556507406203e+02,-2.513090242346543164e+02,-2.444361714452707020e+02,9.523238182067871094e+00,-6.884268522262573242e-01,-3.824593871831893921e-02,5.350000000000000000e+02
-1.675465625963543062e+02,-3.422876464936598495e+02,-2.590132141785325075e+02,-2.836337883383530425e+02,-3.801401149919456657e+02,-3.526570074764440506e+02,-2.495218537490045492e+02,-2.437819021589557451e+02,9.523238182067871094e+00,-6.884268522262573242e-01,-3.824593871831893921e-02,5.360000000000000000e+02
-1.621137694148055743e+02,-3.427212756048184019e+02,-2.569861453279145280e+02,-2.830324475055294897e+02,-3.771076144393500726e+02,-3.514401465787559573e+02,-2.452174947609837545e+02,-2.416215452724427450e+02,9.523238182067871094e+00,-6.884268522262573242e-01,-3.824593871831893921e-02,5.370000000000000000e+02
-1.595363851376532693e+02,-3.439349581925462189e+02,-2.534326054250759626e+02,-2.814603926873523960e+02,-3.729778686754070804e+02,-3.493636441290345829e+02,-2.393777682810477927e+02,-2.382207557843612449e+02,9.523238182067871094e+00,-6.884268522262573242e-01,-3.824593871831893921e-02,5.380000000000000000e+02
-1.577432129888657073e+02,-3.452473173740290804e+02,-2.497688426618942685e+02,-2.792733120742532265e+02,-3.688847983339328493e+02,-3.464580869263518252e+02,-2.333827194068853714e+02,-2.347365169624608825e+02,9.523238182067871094e+00,-6.884268522262573242e-01,-3.824593871831893921e-02,5.390000000000000000e+02
-1.554527028680076910e+02,-3.456446715765032422e+02,-2.472476136905306703e+02,-2.767721955957276805e+02,-3.659443420950137806e+02,-3.432765304658369132e+02,-2.284651539170135948e+02,-2.324278735822172166e+02,9.523238182067871094e+00,-6.884268522262573242e-01,-3.824593871831893921e-02,5.400000000000000000e+02
-1.523683475124798861e+02,-3.447099842409752455e+02,-2.462354845578938694e+02,-2.743088131094546043e+02,-3.645140638931625290e+02,-3.405574706257266371e+02,-2.253178862888862568e+02,-2.317487937892265109e+02,9.446745872497558594e+00,-7.266727685928344727e-01,-3.824593871831893921e-02,5.410000000000000000e+02
-1.485251096048205000e+02,-3.430133926167618483e+02,-2.460977305548658478e+02,-2.724196737015590770e+02,-3.640392759775895684e+02,-3.387903461957412219e+02,-2.239566713359417918e+02,-2.320806126414272512e+02,9.446745872497558594e+00,-7.266727685928344727e-01,-3.824593871831893921e-02,5.420000000000000000e+02
-1.438735470669553251e+02,-3.415625990355547401e+02,-2.458020513340361504e+02,-2.716959768406468356e+02,-3.636316939970474778e+02,-3.379438565621549060e+02,-2.238221448047279409e+02,-2.322959339901099156e+02,9.446745872497558594e+00,-7.266727685928344727e-01,-3.824593871831893921e-02,5.430000000000000000e+02
-1.385343653621530393e+02,-3.408036405033981282e+02,-2.447815703866608601e+02,-2.723951168803951077e+02,-3.628948931158975029e+02,-3.374912470505823876e+02,-2.240669484544141596e+02,-2.316451330173358656e+02,9.446745872497558594e+00,-7.266727685928344727e-01,-3.824593871831893921e-02,5.440000000000000000e+02
-1.331139141312232823e+02,-3.401266323769959854e+02,-2.433400445273800869e+02,-2.741581348055169656e+02,-3.622817405684145342e+02,-3.367182794991967967e+02,-2.239519613357351773e+02,-2.302442647643028977e+02,9.446745872497558594e+00,-7.266727685928344727e-01,-3.824593871831893921e-02,5.450000000000000000e+02
-1.283916506796940666e+02,-3.384071783190665883e+02,-2.422249341459564675e+02,-2.762140320736543799e+02,-3.626554518240736797e+02,-3.351775536880941218e+02,-2.232004988014232367e+02,-2.288402356916431017e+02,9.446745872497558594e+00,-7.266727685928344727e-01,-3.824593871831893921e-02,5.460000000000000000e+02
-1.245784605638773428e+02,-3.351648863148966484e+02,-2.417486057600635831e+02,-2.780196776298980694e+02,-3.644163691682151693e+02,-3.330468833567774709e+02,-2.221090332207440952e+02,-2.281490451371355448e+02,9.446745872497558594e+00,-7.266727685928344727e-01,-3.824593871831893921e-02,5.470000000000000000e+02
-1.210504688249657193e+02,-3.313036539967015415e+02,-2.413255026192418882e+02,-2.797847390988008556e+02,-3.669561887511881650e+02,-3.311309696632724808e+02,-2.213112866477422358e+02,-2.283550009082591714e+02,9.446745872497558594e+00,-7.266727685928344727e-01,-3.824593871831893921e-02,5.480000000000000000e+02
-1.170724909551991004e+02,-3.286907675639340596e+02,-2.399581581727761659e+02,-2.823014412124975934e+02,-3.689651818997335795e+02,-3.304219608062048792e+02,-2.213121864908061980e+02,-2.291111890608644899e+02,9.446745872497558594e+00,-7.266727685928344727e-01,-3.824593871831893921e-02,5.490000000000000000e+02
-1.128729736870018314e+02,-3.288263317350792931e+02,-2.372955755448492710e+02,-2.860764705995261465e+02,-3.693969621464311786e+02,-3.314438252437921619e+02,-2.221131490231673524e+02,-2.299101283552699897e+02,9.446745872497558594e+00,-7.266727685928344727e-01,-3.824593871831893921e-02,5.500000000000000000e+02
-1.098334785786637440e+02,-3.316724123674357543e+02,-2.342742308071028674e+02,-2.904868599002438714e+02,-3.683092141980414453e+02,-3.338260323347167287e+02,-2.232208729503527138e+02,-2.304474799299714505e+02,9.446745872497558594e+00,-7.266727685928344727e-01,-3.824593871831893921e-02,5.510000000000000000e+02
-1.093331346423110517e+02,-3.356060802132396930e+02,-2.326709205012848543e+02,-2.938353553937558900e+02,-3.668634719934125314e+02,-3.364448220507310907e+02,-2.240531746235992614e+02,-2.307304054464730143e+02,9.446745872497558594e+00,-7.266727685928344727e-01,-3.824593871831893921e-02,5.520000000000000000e+02
-1.112482567597071466e+02,-3.385230582924832561e+02,-2.338869228643761744e+02,-2.944815294094714773e+02,-3.664682138042790029e+02,-3.380768586502235848e+02,-2.244336910065812845e+02,-2.309688198510320944e+02,9.446745872497558594e+00,-7.266727685928344727e-01,-3.824593871831893921e-02,5.530000000000000000e+02
-1.136538151630184075e+02,-3.391963820797773224e+02,-2.379945388656105933e+02,-2.922320495975654921e+02,-3.677765208166711091e+02,-3.381285465659420879e+02,-2.247866532326024753e+02,-2.314304984537848213e+02,9.446745872497558594e+00,-7.266727685928344727e-01,-3.824593871831893921e-02,5.540000000000000000e+02
-1.142469890046777437e+02,-3.378842381855356507e+02,-2.438086436721314385e+02,-2.887958123481930670e+02,-3.703509533182332234e+02,-3.369587778886289016e+02,-2.258661150903517409e+02,-2.323617701887051226e+02,9.446745872497558594e+00,-7.266727685928344727e-01,-3.824593871831893921e-02,5.550000000000000000e+02
-1.122809616407284921e+02,-3.359236193236611143e+02,-2.498031222212375724e+02,-2.868117742902231839e+02,-3.731944880194132566e+02,-3.356296362371176656e+02,-2.282301046066113486e+02,-2.339398086934179446e+02,9.446745872497558594e+00,-7.266727685928344727e-01,-3.824593871831893921e-02,5.560000000000000000e+02
-1.092260612521913572e+02,-3.348709528754698113e+02,-2.549891126701986650e+02,-2.881533774496892875e+02,-3.755554992862489598e+02,-3.353016425730365881e+02,-2.318568898409539543e+02,-2.361859952768500079e+02,9.446745872497558594e+00,-7.266727685928344727e-01,-3.824593871831893921e-02,5.570000000000000000e+02
-1.075489079856706667e+02,-3.358761005323285644e+02,-2.590744698373036954e+02,-2.928211732821691839e+02,-3.772470002761529031e+02,-3.366620592987619602e+02,-2.361681945754589833e+02,-2.388761593674607866e+02,9.446745872497558594e+00,-7.266727685928344727e-01,-3.824593871831893921e-02,5.580000000000000000e+02
-1.087390109992375073e+02,-3.394563904461865604e+02,-2.620218335226709314e+02,-2.992105418694627588e+02,-3.783076090491413197e+02,-3.396690262158317637e+02,-2.403927467181074462e+02,-2.415608920164522715e+02,9.446745872497558594e+00,-7.266727685928344727e-01,-3.824593871831893921e-02,5.590000000000000000e+02
-1.123302112217024842e+02,-3.453670171583999036e+02,-2.636831336374561943e+02,-3.053791302998306492e+02,-3.785341715365120763e+02,-3.436542608804757037e+02,-2.439910218164714024e+02,-2.437527846358880197e+02,9.446745872497558594e+00,-7.266727685928344727e-01,-3.824593871831893921e-02,5.600000000000000000e+02
-1.166043719601348130e+02,-3.524232294861631090e+02,-2.639575948514102492e+02,-3.101965016322610609e+02,-3.775251359611447697e+02,-3.476492473332655209e+02,-2.468702464554808103e+02,-2.451970810303355393e+02,9.446745872497558594e+00,-7.266727685928344727e-01,-3.824593871831893921e-02,5.610000000000000000e+02
-1.201473082195716415e+02,-3.586294858800501970e+02,-2.632371346161253314e+02,-3.135588968295360246e+02,-3.752497165480781405e+02,-3.507617318106949824e+02,-2.492966447882699867e+02,-2.460469706638832577e+02,9.446745872497558594e+00,-7.266727685928344727e-01,-3.824593871831893921e-02,5.620000000000000000e+02
-1.228601920842374966e+02,-3.620061419002704497e+02,-2.625387151208597061e+02,-3.158057479657454678e+02,-3.725217773459589807e+02,-3.524756105416036007e+02,-2.516043023662023188e+02,-2.468085174553980323e+02,9.446745872497558594e+00,-7.266727685928344727e-01,-3.824593871831893921e-02,5.630000000000000000e+02
-1.257543933790948358e+02,-3.618381718935252138e+02,-2.630269670650559419e+02,-3.171135736778414866e+02,-3.707707766978783184e+02,-3.528020146464514255e+02,-2.538941015326290653e+02,-2.480635686364694266e+02,9.446745872497558594e+00,-7.266727685928344727e-01,-3.824593871831893921e-02,5.640000000000000000e+02
-1.299969504046111979e+02,-3.593496372409026662e+02,-2.652688231395895855e+02,-3.174465901918192685e+02,-3.711664766290523403e+02,-3.522473241825318837e+02,-2.559338751132017933e+02,-2.501434646318848536e+02,9.446745872497558594e+00,-7.266727685928344727e-01,-3.824593871831893921e-02,5.650000000000000000e+02
-1.360707606515188672e+02,-3.570064014452127594e+02,-2.688569669030111982e+02,-3.169623801683919737e+02,-3.738069901660201140e+02,-3.516286336296398076e+02,-2.573738489104016480e+02,-2.529824417880572582e+02,9.523238182067871094e+00,-6.501809358596801758e-01,-7.649187743663787842e-02,5.660000000000000000e+02
-1.434460477439388342e+02,-3.568088448412872822e+02,-2.727171816807895084e+02,-3.163101419020349567e+02,-3.776532469669400598e+02,-3.517828896001155954e+02,-2.581596400841863215e+02,-2.562397161286025948e+02,9.523238182067871094e+00,-6.501809358596801758e-01,-7.649187743663787842e-02,5.670000000000000000e+02
-1.506368548625850963e+02,-3.589614670708124322e+02,-2.758029470497222064e+02,-3.164309772452415928e+02,-3.812282154332642676e+02,-3.532418080503484816e+02,-2.588049361299581506e+02,-2.595527695024902641e+02,9.523238182067871094e+00,-6.501809358596801758e-01,-7.649187743663787842e-02,5.680000000000000000e+02
-1.555788764840472140e+02,-3.620671219269352150e+02,-2.776000046124263463e+02,-3.179902366021160560e+02,-3.834662761007675726e+02,-3.559819527180334262e+02,-2.601868379757725052e+02,-2.626547691080049844e+02,9.523238182067871094e+00,-6.501809358596801758e-01,-7.649187743663787842e-02,5.690000000000000000e+02
-1.564930227009372175e+02,-3.646093837142580014e+02,-2.781450072465650010e+02,-3.209006756046892406e+02,-3.840693746361175727e+02,-3.593640534020123596e+02,-2.628751231715723407e+02,-2.652381164003054437e+02,9.523238182067871094e+00,-6.501809358596801758e-01,-7.649187743663787842e-02,5.700000000000000000e+02
-1.531018026344881946e+02,-3.662750216669937799e+02,-2.777574364313877595e+02,-3.242974548693455290e+02,-3.832701304288348183e+02,-3.623282750113867223e+02,-2.664983886536556383e+02,-2.667691361281267746e+02,9.523238182067871094e+00,-6.501809358596801758e-01,-7.649187743663787842e-02,5.710000000000000000e+02
-1.473789932647487149e+02,-3.678761600054112932e+02,-2.768708880027315899e+02,-3.269720661547125928e+02,-3.814267793290528061e+02,-3.638193694714718731e+02,-2.697862648159898527e+02,-2.666074290653068601e+02,9.523238182067871094e+00,-6.501809358596801758e-01,-7.649187743663787842e-02,5.720000000000000000e+02
-1.428572389046130411e+02,-3.700892343900759442e+02,-2.760741720192218054e+02,-3.279986398415094300e+02,-3.788891313622298185e+02,-3.632968093213421525e+02,-2.714260157018998143e+02,-2.645452662827137829e+02,9.523238182067871094e+00,-6.501809358596801758e-01,-7.649187743663787842e-02,5.730000000000000000e+02
-1.424592315210229572e+02,-3.724136016116499377e+02,-2.760990924119396368e+02,-3.272037160734416830e+02,-3.761660907888108341e+02,-3.610815327798081853e+02,-2.710938406248897081e+02,-2.613587337136395945e+02,9.523238182067871094e+00,-6.501809358596801758e-01,-7.649187743663787842e-02,5.740000000000000000e+02
-1.463123421692762349e+02,-3.734925463788094930e+02,-2.774948944278585259e+02,-3.252213431576365110e+02,-3.740250888557748112e+02,-3.582883376280296943e+02,-2.697351888882840285e+02,-2.587266222773323534e+02,9.523238182067871094e+00,-6.501809358596801758e-01,-7.649187743663787842e-02,5.750000000000000000e+02
-1.514664824215851695e+02,-3.724977816444443306e+02,-2.801152406358651206e+02,-3.230962758818586735e+02,-3.732053958118485752e+02,-3.562898401203674439e+02,-2.687745199364035216e+02,-2.582957633703936153e+02,9.523238182067871094e+00,-6.501809358596801758e-01,-7.649187743663787842e-02,5.760000000000000000e+02
-1.540194190325819363e+02,-3.701683532254464808e+02,-2.829198069501526334e+02,-3.216556432539455272e+02,-3.738820101016353874e+02,-3.559594303020785446e+02,-2.689296137071632984e+02,-2.604934991893660481e+02,9.523238182067871094e+00,-6.501809358596801758e-01,-7.649187743663787842e-02,5.770000000000000000e+02
-1.520206009999947128e+02,-3.684273257727472810e+02,-2.844550955292070284e+02,-3.210470565359701141e+02,-3.753697877715130744e+02,-3.571666262556354923e+02,-2.697252851514804206e+02,-2.640820961876561341e+02,9.523238182067871094e+00,-6.501809358596801758e-01,-7.649187743663787842e-02,5.780000000000000000e+02
-1.467209363792753720e+02,-3.688776880317636824e+02,-2.837845856848889525e+02,-3.207671357153776626e+02,-3.764338841251737904e+02,-3.589066747733013472e+02,-2.701548259978917486e+02,-2.669411583552064258e+02,9.523238182067871094e+00,-6.501809358596801758e-01,-7.649187743663787842e-02,5.790000000000000000e+02
-1.411659685370759689e+02,-3.715242099997558398e+02,-2.811676966162303870e+02,-3.201460772674872715e+02,-3.760574528081706376e+02,-3.600095250385420513e+02,-2.698050870943261543e+02,-2.675185118667068309e+02,9.523238182067871094e+00,-6.501809358596801758e-01,-7.649187743663787842e-02,5.800000000000000000e+02
-1.375523401596983604e+02,-3.747935547136221430e+02,-2.779093338419606880e+02,-3.188834828090257361e+02,-3.740698647010503919e+02,-3.598949990774090111e+02,-2.692874829085740203e+02,-2.657625184401913430e+02,9.523238182067871094e+00,-6.501809358596801758e-01,-7.649187743663787842e-02,5.810000000000000000e+02
-1.357957129211681604e+02,-3.767055670111512882e+02,-2.754679226451353315e+02,-3.171865408019184542e+02,-3.711224631495424546e+02,-3.587669313899023109e+02,-2.695177315646396892e+02,-2.628148280572349904e+02,9.523238182067871094e+00,-6.501809358596801758e-01,-7.649187743663787842e-02,5.820000000000000000e+02
-1.343744213273257628e+02,-3.761209842498974467e+02,-2.745131044593708793e+02,-3.154320553542565904e+02,-3.680703160857665353e+02,-3.571343292416131590e+02,-2.705654773056594422e+02,-2.598698127080933773e+02,9.523238182067871094e+00,-6.501809358596801758e-01,-7.649187743663787842e-02,5.830000000000000000e+02
-1.322319237201973010e+02,-3.731387770335095411e+02,-2.746203581867557659e+02,-3.137210139921444352e+02,-3.653374475994569366e+02,-3.551732553557994834e+02,-2.712586439781589434e+02,-2.572990766115108272e+02,9.523238182067871094e+00,-6.501809358596801758e-01,-7.649187743663787842e-02,5.840000000000000000e+02
-1.296451558181761357e+02,-3.685892959998673177e+02,-2.747184545202326262e+02,-3.117653905747865792e+02,-3.627862570495199179e+02,-3.525688617490013712e+02,-2.699954372796273674e+02,-2.547606179706199327e+02,9.523238182067871094e+00,-6.501809358596801758e-01,-7.649187743663787842e-02,5.850000000000000000e+02
-1.273267621192535444e+02,-3.632775314327482192e+02,-2.738157617770557408e+02,-3.091760440417929203e+02,-3.600505690238060197e+02,-3.489584026104639634e+02,-2.660143221847574750e+02,-2.519571436860351241e+02,9.523238182067871094e+00,-6.501809358596801758e-01,-7.649187743663787842e-02,5.860000000000000000e+02
