F3,F4,C3,C4,P3,P4,Cz,Pz,Accel_x,Accel_y,Accel_z,Sample
-3.728928277269005775e-11,-3.001332515850663185e-11,-2.637534635141491890e-11,-4.729372449219226837e-11,-3.547029336914420128e-11,-3.728928277269005775e-11,-3.728928277269005775e-11,-5.911715561524033546e-11,9.561484336853027344e+00,-6.119350194931030273e-01,-1.529837548732757568e-01,2.260000000000000000e+02
-2.169681263525944814e+01,-2.173424542814154847e+01,-1.448387519087737019e+01,-1.478531918480621243e+01,2.179675168954418041e+00,2.117285961002380645e+00,-1.213197744718308968e+01,-1.417941644223901676e+01,9.561484336853027344e+00,-6.119350194931030273e-01,-1.529837548732757568e-01,2.270000000000000000e+02
-4.030548923571495834e+01,-3.649101035562853212e+01,-2.528490497535040049e+01,-2.571769686777588504e+01,-1.166471352678854601e+00,-1.070571281652519247e+00,-2.026541343348253577e+01,-2.441075550399546046e+01,9.561484336853027344e+00,-6.119350194931030273e-01,-1.529837548732757568e-01,2.280000000000000000e+02
-5.406352554573822999e+01,-4.227134297818793129e+01,-3.140437756033406913e+01,-3.151071910216069227e+01,-1.087995228011914151e+01,-1.006833756496780552e+01,-2.324036861491913442e+01,-2.977789452420529415e+01,9.484992027282714844e+00,-7.266727685928344727e-01,-2.294756323099136353e-01,2.290000000000000000e+02
-6.288492147805482091e+01,-4.275836590454491670e+01,-3.474788869661279023e+01,-3.376712674477403198e+01,-2.294111945561871835e+01,-2.047119679777733836e+01,-2.308996268382907147e+01,-3.262753098102894000e+01,9.484992027282714844e+00,-7.266727685928344727e-01,-2.294756323099136353e-01,2.300000000000000000e+02
-6.771731168353153407e+01,-4.349571924715837667e+01,-3.795631612741908611e+01,-3.505578704804975132e+01,-3.270260059782049211e+01,-2.742819525647246337e+01,-2.286013377227027377e+01,-3.602405956630354922e+01,9.484992027282714844e+00,-7.266727685928344727e-01,-2.294756323099136353e-01,2.310000000000000000e+02
-6.974782571328114500e+01,-4.732529733536375716e+01,-4.221946558031595487e+01,-3.682398588496198499e+01,-3.907574929741713277e+01,-3.003482881329910015e+01,-2.417170604807779455e+01,-4.110442833184970368e+01,9.484992027282714844e+00,-7.266727685928344727e-01,-2.294756323099136353e-01,2.320000000000000000e+02
-7.008317038870245597e+01,-5.301578528620120778e+01,-4.705486815140466206e+01,-3.899149166739425709e+01,-4.465641480554495502e+01,-3.146406286038654798e+01,-2.663653279528716666e+01,-4.672590345914704812e+01,9.484992027282714844e+00,-7.266727685928344727e-01,-2.294756323099136353e-01,2.330000000000000000e+02
-6.973176966322171211e+01,-5.757129370024085802e+01,-5.166035816496878397e+01,-4.103706712550228985e+01,-5.220040738753050391e+01,-3.522589239279841422e+01,-2.907417221710602462e+01,-5.118147956790835451e+01,9.484992027282714844e+00,-7.266727685928344727e-01,-2.294756323099136353e-01,2.340000000000000000e+02
-6.942782402171997092e+01,-5.938212802671296231e+01,-5.591592013270565076e+01,-4.294824265936040320e+01,-6.141899838707286108e+01,-4.167675242118912138e+01,-3.080234666113665298e+01,-5.379683445835144084e+01,9.484992027282714844e+00,-7.266727685928344727e-01,-2.294756323099136353e-01,2.350000000000000000e+02
-6.937599351482322163e+01,-5.932171789727362921e+01,-6.002155754916839214e+01,-4.503121762048249366e+01,-6.927323971220448584e+01,-4.811931537435521022e+01,-3.176245436244607845e+01,-5.490912717661740317e+01,9.484992027282714844e+00,-7.266727685928344727e-01,-2.294756323099136353e-01,2.360000000000000000e+02
-6.946771784590873722e+01,-5.952297774483122339e+01,-6.371688320590419607e+01,-4.725327138265220128e+01,-7.308243024900639284e+01,-5.186701616024402028e+01,-3.194375440989642811e+01,-5.490536447313661483e+01,9.484992027282714844e+00,-7.266727685928344727e-01,-2.294756323099136353e-01,2.370000000000000000e+02
-7.005872644147711981e+01,-6.172839717575516261e+01,-6.649012048554868670e+01,-4.933773628164726688e+01,-7.313024195951493311e+01,-5.291695270940999762e+01,-3.130086487933203898e+01,-5.393860221278828249e+01,9.484992027282714844e+00,-7.266727685928344727e-01,-2.294756323099136353e-01,2.380000000000000000e+02
-7.244352365963050033e+01,-6.678569192173381452e+01,-6.867880931737454375e+01,-5.165965348927602463e+01,-7.240448192655276216e+01,-5.381813764715388970e+01,-3.038282702038395655e+01,-5.271065673339217028e+01,9.484992027282714844e+00,-7.266727685928344727e-01,-2.294756323099136353e-01,2.390000000000000000e+02
-7.808280338260465214e+01,-7.502769413748046645e+01,-7.188934039908872364e+01,-5.565321240956563997e+01,-7.412255966869997792e+01,-5.734951730693592253e+01,-3.063330825502362131e+01,-5.300633986807588371e+01,9.484992027282714844e+00,-7.266727685928344727e-01,-2.294756323099136353e-01,2.400000000000000000e+02
-8.692480323046220292e+01,-8.635057869860156643e+01,-7.774151209909086901e+01,-6.276601334777842567e+01,-7.952526080739062309e+01,-6.442067064465663861e+01,-3.351934083382275276e+01,-5.674973112063435110e+01,9.484992027282714844e+00,-7.266727685928344727e-01,-2.294756323099136353e-01,2.410000000000000000e+02
-9.651733085768410092e+01,-9.966009827348807448e+01,-8.602060813317984866e+01,-7.272211167338264204e+01,-8.758820083388218336e+01,-7.376918302802005201e+01,-3.909929455585552205e+01,-6.418019794048632320e+01,9.484992027282714844e+00,-7.266727685928344727e-01,-2.294756323099136353e-01,2.420000000000000000e+02
-1.033243479110460612e+02,-1.126068151104136632e+02,-9.434510429831152578e+01,-8.295885529141014558e+01,-9.633659932462614961e+01,-8.315286307865062554e+01,-4.556897506497443828e+01,-7.310174995324541669e+01,9.484992027282714844e+00,-7.266727685928344727e-01,-2.294756323099136353e-01,2.430000000000000000e+02
-1.056347669462238628e+02,-1.224635264766930050e+02,-1.000496237312190715e+02,-9.016389442290255829e+01,-1.043282863433696548e+02,-9.076634044999627804e+01,-5.047664323317349044e+01,-8.031148755054800858e+01,9.484992027282714844e+00,-7.266727685928344727e-01,-2.294756323099136353e-01,2.440000000000000000e+02
-1.055696770866393308e+02,-1.276958927243849757e+02,-1.025402198855977076e+02,-9.270463277480484976e+01,-1.112428523364224020e+02,-9.599742589091511036e+01,-5.253392230705139809e+01,-8.405037045928384032e+01,9.484992027282714844e+00,-7.266727685928344727e-01,-2.294756323099136353e-01,2.450000000000000000e+02
-1.080462532984597601e+02,-1.288324067072944672e+02,-1.036932757025156207e+02,-9.172566012349579978e+01,-1.175169133880208392e+02,-9.941539217025638209e+01,-5.230183639573897381e+01,-8.516295142528906581e+01,9.484992027282714844e+00,-7.266727685928344727e-01,-2.294756323099136353e-01,2.460000000000000000e+02
-1.171658937582565159e+02,-1.278304929422765781e+02,-1.058318692263533194e+02,-8.994974480142900575e+01,-1.235565810752104881e+02,-1.021955756438228491e+02,-5.123369996727979014e+01,-8.591657232160014246e+01,9.484992027282714844e+00,-7.266727685928344727e-01,-2.294756323099136353e-01,2.470000000000000000e+02
-1.329504501590113250e+02,-1.266345587499909016e+02,-1.093678372845693048e+02,-8.944122997921931528e+01,-1.291829211981685148e+02,-1.052959485739293086e+02,-5.025600979176761030e+01,-8.778158481662012491e+01,9.484992027282714844e+00,-7.266727685928344727e-01,-2.294756323099136353e-01,2.480000000000000000e+02
-1.512631231961868252e+02,-1.263013115654161993e+02,-1.125466922701511976e+02,-9.045076834754581796e+01,-1.337126948686345713e+02,-1.088593560699737282e+02,-4.938358447117843752e+01,-9.039610605876714544e+01,9.484992027282714844e+00,-7.266727685928344727e-01,-2.294756323099136353e-01,2.490000000000000000e+02
-1.669877099386189911e+02,-1.272234394599818188e+02,-1.134642990275801822e+02,-9.212696578215718546e+01,-1.366099376913443848e+02,-1.122943466230735794e+02,-4.848976657127332146e+01,-9.249910046877084824e+01,9.484992027282714844e+00,-7.266727685928344727e-01,-2.294756323099136353e-01,2.500000000000000000e+02
-1.776912406394844766e+02,-1.297039506508303930e+02,-1.121179388447321799e+02,-9.392348752438965676e+01,-1.381359462768050435e+02,-1.149887097385562811e+02,-4.799208436082926710e+01,-9.352118245935525920e+01,9.484992027282714844e+00,-7.266727685928344727e-01,-2.294756323099136353e-01,2.510000000000000000e+02
-1.847284636699678231e+02,-1.338922799526862946e+02,-1.103167865934501606e+02,-9.601551994346709762e+01,-1.392840762120458749e+02,-1.169417664672664614e+02,-4.844069299589273214e+01,-9.401572902376074126e+01,9.484992027282714844e+00,-7.266727685928344727e-01,-2.294756323099136353e-01,2.520000000000000000e+02
-1.911929034432168919e+02,-1.391135473390581865e+02,-1.096783996077574557e+02,-9.843303391105382616e+01,-1.409335108674567891e+02,-1.186481783278759394e+02,-4.951096675969847638e+01,-9.463241735943211097e+01,9.484992027282714844e+00,-7.266727685928344727e-01,-2.294756323099136353e-01,2.530000000000000000e+02
-1.989479465030076426e+02,-1.436790141167398360e+02,-1.100602033881928037e+02,-1.002696832839383205e+02,-1.430740991658312851e+02,-1.204209991998950500e+02,-4.988750062150256781e+01,-9.512365102919920901e+01,9.484992027282714844e+00,-5.736890435218811035e-01,-2.677215635776519775e-01,2.540000000000000000e+02
-2.075469375853167548e+02,-1.460188199940203049e+02,-1.102812313168442415e+02,-1.003371205693188131e+02,-1.451010838347892786e+02,-1.220959253877808806e+02,-4.867041851392650642e+01,-9.483747170474589439e+01,9.484992027282714844e+00,-5.736890435218811035e-01,-2.677215635776519775e-01,2.550000000000000000e+02
-2.157329831190536424e+02,-1.465031856642922321e+02,-1.103726532194973515e+02,-9.892629591779677867e+01,-1.471065349274995242e+02,-1.236848437524286055e+02,-4.705745930340299310e+01,-9.432458794272497471e+01,9.484992027282714844e+00,-5.736890435218811035e-01,-2.677215635776519775e-01,2.560000000000000000e+02
-2.235927723022687132e+02,-1.481582187775784405e+02,-1.127159109786175577e+02,-9.876623556357753841e+01,-1.508009974800006603e+02,-1.262970082486308456e+02,-4.831224033252647132e+01,-9.613851858706993880e+01,9.484992027282714844e+00,-5.736890435218811035e-01,-2.677215635776519775e-01,2.570000000000000000e+02
-2.329156595797849150e+02,-1.550765924462079965e+02,-1.203966692033427535e+02,-1.036954314162876472e+02,-1.587573114318183798e+02,-1.320389951835222746e+02,-5.546938295730706159e+01,-1.034331218790812272e+02,9.484992027282714844e+00,-5.736890435218811035e-01,-2.677215635776519775e-01,2.580000000000000000e+02
-2.453325937697982226e+02,-1.693412582435494187e+02,-1.340379684763643127e+02,-1.157098256891435994e+02,-1.722309055848400021e+02,-1.424755824175026646e+02,-6.854009947267104508e+01,-1.171856176054925527e+02,9.484992027282714844e+00,-5.736890435218811035e-01,-2.677215635776519775e-01,2.590000000000000000e+02
-2.602005345056127226e+02,-1.888579474245416350e+02,-1.502033729785221112e+02,-1.328346521255803054e+02,-1.894113352938734351e+02,-1.568468088558411182e+02,-8.377524704306097192e+01,-1.345259578633049387e+02,9.484992027282714844e+00,-5.736890435218811035e-01,-2.677215635776519775e-01,2.600000000000000000e+02
-2.744982720076518490e+02,-2.080613998162580174e+02,-1.632222491412962881e+02,-1.498508368763309591e+02,-2.058764463763277490e+02,-1.718321981399017204e+02,-9.589492046511441004e+01,-1.499626198627629492e+02,9.484992027282714844e+00,-5.736890435218811035e-01,-2.677215635776519775e-01,2.610000000000000000e+02
-2.849708324575362894e+02,-2.212229460420376199e+02,-1.691228394775093875e+02,-1.615201985741732642e+02,-2.171379161832810496e+02,-1.833831752365167631e+02,-1.015560953002527640e+02,-1.587764543625512488e+02,9.484992027282714844e+00,-5.736890435218811035e-01,-2.677215635776519775e-01,2.620000000000000000e+02
-2.904729879020451335e+02,-2.259281441977650502e+02,-1.683217235251840975e+02,-1.657759973891702430e+02,-2.213238646707800399e+02,-1.892448259441516711e+02,-1.012208751865823615e+02,-1.598840181987434335e+02,9.484992027282714844e+00,-5.736890435218811035e-01,-2.677215635776519775e-01,2.630000000000000000e+02
-2.923113842575667150e+02,-2.241349135745335843e+02,-1.648262816273741009e+02,-1.644063040732416994e+02,-2.199802011579909049e+02,-1.901211410600290037e+02,-9.807550787716081686e+01,-1.559604750598555256e+02,9.484992027282714844e+00,-5.736890435218811035e-01,-2.677215635776519775e-01,2.640000000000000000e+02
-2.924678197484663542e+02,-2.202192214035399047e+02,-1.628444703130289781e+02,-1.609927816397212155e+02,-2.166439040837440189e+02,-1.886647833426782199e+02,-9.524755117864197018e+01,-1.510138802768251480e+02,9.484992027282714844e+00,-5.736890435218811035e-01,-2.677215635776519775e-01,2.650000000000000000e+02
-2.917218153386106678e+02,-2.177805715607132697e+02,-1.638536032446145327e+02,-1.581497115594311254e+02,-2.145827744716439156e+02,-1.873683128356287853e+02,-9.382324948780615159e+01,-1.476362768179510567e+02,9.484992027282714844e+00,-5.736890435218811035e-01,-2.677215635776519775e-01,2.660000000000000000e+02
-2.896052945557648854e+02,-2.176864556006644307e+02,-1.663831484488327987e+02,-1.563632427232000737e+02,-2.153273805880098735e+02,-1.871561954189705830e+02,-9.303185326669017741e+01,-1.460410450084596050e+02,9.484992027282714844e+00,-5.736890435218811035e-01,-2.677215635776519775e-01,2.670000000000000000e+02
-2.859438230929688416e+02,-2.184884350240185995e+02,-1.680685337679983604e+02,-1.549275265160649724e+02,-2.185618986951935767e+02,-1.875589195605007262e+02,-9.180055511674572699e+01,-1.450790185252512856e+02,9.484992027282714844e+00,-5.736890435218811035e-01,-2.677215635776519775e-01,2.680000000000000000e+02
-2.820008175887855941e+02,-2.183303252913574397e+02,-1.677260365641946009e+02,-1.535190678531575941e+02,-2.228465124699609987e+02,-1.878437319269892214e+02,-8.987873542389752402e+01,-1.437767297406203397e+02,9.484992027282714844e+00,-5.736890435218811035e-01,-2.677215635776519775e-01,2.690000000000000000e+02
-2.797584530133569842e+02,-2.165529301119790944e+02,-1.657784814263982298e+02,-1.526977556400956928e+02,-2.264695826267543453e+02,-1.878658691003611239e+02,-8.765195358405617299e+01,-1.419764121373996204e+02,9.484992027282714844e+00,-5.736890435218811035e-01,-2.677215635776519775e-01,2.700000000000000000e+02
-2.800071243384215904e+02,-2.138848622319787864e+02,-1.632587815783267615e+02,-1.530139554434590536e+02,-2.281611407759010035e+02,-1.880289049361354046e+02,-8.530433063985401532e+01,-1.399105400132552859e+02,9.484992027282714844e+00,-5.736890435218811035e-01,-2.677215635776519775e-01,2.710000000000000000e+02
-2.813693848609214001e+02,-2.115441734110554535e+02,-1.608586506517044654e+02,-1.539691549692706758e+02,-2.276249112287723619e+02,-1.886863509336535571e+02,-8.254314725274070952e+01,-1.376349357742165012e+02,9.484992027282714844e+00,-5.736890435218811035e-01,-2.677215635776519775e-01,2.720000000000000000e+02
-2.814388073959378289e+02,-2.103049709844885911e+02,-1.588906055502834533e+02,-1.541391797176788714e+02,-2.256677403821358894e+02,-1.896786982607691243e+02,-7.917623508671204036e+01,-1.350507532263022767e+02,9.484992027282714844e+00,-5.736890435218811035e-01,-2.677215635776519775e-01,2.730000000000000000e+02
-2.789187975956058381e+02,-2.101872297285485729e+02,-1.576301132786279595e+02,-1.523691739326332026e+02,-2.236631136415035144e+02,-1.903625031485476029e+02,-7.565484361801691193e+01,-1.322580205994295284e+02,9.484992027282714844e+00,-5.736890435218811035e-01,-2.677215635776519775e-01,2.740000000000000000e+02
-2.746182647038431242e+02,-2.106772708615349075e+02,-1.571858976916323627e+02,-1.487871450663578798e+02,-2.225661969679154026e+02,-1.899953058448186312e+02,-7.275430793078430725e+01,-1.296001381298883643e+02,9.484992027282714844e+00,-5.736890435218811035e-01,-2.677215635776519775e-01,2.750000000000000000e+02
-2.704594198362995030e+02,-2.110987622286847909e+02,-1.569933356139572425e+02,-1.446369303924175256e+02,-2.222469091096108968e+02,-1.881773298657631130e+02,-7.069583599463658174e+01,-1.273039217117207045e+02,9.484992027282714844e+00,-5.736890435218811035e-01,-2.677215635776519775e-01,2.760000000000000000e+02
-2.677454954453271512e+02,-2.109657183249728405e+02,-1.558668376128921409e+02,-1.412229303297717706e+02,-2.218080372539193377e+02,-1.851619432004854389e+02,-6.881741644262274349e+01,-1.252751944298111084e+02,9.484992027282714844e+00,-5.736890435218811035e-01,-2.677215635776519775e-01,2.770000000000000000e+02
-2.664725260608138342e+02,-2.102657914461597102e+02,-1.530072004362991720e+02,-1.390849868686309492e+02,-2.206430132059367679e+02,-1.819243384598680677e+02,-6.632305588669169083e+01,-1.234463776732709448e+02,9.484992027282714844e+00,-5.736890435218811035e-01,-2.677215635776519775e-01,2.780000000000000000e+02
-2.660116482509508842e+02,-2.094793558996630054e+02,-1.490324726072703925e+02,-1.380768324115447285e+02,-2.191891898418039091e+02,-1.798504681602034907e+02,-6.331897021812937965e+01,-1.222481603221663136e+02,9.484992027282714844e+00,-5.736890435218811035e-01,-2.677215635776519775e-01,2.790000000000000000e+02
-2.658907819888197537e+02,-2.091407653299129379e+02,-1.457023343900295913e+02,-1.379409532911240603e+02,-2.185479941810199307e+02,-1.800167358739054180e+02,-6.087083510284628574e+01,-1.224302487304130409e+02,9.484992027282714844e+00,-5.736890435218811035e-01,-2.677215635776519775e-01,2.800000000000000000e+02
-2.656306677964735172e+02,-2.091613164289751694e+02,-1.443056526486925577e+02,-1.385405443460385868e+02,-2.193045836348010198e+02,-1.824099324268622695e+02,-5.986409163323060056e+01,-1.241775516822212921e+02,9.484992027282714844e+00,-6.884268522262573242e-01,-2.677215635776519775e-01,2.810000000000000000e+02
-2.642286535243465551e+02,-2.086529404871325823e+02,-1.443556660462386390e+02,-1.395787390573518678e+02,-2.208264779055948566e+02,-1.857437011677725422e+02,-5.991302846878897981e+01,-1.264952001217843645e+02,9.484992027282714844e+00,-6.884268522262573242e-01,-2.677215635776519775e-01,2.820000000000000000e+02
-2.607031167771635864e+02,-2.068062023272609622e+02,-1.442516747305112403e+02,-1.404710432028118703e+02,-2.219554004052160963e+02,-1.882729367684719364e+02,-5.972085714214063046e+01,-1.278533411404114304e+02,9.484992027282714844e+00,-6.884268522262573242e-01,-2.677215635776519775e-01,2.830000000000000000e+02
-2.558294554448164035e+02,-2.043304536997020477e+02,-1.435714776703348434e+02,-1.409272799246818977e+02,-2.225914827319511460e+02,-1.891999096016120347e+02,-5.881122619989946543e+01,-1.278191503807697700e+02,9.484992027282714844e+00,-6.884268522262573242e-01,-2.677215635776519775e-01,2.840000000000000000e+02
-2.532326864823221513e+02,-2.040216541894178590e+02,-1.446464026409919370e+02,-1.417927450240199505e+02,-2.245657158361523216e+02,-1.895809439613817631e+02,-5.890525531396406222e+01,-1.281434382871730122e+02,9.484992027282714844e+00,-6.884268522262573242e-01,-2.677215635776519775e-01,2.850000000000000000e+02
-2.578726800749873291e+02,-2.093843563621462636e+02,-1.513691622178066609e+02,-1.450531963088874363e+02,-2.306628463605557045e+02,-1.918407760410109404e+02,-6.325752114070382959e+01,-1.319695173530794818e+02,9.484992027282714844e+00,-6.884268522262573242e-01,-2.677215635776519775e-01,2.860000000000000000e+02
-2.723911073322092307e+02,-2.219475857625657227e+02,-1.658307031702495351e+02,-1.525388055508205980e+02,-2.423847229561947643e+02,-1.980965047394561225e+02,-7.412608878166747672e+01,-1.415090801772676059e+02,9.484992027282714844e+00,-6.884268522262573242e-01,-2.677215635776519775e-01,2.870000000000000000e+02
-2.942897500873291392e+02,-2.393935534859028849e+02,-1.857164416935645477e+02,-1.642161851099863270e+02,-2.583402485913225064e+02,-2.085470798312967418e+02,-9.042082845298227767e+01,-1.560568454181816378e+02,9.484992027282714844e+00,-6.884268522262573242e-01,-2.677215635776519775e-01,2.880000000000000000e+02
-3.167468626276436794e+02,-2.563331187137760026e+02,-2.050106307625457873e+02,-1.776199189198243857e+02,-2.747173961818419343e+02,-2.211887735022252173e+02,-1.076128058859462726e+02,-1.720336712824100402e+02,9.484992027282714844e+00,-6.884268522262573242e-01,-2.677215635776519775e-01,2.890000000000000000e+02
-3.327904366516211212e+02,-2.675189996083094570e+02,-2.176819528106855159e+02,-1.891458833835369546e+02,-2.875065929813830508e+02,-2.330444151091925278e+02,-1.201625446350049060e+02,-1.850503267466386603e+02,9.484992027282714844e+00,-6.884268522262573242e-01,-2.677215635776519775e-01,2.900000000000000000e+02
-3.394474385731582515e+02,-2.711516369228993426e+02,-2.213609293937688847e+02,-1.962862090724154029e+02,-2.946711298552886547e+02,-2.418897543573033317e+02,-1.246995426404791942e+02,-1.923655589153415235e+02,9.484992027282714844e+00,-6.884268522262573242e-01,-2.677215635776519775e-01,2.910000000000000000e+02
-3.385852636296455671e+02,-2.697197389399432268e+02,-2.181365795737000894e+02,-1.990209529952757634e+02,-2.966876763642816854e+02,-2.471979474827144259e+02,-1.217310006897650680e+02,-1.940031742455929020e+02,9.484992027282714844e+00,-6.884268522262573242e-01,-2.677215635776519775e-01,2.920000000000000000e+02
-3.342871310413348738e+02,-2.678119103503198630e+02,-2.122791949178579500e+02,-1.993529348218688710e+02,-2.954703502108843622e+02,-2.498568730465681256e+02,-1.149673259676045518e+02,-1.921048127544708564e+02,9.484992027282714844e+00,-6.884268522262573242e-01,-2.677215635776519775e-01,2.930000000000000000e+02
-3.295748438328303678e+02,-2.687485869045938216e+02,-2.072116593700264957e+02,-1.995405086507485635e+02,-2.929789872659573007e+02,-2.512183230269163232e+02,-1.090365216404929072e+02,-1.893915702106345123e+02,9.484992027282714844e+00,-6.884268522262573242e-01,-2.677215635776519775e-01,2.940000000000000000e+02
-3.252930349356342390e+02,-2.726325992812273853e+02,-2.041393481981730247e+02,-2.005016286047456617e+02,-2.906141685043496068e+02,-2.522870675199226298e+02,-1.071000497250657020e+02,-1.878127787348300899e+02,9.484992027282714844e+00,-6.884268522262573242e-01,-2.677215635776519775e-01,2.950000000000000000e+02
-3.213601794224289279e+02,-2.770206770396355296e+02,-2.027568217408214650e+02,-2.014854277713252770e+02,-2.893344027709801480e+02,-2.534101926168625596e+02,-1.095419471435768628e+02,-1.878839908370592866e+02,9.484992027282714844e+00,-6.884268522262573242e-01,-2.677215635776519775e-01,2.960000000000000000e+02
-3.183197543667043306e+02,-2.792715550491491285e+02,-2.025881857713849286e+02,-2.009674846006531084e+02,-2.897120321663707614e+02,-2.543341832569973917e+02,-1.141310568964006507e+02,-1.887022626691309029e+02,9.484992027282714844e+00,-6.884268522262573242e-01,-2.677215635776519775e-01,2.970000000000000000e+02
-3.173903875352781370e+02,-2.785319429128760476e+02,-2.034945949466980437e+02,-1.979035163247810658e+02,-2.916068404068749373e+02,-2.544462977067787506e+02,-1.174337155318872874e+02,-1.885616567267834682e+02,9.484992027282714844e+00,-6.884268522262573242e-01,-2.677215635776519775e-01,2.980000000000000000e+02
-3.193335888619625393e+02,-2.760247241477924831e+02,-2.053006352454399348e+02,-1.925243251749679985e+02,-2.940466166374574755e+02,-2.532307934925404709e+02,-1.168280951467466338e+02,-1.860887703305548939e+02,9.484992027282714844e+00,-6.884268522262573242e-01,-2.677215635776519775e-01,2.990000000000000000e+02
-3.237839897157595601e+02,-2.738757901869475972e+02,-2.075228994396082953e+02,-1.863932110955671249e+02,-2.959373901611225506e+02,-2.508798964262061020e+02,-1.121445197632082511e+02,-1.814547550428745524e+02,9.484992027282714844e+00,-6.884268522262573242e-01,-2.677215635776519775e-01,3.000000000000000000e+02
-3.298342038683419446e+02,-2.736990126959756253e+02,-2.097638688514686294e+02,-1.818487906921820922e+02,-2.972308227245663943e+02,-2.486299967731094966e+02,-1.059323845621146774e+02,-1.767889170801457794e+02,9.484992027282714844e+00,-6.884268522262573242e-01,-2.677215635776519775e-01,3.010000000000000000e+02
-3.369406919747978577e+02,-2.759484190809191659e+02,-2.122302519223210311e+02,-1.810663958973284196e+02,-2.993329675027737835e+02,-2.483110512933193377e+02,-1.020278352432976874e+02,-1.751579749590274560e+02,9.484992027282714844e+00,-6.884268522262573242e-01,-2.677215635776519775e-01,3.020000000000000000e+02
-3.448225998805957033e+02,-2.801613423613633245e+02,-2.155258292970557363e+02,-1.850284760186469271e+02,-3.040030270217651491e+02,-2.511692497371178092e+02,-1.032337948701996595e+02,-1.785417438212778336e+02,9.484992027282714844e+00,-6.884268522262573242e-01,-2.677215635776519775e-01,3.030000000000000000e+02
-3.524665056657310629e+02,-2.855536971408750446e+02,-2.197377571373431522e+02,-1.928745295262664285e+02,-3.115316278481714676e+02,-2.568300898089751172e+02,-1.096652526041707318e+02,-1.862692944585625696e+02,9.484992027282714844e+00,-6.884268522262573242e-01,-2.677215635776519775e-01,3.040000000000000000e+02
-3.577615157193297932e+02,-2.914114617915148528e+02,-2.238206847319586643e+02,-2.021190191410181001e+02,-3.199243760681192725e+02,-2.633743135781315914e+02,-1.188869181701977311e+02,-1.952402633186953835e+02,9.484992027282714844e+00,-6.884268522262573242e-01,-2.677215635776519775e-01,3.050000000000000000e+02
-3.587781608762331302e+02,-2.971266429511270530e+02,-2.261253790048867813e+02,-2.098143026294231959e+02,-3.260483094559328947e+02,-2.686053650808451039e+02,-1.276031267401840950e+02,-2.018831913165094250e+02,9.484992027282714844e+00,-6.884268522262573242e-01,-2.677215635776519775e-01,3.060000000000000000e+02
-3.557159592099421275e+02,-3.020694156343328700e+02,-2.257226328281456915e+02,-2.140520884461365654e+02,-3.278680547534293623e+02,-2.714881302730811967e+02,-1.335176122320270906e+02,-2.043522119854791015e+02,9.484992027282714844e+00,-6.884268522262573242e-01,-2.677215635776519775e-01,3.070000000000000000e+02
-3.513726060669646927e+02,-3.055403181303536257e+02,-2.232492063546817462e+02,-2.148239881355042940e+02,-3.258397626436154155e+02,-2.725622242160852693e+02,-1.360481086220951852e+02,-2.032902123529134428e+02,9.484992027282714844e+00,-6.884268522262573242e-01,-2.677215635776519775e-01,3.080000000000000000e+02
-3.492051106619129541e+02,-3.069184810605519260e+02,-2.204203006925779960e+02,-2.136501671123822916e+02,-3.223334758516394913e+02,-2.730963575011883790e+02,-1.357387915044279509e+02,-2.007690588620727397e+02,9.484992027282714844e+00,-6.884268522262573242e-01,-2.677215635776519775e-01,3.090000000000000000e+02
-3.505801940804665264e+02,-3.059755154371736126e+02,-2.187192658842654396e+02,-2.123277301909914740e+02,-3.197979325621346334e+02,-2.738971125248394856e+02,-1.333291032566481817e+02,-1.985573303249392154e+02,9.484992027282714844e+00,-6.884268522262573242e-01,-2.677215635776519775e-01,3.100000000000000000e+02
-3.538984648032243285e+02,-3.032097045871249748e+02,-2.185986985609168585e+02,-2.118333060062972208e+02,-3.194109165258553276e+02,-2.749017428643680319e+02,-1.294911021063585395e+02,-1.972664168223662955e+02,9.484992027282714844e+00,-6.884268522262573242e-01,-2.677215635776519775e-01,3.110000000000000000e+02
-3.565709469208932205e+02,-2.999471822956887195e+02,-2.198948047761661257e+02,-2.121875081466734230e+02,-3.212047999042575839e+02,-2.757845518262222981e+02,-1.253023669618321492e+02,-1.968840049941861139e+02,9.484992027282714844e+00,-6.501809358596801758e-01,-2.294756323099136353e-01,3.120000000000000000e+02
-3.579097218973229246e+02,-2.979529725981264505e+02,-2.227434572938896054e+02,-2.131521332338076036e+02,-3.250232705464707124e+02,-2.767654287813353449e+02,-1.225947930686339760e+02,-1.977781383760290908e+02,9.484992027282714844e+00,-6.501809358596801758e-01,-2.294756323099136353e-01,3.130000000000000000e+02
-3.599342252389716350e+02,-2.985474418441164062e+02,-2.276820428660111020e+02,-2.148646904792918804e+02,-3.309270195713256726e+02,-2.786721022821180327e+02,-1.233551211251515838e+02,-2.008522260029980089e+02,9.484992027282714844e+00,-6.501809358596801758e-01,-2.294756323099136353e-01,3.140000000000000000e+02
-3.651431661610315018e+02,-3.016921383225947011e+02,-2.345872049663668690e+02,-2.176754675815109010e+02,-3.385173877926529258e+02,-2.821237846017330071e+02,-1.283414330417375027e+02,-2.065156172898962836e+02,9.484992027282714844e+00,-6.501809358596801758e-01,-2.294756323099136353e-01,3.150000000000000000e+02
-3.734593130209987635e+02,-3.057770174104317107e+02,-2.416259038750882553e+02,-2.213851589580533243e+02,-3.461001295364281418e+02,-2.866463309212516037e+02,-1.360639129690206914e+02,-2.135185352346319974e+02,9.484992027282714844e+00,-6.501809358596801758e-01,-2.294756323099136353e-01,3.160000000000000000e+02
-3.815080324979461466e+02,-3.084988072870926317e+02,-2.457228598735719913e+02,-2.248109201353832418e+02,-3.510383208794343091e+02,-2.906592896883744856e+02,-1.432422694291753373e+02,-2.190604612512111942e+02,9.484992027282714844e+00,-6.501809358596801758e-01,-2.294756323099136353e-01,3.170000000000000000e+02
-3.851617157275372278e+02,-3.083790943806821474e+02,-2.446514056152405487e+02,-2.263694506014602439e+02,-3.515031376192503103e+02,-2.925038430985460423e+02,-1.467485779920235132e+02,-2.205023976608067073e+02,9.484992027282714844e+00,-6.501809358596801758e-01,-2.294756323099136353e-01,3.180000000000000000e+02
-3.830466844279143857e+02,-3.058394726289346863e+02,-2.390661424398784618e+02,-2.253588610992456438e+02,-3.482346700184219799e+02,-2.917456467576485011e+02,-1.457474593778860594e+02,-2.174466546320187490e+02,9.484992027282714844e+00,-6.501809358596801758e-01,-2.294756323099136353e-01,3.190000000000000000e+02
-3.777551439941300941e+02,-3.029651359430890807e+02,-2.325130657252501294e+02,-2.228061691559599069e+02,-3.445488970143144343e+02,-2.896794300625847427e+02,-1.423992665233993478e+02,-2.123661705910681121e+02,9.484992027282714844e+00,-6.501809358596801758e-01,-2.294756323099136353e-01,3.200000000000000000e+02
-3.737203198301643852e+02,-3.021012033256652671e+02,-2.291473884266032996e+02,-2.210040045282921994e+02,-3.442364532561468877e+02,-2.885724851264000677e+02,-1.405007471956778886e+02,-2.090661422014705977e+02,9.484992027282714844e+00,-6.501809358596801758e-01,-2.294756323099136353e-01,3.210000000000000000e+02
-3.738567118901452773e+02,-3.044000029938734428e+02,-2.310251128679251451e+02,-2.220217440751364961e+02,-3.489578384071812138e+02,-2.901967020982478971e+02,-1.430360962691238456e+02,-2.101314851143977194e+02,9.484992027282714844e+00,-6.501809358596801758e-01,-2.294756323099136353e-01,3.220000000000000000e+02
-3.780327981261859804e+02,-3.094485034831210442e+02,-2.372599417874664880e+02,-2.264328580816653016e+02,-3.573412313493911370e+02,-2.947754410263323734e+02,-1.504761681755598488e+02,-2.154489786149841848e+02,9.484992027282714844e+00,-6.501809358596801758e-01,-2.294756323099136353e-01,3.230000000000000000e+02
-3.844031302523218869e+02,-3.161123767844175632e+02,-2.455675219477619748e+02,-2.332909666030437279e+02,-3.665502190908423472e+02,-3.011433165031288013e+02,-1.610053391737949937e+02,-2.229577176882709182e+02,9.484992027282714844e+00,-6.501809358596801758e-01,-2.294756323099136353e-01,3.240000000000000000e+02
-3.918026594388962849e+02,-3.236373053087684184e+02,-2.544899002803662711e+02,-2.412193144950409760e+02,-3.748324673631669839e+02,-3.078963011012689890e+02,-1.722393419060235829e+02,-2.307704256859049110e+02,9.484992027282714844e+00,-6.501809358596801758e-01,-2.294756323099136353e-01,3.250000000000000000e+02
-4.006001772801007519e+02,-3.319086431845279321e+02,-2.640933001110244049e+02,-2.494855913261681621e+02,-3.826473494799463424e+02,-3.144586362358832616e+02,-1.828202729997566394e+02,-2.385865272015151390e+02,9.484992027282714844e+00,-6.501809358596801758e-01,-2.294756323099136353e-01,3.260000000000000000e+02
-4.112963969211548374e+02,-3.407121240459724731e+02,-2.746440764335263225e+02,-2.580672505438736266e+02,-3.913490728150844689e+02,-3.211088556151016746e+02,-1.925737084975727385e+02,-2.470963406533176112e+02,9.484992027282714844e+00,-6.501809358596801758e-01,-2.294756323099136353e-01,3.270000000000000000e+02
-4.226313406986101313e+02,-3.488987204254418657e+02,-2.849165903119030645e+02,-2.667897191604542968e+02,-4.008057870230084632e+02,-3.280075484868804097e+02,-2.013803330330662220e+02,-2.561110048601350400e+02,9.484992027282714844e+00,-6.501809358596801758e-01,-2.294756323099136353e-01,3.280000000000000000e+02
-4.314651542671891775e+02,-3.545242225172621602e+02,-2.921967714979453490e+02,-2.745780665092820527e+02,-4.084856493139311624e+02,-3.342983624446934527e+02,-2.081913621434868560e+02,-2.635162584095866123e+02,9.484992027282714844e+00,-6.501809358596801758e-01,-2.294756323099136353e-01,3.290000000000000000e+02
-4.348369072194516320e+02,-3.560678093104438631e+02,-2.942765818853472410e+02,-2.797384188818448365e+02,-4.111795379152362102e+02,-3.383361271629663634e+02,-2.114381436249179842e+02,-2.664149420285049246e+02,9.484992027282714844e+00,-6.501809358596801758e-01,-2.294756323099136353e-01,3.300000000000000000e+02
-4.323395578135268238e+02,-3.537020689904184110e+02,-2.915811279382203338e+02,-2.811437195784915275e+02,-4.079057457939554752e+02,-3.389864955022377444e+02,-2.105892617663852775e+02,-2.636237475308128069e+02,9.484992027282714844e+00,-6.501809358596801758e-01,-2.294756323099136353e-01,3.310000000000000000e+02
-4.266057184177805652e+02,-3.494400838228350494e+02,-2.872787344084384813e+02,-2.792677523321578974e+02,-4.012342939892158711e+02,-3.368055030964058574e+02,-2.072876280673841052e+02,-2.571842337797149298e+02,9.484992027282714844e+00,-6.501809358596801758e-01,-2.294756323099136353e-01,3.320000000000000000e+02
-4.215022268748845136e+02,-3.459429337974879104e+02,-2.850882250086065142e+02,-2.761049676513978852e+02,-3.956197672128898262e+02,-3.339014270307148422e+02,-2.047353285883841636e+02,-2.512872499875210792e+02,9.523238182067871094e+00,-6.884268522262573242e-01,-2.677215635776519775e-01,3.330000000000000000e+02
-4.196789372696293867e+02,-3.449332305441513427e+02,-2.866766363420036328e+02,-2.739941342805832960e+02,-3.941353171080365314e+02,-3.324946892984146416e+02,-2.056066270634457851e+02,-2.493712530353457169e+02,9.523238182067871094e+00,-6.884268522262573242e-01,-2.677215635776519775e-01,3.340000000000000000e+02
-4.215070766404111851e+02,-3.464815129104048310e+02,-2.909208556421930325e+02,-2.743115611282039481e+02,-3.965287809266974364e+02,-3.334496853417686566e+02,-2.102441380421663553e+02,-2.519040741106416590e+02,9.523238182067871094e+00,-6.884268522262573242e-01,-2.677215635776519775e-01,3.350000000000000000e+02
-4.258847161672272250e+02,-3.495862952248735382e+02,-2.955128328299951477e+02,-2.770293875663578547e+02,-4.002563987549557396e+02,-3.360824671024002441e+02,-2.167235240833972512e+02,-2.567494316953596467e+02,9.523238182067871094e+00,-6.884268522262573242e-01,-2.677215635776519775e-01,3.360000000000000000e+02
-4.316606838087167262e+02,-3.533279444132585354e+02,-2.992222624952994465e+02,-2.813171513657893001e+02,-4.033310964494068003e+02,-3.393027029110949115e+02,-2.226868593778668810e+02,-2.616105771270817968e+02,9.523238182067871094e+00,-6.884268522262573242e-01,-2.677215635776519775e-01,3.370000000000000000e+02
-4.382355174662765762e+02,-3.575231988887886700e+02,-3.027184405127346736e+02,-2.865009011423345555e+02,-4.062023882523039333e+02,-3.428712281966937780e+02,-2.272660333892770268e+02,-2.661549923789698937e+02,9.523238182067871094e+00,-6.884268522262573242e-01,-2.677215635776519775e-01,3.380000000000000000e+02
-4.451165688742612474e+02,-3.624468782832832972e+02,-3.074399862381568482e+02,-2.925077588236370048e+02,-4.109798308227888128e+02,-3.475274615377952614e+02,-2.314401788360893306e+02,-2.718495606515243708e+02,9.523238182067871094e+00,-6.884268522262573242e-01,-2.677215635776519775e-01,3.390000000000000000e+02
-4.514233406749485766e+02,-3.681485522342687204e+02,-3.139176546556689118e+02,-2.995329618390633755e+02,-4.189594365402087988e+02,-3.539370723847965792e+02,-2.367400308196438914e+02,-2.798659381762635121e+02,9.523238182067871094e+00,-6.884268522262573242e-01,-2.677215635776519775e-01,3.400000000000000000e+02
-4.562428004419464287e+02,-3.742013175972126646e+02,-3.212975131606127093e+02,-3.074289703925473987e+02,-4.289913266258045041e+02,-3.616131403879955997e+02,-2.437626184077914218e+02,-2.893123945260833239e+02,9.523238182067871094e+00,-6.884268522262573242e-01,-2.677215635776519775e-01,3.410000000000000000e+02
-4.595277565778758344e+02,-3.801358945653707906e+02,-3.283851486889917624e+02,-3.155207934033846868e+02,-4.382628197929989255e+02,-3.689775060401866540e+02,-2.519374225980890287e+02,-2.976520751281595949e+02,9.523238182067871094e+00,-6.884268522262573242e-01,-2.677215635776519775e-01,3.420000000000000000e+02
-4.623955815443343909e+02,-3.860120111690098383e+02,-3.349160654480917856e+02,-3.230665579592400150e+02,-4.446486734893563835e+02,-3.745687259405377745e+02,-2.605370234621528311e+02,-3.029380675242893517e+02,9.523238182067871094e+00,-6.884268522262573242e-01,-2.677215635776519775e-01,3.430000000000000000e+02
-4.662233884696327095e+02,-3.924239853617935978e+02,-3.416229100646568213e+02,-3.299237863139973683e+02,-4.483395938168916928e+02,-3.782895830046741139e+02,-2.696307601170955763e+02,-3.056780695368089482e+02,9.523238182067871094e+00,-6.884268522262573242e-01,-2.677215635776519775e-01,3.440000000000000000e+02
-4.712973877619018026e+02,-3.998475351803614330e+02,-3.490960177946119529e+02,-3.367468845371640782e+02,-4.513069019677487859e+02,-3.815422489125755874e+02,-2.798496640946495972e+02,-3.084970941324418163e+02,9.523238182067871094e+00,-6.884268522262573242e-01,-2.677215635776519775e-01,3.450000000000000000e+02
-4.763956630215842551e+02,-4.079398072312253021e+02,-3.567745077118261747e+02,-3.444369393697257351e+02,-4.553052196852087263e+02,-3.861132450531916902e+02,-2.911904503309600614e+02,-3.138857136605690812e+02,9.523238182067871094e+00,-6.884268522262573242e-01,-2.677215635776519775e-01,3.460000000000000000e+02
-4.798247334482849169e+02,-4.155152748151841706e+02,-3.632514247660883484e+02,-3.532628930390801543e+02,-4.604064526916109799e+02,-3.927828431044945319e+02,-3.022051236226402580e+02,-3.221172633951367743e+02,9.523238182067871094e+00,-6.884268522262573242e-01,-2.677215635776519775e-01,3.470000000000000000e+02
-4.809636118026169811e+02,-4.212949522836737515e+02,-3.676183893660161175e+02,-3.624150995016000252e+02,-4.653512395504227470e+02,-4.008032777120921537e+02,-3.105963340007242550e+02,-3.311695082731559978e+02,9.523238182067871094e+00,-6.884268522262573242e-01,-2.677215635776519775e-01,3.480000000000000000e+02
-4.808261794431404041e+02,-4.248323339723453955e+02,-3.704215120339085843e+02,-3.704276964365551521e+02,-4.691240266917075132e+02,-4.085808513215275752e+02,-3.148220892284298316e+02,-3.385439712065293634e+02,9.523238182067871094e+00,-6.884268522262573242e-01,-2.677215635776519775e-01,3.490000000000000000e+02
-4.811282837883886714e+02,-4.268707357482084035e+02,-3.731806662453399213e+02,-3.761684714007045613e+02,-4.720344642189135129e+02,-4.148796467357694837e+02,-3.152795742426492325e+02,-3.431970817121118671e+02,9.523238182067871094e+00,-6.884268522262573242e-01,-2.677215635776519775e-01,3.500000000000000000e+02
-4.828083244475208176e+02,-4.288639198970178086e+02,-3.769193729225356719e+02,-3.795966321127212950e+02,-4.752313418932783406e+02,-4.195293739490956568e+02,-3.140068823959176143e+02,-3.459173930516058135e+02,9.523238182067871094e+00,-6.884268522262573242e-01,-2.677215635776519775e-01,3.510000000000000000e+02
-4.854337496419996683e+02,-4.320545065521305332e+02,-3.812164603943849670e+02,-3.817004123872071659e+02,-4.792914242251705446e+02,-4.232028031374073862e+02,-3.132476436056318789e+02,-3.481362988878563556e+02,9.523238182067871094e+00,-6.884268522262573242e-01,-2.677215635776519775e-01,3.520000000000000000e+02
-4.879577090128477153e+02,-4.367536244406206833e+02,-3.847919350816382575e+02,-3.837387970977038094e+02,-4.834877587491656641e+02,-4.266635948676876069e+02,-3.142022747572151502e+02,-3.506005113261913948e+02,9.523238182067871094e+00,-6.884268522262573242e-01,-2.677215635776519775e-01,3.530000000000000000e+02
-4.899232667199139541e+02,-4.422429297789699376e+02,-3.870688306999338693e+02,-3.864646271071451338e+02,-4.866015948327014939e+02,-4.302444823994910621e+02,-3.169688397930437986e+02,-3.532072052480971251e+02,9.523238182067871094e+00,-6.884268522262573242e-01,-2.677215635776519775e-01,3.540000000000000000e+02
-4.918949846891829338e+02,-4.472891665022902998e+02,-3.891478329677613601e+02,-3.899280953264957361e+02,-4.884831996976996606e+02,-4.339292214093692337e+02,-3.214380369989762585e+02,-3.559260575848089729e+02,9.523238182067871094e+00,-6.884268522262573242e-01,-2.677215635776519775e-01,3.550000000000000000e+02
-4.948039005892608770e+02,-4.509208533636015090e+02,-3.931707473205202632e+02,-3.938594974644581725e+02,-4.906895596385263616e+02,-4.377615506957838534e+02,-3.280203647767478969e+02,-3.595830982981626676e+02,9.523238182067871094e+00,-6.884268522262573242e-01,-2.677215635776519775e-01,3.560000000000000000e+02
-4.989818234937486636e+02,-4.530222510783930829e+02,-4.005808121002901316e+02,-3.981260796981839576e+02,-4.953672476546188363e+02,-4.420523910118249660e+02,-3.373795802789478557e+02,-3.655059966775083922e+02,9.523238182067871094e+00,-6.884268522262573242e-01,-2.677215635776519775e-01,3.570000000000000000e+02
-5.038623402753114533e+02,-4.544209061528456459e+02,-4.108147488249700245e+02,-4.028265419511849359e+02,-5.033049295303753752e+02,-4.471735682980965976e+02,-3.494504171621824753e+02,-3.743075865725724043e+02,9.446745872497558594e+00,-6.501809358596801758e-01,-2.677215635776519775e-01,3.580000000000000000e+02
-5.085064749885502238e+02,-4.563872906114407897e+02,-4.215400381887740195e+02,-4.080555040247078296e+02,-5.129814210819404252e+02,-4.532042214538159897e+02,-3.627731412221028222e+02,-3.850224738710355723e+02,9.446745872497558594e+00,-6.501809358596801758e-01,-2.677215635776519775e-01,3.590000000000000000e+02
-5.123015881333989228e+02,-4.598313490601755120e+02,-4.301597849968995888e+02,-4.136903471041243847e+02,-5.215542158559726431e+02,-4.598016703402288385e+02,-3.748983311489298558e+02,-3.954893720527126106e+02,9.446745872497558594e+00,-6.501809358596801758e-01,-2.677215635776519775e-01,3.600000000000000000e+02
-5.151707097366114567e+02,-4.647046849483675715e+02,-4.352780842287434098e+02,-4.194013586554376616e+02,-5.268966156417947104e+02,-4.663494815195831507e+02,-3.836182292080615071e+02,-4.036580509282657658e+02,9.446745872497558594e+00,-6.501809358596801758e-01,-2.677215635776519775e-01,3.610000000000000000e+02
-5.172626632099263588e+02,-4.700217096487078834e+02,-4.370457717697868247e+02,-4.247537416061987869e+02,-5.288387828946243872e+02,-4.721444665135685455e+02,-3.880615543607889322e+02,-4.086637420148289266e+02,9.446745872497558594e+00,-6.501809358596801758e-01,-2.677215635776519775e-01,3.620000000000000000e+02
-5.186483860983873910e+02,-4.745346752836319411e+02,-4.364513596023697346e+02,-4.292381419214272000e+02,-5.286485549342461354e+02,-4.764808152332565214e+02,-3.888923658279045412e+02,-4.108582355519909015e+02,9.446745872497558594e+00,-6.501809358596801758e-01,-2.677215635776519775e-01,3.630000000000000000e+02
-5.193988848399422977e+02,-4.776102725228989812e+02,-4.344985236513515474e+02,-4.323139543409727139e+02,-5.275349745725096682e+02,-4.787793777304781315e+02,-3.876654391919802265e+02,-4.110502575716677711e+02,9.446745872497558594e+00,-6.501809358596801758e-01,-2.677215635776519775e-01,3.640000000000000000e+02
-5.198785303261062154e+02,-4.796651423680010566e+02,-4.320220572820262532e+02,-4.336831536812912873e+02,-5.257729133867297833e+02,-4.789200400528379760e+02,-3.859837029595684044e+02,-4.098669619836716720e+02,9.446745872497558594e+00,-6.501809358596801758e-01,-2.677215635776519775e-01,3.650000000000000000e+02
-5.207550469247305500e+02,-4.817979255696017162e+02,-4.299858516807828437e+02,-4.337124311957306873e+02,-5.231630048094663152e+02,-4.775680377931284966e+02,-3.849807957708476351e+02,-4.077672874075352638e+02,9.446745872497558594e+00,-6.501809358596801758e-01,-2.677215635776519775e-01,3.660000000000000000e+02
-5.225041063589055739e+02,-4.848307793830268793e+02,-4.295274231299792973e+02,-4.335065316846244059e+02,-5.200228471975259481e+02,-4.760186914410901409e+02,-3.851650066402399943e+02,-4.053762716016249215e+02,9.446745872497558594e+00,-6.501809358596801758e-01,-2.677215635776519775e-01,3.670000000000000000e+02
-5.247853921856735724e+02,-4.884663657693838559e+02,-4.313772600870026963e+02,-4.342605491265369437e+02,-5.174238953831312529e+02,-4.754177780264803914e+02,-3.864320826174787271e+02,-4.034931263288622176e+02,9.446745872497558594e+00,-6.501809358596801758e-01,-2.677215635776519775e-01,3.680000000000000000e+02
-5.263181082358780714e+02,-4.912514062661904291e+02,-4.351350049523567804e+02,-4.362550786687636446e+02,-5.163726319726814609e+02,-4.759314923587347721e+02,-3.882093702466410150e+02,-4.026552286800549609e+02,9.446745872497558594e+00,-6.501809358596801758e-01,-2.677215635776519775e-01,3.690000000000000000e+02
-5.255454189446152213e+02,-4.914982546783389807e+02,-4.392769854407977164e+02,-4.384571538414578526e+02,-5.168912708147204285e+02,-4.766940310241297993e+02,-3.898535159572091970e+02,-4.028016191334655787e+02,9.446745872497558594e+00,-6.501809358596801758e-01,-2.677215635776519775e-01,3.700000000000000000e+02
-5.217286167784158124e+02,-4.885764703679194554e+02,-4.421460297309901080e+02,-4.393208868348347096e+02,-5.180561384050300830e+02,-4.767073714285872938e+02,-3.911875869828605801e+02,-4.035238215057324851e+02,9.446745872497558594e+00,-6.501809358596801758e-01,-2.677215635776519775e-01,3.710000000000000000e+02
-5.156149687212596291e+02,-4.835717877541404732e+02,-4.431061827447440464e+02,-4.382011563397768441e+02,-5.189336977430280058e+02,-4.758760445849682128e+02,-3.926835397952360154e+02,-4.046428079925207157e+02,9.446745872497558594e+00,-6.501809358596801758e-01,-2.677215635776519775e-01,3.720000000000000000e+02
-5.090547365286339527e+02,-4.786899412838008629e+02,-4.427773245619487170e+02,-4.360329989672342208e+02,-5.193469725058093900e+02,-4.751183028592340634e+02,-3.949169527543037930e+02,-4.063594273901595670e+02,9.446745872497558594e+00,-6.501809358596801758e-01,-2.677215635776519775e-01,3.730000000000000000e+02
-5.037457736902952092e+02,-4.757734888168794214e+02,-4.421303904050754454e+02,-4.345222619490511988e+02,-5.196608539146793646e+02,-4.753969036697349111e+02,-3.976531159780322469e+02,-4.086908098276767305e+02,9.446745872497558594e+00,-6.501809358596801758e-01,-2.677215635776519775e-01,3.740000000000000000e+02
-5.000521773629116069e+02,-4.750803658595305023e+02,-4.413870658079240457e+02,-4.345625163097604400e+02,-5.199385135848583559e+02,-4.766573240584846189e+02,-3.995530853246963261e+02,-4.108470631050132624e+02,9.446745872497558594e+00,-6.501809358596801758e-01,-2.677215635776519775e-01,3.750000000000000000e+02
-4.968750422487623837e+02,-4.753460061980057390e+02,-4.399110978912408427e+02,-4.354611489717576660e+02,-5.195559423541824344e+02,-4.778166716328421444e+02,-3.991418460116066171e+02,-4.115003877746646594e+02,9.446745872497558594e+00,-6.501809358596801758e-01,-2.677215635776519775e-01,3.760000000000000000e+02
-4.927462088905093651e+02,-4.750759744217066327e+02,-4.372278675438375330e+02,-4.357782413017056342e+02,-5.177857105469838643e+02,-4.778642528171569666e+02,-3.963915823367452731e+02,-4.099893868267125754e+02,9.446745872497558594e+00,-6.501809358596801758e-01,-2.677215635776519775e-01,3.770000000000000000e+02
-4.872628171976760996e+02,-4.739075990831069021e+02,-4.340149853299102460e+02,-4.348914708716995392e+02,-5.146853778228114606e+02,-4.769307728242083613e+02,-3.933480150293927409e+02,-4.072895957422929314e+02,9.446745872497558594e+00,-6.501809358596801758e-01,-2.677215635776519775e-01,3.780000000000000000e+02
-4.816208693501951075e+02,-4.727918723616138550e+02,-4.318400031424793042e+02,-4.336283025640766482e+02,-5.112246064730454691e+02,-4.761739965001286237e+02,-3.928336748355457075e+02,-4.055177465265613819e+02,9.446745872497558594e+00,-6.501809358596801758e-01,-2.677215635776519775e-01,3.790000000000000000e+02
-4.777368219078273341e+02,-4.728651294110104573e+02,-4.317257203115290167e+02,-4.333020399931593829e+02,-5.084093340794338474e+02,-4.765540315757536973e+02,-3.960760553695564568e+02,-4.061153232899513341e+02,9.446745872497558594e+00,-6.501809358596801758e-01,-2.677215635776519775e-01,3.800000000000000000e+02
-4.766793491066121078e+02,-4.741421992779596621e+02,-4.329566939191836354e+02,-4.342173279309606642e+02,-5.062961536270879606e+02,-4.777581703182297588e+02,-4.013920774264704505e+02,-4.083443059636413182e+02,9.446745872497558594e+00,-6.501809358596801758e-01,-2.677215635776519775e-01,3.810000000000000000e+02
-4.777420688800264088e+02,-4.753328006348990584e+02,-4.334661344680379216e+02,-4.352844381479690128e+02,-5.039818825351283067e+02,-4.784071710109876676e+02,-4.053241260728780162e+02,-4.096828251497977362e+02,9.446745872497558594e+00,-6.501809358596801758e-01,-2.677215635776519775e-01,3.820000000000000000e+02
-4.789374980431240374e+02,-4.749785923012191233e+02,-4.316217010517865447e+02,-4.351758990127227662e+02,-5.006445960001803996e+02,-4.773798956961818476e+02,-4.053953069405006318e+02,-4.079828030236585619e+02,9.446745872497558594e+00,-6.501809358596801758e-01,-2.677215635776519775e-01,3.830000000000000000e+02
-4.784401963375745481e+02,-4.727699716490062656e+02,-4.277592122644582560e+02,-4.337480949470082123e+02,-4.965904757613207039e+02,-4.749474564033605475e+02,-4.020342954779621323e+02,-4.034687112133203755e+02,9.446745872497558594e+00,-6.501809358596801758e-01,-2.677215635776519775e-01,3.840000000000000000e+02
-4.757351013497351460e+02,-4.697203691823312965e+02,-4.239616059564392572e+02,-4.321345243460493748e+02,-4.932062279147064601e+02,-4.725868417193617006e+02,-3.979068607970477842e+02,-3.986759284434874644e+02,9.599730491638183594e+00,-5.736890435218811035e-01,-1.147378161549568176e-01,3.850000000000000000e+02
-4.716080302317676569e+02,-4.670188905116776823e+02,-4.222279793020627494e+02,-4.313707213811162546e+02,-4.917790284898230766e+02,-4.716419614779620133e+02,-3.953312493255948539e+02,-3.963121859002183101e+02,9.599730491638183594e+00,-5.736890435218811035e-01,-1.147378161549568176e-01,3.860000000000000000e+02
-4.672023526560535629e+02,-4.647048613732422382e+02,-4.226857174644565021e+02,-4.310128460122541583e+02,-4.922377643451684435e+02,-4.720865350024616873e+02,-3.942216053678082517e+02,-3.969390192137245776e+02,9.599730491638183594e+00,-5.736890435218811035e-01,-1.147378161549568176e-01,3.870000000000000000e+02
-4.630695448795995617e+02,-4.614737966963843974e+02,-4.234086129078541489e+02,-4.292426453025348110e+02,-4.929447886638472482e+02,-4.724776184378895323e+02,-3.924041578278147426e+02,-3.984841929900364903e+02,9.599730491638183594e+00,-5.736890435218811035e-01,-1.147378161549568176e-01,3.880000000000000000e+02
-4.589102749015878544e+02,-4.558146261020438033e+02,-4.218829215720661523e+02,-4.243941664200087871e+02,-4.917046112018510939e+02,-4.710467280507953092e+02,-3.878280034967510801e+02,-3.978610868025166383e+02,9.599730491638183594e+00,-5.736890435218811035e-01,-1.147378161549568176e-01,3.890000000000000000e+02
-4.539662916248203146e+02,-4.474342971923540517e+02,-4.167538154267324444e+02,-4.163900125737382041e+02,-4.871255891321884519e+02,-4.668967039968183599e+02,-3.804527561672250613e+02,-3.931495003706561420e+02,9.599730491638183594e+00,-5.736890435218811035e-01,-1.147378161549568176e-01,3.900000000000000000e+02
-4.475579378634630530e+02,-4.376923501034211768e+02,-4.084748368433151882e+02,-4.067436930510434649e+02,-4.792970771697380314e+02,-4.603597259063128604e+02,-3.721133567056335778e+02,-3.845667073215686287e+02,9.599730491638183594e+00,-5.736890435218811035e-01,-1.147378161549568176e-01,3.910000000000000000e+02
-4.394059563293968722e+02,-4.287039238824827407e+02,-3.986312688853881809e+02,-3.972859863461364966e+02,-4.694399067984561498e+02,-4.524641759782336976e+02,-3.647399658530450779e+02,-3.737973059719392950e+02,9.599730491638183594e+00,-5.736890435218811035e-01,-1.147378161549568176e-01,3.920000000000000000e+02
-4.297617255194141990e+02,-4.218978034764450058e+02,-3.887912061418187477e+02,-3.889546621161161966e+02,-4.590077589224601979e+02,-4.441844233577262457e+02,-3.587895563660144944e+02,-3.626715409985188217e+02,9.599730491638183594e+00,-5.736890435218811035e-01,-1.147378161549568176e-01,3.930000000000000000e+02
-4.194622293870852445e+02,-4.171510768609896331e+02,-3.798216005681581464e+02,-3.816879167064068952e+02,-4.489802674956542887e+02,-4.361081288058392147e+02,-3.532766844116088123e+02,-3.523778968051638003e+02,9.599730491638183594e+00,-5.736890435218811035e-01,-1.147378161549568176e-01,3.940000000000000000e+02
-4.098051488211706328e+02,-4.130633123564903144e+02,-3.719143467156964107e+02,-3.751863131587772386e+02,-4.397113942974676775e+02,-4.285568583864558150e+02,-3.470939058392568768e+02,-3.435032280350051224e+02,9.599730491638183594e+00,-5.736890435218811035e-01,-1.147378161549568176e-01,3.950000000000000000e+02
-4.020713890913591513e+02,-4.080550541119612262e+02,-3.649492012186065040e+02,-3.694968388614774994e+02,-4.311828084585417855e+02,-4.217505407635533174e+02,-3.401656422637768173e+02,-3.363366954498467294e+02,9.599730491638183594e+00,-5.736890435218811035e-01,-1.147378161549568176e-01,3.960000000000000000e+02
-3.968163680972002112e+02,-4.014586331810801312e+02,-3.587675197280232169e+02,-3.648253387060074147e+02,-4.233148003440167031e+02,-4.157579670191380501e+02,-3.334079703508150487e+02,-3.308939632224592060e+02,9.599730491638183594e+00,-5.736890435218811035e-01,-1.147378161549568176e-01,3.970000000000000000e+02
-3.934385689135039001e+02,-3.938849342339390205e+02,-3.532309333146888548e+02,-3.609808199579124448e+02,-4.161202939397787759e+02,-4.103835072927129204e+02,-3.277725152849866390e+02,-3.267380443728593491e+02,9.599730491638183594e+00,-5.736890435218811035e-01,-1.147378161549568176e-01,3.980000000000000000e+02
-3.905108984403336763e+02,-3.866791038749229301e+02,-3.481666700738887812e+02,-3.572400166558852561e+02,-4.096939756506230879e+02,-4.052704619095754879e+02,-3.234381585459809685e+02,-3.230410820411657369e+02,9.599730491638183594e+00,-5.736890435218811035e-01,-1.147378161549568176e-01,3.990000000000000000e+02
-3.867709883068944237e+02,-3.808904631002612859e+02,-3.432917455668866751e+02,-3.528450264305133715e+02,-4.040830818138592804e+02,-4.002039597057644187e+02,-3.198296661908220813e+02,-3.190265891665876552e+02,9.599730491638183594e+00,-5.736890435218811035e-01,-1.147378161549568176e-01,4.000000000000000000e+02
-3.820201303920393912e+02,-3.765039635885900680e+02,-3.381785147473110555e+02,-3.475758885365794413e+02,-3.990936540403452000e+02,-3.952722471870597474e+02,-3.162193868955923790e+02,-3.143953964025699861e+02,9.599730491638183594e+00,-5.736890435218811035e-01,-1.147378161549568176e-01,4.010000000000000000e+02
-3.771630267374126788e+02,-3.725266407632238952e+02,-3.323578462302491516e+02,-3.417935659501645205e+02,-3.941630905082452045e+02,-3.906339347576813452e+02,-3.122233757827739282e+02,-3.092866203988292000e+02,9.599730491638183594e+00,-5.736890435218811035e-01,-1.147378161549568176e-01,4.020000000000000000e+02
-3.733366276685333105e+02,-3.678903497766395958e+02,-3.255976172824846344e+02,-3.359837716933502634e+02,-3.884697588520311911e+02,-3.860863322352281557e+02,-3.078097106897744197e+02,-3.038120406735870347e+02,9.599730491638183594e+00,-5.736890435218811035e-01,-1.147378161549568176e-01,4.030000000000000000e+02
-3.708758154154502336e+02,-3.624110812351877939e+02,-3.181773906793637252e+02,-3.303349933162835441e+02,-3.813403400254608187e+02,-3.809350989164854582e+02,-3.030025318163461634e+02,-2.976783783046603276e+02,9.599730491638183594e+00,-5.736890435218811035e-01,-1.147378161549568176e-01,4.040000000000000000e+02
-3.689970926762534873e+02,-3.569409603135943598e+02,-3.108526824280577330e+02,-3.247380607118550415e+02,-3.727411810953503846e+02,-3.744194178926129553e+02,-2.976923708084884765e+02,-2.903691786090055302e+02,9.599730491638183594e+00,-5.736890435218811035e-01,-1.147378161549568176e-01,4.050000000000000000e+02
-3.664275049774023501e+02,-3.525364281118734198e+02,-3.044002154803151825e+02,-3.190834064273508375e+02,-3.634539425346233656e+02,-3.663760625863442328e+02,-2.917443229335390242e+02,-2.817788437229401097e+02,9.599730491638183594e+00,-5.736890435218811035e-01,-1.147378161549568176e-01,4.060000000000000000e+02
-3.623846114598154600e+02,-3.493745785932244416e+02,-2.990402129696776683e+02,-3.134528824322144374e+02,-3.546999733267837200e+02,-3.575322930601773805e+02,-2.852403881384877877e+02,-2.726947629255691936e+02,9.599730491638183594e+00,-5.736890435218811035e-01,-1.147378161549568176e-01,4.070000000000000000e+02
-3.570563962285491471e+02,-3.464453500502943371e+02,-2.942391786399771263e+02,-3.080455575682556173e+02,-3.474245607264997489e+02,-3.491316019908917951e+02,-2.785832843038733699e+02,-2.645921056309923642e+02,9.599730491638183594e+00,-5.736890435218811035e-01,-1.147378161549568176e-01,4.080000000000000000e+02
-3.512669985471366090e+02,-3.423544633170981797e+02,-2.891153433387694349e+02,-3.030243060122156749e+02,-3.417748442533004436e+02,-3.421862606730558127e+02,-2.723420266357177297e+02,-2.587872720407115139e+02,9.599730491638183594e+00,-5.736890435218811035e-01,-1.147378161549568176e-01,4.090000000000000000e+02
-3.457625580734031701e+02,-3.365319128939129314e+02,-2.831392746457379417e+02,-2.984900562566713234e+02,-3.371754612158879354e+02,-3.369336287719054326e+02,-2.669242066466595134e+02,-2.555915410887876078e+02,9.599730491638183594e+00,-5.736890435218811035e-01,-1.147378161549568176e-01,4.100000000000000000e+02
-3.407847503852208320e+02,-3.297432076893371686e+02,-2.765547322863815225e+02,-2.945173420418166188e+02,-3.328963162440168162e+02,-3.328175354845004676e+02,-2.622828964355262542e+02,-2.541467813419910726e+02,9.599730491638183594e+00,-5.736890435218811035e-01,-1.147378161549568176e-01,4.110000000000000000e+02
-3.361701630189058960e+02,-3.234419958305181808e+02,-2.702115024054410242e+02,-2.910808539757242670e+02,-3.286023569455405777e+02,-3.288806166739850596e+02,-2.578758378781751617e+02,-2.530826947991265570e+02,9.599730491638183594e+00,-5.736890435218811035e-01,-1.147378161549568176e-01,4.120000000000000000e+02
-3.316458711133504949e+02,-3.185760896967080953e+02,-2.650115051184307049e+02,-2.879187867168275261e+02,-3.244458092729983036e+02,-3.242518808808101767e+02,-2.529792460266339731e+02,-2.514745216807366432e+02,9.599730491638183594e+00,-5.736890435218811035e-01,-1.147378161549568176e-01,4.130000000000000000e+02
-3.269267352203494283e+02,-3.149024198830636578e+02,-2.613939019173085399e+02,-2.845822998247731448e+02,-3.206826498919988353e+02,-3.185121608190563620e+02,-2.472092679095694621e+02,-2.493317665989982288e+02,9.599730491638183594e+00,-5.736890435218811035e-01,-1.147378161549568176e-01,4.140000000000000000e+02
-3.216325693868711824e+02,-3.113408912386480552e+02,-2.591433493992985859e+02,-2.807869617377114082e+02,-3.171972941472388356e+02,-3.118707318416022645e+02,-2.408927543436498127e+02,-2.472819965572205092e+02,9.599730491638183594e+00,-5.736890435218811035e-01,-1.147378161549568176e-01,4.150000000000000000e+02
-3.153921995067012176e+02,-3.069523534271345397e+02,-2.575353759279471433e+02,-2.767765702791700733e+02,-3.133751410426675648e+02,-3.050987837789416517e+02,-2.349728496431660005e+02,-2.458227568939137200e+02,9.370253562927246094e+00,-6.119350194931030273e-01,-2.677215635776519775e-01,4.160000000000000000e+02
-3.082762556190291434e+02,-3.016470158089116467e+02,-2.556920556011361896e+02,-2.732403261801384815e+02,-3.084556052600214571e+02,-2.991527309009784403e+02,-2.304501968078693608e+02,-2.448493576722021317e+02,9.370253562927246094e+00,-6.119350194931030273e-01,-2.677215635776519775e-01,4.170000000000000000e+02
-3.011598688572619267e+02,-2.960808635231596782e+02,-2.530068677261447192e+02,-2.707032291447187617e+02,-3.021040507848447305e+02,-2.945965066181368002e+02,-2.277064304093998999e+02,-2.438327394215486947e+02,9.370253562927246094e+00,-6.119350194931030273e-01,-2.677215635776519775e-01,4.180000000000000000e+02
-2.954460237172925190e+02,-2.909818268544884177e+02,-2.494641607184753411e+02,-2.689113791231029609e+02,-2.947704480837610390e+02,-2.912002384458216966e+02,-2.261812531427051454e+02,-2.423623434529413316e+02,9.370253562927246094e+00,-6.119350194931030273e-01,-2.677215635776519775e-01,4.190000000000000000e+02
-2.921314780769093886e+02,-2.865724563813089389e+02,-2.456359008075617112e+02,-2.668581921959344072e+02,-2.875140500591578530e+02,-2.880772317891276089e+02,-2.246240485163075391e+02,-2.404369248918724224e+02,9.370253562927246094e+00,-6.119350194931030273e-01,-2.677215635776519775e-01,4.200000000000000000e+02
-2.909646509195008548e+02,-2.825386223332368445e+02,-2.422672528579928439e+02,-2.635284931899707317e+02,-2.813434430258919292e+02,-2.843083182852410573e+02,-2.217556057853155380e+02,-2.382163956515807968e+02,9.370253562927246094e+00,-6.119350194931030273e-01,-2.677215635776519775e-01,4.210000000000000000e+02
-2.905416692730980230e+02,-2.784445836174736542e+02,-2.396980291732272690e+02,-2.586978645774886445e+02,-2.765314959513702888e+02,-2.795383175373572158e+02,-2.169447201271655103e+02,-2.355693888343273557e+02,9.370253562927246094e+00,-6.119350194931030273e-01,-2.677215635776519775e-01,4.220000000000000000e+02
-2.893484237346085592e+02,-2.741323629918456390e+02,-2.375908240095577639e+02,-2.530123903340418110e+02,-2.724661345673216601e+02,-2.740282860843021808e+02,-2.105408026207335297e+02,-2.319997233512222010e+02,9.370253562927246094e+00,-6.119350194931030273e-01,-2.677215635776519775e-01,4.230000000000000000e+02
-2.868226680769191717e+02,-2.697521347420504298e+02,-2.352417230132707573e+02,-2.472852360447473075e+02,-2.682370204071794433e+02,-2.681874067396393002e+02,-2.037139231063915759e+02,-2.271307497916500324e+02,9.370253562927246094e+00,-6.119350194931030273e-01,-2.677215635776519775e-01,4.240000000000000000e+02
-2.834821065529224597e+02,-2.654776937568326503e+02,-2.322301118979655712e+02,-2.417402879037372259e+02,-2.635176870285342829e+02,-2.621204642525908639e+02,-1.978837824029278636e+02,-2.212854372304068420e+02,9.370253562927246094e+00,-6.119350194931030273e-01,-2.677215635776519775e-01,4.250000000000000000e+02
-2.800941504690790680e+02,-2.612646388578004917e+02,-2.288050747090608183e+02,-2.359965447899032824e+02,-2.589527526955375833e+02,-2.556679792118552541e+02,-1.939906584020350238e+02,-2.155143718875344803e+02,9.370253562927246094e+00,-6.119350194931030273e-01,-2.677215635776519775e-01,4.260000000000000000e+02
-2.768218362213212913e+02,-2.569370456687247497e+02,-2.256248274397148634e+02,-2.298229628644212426e+02,-2.556251460347020839e+02,-2.488619206171019869e+02,-1.919957910906732650e+02,-2.109483355041222694e+02,9.370253562927246094e+00,-6.119350194931030273e-01,-2.677215635776519775e-01,4.270000000000000000e+02
-2.732456860796314686e+02,-2.525322371017934984e+02,-2.230981033140103591e+02,-2.238559778668941362e+02,-2.540299690003121214e+02,-2.422674909943325474e+02,-1.909614755868462908e+02,-2.080404875640426781e+02,9.370253562927246094e+00,-6.119350194931030273e-01,-2.677215635776519775e-01,4.280000000000000000e+02
-2.691163507611638579e+02,-2.485232386929781114e+02,-2.209713399817733261e+02,-2.194527546003632779e+02,-2.535152401796403865e+02,-2.368069626348569727e+02,-1.897216263475570486e+02,-2.063836381754649665e+02,9.370253562927246094e+00,-6.119350194931030273e-01,-2.677215635776519775e-01,4.290000000000000000e+02
-2.648451436142504463e+02,-2.456053671356016821e+02,-2.185694354401753117e+02,-2.176968305692466856e+02,-2.527664317908115663e+02,-2.331997305983413753e+02,-1.877005653534142766e+02,-2.052313581153830455e+02,9.370253562927246094e+00,-6.119350194931030273e-01,-2.677215635776519775e-01,4.300000000000000000e+02
-2.610739782238961197e+02,-2.441308053904565440e+02,-2.154780587579850817e+02,-2.184349543228715902e+02,-2.509232624134624530e+02,-2.315193000338999809e+02,-1.852536195931279508e+02,-2.041776738935786852e+02,9.370253562927246094e+00,-6.119350194931030273e-01,-2.677215635776519775e-01,4.310000000000000000e+02
-2.577864992741442620e+02,-2.436627465887208928e+02,-2.120145187025252653e+02,-2.202126718000658911e+02,-2.482724814405023608e+02,-2.311872310520675455e+02,-1.832113491824600260e+02,-2.033209167790516858e+02,9.370253562927246094e+00,-6.119350194931030273e-01,-2.677215635776519775e-01,4.320000000000000000e+02
-2.540568007555089025e+02,-2.431076952879072905e+02,-2.090279172541966091e+02,-2.211572777647538715e+02,-2.458506556665433891e+02,-2.312889008594524967e+02,-1.819819865435379143e+02,-2.027896081505439270e+02,9.370253562927246094e+00,-6.119350194931030273e-01,-2.677215635776519775e-01,4.330000000000000000e+02
-2.489151133762356949e+02,-2.413884699186075977e+02,-2.071999286487186964e+02,-2.200326597645341735e+02,-2.443447320472860156e+02,-2.308743431792504452e+02,-1.810084128607202274e+02,-2.021653717555673211e+02,9.370253562927246094e+00,-6.119350194931030273e-01,-2.677215635776519775e-01,4.340000000000000000e+02
-2.425362361302895806e+02,-2.381405567080773835e+02,-2.064677195304570887e+02,-2.166627974211824039e+02,-2.433514940708878385e+02,-2.290986596940047093e+02,-1.791401017493419658e+02,-2.004569148619104908e+02,9.370253562927246094e+00,-6.119350194931030273e-01,-2.677215635776519775e-01,4.350000000000000000e+02
-2.364465953080891722e+02,-2.338782831640544373e+02,-2.060495723603173701e+02,-2.116225869889926798e+02,-2.416920665739389733e+02,-2.253606097031915851e+02,-1.756782884896874748e+02,-1.967650047384256595e+02,9.370253562927246094e+00,-6.119350194931030273e-01,-2.677215635776519775e-01,4.360000000000000000e+02
-2.323443711900829385e+02,-2.295243451133974304e+02,-2.049968079922716697e+02,-2.057254246713814609e+02,-2.384373167121470942e+02,-2.195894180711302397e+02,-1.711885637711429808e+02,-1.911070250506561479e+02,9.523238182067871094e+00,-6.884268522262573242e-01,-2.677215635776519775e-01,4.370000000000000000e+02
-2.305485801554661975e+02,-2.257422757664967321e+02,-2.027619593593492482e+02,-1.998118716371416212e+02,-2.336583282203409908e+02,-2.125430595192819965e+02,-1.672943499233390412e+02,-1.846778259017303299e+02,9.523238182067871094e+00,-6.884268522262573242e-01,-2.677215635776519775e-01,4.380000000000000000e+02
-2.295568588040564464e+02,-2.226166172170037498e+02,-1.993393748806099666e+02,-1.948040957241291835e+02,-2.282613072535082210e+02,-2.057643081125829667e+02,-1.655056489329456326e+02,-1.792576830981161038e+02,9.523238182067871094e+00,-6.884268522262573242e-01,-2.677215635776519775e-01,4.390000000000000000e+02
-2.271739063531995271e+02,-2.198500768527878790e+02,-1.949906493065545874e+02,-1.916080330895604220e+02,-2.231678008136150311e+02,-2.009882723163077571e+02,-1.659916518223051298e+02,-1.761505685078921033e+02,9.523238182067871094e+00,-6.884268522262573242e-01,-2.677215635776519775e-01,4.400000000000000000e+02
-2.222016796899388282e+02,-2.171814187028869583e+02,-1.899598153667818679e+02,-1.906739298839613639e+02,-2.186531032524339935e+02,-1.992422021420875353e+02,-1.673095579777520925e+02,-1.754033732837033313e+02,9.523238182067871094e+00,-6.884268522262573242e-01,-2.677215635776519775e-01,4.410000000000000000e+02
-2.152344170736328124e+02,-2.146136329027817737e+02,-1.845175577343720761e+02,-1.915462021483074295e+02,-2.143951418006545282e+02,-2.002155516364900905e+02,-1.673605637772891441e+02,-1.758397914428410331e+02,9.523238182067871094e+00,-6.884268522262573242e-01,-2.677215635776519775e-01,4.420000000000000000e+02
-2.079997569871120504e+02,-2.123250173760973212e+02,-1.792353653207214847e+02,-1.929149855477000983e+02,-2.100643797338289005e+02,-2.023695080947554743e+02,-1.648447034431851534e+02,-1.758446663274069124e+02,9.523238182067871094e+00,-6.884268522262573242e-01,-2.677215635776519775e-01,4.430000000000000000e+02
-2.020156063499828178e+02,-2.104589104618733018e+02,-1.750433967418596239e+02,-1.932809641725700658e+02,-2.058281836456931160e+02,-2.037616860374523640e+02,-1.600907953567621007e+02,-1.743169456049915880e+02,9.523238182067871094e+00,-6.884268522262573242e-01,-2.677215635776519775e-01,4.440000000000000000e+02
-1.977691752064652064e+02,-2.090367150963975291e+02,-1.727887106510606827e+02,-1.917734013339791090e+02,-2.022934181869568420e+02,-2.030502408752140582e+02,-1.546725050006491529e+02,-1.711579423277623846e+02,9.523238182067871094e+00,-6.884268522262573242e-01,-2.677215635776519775e-01,4.450000000000000000e+02
-1.948940247197087956e+02,-2.080412494697034163e+02,-1.725514434496901686e+02,-1.885330136279969793e+02,-1.999635250984342747e+02,-2.000366347805752412e+02,-1.502095507754368100e+02,-1.670626384511679134e+02,9.523238182067871094e+00,-6.884268522262573242e-01,-2.677215635776519775e-01,4.460000000000000000e+02
-1.928382216726788556e+02,-2.075049562766030249e+02,-1.733591640283409561e+02,-1.844561731835738101e+02,-1.987125732872536901e+02,-1.954834668312996655e+02,-1.473598347164536335e+02,-1.629014823567490566e+02,9.523238182067871094e+00,-6.884268522262573242e-01,-2.677215635776519775e-01,4.470000000000000000e+02
-1.912504036483512664e+02,-2.074468612215016492e+02,-1.737147907950716217e+02,-1.805985414119284087e+02,-1.977638145626524420e+02,-1.904697550554942609e+02,-1.457500499343168485e+02,-1.592238325849891680e+02,9.523238182067871094e+00,-6.884268522262573242e-01,-2.677215635776519775e-01,4.480000000000000000e+02
-1.898771361982915096e+02,-2.077019939557462749e+02,-1.726160772905229805e+02,-1.776983215769655544e+02,-1.962472549763228926e+02,-1.858280825983538307e+02,-1.447216702488963165e+02,-1.562183554470441322e+02,9.523238182067871094e+00,-6.884268522262573242e-01,-2.677215635776519775e-01,4.490000000000000000e+02
-1.883732849374503076e+02,-2.078337648741548946e+02,-1.702199825996988238e+02,-1.760196782276675549e+02,-1.939168907438756833e+02,-1.820020986683748561e+02,-1.440847057740902528e+02,-1.540085416865142633e+02,9.523238182067871094e+00,-6.884268522262573242e-01,-2.677215635776519775e-01,4.500000000000000000e+02
-1.864245930548663637e+02,-2.072764290114359937e+02,-1.675598154067570249e+02,-1.754220859178715273e+02,-1.914418407844045760e+02,-1.792323574679739977e+02,-1.441662569423197056e+02,-1.528851701279043027e+02,9.523238182067871094e+00,-6.884268522262573242e-01,-2.677215635776519775e-01,4.510000000000000000e+02
-1.840635614413367875e+02,-2.056562188906650590e+02,-1.655686166564153154e+02,-1.754986367873248128e+02,-1.899874849791826819e+02,-1.777277299586044137e+02,-1.451884416630030046e+02,-1.531904593850738365e+02,9.523238182067871094e+00,-6.884268522262573242e-01,-2.677215635776519775e-01,4.520000000000000000e+02
-1.817423067208987959e+02,-2.030769887223136720e+02,-1.643211452699495112e+02,-1.757327615679571409e+02,-1.903509169711846880e+02,-1.775923801937419739e+02,-1.466847125179046998e+02,-1.549382873060487782e+02,9.523238182067871094e+00,-6.884268522262573242e-01,-2.677215635776519775e-01,4.530000000000000000e+02
-1.799875379304228318e+02,-2.001406169388778835e+02,-1.632023705283988875e+02,-1.756865650609056502e+02,-1.923289968297831365e+02,-1.786162050460925457e+02,-1.476261524026481311e+02,-1.575517924929765741e+02,9.523238182067871094e+00,-6.884268522262573242e-01,-2.677215635776519775e-01,4.540000000000000000e+02
-1.789718369777899625e+02,-1.976323166912222860e+02,-1.617905176847477833e+02,-1.751656967371752671e+02,-1.948418963451440504e+02,-1.802093383062160683e+02,-1.472268354507286858e+02,-1.600349736691346152e+02,9.523238182067871094e+00,-6.884268522262573242e-01,-2.677215635776519775e-01,4.550000000000000000e+02
-1.784690453914529371e+02,-1.960407723490629905e+02,-1.605083280959763670e+02,-1.742457498607620892e+02,-1.967099354417641734e+02,-1.816212954926218117e+02,-1.456964357144086080e+02,-1.615066718744035370e+02,9.523238182067871094e+00,-6.884268522262573242e-01,-2.677215635776519775e-01,4.560000000000000000e+02
-1.782650151359316624e+02,-1.952431262338880060e+02,-1.603277251626680027e+02,-1.731172358500789414e+02,-1.974297432552493774e+02,-1.822848744809471100e+02,-1.441818229112077461e+02,-1.616743576768853927e+02,9.523238182067871094e+00,-6.884268522262573242e-01,-2.677215635776519775e-01,4.570000000000000000e+02
-1.785633119522517518e+02,-1.946246985570817287e+02,-1.617660360469326406e+02,-1.718695120527995641e+02,-1.973153337733410808e+02,-1.820185556119145076e+02,-1.438657011080867960e+02,-1.608656164733988589e+02,9.523238182067871094e+00,-6.884268522262573242e-01,-2.677215635776519775e-01,4.580000000000000000e+02
-1.798637059626992141e+02,-1.935977949523867210e+02,-1.641517706643730889e+02,-1.704069300989372096e+02,-1.969545029077503386e+02,-1.809876152518259005e+02,-1.449812098852053168e+02,-1.596195582643708804e+02,9.523238182067871094e+00,-6.884268522262573242e-01,-2.677215635776519775e-01,4.590000000000000000e+02
-1.823271107965697411e+02,-1.921470083593565050e+02,-1.659337586714434565e+02,-1.685766259878882920e+02,-1.965421704155273801e+02,-1.795303142424077123e+02,-1.465982115078659263e+02,-1.582222661127768788e+02,9.523238182067871094e+00,-6.884268522262573242e-01,-2.677215635776519775e-01,4.600000000000000000e+02
-1.852351621548796174e+02,-1.909537139726060104e+02,-1.657985233820102167e+02,-1.663969651046948002e+02,-1.957157166086035431e+02,-1.780033773005516196e+02,-1.473485583615588439e+02,-1.565846535449300063e+02,9.523238182067871094e+00,-6.884268522262573242e-01,-2.677215635776519775e-01,4.610000000000000000e+02
-1.871532344653196560e+02,-1.909537495031190701e+02,-1.635916789717655320e+02,-1.642026890217241544e+02,-1.940202740248219015e+02,-1.767055542456887451e+02,-1.464566940543138571e+02,-1.545334726415906061e+02,9.484992027282714844e+00,-6.501809358596801758e-01,-2.677215635776519775e-01,4.620000000000000000e+02
-1.868055448337649977e+02,-1.926293894920340790e+02,-1.602430532967105137e+02,-1.625755495434304976e+02,-1.915217811403590531e+02,-1.758238675973302634e+02,-1.442082761466215288e+02,-1.521807587412374687e+02,9.484992027282714844e+00,-6.501809358596801758e-01,-2.677215635776519775e-01,4.630000000000000000e+02
-1.840235163338215898e+02,-1.955692539387198394e+02,-1.568461213184525604e+02,-1.620549519984838298e+02,-1.889478512054297425e+02,-1.753680708530469019e+02,-1.415436203950789604e+02,-1.499507965343411797e+02,9.484992027282714844e+00,-6.501809358596801758e-01,-2.677215635776519775e-01,4.640000000000000000e+02
-1.800001943149795807e+02,-1.986211503087133678e+02,-1.538184211050152044e+02,-1.627705885686161764e+02,-1.871719194114011771e+02,-1.751376598000988452e+02,-1.392572004848261713e+02,-1.482044060410100883e+02,9.484992027282714844e+00,-6.501809358596801758e-01,-2.677215635776519775e-01,4.650000000000000000e+02
-1.765629178872545708e+02,-2.004884345297575692e+02,-1.509039023126636039e+02,-1.642253953876545438e+02,-1.864788114255525215e+02,-1.747819209989720548e+02,-1.375653738530199917e+02,-1.468430003286989631e+02,9.484992027282714844e+00,-6.501809358596801758e-01,-2.677215635776519775e-01,4.660000000000000000e+02
-1.749422210102018198e+02,-2.003109161267063882e+02,-1.478700258720632519e+02,-1.654269304252475195e+02,-1.862756714801776070e+02,-1.739588562769886266e+02,-1.363433984628566122e+02,-1.453372785066089818e+02,9.484992027282714844e+00,-6.501809358596801758e-01,-2.677215635776519775e-01,4.670000000000000000e+02
-1.749281232105975050e+02,-1.978816190441705203e+02,-1.450730069083529088e+02,-1.653802030089018444e+02,-1.855596112529133279e+02,-1.725205791317257535e+02,-1.356368654535096994e+02,-1.432357752807010911e+02,9.484992027282714844e+00,-6.501809358596801758e-01,-2.677215635776519775e-01,4.680000000000000000e+02
-1.750384130731208643e+02,-1.935373976133926135e+02,-1.432559433488295326e+02,-1.636852997077144209e+02,-1.838008914373572225e+02,-1.706386177305457750e+02,-1.358027160635995187e+02,-1.407197488843135034e+02,9.484992027282714844e+00,-6.501809358596801758e-01,-2.677215635776519775e-01,4.690000000000000000e+02
-1.736209499646913628e+02,-1.879845851260788550e+02,-1.427798266886334204e+02,-1.608107811615529954e+02,-1.814803174660196419e+02,-1.687853026089314881e+02,-1.370677044825736175e+02,-1.386433203239107570e+02,9.484992027282714844e+00,-6.501809358596801758e-01,-2.677215635776519775e-01,4.700000000000000000e+02
-1.701128171818684223e+02,-1.821998661940463080e+02,-1.430894903714913653e+02,-1.577706694728390175e+02,-1.797452326740881290e+02,-1.675201980370015917e+02,-1.389455530921600257e+02,-1.379157477681642376e+02,9.484992027282714844e+00,-6.501809358596801758e-01,-2.677215635776519775e-01,4.710000000000000000e+02
-1.655004040179069307e+02,-1.772813551851263583e+02,-1.429873024054616053e+02,-1.553936300640236823e+02,-1.793998816108555729e+02,-1.671337696105060786e+02,-1.401934710837304010e+02,-1.386936284612447707e+02,9.484992027282714844e+00,-6.501809358596801758e-01,-2.677215635776519775e-01,4.720000000000000000e+02
-1.615944208316245749e+02,-1.740992676729561026e+02,-1.414967389516370986e+02,-1.537414549505776904e+02,-1.800734187759976521e+02,-1.673514841480009636e+02,-1.395267353371179979e+02,-1.400664034923108829e+02,9.484992027282714844e+00,-6.501809358596801758e-01,-2.677215635776519775e-01,4.730000000000000000e+02
-1.596487011952574449e+02,-1.728568453932052762e+02,-1.385420074716491854e+02,-1.521482229351342994e+02,-1.803468110697538123e+02,-1.673636367875101314e+02,-1.365697469590872970e+02,-1.405413460674217276e+02,9.484992027282714844e+00,-6.501809358596801758e-01,-2.677215635776519775e-01,4.740000000000000000e+02
-1.593842446509497677e+02,-1.729200896410234236e+02,-1.348928019224617856e+02,-1.498473709877157489e+02,-1.788294698993227030e+02,-1.662618052441762302e+02,-1.322254891309969480e+02,-1.389934718090285060e+02,9.484992027282714844e+00,-6.501809358596801758e-01,-2.677215635776519775e-01,4.750000000000000000e+02
-1.591936976093188605e+02,-1.731704682132385642e+02,-1.315125626241153896e+02,-1.466424605520630848e+02,-1.753023613782170287e+02,-1.636099298180859023e+02,-1.280816390094469170e+02,-1.353707025084145243e+02,9.484992027282714844e+00,-6.501809358596801758e-01,-2.677215635776519775e-01,4.760000000000000000e+02
-1.573680215561421392e+02,-1.726660747330297454e+02,-1.289276835628654680e+02,-1.430640457810754924e+02,-1.709262765735911671e+02,-1.596984986979098267e+02,-1.252843199423912210e+02,-1.306583720083913249e+02,9.484992027282714844e+00,-6.501809358596801758e-01,-2.677215635776519775e-01,4.770000000000000000e+02
-1.533427342689794841e+02,-1.710982587703872468e+02,-1.270912035163610199e+02,-1.399374238019065615e+02,-1.673188990162072969e+02,-1.552765204631105007e+02,-1.237923643606804944e+02,-1.261937786148178020e+02,9.484992027282714844e+00,-6.501809358596801758e-01,-2.677215635776519775e-01,4.780000000000000000e+02
-1.479773971466202056e+02,-1.687205123882163207e+02,-1.256881787951397200e+02,-1.377781333090615590e+02,-1.653114132729231187e+02,-1.510226844083106243e+02,-1.226272179138754836e+02,-1.228838229313046213e+02,9.484992027282714844e+00,-6.501809358596801758e-01,-2.677215635776519775e-01,4.790000000000000000e+02
-1.427546858598566359e+02,-1.659247413955229149e+02,-1.244786444349736030e+02,-1.365216226917982567e+02,-1.644438540506762365e+02,-1.472333443673280726e+02,-1.208888443894782085e+02,-1.208677550531854195e+02,9.484992027282714844e+00,-6.501809358596801758e-01,-2.677215635776519775e-01,4.800000000000000000e+02
-1.386743123932685648e+02,-1.629444333929145614e+02,-1.233709313462827595e+02,-1.357210015561083765e+02,-1.635374383057860541e+02,-1.439419634540261086e+02,-1.186203677331161543e+02,-1.197262662897928749e+02,9.484992027282714844e+00,-6.501809358596801758e-01,-2.677215635776519775e-01,4.810000000000000000e+02
-1.357523935145809446e+02,-1.599368098316813303e+02,-1.222797035652533850e+02,-1.349229747690749264e+02,-1.617173470271986844e+02,-1.412098524540165272e+02,-1.167343005323409670e+02,-1.189161455921635024e+02,9.484992027282714844e+00,-6.501809358596801758e-01,-2.677215635776519775e-01,4.820000000000000000e+02
-1.333740304425527938e+02,-1.572155688598666075e+02,-1.210275501831174552e+02,-1.338751853695944192e+02,-1.589716534586543730e+02,-1.391761314945194954e+02,-1.160800099959440104e+02,-1.180523356830442481e+02,9.484992027282714844e+00,-6.501809358596801758e-01,-2.677215635776519775e-01,4.830000000000000000e+02
-1.309743379482733872e+02,-1.552116499305102479e+02,-1.194257701927340349e+02,-1.324818367596587905e+02,-1.559056798162841915e+02,-1.377921963248948032e+02,-1.165324453052837725e+02,-1.169183743462258462e+02,9.484992027282714844e+00,-6.501809358596801758e-01,-2.677215635776519775e-01,4.840000000000000000e+02
-1.283881297272982920e+02,-1.540999141723320918e+02,-1.174408835587246358e+02,-1.306929834115185258e+02,-1.531175215343077980e+02,-1.365891661396203745e+02,-1.169938017560682511e+02,-1.153771991872567924e+02,9.484992027282714844e+00,-6.501809358596801758e-01,-2.677215635776519775e-01,4.850000000000000000e+02
-1.257056889919991818e+02,-1.535166457376974449e+02,-1.152551803419878524e+02,-1.285185160877781527e+02,-1.508335344300394354e+02,-1.348579361223439719e+02,-1.163554374028324219e+02,-1.133981590348955706e+02,9.484992027282714844e+00,-6.501809358596801758e-01,-2.677215635776519775e-01,4.860000000000000000e+02
-1.229923145711381949e+02,-1.527505168738741759e+02,-1.131521046816383205e+02,-1.261373475053762832e+02,-1.490107958766382126e+02,-1.321963585600078659e+02,-1.145275800632132359e+02,-1.111972169194168600e+02,9.484992027282714844e+00,-6.501809358596801758e-01,-2.677215635776519775e-01,4.870000000000000000e+02
-1.202181651268277847e+02,-1.512768057723164929e+02,-1.113336544987710113e+02,-1.239143925530918295e+02,-1.476094627587215200e+02,-1.289438146806699024e+02,-1.125252811253947129e+02,-1.092762445715443391e+02,9.484992027282714844e+00,-6.501809358596801758e-01,-2.677215635776519775e-01,4.880000000000000000e+02
-1.173724632544689257e+02,-1.490964357376897169e+02,-1.098435098268387264e+02,-1.222277852812458150e+02,-1.466860640159118248e+02,-1.260611006655090023e+02,-1.114838362852162845e+02,-1.082027369796628591e+02,9.446745872497558594e+00,-6.501809358596801758e-01,-2.677215635776519775e-01,4.890000000000000000e+02
-1.145256391234477178e+02,-1.465391306050512412e+02,-1.086657901475621202e+02,-1.212336771021666664e+02,-1.462802874817978136e+02,-1.245012297071218654e+02,-1.115368962516306510e+02,-1.082461488349258616e+02,9.446745872497558594e+00,-6.501809358596801758e-01,-2.677215635776519775e-01,4.900000000000000000e+02
-1.117574546196765368e+02,-1.438109253576049014e+02,-1.078922675260660071e+02,-1.207835082183873965e+02,-1.463109024810150913e+02,-1.245676634303854371e+02,-1.116649366173310227e+02,-1.091851532028499605e+02,9.446745872497558594e+00,-6.501809358596801758e-01,-2.677215635776519775e-01,4.910000000000000000e+02
-1.090915379192387036e+02,-1.408913511589387326e+02,-1.077640543616314517e+02,-1.205769744363451537e+02,-1.466046970527556823e+02,-1.257469843417811717e+02,-1.106973623361786849e+02,-1.104578419315541851e+02,9.446745872497558594e+00,-6.501809358596801758e-01,-2.677215635776519775e-01,4.920000000000000000e+02
-1.065783516190789442e+02,-1.379533428255301715e+02,-1.084656543820797197e+02,-1.203995441137474245e+02,-1.469651566250765882e+02,-1.270779974773890899e+02,-1.084881584691918306e+02,-1.114990345977998913e+02,9.446745872497558594e+00,-6.501809358596801758e-01,-2.677215635776519775e-01,4.930000000000000000e+02
-1.044154404175639002e+02,-1.357654258289260270e+02,-1.097831047536556071e+02,-1.202210234553906503e+02,-1.471591863420394475e+02,-1.277172769272870028e+02,-1.060750394429562675e+02,-1.119311080701498895e+02,9.446745872497558594e+00,-6.501809358596801758e-01,-2.677215635776519775e-01,4.940000000000000000e+02
-1.028733839805190655e+02,-1.353934029406950685e+02,-1.109526727802294772e+02,-1.200909284920182927e+02,-1.468543572404255428e+02,-1.272902521286760020e+02,-1.046364384370463085e+02,-1.114649581493633832e+02,9.446745872497558594e+00,-6.501809358596801758e-01,-2.677215635776519775e-01,4.950000000000000000e+02
-1.020018216486455458e+02,-1.372160209690885040e+02,-1.109751423974862519e+02,-1.199935033621742377e+02,-1.456769893252544534e+02,-1.258942561575249783e+02,-1.042945242129543431e+02,-1.097636723935636383e+02,9.446745872497558594e+00,-6.501809358596801758e-01,-2.677215635776519775e-01,4.960000000000000000e+02
-1.014112922595389819e+02,-1.401485843748935167e+02,-1.092887780417893282e+02,-1.198379424133554494e+02,-1.434453793209039532e+02,-1.239063939779507564e+02,-1.039908972287128108e+02,-1.065955620891089666e+02,9.446745872497558594e+00,-6.501809358596801758e-01,-2.677215635776519775e-01,4.970000000000000000e+02
-1.004507110263070899e+02,-1.420048455761543664e+02,-1.062942989002892773e+02,-1.195681359514172755e+02,-1.403903722909606131e+02,-1.217975761786884732e+02,-1.025679297816358257e+02,-1.022421381965971250e+02,9.446745872497558594e+00,-6.501809358596801758e-01,-2.677215635776519775e-01,4.980000000000000000e+02
-9.870064428593047978e+01,-1.409354019154370690e+02,-1.032260752263318864e+02,-1.192194546461041682e+02,-1.371455461139358931e+02,-1.200371301495022180e+02,-9.997511127316136026e+01,-9.773847316121805306e+01,9.446745872497558594e+00,-6.501809358596801758e-01,-2.677215635776519775e-01,4.990000000000000000e+02
-9.635254413614882196e+01,-1.367917890878543403e+02,-1.013567017786291444e+02,-1.188122234648643598e+02,-1.344744723163730669e+02,-1.190160961229764780e+02,-9.740204972790127158e+01,-9.453547567616124070e+01,9.446745872497558594e+00,-6.501809358596801758e-01,-2.677215635776519775e-01,5.000000000000000000e+02
-9.411888843740950961e+01,-1.312125322282497564e+02,-1.011395499217971974e+02,-1.181920031083884624e+02,-1.329215615014937839e+02,-1.189125036477782942e+02,-9.620944709199181943e+01,-9.367680217892279870e+01,9.446745872497558594e+00,-6.501809358596801758e-01,-2.677215635776519775e-01,5.010000000000000000e+02
-9.273444496999991316e+01,-1.263190178931326955e+02,-1.019807993312623466e+02,-1.170240317122583065e+02,-1.325997644754781959e+02,-1.195372125629828588e+02,-9.668238480707168492e+01,-9.507715066719504193e+01,9.446745872497558594e+00,-6.501809358596801758e-01,-2.677215635776519775e-01,5.020000000000000000e+02
-9.246732507251806510e+01,-1.231660489914724508e+02,-1.027902264440468798e+02,-1.150114517271991303e+02,-1.331898082991903038e+02,-1.203048223969665287e+02,-9.774466158332103305e+01,-9.747845988367237169e+01,9.446745872497558594e+00,-6.501809358596801758e-01,-2.677215635776519775e-01,5.030000000000000000e+02
-9.299143582303338462e+01,-1.212795988339110522e+02,-1.027827990455381837e+02,-1.121634630539646764e+02,-1.340837714290851750e+02,-1.204518108843170126e+02,-9.781164923442793224e+01,-9.912094912485741816e+01,9.446745872497558594e+00,-6.501809358596801758e-01,-2.677215635776519775e-01,5.040000000000000000e+02
-9.360369566408238029e+01,-1.195557953990177680e+02,-1.018465446511013397e+02,-1.088451192644259322e+02,-1.345843662030819132e+02,-1.194240336037807992e+02,-9.595113849243188042e+01,-9.862870267847728201e+01,9.446745872497558594e+00,-6.501809358596801758e-01,-2.677215635776519775e-01,5.050000000000000000e+02
-9.352931849128529507e+01,-1.175382132864430105e+02,-1.003024218699378594e+02,-1.055437689873903082e+02,-1.341302782246548873e+02,-1.171784611339595585e+02,-9.241598516251593765e+01,-9.555661510128879854e+01,9.446745872497558594e+00,-6.501809358596801758e-01,-2.677215635776519775e-01,5.060000000000000000e+02
-9.213457852711741225e+01,-1.158167056370239152e+02,-9.846995483156445061e+01,-1.025728324998329128e+02,-1.325133833547347990e+02,-1.141596687862345334e+02,-8.832101430401672815e+01,-9.042130297227802771e+01,9.446745872497558594e+00,-6.501809358596801758e-01,-2.677215635776519775e-01,5.070000000000000000e+02
-8.907198954834197480e+01,-1.152170927245452674e+02,-9.650860961831284612e+01,-9.997042994445675390e+01,-1.299839833056414022e+02,-1.109525038388566713e+02,-8.491344402923292023e+01,-8.438957554379697967e+01,9.446745872497558594e+00,-6.501809358596801758e-01,-2.677215635776519775e-01,5.080000000000000000e+02
-8.443367721518390567e+01,-1.156529323908703191e+02,-9.455056125673647216e+01,-9.762160503963124825e+01,-1.271223813417120425e+02,-1.078844007883193967e+02,-8.295482385853435403e+01,-7.883035568376908486e+01,9.446745872497558594e+00,-6.501809358596801758e-01,-2.677215635776519775e-01,5.090000000000000000e+02
-7.882264118004857778e+01,-1.158338099964746561e+02,-9.278309068277386018e+01,-9.542989318826127487e+01,-1.244998660123329159e+02,-1.049080317511423459e+02,-8.242465553025641611e+01,-7.483229009248785246e+01,9.446745872497558594e+00,-6.501809358596801758e-01,-2.677215635776519775e-01,5.100000000000000000e+02
-7.317381219972378403e+01,-1.141985459402854985e+02,-9.128545582386777824e+01,-9.337854492526506078e+01,-1.223554029960444041e+02,-1.018617222702810352e+02,-8.256003864437695938e+01,-7.281084354877427245e+01,9.446745872497558594e+00,-6.501809358596801758e-01,-2.677215635776519775e-01,5.110000000000000000e+02
-6.834937028149596472e+01,-1.102641962540903648e+02,-8.984024648118005985e+01,-9.152296947917241710e+01,-1.205594643623118145e+02,-9.887449558012116313e+01,-8.226353134301379555e+01,-7.242793285804279435e+01,9.446745872497558594e+00,-6.501809358596801758e-01,-2.677215635776519775e-01,5.120000000000000000e+02
-6.476225677251113666e+01,-1.051825275264292259e+02,-8.807975478173767669e+01,-9.005792883195050536e+01,-1.189092189587573785e+02,-9.654745530441107348e+01,-8.082117781845013837e+01,-7.296891580807451305e+01,9.446745872497558594e+00,-6.501809358596801758e-01,-2.677215635776519775e-01,5.130000000000000000e+02
-6.232687158548560546e+01,-1.009868806559876475e+02,-8.594279360142303403e+01,-8.942763216077577226e+01,-1.174798742171267349e+02,-9.571730305649299453e+01,-7.852925533163562477e+01,-7.394748847700435590e+01,9.446745872497558594e+00,-6.501809358596801758e-01,-2.677215635776519775e-01,5.140000000000000000e+02
-6.075956543719325964e+01,-9.915211036065079497e+01,-8.396360323330304709e+01,-9.024178841162881781e+01,-1.166495839271184991e+02,-9.693370239123237297e+01,-7.664201249674431438e+01,-7.541178099623704156e+01,9.446745872497558594e+00,-6.501809358596801758e-01,-2.677215635776519775e-01,5.150000000000000000e+02
-5.990068045339359060e+01,-9.965577839254456194e+01,-8.299007476737392608e+01,-9.285393974741953116e+01,-1.167163269188251888e+02,-1.000192887977519831e+02,-7.645968071482673167e+01,-7.763407035026671110e+01,9.446745872497558594e+00,-6.501809358596801758e-01,-2.677215635776519775e-01,5.160000000000000000e+02
-5.972799816288886632e+01,-1.012344961181715917e+02,-8.352333392326067951e+01,-9.685033383825657438e+01,-1.174923213565824653e+02,-1.040580440966778042e+02,-7.819781085460851955e+01,-8.049278233772508884e+01,9.446745872497558594e+00,-6.501809358596801758e-01,-2.677215635776519775e-01,5.170000000000000000e+02
-6.008698728978288273e+01,-1.025021771401695787e+02,-8.533283956770901568e+01,-1.009660353698648123e+02,-1.183859154161475544e+02,-1.078706860359684470e+02,-8.067903403152183728e+01,-8.326440729029445720e+01,9.446745872497558594e+00,-6.501809358596801758e-01,-2.677215635776519775e-01,5.180000000000000000e+02
-6.050709035310080708e+01,-1.029738859455570719e+02,-8.775455499256247549e+01,-1.037052882316203295e+02,-1.190385702100210210e+02,-1.106922111351377680e+02,-8.225810407590006434e+01,-8.518071989218697126e+01,9.446745872497558594e+00,-6.501809358596801758e-01,-2.677215635776519775e-01,5.190000000000000000e+02
-6.043689910495083950e+01,-1.032532460828753074e+02,-9.036071078566612869e+01,-1.043162457662339193e+02,-1.199257088223703249e+02,-1.125714506482588604e+02,-8.221912252311869906e+01,-8.625152323659881404e+01,9.484992027282714844e+00,-6.501809358596801758e-01,-2.677215635776519775e-01,5.200000000000000000e+02
-5.978573875485926692e+01,-1.044069548538211620e+02,-9.327574450715530929e+01,-1.033457584958373445e+02,-1.221724071495609678e+02,-1.141621444018755938e+02,-8.135608110769976520e+01,-8.741167473001962662e+01,9.484992027282714844e+00,-6.501809358596801758e-01,-2.677215635776519775e-01,5.210000000000000000e+02
-5.926082413252049719e+01,-1.071429289388852339e+02,-9.679227632098957201e+01,-1.022711558609169060e+02,-1.265113784859554471e+02,-1.160472030256928520e+02,-8.119383386521758439e+01,-8.965125319645790114e+01,9.484992027282714844e+00,-6.501809358596801758e-01,-2.677215635776519775e-01,5.220000000000000000e+02
-6.007783951303235881e+01,-1.113792612304498562e+02,-1.007097397444611033e+02,-1.024751209766523061e+02,-1.322554691537766303e+02,-1.181588368279183214e+02,-8.261895696825604318e+01,-9.287879209469974739e+01,9.484992027282714844e+00,-6.501809358596801758e-01,-2.677215635776519775e-01,5.230000000000000000e+02
-6.316078973083881465e+01,-1.163416711478885190e+02,-1.041570017587066559e+02,-1.043833207118996143e+02,-1.373781295905857860e+02,-1.198347098202523284e+02,-8.521853303269654134e+01,-9.571605473732233804e+01,9.484992027282714844e+00,-6.501809358596801758e-01,-2.677215635776519775e-01,5.240000000000000000e+02
-6.847081352672489629e+01,-1.209675588788452387e+02,-1.061877142394782823e+02,-1.074158082443696003e+02,-1.398968505558877951e+02,-1.205074979966088904e+02,-8.786944121572923905e+01,-9.663162856124040445e+01,9.484992027282714844e+00,-6.501809358596801758e-01,-2.677215635776519775e-01,5.250000000000000000e+02
-7.504344674607864363e+01,-1.243650998650141446e+02,-1.066278143452029781e+02,-1.106655332288987665e+02,-1.394875053494454278e+02,-1.204043271316968458e+02,-8.986381010932359459e+01,-9.547723083056439464e+01,9.484992027282714844e+00,-6.501809358596801758e-01,-2.677215635776519775e-01,5.260000000000000000e+02
-8.167409671790937864e+01,-1.261932229560734413e+02,-1.063346834021540417e+02,-1.136140206446950742e+02,-1.378725641090138652e+02,-1.205436551395400784e+02,-9.139653411569429409e+01,-9.394277473428860503e+01,9.484992027282714844e+00,-6.501809358596801758e-01,-2.677215635776519775e-01,5.270000000000000000e+02
-8.761450762656863844e+01,-1.268497153759476532e+02,-1.065620606025454435e+02,-1.162745083078684729e+02,-1.375266355597768779e+02,-1.219314424375311319e+02,-9.303676322826436262e+01,-9.435740777775231436e+01,9.484992027282714844e+00,-6.501809358596801758e-01,-2.677215635776519775e-01,5.280000000000000000e+02
-9.265514148799024952e+01,-1.273202203523542266e+02,-1.079626838713609231e+02,-1.187928594091679315e+02,-1.397531252663848136e+02,-1.246515079217701896e+02,-9.491315443384337414e+01,-9.781235147381335082e+01,9.484992027282714844e+00,-6.501809358596801758e-01,-2.677215635776519775e-01,5.290000000000000000e+02
-9.664532490441365553e+01,-1.286394690708884809e+02,-1.100942032299719813e+02,-1.210532869077699161e+02,-1.437577310781043707e+02,-1.277051668792278178e+02,-9.657409196309072286e+01,-1.032573338300585419e+02,9.484992027282714844e+00,-6.501809358596801758e-01,-2.677215635776519775e-01,5.300000000000000000e+02
-9.911660626587536171e+01,-1.312254202986614473e+02,-1.118312680784658824e+02,-1.227434581245988738e+02,-1.474369106879644278e+02,-1.297985863456892730e+02,-9.764661758371812539e+01,-1.083509592588666237e+02,9.484992027282714844e+00,-6.501809358596801758e-01,-2.677215635776519775e-01,5.310000000000000000e+02
-9.955539377678837809e+01,-1.345787941320695609e+02,-1.122901486745549846e+02,-1.237781903101440548e+02,-1.490826202795828976e+02,-1.303738565336075226e+02,-9.847017695564318274e+01,-1.112413672969396430e+02,9.484992027282714844e+00,-6.501809358596801758e-01,-2.677215635776519775e-01,5.320000000000000000e+02
-9.812517971630950342e+01,-1.376325731838451247e+02,-1.114726298803248028e+02,-1.245595804872468761e+02,-1.485076718821710529e+02,-1.299458109766769667e+02,-9.988155336446561705e+01,-1.116719762487246044e+02,9.484992027282714844e+00,-6.501809358596801758e-01,-2.677215635776519775e-01,5.330000000000000000e+02
-9.602337525661255313e+01,-1.394988703944982262e+02,-1.101693158743337335e+02,-1.257038069735085628e+02,-1.468151685268662732e+02,-1.294825403178801935e+02,-1.022677485739495751e+02,-1.105822054125846989e+02,9.484992027282714844e+00,-6.501809358596801758e-01,-2.677215635776519775e-01,5.340000000000000000e+02
-9.488993670636818933e+01,-1.399982313237496783e+02,-1.093319327056242400e+02,-1.274423977916285367e+02,-1.453191597119839571e+02,-1.294795364306064585e+02,-1.048687803050324874e+02,-1.088864369355760573e+02,9.484992027282714844e+00,-6.501809358596801758e-01,-2.677215635776519775e-01,5.350000000000000000e+02
-9.560897260444130552e+01,-1.395505522639778064e+02,-1.094992094034532784e+02,-1.292939434319032443e+02,-1.447203985808055222e+02,-1.296354289200280618e+02,-1.061498235485842088e+02,-1.068063574140555829e+02,9.484992027282714844e+00,-6.501809358596801758e-01,-2.677215635776519775e-01,5.360000000000000000e+02
-9.757943488262480969e+01,-1.386193042844761294e+02,-1.106697476775234463e+02,-1.303987774048268875e+02,-1.451228807000115921e+02,-1.294030432404902058e+02,-1.050210430377337616e+02,-1.043690198013500776e+02,9.484992027282714844e+00,-6.501809358596801758e-01,-2.677215635776519775e-01,5.370000000000000000e+02
-9.922871603375688210e+01,-1.373197079979931914e+02,-1.125351884199153574e+02,-1.302840528958458890e+02,-1.465332738434949533e+02,-1.288086849713672564e+02,-1.018331997927725752e+02,-1.023204950996273510e+02,9.484992027282714844e+00,-6.501809358596801758e-01,-2.677215635776519775e-01,5.380000000000000000e+02
-9.942004848857095567e+01,-1.355740374533056638e+02,-1.147236673944466929e+02,-1.293753077968649450e+02,-1.491037601983789500e+02,-1.286891933410624915e+02,-9.825888519381624064e+01,-1.021939721222056505e+02,9.484992027282714844e+00,-6.501809358596801758e-01,-2.677215635776519775e-01,5.390000000000000000e+02
-9.855129853580956478e+01,-1.335872560665056881e+02,-1.168546276129218313e+02,-1.287527310139867041e+02,-1.528388421382642264e+02,-1.300667885605339507e+02,-9.616575896850554273e+01,-1.051665737377229561e+02,9.484992027282714844e+00,-6.501809358596801758e-01,-2.677215635776519775e-01,5.400000000000000000e+02
-9.835208873633246185e+01,-1.320632804144706824e+02,-1.185307689380574629e+02,-1.293211107533697941e+02,-1.571818000206167198e+02,-1.332038588463237829e+02,-9.644265634893918104e+01,-1.107215839788168523e+02,9.484992027282714844e+00,-6.501809358596801758e-01,-1.912296712398529053e-01,5.410000000000000000e+02
-1.005054317976218954e+02,-1.318525460890818977e+02,-1.194737392285696842e+02,-1.311113750212357445e+02,-1.610597420276999401e+02,-1.372080090706567717e+02,-9.867831980480059428e+01,-1.165458226639907480e+02,9.484992027282714844e+00,-6.501809358596801758e-01,-1.912296712398529053e-01,5.420000000000000000e+02
-1.052601250965763029e+02,-1.333460644789684011e+02,-1.197817414409937555e+02,-1.333337292161149890e+02,-1.634896095723770486e+02,-1.405798390683921752e+02,-1.017758736483938264e+02,-1.200316919798005983e+02,9.484992027282714844e+00,-6.501809358596801758e-01,-1.912296712398529053e-01,5.430000000000000000e+02
-1.111849923368768032e+02,-1.362115325701183792e+02,-1.200262523824253549e+02,-1.351399596107448815e+02,-1.642680451458172683e+02,-1.422805405454691936e+02,-1.048192081760548717e+02,-1.202120691929762870e+02,9.484992027282714844e+00,-6.501809358596801758e-01,-1.912296712398529053e-01,5.440000000000000000e+02
-1.162246804413025529e+02,-1.397195011939056712e+02,-1.209618126893901717e+02,-1.364183932847099641e+02,-1.641374048796988063e+02,-1.424645576613074809e+02,-1.074571884903816681e+02,-1.184624239141076032e+02,9.484992027282714844e+00,-6.501809358596801758e-01,-1.912296712398529053e-01,5.450000000000000000e+02
-1.191341133613777856e+02,-1.432846683637462775e+02,-1.230043987284157083e+02,-1.379064380826002889e+02,-1.642745997662177615e+02,-1.423072238602044308e+02,-1.096580735766810903e+02,-1.173534724843038930e+02,9.484992027282714844e+00,-6.501809358596801758e-01,-1.912296712398529053e-01,5.460000000000000000e+02
-1.201498533357594170e+02,-1.466373323826210253e+02,-1.259161376506181114e+02,-1.404943862602422087e+02,-1.655165255890560729e+02,-1.430907128085818840e+02,-1.112820614206093524e+02,-1.186518592027614432e+02,9.484992027282714844e+00,-6.501809358596801758e-01,-1.912296712398529053e-01,5.470000000000000000e+02
-1.204865641096566833e+02,-1.495015214450177155e+02,-1.290052469458660198e+02,-1.443210030065620231e+02,-1.679156856820436587e+02,-1.452902968951666480e+02,-1.120155706276582350e+02,-1.221462892602467036e+02,9.484992027282714844e+00,-6.501809358596801758e-01,-1.912296712398529053e-01,5.480000000000000000e+02
-1.212043712924819374e+02,-1.512587067826170824e+02,-1.316777489350934047e+02,-1.484697809915369362e+02,-1.708986589783671661e+02,-1.483534537715886472e+02,-1.117572718080627965e+02,-1.261573694116477782e+02,9.484992027282714844e+00,-6.501809358596801758e-01,-1.912296712398529053e-01,5.490000000000000000e+02
-1.224171522759806976e+02,-1.511634125882592343e+02,-1.338368117090130909e+02,-1.515841028495342471e+02,-1.737767099002603572e+02,-1.512509175191917166e+02,-1.110438579525398382e+02,-1.290916431924115386e+02,9.484992027282714844e+00,-6.501809358596801758e-01,-1.912296712398529053e-01,5.500000000000000000e+02
-1.234293944673345322e+02,-1.490808786013712961e+02,-1.357644995512891910e+02,-1.529187584815681475e+02,-1.761214055816590189e+02,-1.532590305952362542e+02,-1.109907830820684467e+02,-1.306021951761449600e+02,9.484992027282714844e+00,-6.501809358596801758e-01,-1.912296712398529053e-01,5.510000000000000000e+02
-1.235562551630173402e+02,-1.460297557285102812e+02,-1.376244904874174608e+02,-1.529511645768989183e+02,-1.777521874446510992e+02,-1.543274519621572836e+02,-1.126130192846512728e+02,-1.314699909624168868e+02,9.484992027282714844e+00,-6.501809358596801758e-01,-1.912296712398529053e-01,5.520000000000000000e+02
-1.228491828973428710e+02,-1.438343974170311412e+02,-1.390995131952568045e+02,-1.530245926586530913e+02,-1.785145323075521446e+02,-1.548373140290814263e+02,-1.159828577031221357e+02,-1.325524634113953653e+02,9.484992027282714844e+00,-6.501809358596801758e-01,-1.912296712398529053e-01,5.530000000000000000e+02
-1.220824906379220920e+02,-1.439587324578260450e+02,-1.395520733357570862e+02,-1.542803549377531454e+02,-1.782022754162471756e+02,-1.551054017369124267e+02,-1.199364069905204815e+02,-1.338716643308243874e+02,9.484992027282714844e+00,-6.501809358596801758e-01,-1.912296712398529053e-01,5.540000000000000000e+02
-1.220303587697044350e+02,-1.464266364331879231e+02,-1.385875950356939939e+02,-1.567311559593199490e+02,-1.767521622273734465e+02,-1.551284483757735870e+02,-1.226862835722149612e+02,-1.346195022378842623e+02,9.484992027282714844e+00,-6.501809358596801758e-01,-1.912296712398529053e-01,5.550000000000000000e+02
-1.227012830032745114e+02,-1.497782688194265575e+02,-1.364957645718404819e+02,-1.592237896042615830e+02,-1.744655500410181048e+02,-1.547277053558800617e+02,-1.229657312082727003e+02,-1.339313258269485232e+02,9.484992027282714844e+00,-6.501809358596801758e-01,-1.912296712398529053e-01,5.560000000000000000e+02
-1.232646214984933977e+02,-1.521417777149954418e+02,-1.341510994646068866e+02,-1.603000254138978562e+02,-1.719440019567764466e+02,-1.538448862747745807e+02,-1.208210297225932663e+02,-1.316444597307381628e+02,9.484992027282714844e+00,-6.501809358596801758e-01,-1.912296712398529053e-01,5.570000000000000000e+02
-1.227988857336595174e+02,-1.525212737085394110e+02,-1.324411801154428758e+02,-1.592460941108238330e+02,-1.697466119793352846e+02,-1.526610340875531620e+02,-1.174024392721548793e+02,-1.284240848141453171e+02,9.484992027282714844e+00,-6.501809358596801758e-01,-1.912296712398529053e-01,5.580000000000000000e+02
-1.212138647085039338e+02,-1.512565687296510077e+02,-1.317025729673378009e+02,-1.565100641903800351e+02,-1.681153863696954431e+02,-1.514740663900875006e+02,-1.139456983475938614e+02,-1.252848725126887075e+02,9.484992027282714844e+00,-6.501809358596801758e-01,-1.912296712398529053e-01,5.590000000000000000e+02
-1.194632604752268890e+02,-1.494186076734413291e+02,-1.316068391952185266e+02,-1.532387230736840138e+02,-1.670393210173542684e+02,-1.505136643539890429e+02,-1.108741089515178828e+02,-1.230106604169595812e+02,9.484992027282714844e+00,-6.501809358596801758e-01,-1.912296712398529053e-01,5.600000000000000000e+02
-1.187615815857843700e+02,-1.478501603886197699e+02,-1.315344624856506925e+02,-1.504172939512918674e+02,-1.665196889674862177e+02,-1.498589611672105093e+02,-1.078462502369657159e+02,-1.218870055836177926e+02,9.484992027282714844e+00,-6.501809358596801758e-01,-1.912296712398529053e-01,5.610000000000000000e+02
-1.194649349763112696e+02,-1.467460559973487761e+02,-1.310925850449193604e+02,-1.483412016604070232e+02,-1.666485219725254865e+02,-1.494373317595527624e+02,-1.046699346992618302e+02,-1.217500035098710214e+02,9.484992027282714844e+00,-6.501809358596801758e-01,-1.912296712398529053e-01,5.620000000000000000e+02
-1.206638202393387473e+02,-1.459675836016631365e+02,-1.303710538328487019e+02,-1.467498690101883767e+02,-1.673455644760542782e+02,-1.490042984103110939e+02,-1.021164937501043823e+02,-1.221216352287647169e+02,9.484992027282714844e+00,-6.501809358596801758e-01,-1.912296712398529053e-01,5.630000000000000000e+02
-1.209254242928591339e+02,-1.455174064395059759e+02,-1.297962869434422828e+02,-1.453418736458652347e+02,-1.680897379247289791e+02,-1.481485692137175647e+02,-1.016867431215114266e+02,-1.223305499489088106e+02,9.484992027282714844e+00,-6.501809358596801758e-01,-1.912296712398529053e-01,5.640000000000000000e+02
-1.195382790725998348e+02,-1.455691602546239665e+02,-1.297614653480450215e+02,-1.441446162402926348e+02,-1.680933807621477172e+02,-1.464569332106584625e+02,-1.043609621815194259e+02,-1.217260265444101606e+02,9.484992027282714844e+00,-6.501809358596801758e-01,-1.912296712398529053e-01,5.650000000000000000e+02
-1.171104653136126217e+02,-1.460843695605290122e+02,-1.303213363215445497e+02,-1.434796226780499637e+02,-1.669273239141894010e+02,-1.438568451089595328e+02,-1.094251769901829903e+02,-1.200595396095632168e+02,9.484992027282714844e+00,-6.119350194931030273e-01,-1.912296712398529053e-01,5.660000000000000000e+02
-1.149718161565815535e+02,-1.465788751819372919e+02,-1.311278423050325728e+02,-1.436728347619355191e+02,-1.650274132979830028e+02,-1.408898133055827202e+02,-1.145280665705849970e+02,-1.178181547103458797e+02,9.484992027282714844e+00,-6.119350194931030273e-01,-1.912296712398529053e-01,5.670000000000000000e+02
-1.139829113249479633e+02,-1.464179074861094705e+02,-1.316102272120178895e+02,-1.448124610638024024e+02,-1.634982078269658814e+02,-1.385869453562845592e+02,-1.170850904871849707e+02,-1.161070018268328568e+02,9.484992027282714844e+00,-6.119350194931030273e-01,-1.912296712398529053e-01,5.680000000000000000e+02
-1.139073095648172966e+02,-1.453817327069100429e+02,-1.312721144903180175e+02,-1.466756423760325561e+02,-1.632834213759088016e+02,-1.379057181078169378e+02,-1.159488632264619810e+02,-1.159401344342695666e+02,9.484992027282714844e+00,-6.119350194931030273e-01,-1.912296712398529053e-01,5.690000000000000000e+02
-1.138979813817750255e+02,-1.439027551135368412e+02,-1.299647834831357613e+02,-1.487727855946395721e+02,-1.644253911748746759e+02,-1.390998589698720025e+02,-1.120460217407180608e+02,-1.173988163074373006e+02,9.484992027282714844e+00,-6.119350194931030273e-01,-1.912296712398529053e-01,5.700000000000000000e+02
-1.135124770183238070e+02,-1.427163816792599391e+02,-1.280265913289149466e+02,-1.504724197873765661e+02,-1.660975754096980381e+02,-1.415195568947438005e+02,-1.075798374836358562e+02,-1.194193956697781687e+02,9.484992027282714844e+00,-6.119350194931030273e-01,-1.912296712398529053e-01,5.710000000000000000e+02
-1.131670000180802163e+02,-1.423080739562810777e+02,-1.261938638243300375e+02,-1.512483027340349508e+02,-1.673546397882200836e+02,-1.440203109690119163e+02,-1.045493875024658337e+02,-1.205458303279501706e+02,9.484992027282714844e+00,-6.119350194931030273e-01,-1.912296712398529053e-01,5.720000000000000000e+02
-1.136229012608946505e+02,-1.427136214135025511e+02,-1.252856653247999930e+02,-1.510027581436734181e+02,-1.678740746135717927e+02,-1.456692257499689731e+02,-1.037213661447640334e+02,-1.201084128954553307e+02,9.484992027282714844e+00,-6.119350194931030273e-01,-1.912296712398529053e-01,5.730000000000000000e+02
-1.151850847585656084e+02,-1.437680996334220254e+02,-1.257937601475550764e+02,-1.502033459520007455e+02,-1.680349375193272863e+02,-1.462261614847411693e+02,-1.046088754660504492e+02,-1.187890295859597245e+02,9.484992027282714844e+00,-6.119350194931030273e-01,-1.912296712398529053e-01,5.740000000000000000e+02
-1.175467155864298547e+02,-1.453934101533704961e+02,-1.276118366653427074e+02,-1.495817668439813133e+02,-1.683644294887872093e+02,-1.460859934499276278e+02,-1.061569279445102438e+02,-1.180042884364847851e+02,9.484992027282714844e+00,-6.119350194931030273e-01,-1.912296712398529053e-01,5.750000000000000000e+02
-1.203654296050081030e+02,-1.475270830561021285e+02,-1.300860126199131628e+02,-1.495219749239622615e+02,-1.689789946548298758e+02,-1.458217256362186163e+02,-1.074822436056638253e+02,-1.186516225339837547e+02,9.484992027282714844e+00,-6.119350194931030273e-01,-1.912296712398529053e-01,5.760000000000000000e+02
-1.237116090708123011e+02,-1.497940008732530259e+02,-1.323560132064485515e+02,-1.497009588327055098e+02,-1.695702001416739222e+02,-1.457768351835929934e+02,-1.082749811525427504e+02,-1.204185527538320457e+02,9.484992027282714844e+00,-6.119350194931030273e-01,-1.912296712398529053e-01,5.770000000000000000e+02
-1.276550675760945524e+02,-1.514162956643613143e+02,-1.337714115767630574e+02,-1.494592837678883370e+02,-1.698697190800758108e+02,-1.460410545966897189e+02,-1.088606822344117973e+02,-1.223318394035777601e+02,9.484992027282714844e+00,-6.119350194931030273e-01,-1.912296712398529053e-01,5.780000000000000000e+02
-1.314013326639724255e+02,-1.516330161410023720e+02,-1.341573916154757171e+02,-1.486851894161500240e+02,-1.700580634651250875e+02,-1.467452007069405227e+02,-1.100307101743510430e+02,-1.239869766303418146e+02,9.484992027282714844e+00,-6.119350194931030273e-01,-1.912296712398529053e-01,5.790000000000000000e+02
-1.332225725851803873e+02,-1.503112537547531247e+02,-1.338504466801259696e+02,-1.483462377544783521e+02,-1.706870487455726106e+02,-1.482837764730593335e+02,-1.126579826123288512e+02,-1.261643455484190781e+02,9.484992027282714844e+00,-6.119350194931030273e-01,-1.912296712398529053e-01,5.800000000000000000e+02
-1.318032199761910306e+02,-1.481520542028138152e+02,-1.335519115962124488e+02,-1.499442180466812715e+02,-1.722023022001521895e+02,-1.511212122615343105e+02,-1.171251942450307979e+02,-1.300825158376883337e+02,9.484992027282714844e+00,-6.119350194931030273e-01,-1.912296712398529053e-01,5.810000000000000000e+02
-1.279784389959022519e+02,-1.462554950790181465e+02,-1.340843775329776690e+02,-1.541581444133717014e+02,-1.745553812963134988e+02,-1.552581522877917450e+02,-1.228570325283544662e+02,-1.359207640445401921e+02,9.484992027282714844e+00,-6.119350194931030273e-01,-1.912296712398529053e-01,5.820000000000000000e+02
-1.250089510731395421e+02,-1.454214741279374721e+02,-1.360930932211140316e+02,-1.598593747359300323e+02,-1.772800413779496012e+02,-1.598467552879938012e+02,-1.284027509058123542e+02,-1.420817147613015550e+02,9.484992027282714844e+00,-6.119350194931030273e-01,-1.912296712398529053e-01,5.830000000000000000e+02
-1.266265059926008689e+02,-1.457843193318549311e+02,-1.397419226490510482e+02,-1.645432643405783892e+02,-1.799437303659942700e+02,-1.634476466580836131e+02,-1.322143507717955799e+02,-1.460656534273384750e+02,9.484992027282714844e+00,-6.119350194931030273e-01,-1.912296712398529053e-01,5.840000000000000000e+02
-1.342510515581871005e+02,-1.470056233425457322e+02,-1.445351097094426223e+02,-1.660129881110060523e+02,-1.825040081272181851e+02,-1.648802175613673171e+02,-1.336521100266927533e+02,-1.463122851626903866e+02,9.484992027282714844e+00,-6.119350194931030273e-01,-1.912296712398529053e-01,5.850000000000000000e+02
-1.457869324344901543e+02,-1.487031475871553994e+02,-1.494158389610038284e+02,-1.639923467802527739e+02,-1.851950835209427169e+02,-1.640421391730706091e+02,-1.334403414485768735e+02,-1.434179767450295913e+02,9.484992027282714844e+00,-6.119350194931030273e-01,-1.912296712398529053e-01,5.860000000000000000e+02
-1.571087629586272669e+02,-1.506722178912823438e+02,-1.531484308956878522e+02,-1.603513051779300440e+02,-1.880488275880215951e+02,-1.620331865764801478e+02,-1.331586797909694724e+02,-1.396829551800819900e+02,9.484992027282714844e+00,-6.119350194931030273e-01,-1.912296712398529053e-01,5.870000000000000000e+02
-1.649369007626337407e+02,-1.527855821076154825e+02,-1.547866615373714012e+02,-1.578030329964331031e+02,-1.905311054431804223e+02,-1.604528616815223359e+02,-1.341289290914955927e+02,-1.374096577408181474e+02,9.484992027282714844e+00,-6.119350194931030273e-01,-1.912296712398529053e-01,5.880000000000000000e+02
-1.686354085587990994e+02,-1.548325206883873761e+02,-1.539924431099279900e+02,-1.581667900261691102e+02,-1.917221232775209501e+02,-1.604201042246331781e+02,-1.365696422537803301e+02,-1.374094565002142190e+02,9.484992027282714844e+00,-6.119350194931030273e-01,-1.912296712398529053e-01,5.890000000000000000e+02
-1.696985493699830840e+02,-1.565835368978787301e+02,-1.511304169810864551e+02,-1.614990604915219592e+02,-1.909800477187218348e+02,-1.620343715299368341e+02,-1.396614294848968711e+02,-1.388554974109556497e+02,9.484992027282714844e+00,-6.119350194931030273e-01,-1.912296712398529053e-01,5.900000000000000000e+02
-1.699202403749677615e+02,-1.580408171801445860e+02,-1.472119352155968954e+02,-1.664986387651897530e+02,-1.885498475397471339e+02,-1.645501151194621343e+02,-1.423853543490313314e+02,-1.403404279774676979e+02,9.484992027282714844e+00,-6.119350194931030273e-01,-1.912296712398529053e-01,5.910000000000000000e+02
-1.701844988236825884e+02,-1.595428825495109777e+02,-1.437171008269760932e+02,-1.715244847944741196e+02,-1.855728269698483928e+02,-1.669535223983584729e+02,-1.443581667563448718e+02,-1.410255216418463533e+02,9.484992027282714844e+00,-6.119350194931030273e-01,-1.912296712398529053e-01,5.920000000000000000e+02
-1.706998311989391368e+02,-1.614884985762237193e+02,-1.422059173901870963e+02,-1.753414305840269662e+02,-1.834553601525658451e+02,-1.684667186495025817e+02,-1.459685017623432941e+02,-1.409583875725074904e+02,9.484992027282714844e+00,-6.119350194931030273e-01,-2.294756323099136353e-01,5.930000000000000000e+02
-1.717561861788908573e+02,-1.638626061805643985e+02,-1.436830191695207759e+02,-1.772977571446554066e+02,-1.830947438257862814e+02,-1.687826584616486798e+02,-1.477977421936793689e+02,-1.405997930056710175e+02,9.484992027282714844e+00,-6.119350194931030273e-01,-2.294756323099136353e-01,5.940000000000000000e+02
-1.737112647162321082e+02,-1.660331347077517421e+02,-1.479678295298926969e+02,-1.772450357328198152e+02,-1.845202167424722575e+02,-1.681031966452901543e+02,-1.499340878571856592e+02,-1.402759511597778328e+02,9.484992027282714844e+00,-6.119350194931030273e-01,-2.294756323099136353e-01,5.950000000000000000e+02
-1.761630405604009866e+02,-1.670974266741905012e+02,-1.535446832893667306e+02,-1.755337763540010201e+02,-1.870873643403538154e+02,-1.670473230089955905e+02,-1.518127933606301667e+02,-1.400845263242299552e+02,9.484992027282714844e+00,-6.119350194931030273e-01,-2.294756323099136353e-01,5.960000000000000000e+02
-1.775194436324873095e+02,-1.665769865494457918e+02,-1.581607619194674044e+02,-1.730053167013938946e+02,-1.898939052300629555e+02,-1.663628124611750536e+02,-1.526579861784430250e+02,-1.401070236703308183e+02,9.484992027282714844e+00,-6.119350194931030273e-01,-2.294756323099136353e-01,5.970000000000000000e+02
-1.759011711448765709e+02,-1.648850574982825492e+02,-1.598652334112284734e+02,-1.706948818815981213e+02,-1.920220790445237071e+02,-1.664526791742719070e+02,-1.520519671244510391e+02,-1.404428063076884428e+02,9.484992027282714844e+00,-6.119350194931030273e-01,-2.294756323099136353e-01,5.980000000000000000e+02
-1.707488170095548412e+02,-1.630935739939905034e+02,-1.578091407553984027e+02,-1.692667028070281958e+02,-1.925795888494685641e+02,-1.670220608565177827e+02,-1.501069598535050318e+02,-1.409255651135044900e+02,9.484992027282714844e+00,-6.119350194931030273e-01,-2.294756323099136353e-01,5.990000000000000000e+02
-1.635541359486433066e+02,-1.620973250794959313e+02,-1.523719664488253329e+02,-1.686239784964254795e+02,-1.908173726105269452e+02,-1.672238256899690896e+02,-1.471719937921898236e+02,-1.409218410800222046e+02,9.484992027282714844e+00,-6.119350194931030273e-01,-2.294756323099136353e-01,6.000000000000000000e+02
-1.568769104350358248e+02,-1.618253758617320273e+02,-1.447734240666814003e+02,-1.681001161291169410e+02,-1.864852673137756938e+02,-1.662999511130074097e+02,-1.434854309945367277e+02,-1.396474111950628867e+02,9.484992027282714844e+00,-6.119350194931030273e-01,-2.294756323099136353e-01,6.010000000000000000e+02
-1.524897580091892451e+02,-1.611741138479374058e+02,-1.366414086004842829e+02,-1.670840746840003703e+02,-1.801903866166139778e+02,-1.641937158534092305e+02,-1.391700513545765716e+02,-1.368641587692145549e+02,9.484992027282714844e+00,-6.119350194931030273e-01,-2.294756323099136353e-01,6.020000000000000000e+02
-1.503205777854382177e+02,-1.588118137980345637e+02,-1.297350018002962315e+02,-1.654679580801930570e+02,-1.733277135753705807e+02,-1.615370538841816597e+02,-1.345170387873840809e+02,-1.332863639686147508e+02,9.484992027282714844e+00,-6.119350194931030273e-01,-2.294756323099136353e-01,6.030000000000000000e+02
-1.489711957180334139e+02,-1.542785063025512500e+02,-1.255930578077004611e+02,-1.634892918048135471e+02,-1.674527534425069462e+02,-1.589928918800142128e+02,-1.301299966737460636e+02,-1.301851322334005090e+02,9.484992027282714844e+00,-6.119350194931030273e-01,-2.294756323099136353e-01,6.040000000000000000e+02
-1.470926134688670572e+02,-1.485075689512304962e+02,-1.249196202757193532e+02,-1.612043182020424865e+02,-1.634756105724336521e+02,-1.565809048368828371e+02,-1.266438074184770812e+02,-1.284565444223553641e+02,9.484992027282714844e+00,-6.119350194931030273e-01,-2.294756323099136353e-01,6.050000000000000000e+02
-1.442850412702300673e+02,-1.432815872394712642e+02,-1.270438870516409224e+02,-1.582452992412108870e+02,-1.612632439814660756e+02,-1.536588487458757299e+02,-1.242256578913402336e+02,-1.279939028888147732e+02,9.484992027282714844e+00,-6.119350194931030273e-01,-2.294756323099136353e-01,6.060000000000000000e+02
-1.409332158277466078e+02,-1.399669060678788810e+02,-1.301013186730742746e+02,-1.541968701402365696e+02,-1.599131944909677259e+02,-1.495889021060538653e+02,-1.223759562048762746e+02,-1.279417703639519459e+02,9.484992027282714844e+00,-6.119350194931030273e-01,-2.294756323099136353e-01,6.070000000000000000e+02
-1.375240047663501173e+02,-1.384805507758719614e+02,-1.321155535668040102e+02,-1.491974600399335031e+02,-1.584060514986449562e+02,-1.444308437986837816e+02,-1.202939793927653227e+02,-1.275566320411780907e+02,9.484992027282714844e+00,-6.119350194931030273e-01,-2.294756323099136353e-01,6.080000000000000000e+02
-1.342640236516908772e+02,-1.373263089162064716e+02,-1.322523887335446489e+02,-1.440631303277114057e+02,-1.561117702806332090e+02,-1.389957995729564573e+02,-1.175095999516270240e+02,-1.268162306704762159e+02,9.484992027282714844e+00,-6.119350194931030273e-01,-2.294756323099136353e-01,6.090000000000000000e+02
-1.311807946317640017e+02,-1.347502788924248307e+02,-1.311700496688754356e+02,-1.397043780393978523e+02,-1.528531689559167717e+02,-1.342237404432526091e+02,-1.141963529084750917e+02,-1.262152609795957687e+02,9.484992027282714844e+00,-6.119350194931030273e-01,-2.294756323099136353e-01,6.100000000000000000e+02
-1.282976235564365197e+02,-1.301561159446391684e+02,-1.301127427460596664e+02,-1.363606929024572310e+02,-1.486730231493093015e+02,-1.304756873736587295e+02,-1.108712419615840190e+02,-1.260209190225505154e+02,9.484992027282714844e+00,-6.119350194931030273e-01,-2.294756323099136353e-01,6.110000000000000000e+02
