F3,F4,C3,C4,P3,P4,Cz,Pz,Accel_x,Accel_y,Accel_z,Sample
-3.819877747446298599e-11,-3.183231456205248833e-11,-3.547029336914420128e-11,-4.365574568510055542e-11,-3.819877747446298599e-11,-5.366018740460276604e-11,-5.093170329928398132e-11,-5.638867150992155075e-11,9.484992027282714844e+00,-6.501809358596801758e-01,-4.589512646198272705e-01,2.260000000000000000e+02
-6.615033313645653834e+00,-8.589294681301907985e+00,-6.793023608604016772e+00,-8.776607636971675674e+00,-2.281602459707301023e+01,-1.812381293658745562e+01,-5.112124296515503374e+00,-7.935126317645881500e+00,9.484992027282714844e+00,-6.501809358596801758e-01,-4.589512646198272705e-01,2.270000000000000000e+02
-1.678673865942073462e+01,-1.904715275329181168e+01,-1.546098800301297160e+01,-1.839790809116038872e+01,-4.027039672808678006e+01,-3.319667260241749318e+01,-1.089715296679059975e+01,-1.717977697454716690e+01,9.484992027282714844e+00,-6.501809358596801758e-01,-4.589512646198272705e-01,2.280000000000000000e+02
-3.123079765008333197e+01,-3.171820212154580076e+01,-2.630705619733998901e+01,-2.928026731447152997e+01,-5.165977493571153900e+01,-4.484662284275145794e+01,-1.774081730771922594e+01,-2.781615356997463095e+01,9.484992027282714844e+00,-6.501809358596801758e-01,-4.589512646198272705e-01,2.290000000000000000e+02
-4.750066658235573414e+01,-4.530162089020996063e+01,-3.779726089322412008e+01,-4.113117152935956256e+01,-6.094163133152233058e+01,-5.528281765824704053e+01,-2.561604817481838836e+01,-3.857042118955632759e+01,9.484992027282714844e+00,-6.501809358596801758e-01,-4.589512646198272705e-01,2.300000000000000000e+02
-6.228294997937246080e+01,-5.815819857534734183e+01,-4.777876175092751510e+01,-5.301947142571043514e+01,-7.234025777224360354e+01,-6.667642709647043375e+01,-3.416023080854029104e+01,-4.788138265084853629e+01,9.484992027282714844e+00,-6.501809358596801758e-01,-4.589512646198272705e-01,2.310000000000000000e+02
-7.403643549053049355e+01,-6.972976975524306908e+01,-5.512541286421492259e+01,-6.388817068526896037e+01,-8.631401632192410034e+01,-7.895539121644287661e+01,-4.286959020175436308e+01,-5.519390969131472957e+01,9.484992027282714844e+00,-6.501809358596801758e-01,-4.589512646198272705e-01,2.320000000000000000e+02
-8.368745338589360472e+01,-8.076157093382153107e+01,-6.051152033251491957e+01,-7.328804090999256005e+01,-9.992673567837027804e+01,-9.033010920977449132e+01,-5.133011319928391458e+01,-6.139504632367516024e+01,9.484992027282714844e+00,-6.501809358596801758e-01,-4.589512646198272705e-01,2.330000000000000000e+02
-9.318836917815769993e+01,-9.226001898493996123e+01,-6.585565606714772002e+01,-8.182150804231514485e+01,-1.107865884004168038e+02,-9.976887559749593493e+01,-5.942105799187265802e+01,-6.815801604773423605e+01,9.484992027282714844e+00,-6.501809358596801758e-01,-4.589512646198272705e-01,2.340000000000000000e+02
-1.036766610063368717e+02,-1.043225702427871511e+02,-7.305324949015175662e+01,-9.087338230452496646e+01,-1.200729301057199336e+02,-1.085691309488402112e+02,-6.742461020599148469e+01,-7.689770215239605022e+01,9.484992027282714844e+00,-6.119350194931030273e-01,-4.207052886486053467e-01,2.350000000000000000e+02
-1.149474834581133109e+02,-1.159864023692880437e+02,-8.298953933301436336e+01,-1.017089322711535715e+02,-1.314997131572408762e+02,-1.193101156431412164e+02,-7.593991022726277151e+01,-8.817811261504357390e+01,9.484992027282714844e+00,-6.119350194931030273e-01,-4.207052886486053467e-01,2.360000000000000000e+02
-1.263116323264057428e+02,-1.261663675415129546e+02,-9.533290704565661144e+01,-1.145399515162216630e+02,-1.475635109382137671e+02,-1.333904185058472649e+02,-8.552346094311451452e+01,-1.017612645641393101e+02,9.484992027282714844e+00,-6.119350194931030273e-01,-4.207052886486053467e-01,2.370000000000000000e+02
-1.375893059213731249e+02,-1.347432593688208726e+02,-1.089155901083449862e+02,-1.282492464209799437e+02,-1.670567384541218416e+02,-1.497434595074391837e+02,-9.618989897687879420e+01,-1.168645236516213117e+02,9.484992027282714844e+00,-6.119350194931030273e-01,-4.207052886486053467e-01,2.380000000000000000e+02
-1.492098358574230588e+02,-1.428319098849415241e+02,-1.222690451021280751e+02,-1.409883486096059642e+02,-1.861240188053989186e+02,-1.658686040767715895e+02,-1.071286220040301487e+02,-1.322146411493649794e+02,9.484992027282714844e+00,-6.119350194931030273e-01,-4.207052886486053467e-01,2.390000000000000000e+02
-1.615497369699924093e+02,-1.520615620481748920e+02,-1.340680423013009204e+02,-1.512219354331336945e+02,-2.013823524619165255e+02,-1.798549614561516137e+02,-1.169661017172165884e+02,-1.460339340819818972e+02,9.484992027282714844e+00,-6.119350194931030273e-01,-4.207052886486053467e-01,2.400000000000000000e+02
-1.743480035004395177e+02,-1.634967882265400476e+02,-1.434841509940988544e+02,-1.585439767460829898e+02,-2.119743283794614399e+02,-1.913524883297204724e+02,-1.245354550857255163e+02,-1.564446146135433082e+02,9.484992027282714844e+00,-6.119350194931030273e-01,-4.207052886486053467e-01,2.410000000000000000e+02
-1.867209474165110805e+02,-1.769737392976185220e+02,-1.504714924355084804e+02,-1.638402994693033179e+02,-2.191768636113492903e+02,-2.009819418547440364e+02,-1.296791128631166430e+02,-1.624328763386192804e+02,9.484992027282714844e+00,-6.119350194931030273e-01,-4.207052886486053467e-01,2.420000000000000000e+02
-1.975881297941177763e+02,-1.912046445228397715e+02,-1.558472780625479572e+02,-1.688256502342856038e+02,-2.248222988883762810e+02,-2.093833999842581761e+02,-1.334914251269983652e+02,-1.648004664292629968e+02,9.484992027282714844e+00,-6.119350194931030273e-01,-4.207052886486053467e-01,2.430000000000000000e+02
-2.060916108099067969e+02,-2.044802594273796785e+02,-1.610128926519118977e+02,-1.752753299864734799e+02,-2.304432412016894887e+02,-2.171086721760311775e+02,-1.377869336811500034e+02,-1.662160859524983607e+02,9.484992027282714844e+00,-6.119350194931030273e-01,-4.207052886486053467e-01,2.440000000000000000e+02
-2.118768840320626623e+02,-2.155418891624667594e+02,-1.673983683366650439e+02,-1.843038988655998764e+02,-2.374950672255899917e+02,-2.251418553171652093e+02,-1.441440590478596278e+02,-1.700171836821591569e+02,9.484992027282714844e+00,-6.119350194931030273e-01,-4.207052886486053467e-01,2.450000000000000000e+02
-2.153153393831707945e+02,-2.241858739115241406e+02,-1.759197353264244157e+02,-1.959328708260709391e+02,-2.475132306878940653e+02,-2.348995666634164081e+02,-1.531589530796218241e+02,-1.784058758998580743e+02,9.484992027282714844e+00,-6.119350194931030273e-01,-4.207052886486053467e-01,2.460000000000000000e+02
-2.175987828810702922e+02,-2.313315847849453348e+02,-1.866912252351667121e+02,-2.090941584288202648e+02,-2.613911601243871701e+02,-2.472698719100080780e+02,-1.643231620812339315e+02,-1.912364482616685564e+02,9.484992027282714844e+00,-6.119350194931030273e-01,-4.207052886486053467e-01,2.470000000000000000e+02
-2.204637409171164109e+02,-2.385549027173847207e+02,-1.990151001297454059e+02,-2.221254963184419466e+02,-2.783731173256992406e+02,-2.615961038715386167e+02,-1.764507461407511073e+02,-2.062247544086385460e+02,9.484992027282714844e+00,-6.119350194931030273e-01,-4.207052886486053467e-01,2.480000000000000000e+02
-2.255029410735728561e+02,-2.473464270679360197e+02,-2.115390495737228775e+02,-2.336062060425329037e+02,-2.960060518010614032e+02,-2.758375135176192998e+02,-1.882497949748030805e+02,-2.203731399116286411e+02,9.484992027282714844e+00,-6.119350194931030273e-01,-4.207052886486053467e-01,2.490000000000000000e+02
-2.334859088690004683e+02,-2.584895361952630992e+02,-2.225567793274794894e+02,-2.430995546334143000e+02,-3.113899570626563218e+02,-2.879854945943870916e+02,-1.986883553824918636e+02,-2.315776742705884317e+02,9.484992027282714844e+00,-6.119350194931030273e-01,-4.207052886486053467e-01,2.500000000000000000e+02
-2.442185431132852500e+02,-2.718251231767626450e+02,-2.305436438577257832e+02,-2.512912129681380975e+02,-3.227418695478245354e+02,-2.974826987353080767e+02,-2.070975579112373453e+02,-2.393796182655169105e+02,9.484992027282714844e+00,-6.119350194931030273e-01,-4.207052886486053467e-01,2.510000000000000000e+02
-2.569951981069307294e+02,-2.863920910139540865e+02,-2.348883630126997559e+02,-2.593489677599827701e+02,-3.300649553702933190e+02,-3.053715481088265733e+02,-2.131535986711351143e+02,-2.445711737309793534e+02,9.484992027282714844e+00,-6.119350194931030273e-01,-4.207052886486053467e-01,2.520000000000000000e+02
-2.711353989882754831e+02,-3.007492748082795515e+02,-2.364680330186843094e+02,-2.679060206309432033e+02,-3.346370692237023832e+02,-3.131222681751096388e+02,-2.168631030555188772e+02,-2.482112141529814835e+02,9.484992027282714844e+00,-6.119350194931030273e-01,-4.207052886486053467e-01,2.530000000000000000e+02
-2.860691351787208987e+02,-3.133100175951763049e+02,-2.375491104174921020e+02,-2.764206273613212943e+02,-3.380222598236086924e+02,-3.212916514499174809e+02,-2.185592082264242890e+02,-2.508820980820373734e+02,9.484992027282714844e+00,-6.119350194931030273e-01,-4.207052886486053467e-01,2.540000000000000000e+02
-3.009977268145785274e+02,-3.226771023766532380e+02,-2.407985787852016983e+02,-2.834445393982550740e+02,-3.414054197318728257e+02,-3.291551167216666727e+02,-2.188603716706656996e+02,-2.526279906198396930e+02,9.484992027282714844e+00,-6.119350194931030273e-01,-4.207052886486053467e-01,2.550000000000000000e+02
-3.146729819045494878e+02,-3.280225941913204224e+02,-2.478384210870608513e+02,-2.876461524087330872e+02,-3.454598272440025539e+02,-3.354532129886965777e+02,-2.185822415434649884e+02,-2.534100559141393205e+02,9.484992027282714844e+00,-6.119350194931030273e-01,-4.207052886486053467e-01,2.560000000000000000e+02
-3.257089362398173762e+02,-3.294379009086965198e+02,-2.582385608680160658e+02,-2.888318188304647265e+02,-3.504960325121828646e+02,-3.394794462111667599e+02,-2.186164632808854549e+02,-2.535735581373851346e+02,9.484992027282714844e+00,-6.119350194931030273e-01,-4.207052886486053467e-01,2.570000000000000000e+02
-3.332215528460842506e+02,-3.280485967763056578e+02,-2.696681485934809643e+02,-2.881860030120615193e+02,-3.566219432783500451e+02,-3.416378084216703428e+02,-2.197498405883948180e+02,-2.539520418875913492e+02,9.484992027282714844e+00,-6.119350194931030273e-01,-4.207052886486053467e-01,2.580000000000000000e+02
-3.372136429817255703e+02,-3.257289225296731274e+02,-2.791635826068691131e+02,-2.875542584221539073e+02,-3.638437139346942786e+02,-3.431922272583105951e+02,-2.223999377455529611e+02,-2.555978790808990198e+02,9.484992027282714844e+00,-6.119350194931030273e-01,-4.207052886486053467e-01,2.590000000000000000e+02
-3.383783167170354318e+02,-3.244865474394296143e+02,-2.847118761262322550e+02,-2.883519046585079195e+02,-3.720902706620499885e+02,-3.455351516134396661e+02,-2.263713349867280158e+02,-2.593599743698382554e+02,9.484992027282714844e+00,-6.119350194931030273e-01,-4.207052886486053467e-01,2.600000000000000000e+02
-3.375676205440850026e+02,-3.257846239461150617e+02,-2.861499356137514951e+02,-2.909293852541673004e+02,-3.810865649707502598e+02,-3.494872616159909740e+02,-2.308495173818159856e+02,-2.655217433541724859e+02,9.484992027282714844e+00,-6.119350194931030273e-01,-4.207052886486053467e-01,2.610000000000000000e+02
-3.354677607366484153e+02,-3.300869446169685943e+02,-2.849096336861566670e+02,-2.948089637353732542e+02,-3.901403885741174236e+02,-3.550114952696176260e+02,-2.347671222469712120e+02,-2.736044339314144054e+02,9.484992027282714844e+00,-6.119350194931030273e-01,-4.207052886486053467e-01,2.620000000000000000e+02
-3.327430256759689655e+02,-3.367790649169810422e+02,-2.829398337817460742e+02,-2.994595039620739954e+02,-3.981106554115817744e+02,-3.614196995823203906e+02,-2.373626012544727928e+02,-2.823953928499468020e+02,9.484992027282714844e+00,-6.119350194931030273e-01,-4.207052886486053467e-01,2.630000000000000000e+02
-3.303956199451899920e+02,-3.444739956550924944e+02,-2.816258777812599874e+02,-3.048369628912960252e+02,-4.037974151538719525e+02,-3.678815041148282035e+02,-2.385300673829278821e+02,-2.902509202461983477e+02,9.484992027282714844e+00,-6.119350194931030273e-01,-4.207052886486053467e-01,2.640000000000000000e+02
-3.298688006077154569e+02,-3.516199160735914120e+02,-2.813994039350614003e+02,-3.111931395969863843e+02,-4.066094163049092458e+02,-3.738605687660933654e+02,-2.386918878996448257e+02,-2.956535395586297454e+02,9.484992027282714844e+00,-6.119350194931030273e-01,-4.207052886486053467e-01,2.650000000000000000e+02
-3.326770806133649785e+02,-3.572179517419585864e+02,-2.821368702749914519e+02,-3.183891762670405114e+02,-4.069912903035669842e+02,-3.791737167311625853e+02,-2.383691155730252831e+02,-2.978371444246226929e+02,9.446745872497558594e+00,-6.119350194931030273e-01,-4.207052886486053467e-01,2.660000000000000000e+02
-3.397149393016761678e+02,-3.612985493417959333e+02,-2.838446119043860563e+02,-3.254613490968617953e+02,-4.062282450132720442e+02,-3.837150790503742428e+02,-2.379184929267162261e+02,-2.971577728398724503e+02,9.446745872497558594e+00,-6.119350194931030273e-01,-4.207052886486053467e-01,2.670000000000000000e+02
-3.505951195374868803e+02,-3.648286382531491654e+02,-2.869998409377885764e+02,-3.310143493193213544e+02,-4.057867776900434365e+02,-3.872307046008954785e+02,-2.377217761877827797e+02,-2.950010925752599178e+02,9.446745872497558594e+00,-6.119350194931030273e-01,-4.207052886486053467e-01,2.680000000000000000e+02
-3.633977180557540123e+02,-3.690208067804069287e+02,-2.922721925610367180e+02,-3.342454191365068255e+02,-4.067799803749658167e+02,-3.895131490570001915e+02,-2.385634309341326116e+02,-2.933155417463590311e+02,9.446745872497558594e+00,-6.119350194931030273e-01,-4.207052886486053467e-01,2.690000000000000000e+02
-3.751250429608730883e+02,-3.744729323114838735e+02,-2.998936819062801078e+02,-3.357167217646174322e+02,-4.099348672550258925e+02,-3.908963143831542766e+02,-2.416065554244482882e+02,-2.940443016634644664e+02,9.446745872497558594e+00,-6.119350194931030273e-01,-4.207052886486053467e-01,2.700000000000000000e+02
-3.829284309088816372e+02,-3.807891023255861001e+02,-3.092406212830628647e+02,-3.370930606977576645e+02,-4.157993895650729428e+02,-3.924630270692523482e+02,-2.476920604712818204e+02,-2.986476275797303970e+02,9.446745872497558594e+00,-6.119350194931030273e-01,-4.207052886486053467e-01,2.710000000000000000e+02
-3.856833635518564734e+02,-3.869955096566536668e+02,-3.190018891999488915e+02,-3.399219263213735758e+02,-4.246827147336812232e+02,-3.955398955777054653e+02,-2.564260682258131965e+02,-3.076835605497108190e+02,9.446745872497558594e+00,-6.119350194931030273e-01,-4.207052886486053467e-01,2.720000000000000000e+02
-3.849602126498643884e+02,-3.923978926838967709e+02,-3.278306733149329375e+02,-3.444326056418522057e+02,-4.362043754546566561e+02,-4.007508749842968427e+02,-2.659294094855004005e+02,-3.204150830521834905e+02,9.446745872497558594e+00,-6.119350194931030273e-01,-4.207052886486053467e-01,2.730000000000000000e+02
-3.844317915087581241e+02,-3.971316715003536046e+02,-3.349916025202687706e+02,-3.494292548341841211e+02,-4.488860411374380419e+02,-4.074406313337194661e+02,-2.737075363847661720e+02,-3.346920970176956871e+02,9.446745872497558594e+00,-6.119350194931030273e-01,-4.207052886486053467e-01,2.740000000000000000e+02
-3.876737608606126742e+02,-4.019329723050850589e+02,-3.405532981162991746e+02,-3.534596675432571828e+02,-4.604054706457204702e+02,-4.140874820541430381e+02,-2.781721036758985974e+02,-3.475372482109291923e+02,9.446745872497558594e+00,-6.119350194931030273e-01,-4.207052886486053467e-01,2.750000000000000000e+02
-3.956695083986587633e+02,-4.073670262988885042e+02,-3.450625205160235964e+02,-3.562929041635334215e+02,-4.686286922688273080e+02,-4.194709298051143378e+02,-2.796847090970527461e+02,-3.564829666640061987e+02,9.446745872497558594e+00,-6.119350194931030273e-01,-4.207052886486053467e-01,2.760000000000000000e+02
-4.059021661922456587e+02,-4.132591484788435992e+02,-3.490065429305218458e+02,-3.593865398500875017e+02,-4.727882166950516876e+02,-4.236402267911630588e+02,-2.802577023450794513e+02,-3.609402447213965388e+02,9.446745872497558594e+00,-6.119350194931030273e-01,-4.207052886486053467e-01,2.770000000000000000e+02
-4.139709079711365121e+02,-4.188686601862277712e+02,-3.524612379592313118e+02,-3.648335734875095113e+02,-4.738890505812960328e+02,-4.278344161084064581e+02,-2.820813473160255853e+02,-3.624998567208140230e+02,9.446745872497558594e+00,-6.119350194931030273e-01,-4.207052886486053467e-01,2.780000000000000000e+02
-4.166858130565894953e+02,-4.236318602377386924e+02,-3.551150283254437454e+02,-3.735982275170772482e+02,-4.739292155519679000e+02,-4.333811194603968033e+02,-2.859666545898940058e+02,-3.637070070389790999e+02,9.446745872497558594e+00,-6.119350194931030273e-01,-4.207052886486053467e-01,2.790000000000000000e+02
-4.142672293105513290e+02,-4.277342159132322195e+02,-3.565653445289626688e+02,-3.845034294699535167e+02,-4.744762007057438495e+02,-4.404960410755452358e+02,-2.908322974535217327e+02,-3.661398572941293423e+02,9.446745872497558594e+00,-6.119350194931030273e-01,-4.207052886486053467e-01,2.800000000000000000e+02
-4.099556207599125628e+02,-4.319334364809378712e+02,-3.566639619054467403e+02,-3.948103012899960049e+02,-4.757084287140014567e+02,-4.479988000126327279e+02,-2.945411231889493138e+02,-3.693673999485931745e+02,9.446745872497558594e+00,-6.119350194931030273e-01,-4.207052886486053467e-01,2.810000000000000000e+02
-4.074945358241766371e+02,-4.367839941467391327e+02,-3.557357287358745452e+02,-4.019170891536828094e+02,-4.766907252659216283e+02,-4.541762662784499298e+02,-2.954138363815609409e+02,-3.716997214222437833e+02,9.446745872497558594e+00,-6.119350194931030273e-01,-4.207052886486053467e-01,2.820000000000000000e+02
-4.086937987463443278e+02,-4.420019334247872393e+02,-3.545961947353475807e+02,-4.048465811486921666e+02,-4.766293010943609261e+02,-4.580636173049674653e+02,-2.933621232133264130e+02,-3.720485347879534856e+02,9.446745872497558594e+00,-6.119350194931030273e-01,-4.207052886486053467e-01,2.830000000000000000e+02
-4.129619510548182006e+02,-4.465875706180117959e+02,-3.543277100066534331e+02,-4.044894432615842561e+02,-4.759580600596777913e+02,-4.600826659459453367e+02,-2.899658944322241041e+02,-3.711718134578154604e+02,9.446745872497558594e+00,-6.119350194931030273e-01,-4.207052886486053467e-01,2.840000000000000000e+02
-4.187277731125632272e+02,-4.496320677533067283e+02,-3.558458779494421833e+02,-4.026888444122600959e+02,-4.762206239946162896e+02,-4.615680563402561347e+02,-2.876047714991673274e+02,-3.711449721355338625e+02,9.446745872497558594e+00,-6.119350194931030273e-01,-4.207052886486053467e-01,2.850000000000000000e+02
-4.250012261268166185e+02,-4.511049124897990623e+02,-3.594341071264930179e+02,-4.011045293514653167e+02,-4.787942421672723867e+02,-4.636682229932480368e+02,-2.882810485543768664e+02,-3.735888962322906082e+02,9.446745872497558594e+00,-6.119350194931030273e-01,-4.207052886486053467e-01,2.860000000000000000e+02
-4.315690927250984714e+02,-4.519312345216053473e+02,-3.645419341607939714e+02,-4.006828055634000521e+02,-4.836255379148838074e+02,-4.665898148355167905e+02,-2.927771546257381488e+02,-3.783455504035482591e+02,9.523238182067871094e+00,-6.884268522262573242e-01,-3.824593424797058105e-01,2.870000000000000000e+02
-4.380512844792317537e+02,-4.532986427870641819e+02,-3.700511468525835426e+02,-4.017742447581013039e+02,-4.892135270249909809e+02,-4.697647874919416608e+02,-3.004563873689639877e+02,-3.837834491532789798e+02,9.523238182067871094e+00,-6.884268522262573242e-01,-3.824593424797058105e-01,2.880000000000000000e+02
-4.433204479063001031e+02,-4.557911127435913272e+02,-3.748903265981213053e+02,-4.043709025180696699e+02,-4.939248969037604411e+02,-4.726468434432484287e+02,-3.096489775040871564e+02,-3.883087848671264055e+02,9.523238182067871094e+00,-6.884268522262573242e-01,-3.824593424797058105e-01,2.890000000000000000e+02
-4.462294185967395492e+02,-4.590593365504037138e+02,-3.785635738323628630e+02,-4.080925691735781697e+02,-4.974135324571313390e+02,-4.753099151293710065e+02,-3.183551372301795936e+02,-3.915611195582781079e+02,9.523238182067871094e+00,-6.884268522262573242e-01,-3.824593424797058105e-01,2.900000000000000000e+02
-4.468910979163662205e+02,-4.622486113238717280e+02,-3.812017120236690175e+02,-4.121005989631382818e+02,-5.007590083775871790e+02,-4.783060903238231845e+02,-3.249616334549839962e+02,-3.942459810308467922e+02,9.523238182067871094e+00,-6.884268522262573242e-01,-3.824593424797058105e-01,2.910000000000000000e+02
-4.469138826262184807e+02,-4.647753632120635530e+02,-3.831563123610294497e+02,-4.153644375632700303e+02,-5.051682829607808571e+02,-4.820249871771522976e+02,-3.287316870684103947e+02,-3.970125285458889266e+02,9.523238182067871094e+00,-6.884268522262573242e-01,-3.824593424797058105e-01,2.920000000000000000e+02
-4.480523439586037284e+02,-4.668172850621671159e+02,-3.845721187567935431e+02,-4.173228511895665065e+02,-5.105288629873318200e+02,-4.862678272622777627e+02,-3.299269008892136412e+02,-3.996693741991954312e+02,9.523238182067871094e+00,-6.884268522262573242e-01,-3.824593424797058105e-01,2.930000000000000000e+02
-4.505576249071239090e+02,-4.691829566474641524e+02,-3.853680004293698858e+02,-4.184222352291851621e+02,-5.152884593941083722e+02,-4.904655913219306740e+02,-3.295577109569810546e+02,-4.015261228147052748e+02,9.523238182067871094e+00,-6.884268522262573242e-01,-3.824593424797058105e-01,2.940000000000000000e+02
-4.530246250563927788e+02,-4.727082743985669708e+02,-3.855936142826832906e+02,-4.199370193633957911e+02,-5.178479941894764806e+02,-4.942594497119906123e+02,-3.288981409280049775e+02,-4.023699905464280846e+02,9.523238182067871094e+00,-6.884268522262573242e-01,-3.824593424797058105e-01,2.950000000000000000e+02
-4.540374604966946208e+02,-4.776177379385392214e+02,-3.857126467642775083e+02,-4.230502700743691094e+02,-5.181543152169788300e+02,-4.977853881524912936e+02,-3.289826271699593008e+02,-4.029445659158623698e+02,9.523238182067871094e+00,-6.884268522262573242e-01,-3.824593424797058105e-01,2.960000000000000000e+02
-4.539594888501001151e+02,-4.832517577797812578e+02,-3.864516196558660113e+02,-4.278573304847333247e+02,-5.179628032347252429e+02,-5.013605912696883706e+02,-3.302813677597113156e+02,-4.044029370043072618e+02,9.523238182067871094e+00,-6.884268522262573242e-01,-3.824593424797058105e-01,2.970000000000000000e+02
-4.549165221312541121e+02,-4.883187690574194448e+02,-3.883336060127369365e+02,-4.330959803272812678e+02,-5.195053965168003742e+02,-5.049361635101822685e+02,-3.326669521769347284e+02,-4.073065670678770402e+02,9.523238182067871094e+00,-6.884268522262573242e-01,-3.824593424797058105e-01,2.980000000000000000e+02
-4.588478978372804704e+02,-4.915611644277639698e+02,-3.913805112884709843e+02,-4.368809387586088633e+02,-5.237645649944604429e+02,-5.079357138348602803e+02,-3.356705734004234500e+02,-4.111827102897057102e+02,9.523238182067871094e+00,-6.884268522262573242e-01,-3.824593424797058105e-01,2.990000000000000000e+02
-4.655661280846566683e+02,-4.925120060216628417e+02,-3.952880729586393045e+02,-4.379606322463092170e+02,-5.298382199862646758e+02,-5.097063581039290057e+02,-3.388836413535354950e+02,-4.150201600665560591e+02,9.523238182067871094e+00,-6.884268522262573242e-01,-3.824593424797058105e-01,3.000000000000000000e+02
-4.728470117781612316e+02,-4.919254425570262583e+02,-3.998325824903783428e+02,-4.366437659235671163e+02,-5.358041103297473455e+02,-5.101849994782619433e+02,-3.422609986514387401e+02,-4.181386791104025065e+02,9.523238182067871094e+00,-6.884268522262573242e-01,-3.824593424797058105e-01,3.010000000000000000e+02
-4.785336521114307970e+02,-4.915616118962660153e+02,-4.049903504392779041e+02,-4.347914008999617863e+02,-5.401802511837738621e+02,-5.101683662820231007e+02,-3.460895199493220957e+02,-4.205873311690061200e+02,9.523238182067871094e+00,-6.884268522262573242e-01,-3.824593424797058105e-01,3.020000000000000000e+02
-4.825683941106225348e+02,-4.933251602743988542e+02,-4.106164376250463874e+02,-4.348711915053738721e+02,-5.427478000349873355e+02,-5.109299884055765233e+02,-3.506029536748114879e+02,-4.228003181467946661e+02,9.523238182067871094e+00,-6.884268522262573242e-01,-3.824593424797058105e-01,3.030000000000000000e+02
-4.869069650674426839e+02,-4.981870293977831921e+02,-4.161198390100303186e+02,-4.386088170012573073e+02,-5.442978761028482495e+02,-5.134597659468535085e+02,-3.555425020658367998e+02,-4.250069642214575651e+02,9.523238182067871094e+00,-6.884268522262573242e-01,-3.824593424797058105e-01,3.040000000000000000e+02
-4.933945889742280997e+02,-5.055531711347800865e+02,-4.206548238185319519e+02,-4.459653673333869506e+02,-5.458338650943684343e+02,-5.178510387250457825e+02,-3.601001909497942961e+02,-4.270340206012929798e+02,9.523238182067871094e+00,-6.884268522262573242e-01,-3.824593424797058105e-01,3.050000000000000000e+02
-5.017177196594498696e+02,-5.135129234414126813e+02,-4.237890210182860073e+02,-4.550184332458759968e+02,-5.480081246398009398e+02,-5.232118999974613871e+02,-3.634298807484148028e+02,-4.286346660625989671e+02,9.523238182067871094e+00,-6.884268522262573242e-01,-3.824593424797058105e-01,3.060000000000000000e+02
-5.094261525253709806e+02,-5.198249394655371134e+02,-4.259612689994052062e+02,-4.628758860706699352e+02,-5.510729797430108192e+02,-5.281279331622090467e+02,-3.653716344470282706e+02,-4.299171888802446801e+02,9.523238182067871094e+00,-6.884268522262573242e-01,-3.824593424797058105e-01,3.070000000000000000e+02
-5.139632993970723192e+02,-5.230147350104041379e+02,-4.280985133297035077e+02,-4.671678672200936262e+02,-5.550395721026986848e+02,-5.313953112359782835e+02,-3.667080599925601518e+02,-4.313768969237025885e+02,9.523238182067871094e+00,-6.884268522262573242e-01,-3.824593424797058105e-01,3.080000000000000000e+02
-5.147569558771377842e+02,-5.229378697968688812e+02,-4.306077486863401305e+02,-4.672679641955091370e+02,-5.596684965364565869e+02,-5.326074693285041803e+02,-3.685926205000591267e+02,-4.334765693761859779e+02,9.523238182067871094e+00,-6.884268522262573242e-01,-3.824593424797058105e-01,3.090000000000000000e+02
-5.134989019126003313e+02,-5.205858627492681308e+02,-4.327277543250977487e+02,-4.644883933436013876e+02,-5.643378563715688188e+02,-5.322589459118607920e+02,-3.715414993921867790e+02,-4.361821000481776309e+02,9.523238182067871094e+00,-6.884268522262573242e-01,-3.824593424797058105e-01,3.100000000000000000e+02
-5.125569805169536721e+02,-5.174090643101998239e+02,-4.330183690363975302e+02,-4.611300913906768528e+02,-5.681324253954142023e+02,-5.313129651224276131e+02,-3.748677198509371351e+02,-4.388927707367497533e+02,9.523238182067871094e+00,-6.884268522262573242e-01,-3.824593424797058105e-01,3.110000000000000000e+02
-5.131601579223920453e+02,-5.146284379352007363e+02,-4.306782732032835384e+02,-4.590396572489259484e+02,-5.703282527530584503e+02,-5.305599778143119920e+02,-3.771508772906255444e+02,-4.408435158480955351e+02,9.523238182067871094e+00,-6.119350194931030273e-01,-4.207052886486053467e-01,3.120000000000000000e+02
-5.149593101357257865e+02,-5.128705441520758086e+02,-4.265005407410733369e+02,-4.586605788544101188e+02,-5.709678740492595352e+02,-5.302451247093455322e+02,-3.774264196135578118e+02,-4.416574411114620489e+02,9.523238182067871094e+00,-6.119350194931030273e-01,-4.207052886486053467e-01,3.130000000000000000e+02
-5.170319017111210087e+02,-5.121635662789360595e+02,-4.225163036111873680e+02,-4.591819938134560743e+02,-5.709656378095706941e+02,-5.302029606103851620e+02,-3.760856049499201390e+02,-4.416398204751656635e+02,9.523238182067871094e+00,-6.119350194931030273e-01,-4.207052886486053467e-01,3.140000000000000000e+02
-5.190551470005939336e+02,-5.121541302690719704e+02,-4.205723318867040348e+02,-4.595244827884774850e+02,-5.715157255643896406e+02,-5.302858810603050870e+02,-3.746916130596302992e+02,-4.416114657592272010e+02,9.523238182067871094e+00,-6.119350194931030273e-01,-4.207052886486053467e-01,3.150000000000000000e+02
-5.214330694073440782e+02,-5.123810275178577740e+02,-4.210703714045532706e+02,-4.592915619780308134e+02,-5.732153532912634546e+02,-5.306285596380325842e+02,-3.748579567862825002e+02,-4.423906563290325948e+02,9.523238182067871094e+00,-6.119350194931030273e-01,-4.207052886486053467e-01,3.160000000000000000e+02
-5.243949296132834661e+02,-5.124875728518268261e+02,-4.229074181753765060e+02,-4.589652709491628002e+02,-5.756369667537073838e+02,-5.315261250918165388e+02,-3.771280150002506844e+02,-4.442672817321141565e+02,9.523238182067871094e+00,-6.119350194931030273e-01,-4.207052886486053467e-01,3.170000000000000000e+02
-5.271692920190158702e+02,-5.123180936611711331e+02,-4.245212531005872734e+02,-4.593359319290672147e+02,-5.777348924407408504e+02,-5.331384097587174438e+02,-3.807328777254379020e+02,-4.468167039894774462e+02,9.523238182067871094e+00,-6.119350194931030273e-01,-4.207052886486053467e-01,3.180000000000000000e+02
-5.282327372745698995e+02,-5.119260209499601615e+02,-4.250062337956221654e+02,-4.607858840107139713e+02,-5.787127005210993502e+02,-5.353767325881988199e+02,-3.842975423306976381e+02,-4.491776212394414642e+02,9.523238182067871094e+00,-6.119350194931030273e-01,-4.207052886486053467e-01,3.190000000000000000e+02
-5.265483886655473498e+02,-5.115670585379765498e+02,-4.243997275848228128e+02,-4.630543487207048088e+02,-5.785555043863191713e+02,-5.380452920170206426e+02,-3.868015570747495531e+02,-4.505977455615083045e+02,9.523238182067871094e+00,-6.119350194931030273e-01,-4.207052886486053467e-01,3.200000000000000000e+02
-5.226963273790738640e+02,-5.116865096432222799e+02,-4.231848300604906967e+02,-4.655671450346376332e+02,-5.777880755853423125e+02,-5.409640685210988522e+02,-3.880515308815215576e+02,-4.508474469192991023e+02,9.523238182067871094e+00,-6.119350194931030273e-01,-4.207052886486053467e-01,3.210000000000000000e+02
-5.188268183852080710e+02,-5.128118105683629437e+02,-4.217497839375685089e+02,-4.678945977478803115e+02,-5.768120912324646952e+02,-5.438542478338289357e+02,-3.884969237872717827e+02,-4.502140006413637821e+02,9.523238182067871094e+00,-6.119350194931030273e-01,-4.207052886486053467e-01,3.220000000000000000e+02
-5.173739831262076905e+02,-5.152800352579477021e+02,-4.203529113750390707e+02,-4.698915676316967733e+02,-5.755860499670120589e+02,-5.461543638225115274e+02,-3.887694245985699126e+02,-4.491397030148635849e+02,9.523238182067871094e+00,-6.119350194931030273e-01,-4.207052886486053467e-01,3.230000000000000000e+02
-5.195025791024237378e+02,-5.188801099742427141e+02,-4.193998279860892922e+02,-4.714949192339462343e+02,-5.739748862959944518e+02,-5.471273788469526380e+02,-3.893664832542520458e+02,-4.478643123652236682e+02,9.523238182067871094e+00,-6.119350194931030273e-01,-4.207052886486053467e-01,3.240000000000000000e+02
-5.244290542190483393e+02,-5.226889783753983920e+02,-4.194587636751040804e+02,-4.725248538267201184e+02,-5.723043586566492422e+02,-5.463260290954251559e+02,-3.905377121406138485e+02,-4.463914327189764890e+02,9.523238182067871094e+00,-6.119350194931030273e-01,-4.207052886486053467e-01,3.250000000000000000e+02
-5.300384241047265732e+02,-5.253533971763719137e+02,-4.208066817197068303e+02,-4.727445780359634568e+02,-5.713707485179802461e+02,-5.440027501952565672e+02,-3.921911301549841369e+02,-4.447439713965435431e+02,9.523238182067871094e+00,-6.119350194931030273e-01,-4.207052886486053467e-01,3.260000000000000000e+02
-5.342312056812424998e+02,-5.257544919636252416e+02,-4.229341122019869204e+02,-4.720680376357706223e+02,-5.717442640268396872e+02,-5.409985696677335909e+02,-3.937625912263653163e+02,-4.431682549427850404e+02,9.523238182067871094e+00,-6.119350194931030273e-01,-4.207052886486053467e-01,3.270000000000000000e+02
-5.359787353535347165e+02,-5.236484150806719526e+02,-4.246106786986383668e+02,-4.706299612109227724e+02,-5.730592538104754112e+02,-5.381445803389054845e+02,-3.942763931127420278e+02,-4.420104059376359942e+02,9.523238182067871094e+00,-6.119350194931030273e-01,-4.207052886486053467e-01,3.280000000000000000e+02
-5.354384457827584356e+02,-5.198323962005233625e+02,-4.245976969101291729e+02,-4.686215497184014680e+02,-5.741105532464912358e+02,-5.357361107212766456e+02,-3.928039668093418300e+02,-4.413753644114916597e+02,9.523238182067871094e+00,-6.119350194931030273e-01,-4.207052886486053467e-01,3.290000000000000000e+02
-5.332966228317798141e+02,-5.157029189379380796e+02,-4.224569247323155423e+02,-4.661078856109486424e+02,-5.738011458197456705e+02,-5.335899306777796482e+02,-3.891545032289119490e+02,-4.409663626369801364e+02,9.523238182067871094e+00,-6.119350194931030273e-01,-4.207052886486053467e-01,3.300000000000000000e+02
-5.300287680313081182e+02,-5.125250128851189402e+02,-4.188155841705380453e+02,-4.630847735776663967e+02,-5.720874830075194950e+02,-5.315597060845535680e+02,-3.842818588102554713e+02,-4.403520437229834101e+02,9.523238182067871094e+00,-6.119350194931030273e-01,-4.207052886486053467e-01,3.310000000000000000e+02
-5.256579916738999145e+02,-5.109000789149390016e+02,-4.149359850979623161e+02,-4.597487915719467537e+02,-5.700177855579147490e+02,-5.299118640714334560e+02,-3.799745071933268719e+02,-4.394571679222696048e+02,9.523238182067871094e+00,-6.119350194931030273e-01,-4.207052886486053467e-01,3.320000000000000000e+02
-5.201001408528970842e+02,-5.106884202868727129e+02,-4.119926900329452337e+02,-4.566613904874839704e+02,-5.688251097861411836e+02,-5.291449465222483468e+02,-3.779166262240347010e+02,-4.387919700645028342e+02,9.523238182067871094e+00,-6.119350194931030273e-01,-4.207052886486053467e-01,3.330000000000000000e+02
-5.137201613049768412e+02,-5.112578935273867273e+02,-4.105679683288976207e+02,-4.545502107230126967e+02,-5.689240262427326797e+02,-5.294566891817083842e+02,-3.787560578786341239e+02,-4.391433958111765605e+02,9.523238182067871094e+00,-6.119350194931030273e-01,-4.207052886486053467e-01,3.340000000000000000e+02
-5.076098947671667929e+02,-5.117622091604612251e+02,-4.105440295835078928e+02,-4.538520813950484580e+02,-5.696946264095327024e+02,-5.304451294099294500e+02,-3.818562974576574334e+02,-4.409394040709960336e+02,9.523238182067871094e+00,-6.119350194931030273e-01,-4.207052886486053467e-01,3.350000000000000000e+02
-5.033548776139035681e+02,-5.113223623565928619e+02,-4.112491863012528484e+02,-4.543880027751350781e+02,-5.701202461216972779e+02,-5.313662146046075350e+02,-3.858659340416735404e+02,-4.438099907031506746e+02,9.523238182067871094e+00,-6.119350194931030273e-01,-4.207052886486053467e-01,3.360000000000000000e+02
-5.024008319279824946e+02,-5.092359211361901430e+02,-4.117285604079591508e+02,-4.554620337698360117e+02,-5.695678029507197380e+02,-5.316744686621061646e+02,-3.896081012723634558e+02,-4.466971593193100034e+02,9.523238182067871094e+00,-6.119350194931030273e-01,-4.207052886486053467e-01,3.370000000000000000e+02
-5.053490794562989663e+02,-5.053210453124553965e+02,-4.111551117525837640e+02,-4.563027010470631240e+02,-5.679982718758800502e+02,-5.313186309232930853e+02,-3.926004345361703827e+02,-4.484023744616458202e+02,9.523238182067871094e+00,-6.119350194931030273e-01,-4.207052886486053467e-01,3.380000000000000000e+02
-5.115343022583261359e+02,-5.002559489243049029e+02,-4.093483622991151378e+02,-4.564988339093612808e+02,-5.655730342368550509e+02,-5.305598150105381592e+02,-3.948938538441245782e+02,-4.481487045829454132e+02,9.523238182067871094e+00,-6.884268522262573242e-01,-3.824593424797058105e-01,3.390000000000000000e+02
-5.191077639676294666e+02,-4.955675474117419981e+02,-4.071142359152140671e+02,-4.561343587926692180e+02,-5.622212117579891810e+02,-5.295804781040247917e+02,-3.965215040984068651e+02,-4.458034327157062648e+02,9.523238182067871094e+00,-6.884268522262573242e-01,-3.824593424797058105e-01,3.400000000000000000e+02
-5.256417110021968710e+02,-4.930338504564151663e+02,-4.060172058740872671e+02,-4.555905372319680282e+02,-5.576597542918417503e+02,-5.283063590871125825e+02,-3.971357368901369682e+02,-4.417120723504755802e+02,9.523238182067871094e+00,-6.884268522262573242e-01,-3.824593424797058105e-01,3.410000000000000000e+02
-5.290259193760742846e+02,-4.936828627668244849e+02,-4.075521028930523357e+02,-4.551939466621223573e+02,-5.518264962752109568e+02,-5.265765398171863581e+02,-3.961822662813050329e+02,-4.363823074952463230e+02,9.523238182067871094e+00,-6.884268522262573242e-01,-3.824593424797058105e-01,3.420000000000000000e+02
-5.282619768071880344e+02,-4.969849356563257174e+02,-4.122461895236164651e+02,-4.549286771261006379e+02,-5.452844292468205367e+02,-5.244114474632941665e+02,-3.934438875235240971e+02,-4.303150184085525325e+02,9.523238182067871094e+00,-6.884268522262573242e-01,-3.824593424797058105e-01,3.430000000000000000e+02
-5.237618883022084901e+02,-5.008639308187431425e+02,-4.194231883167870478e+02,-4.543692863640684436e+02,-5.392337207404817718e+02,-5.220740192458067668e+02,-3.894578853897991166e+02,-4.241104977691803697e+02,9.523238182067871094e+00,-6.884268522262573242e-01,-3.824593424797058105e-01,3.440000000000000000e+02
-5.169717000835439649e+02,-5.026771936982830766e+02,-4.278484205418412785e+02,-4.528970404291887917e+02,-5.351401031578318452e+02,-5.198961100761704301e+02,-3.854293887748984844e+02,-4.187194552020016545e+02,9.523238182067871094e+00,-6.884268522262573242e-01,-3.824593424797058105e-01,3.450000000000000000e+02
-5.095291489963552749e+02,-5.006520143704003658e+02,-4.366596980346114378e+02,-4.501279235301110475e+02,-5.342157418923746945e+02,-5.180895683457174528e+02,-3.826812276796727019e+02,-4.154942998287006048e+02,9.523238182067871094e+00,-6.884268522262573242e-01,-3.824593424797058105e-01,3.460000000000000000e+02
-5.024739771762490363e+02,-4.948913884735891315e+02,-4.456930308195227326e+02,-4.462823304432513396e+02,-5.369355810395546769e+02,-5.167108599292341751e+02,-3.820064910429898646e+02,-4.157151999560027207e+02,9.523238182067871094e+00,-6.884268522262573242e-01,-3.824593424797058105e-01,3.470000000000000000e+02
-4.960247453052442097e+02,-4.872954323024084715e+02,-4.549278191985571311e+02,-4.421619300787904194e+02,-5.426736335195284937e+02,-5.157211958569719172e+02,-3.833120633453529535e+02,-4.196592445898249935e+02,9.523238182067871094e+00,-6.884268522262573242e-01,-3.824593424797058105e-01,3.480000000000000000e+02
-4.900589856914547227e+02,-4.804551200893603209e+02,-4.636875816823007881e+02,-4.386395711924662919e+02,-5.495923609304402362e+02,-5.149583395519863416e+02,-3.856995287484089658e+02,-4.258324335683857953e+02,9.523238182067871094e+00,-6.884268522262573242e-01,-3.824593424797058105e-01,3.490000000000000000e+02
-4.848607474720827213e+02,-4.762278631900190931e+02,-4.705131684180953471e+02,-4.360049793371658780e+02,-5.550255217146991527e+02,-5.140044628918849412e+02,-3.878629503995367713e+02,-4.311730155551799726e+02,9.523238182067871094e+00,-6.884268522262573242e-01,-3.824593424797058105e-01,3.500000000000000000e+02
-4.813893359515176371e+02,-4.748608983148307061e+02,-4.739590342472849898e+02,-4.337354438882269960e+02,-5.564250532939208824e+02,-5.121577243037581866e+02,-3.885664071261059007e+02,-4.324559883738568260e+02,9.523238182067871094e+00,-6.884268522262573242e-01,-3.824593424797058105e-01,3.510000000000000000e+02
-4.806613119054894696e+02,-4.751048651504660256e+02,-4.736155757057038045e+02,-4.309654441788081840e+02,-5.525169742289515398e+02,-5.087180802784612297e+02,-3.870360491823956863e+02,-4.281335033998609561e+02,9.523238182067871094e+00,-6.884268522262573242e-01,-3.824593424797058105e-01,3.520000000000000000e+02
-4.826626652386312344e+02,-4.751133401062693338e+02,-4.704095983332084643e+02,-4.272874896579769484e+02,-5.439667006063721146e+02,-5.035026488775893085e+02,-3.832053912683484214e+02,-4.192904201495147163e+02,9.523238182067871094e+00,-6.884268522262573242e-01,-3.824593424797058105e-01,3.530000000000000000e+02
-4.858139659641169601e+02,-4.735037639807110281e+02,-4.659591251829638168e+02,-4.231676727696576563e+02,-5.330323569605473040e+02,-4.971814607177465177e+02,-3.777747203422563871e+02,-4.089311230201456056e+02,9.523238182067871094e+00,-6.884268522262573242e-01,-3.824593424797058105e-01,3.540000000000000000e+02
-4.877169278403841872e+02,-4.699725353825399452e+02,-4.616550842341971475e+02,-4.195805919424778949e+02,-5.223977117758557824e+02,-4.910713077364931678e+02,-3.720364328179563245e+02,-4.001339798898559366e+02,9.523238182067871094e+00,-6.884268522262573242e-01,-3.824593424797058105e-01,3.550000000000000000e+02
-4.868222636146319928e+02,-4.652149022669071883e+02,-4.582876058053407178e+02,-4.171747530875032908e+02,-5.140114277325732246e+02,-4.864494716208531599e+02,-3.674461162139739372e+02,-3.945155168568660429e+02,9.523238182067871094e+00,-6.884268522262573242e-01,-3.824593424797058105e-01,3.560000000000000000e+02
-4.836857757146167387e+02,-4.603213127579793991e+02,-4.563076340933415622e+02,-4.157170394609743198e+02,-5.086745975784368738e+02,-4.838670589448161081e+02,-3.650237668980910257e+02,-3.920531818584402117e+02,9.523238182067871094e+00,-6.884268522262573242e-01,-3.824593424797058105e-01,3.570000000000000000e+02
-4.806704344444402750e+02,-4.561037452930787595e+02,-4.560973564422847630e+02,-4.143015085720518300e+02,-5.063820580716197810e+02,-4.829619722152494887e+02,-3.648472359256005575e+02,-3.919983612143313394e+02,9.523238182067871094e+00,-6.884268522262573242e-01,-3.824593424797058105e-01,3.580000000000000000e+02
-4.802471525026826384e+02,-4.527920177439245890e+02,-4.577455205561891489e+02,-4.121138804843860726e+02,-5.067680025975176932e+02,-4.828482964145329106e+02,-3.659799776038923937e+02,-3.937017875716994695e+02,9.523238182067871094e+00,-6.884268522262573242e-01,-3.824593424797058105e-01,3.590000000000000000e+02
-4.832630201789672810e+02,-4.502414048085119020e+02,-4.605787787025179796e+02,-4.090944174105520688e+02,-5.091045302448607117e+02,-4.827049726517132058e+02,-3.669692556485071009e+02,-3.965479870032945655e+02,9.523238182067871094e+00,-6.884268522262573242e-01,-3.824593424797058105e-01,3.600000000000000000e+02
-4.885547331700074665e+02,-4.483884736340454538e+02,-4.631701320858747977e+02,-4.059976170778946880e+02,-5.120293241105032394e+02,-4.821085843169697682e+02,-3.666728922144186527e+02,-3.993880463495213462e+02,9.523238182067871094e+00,-6.884268522262573242e-01,-3.824593424797058105e-01,3.610000000000000000e+02
-4.940297430818948214e+02,-4.474842383906044461e+02,-4.641314209936939505e+02,-4.038684108544576929e+02,-5.136804059496623722e+02,-4.809798209698273013e+02,-3.649030547743786883e+02,-4.005147615664917566e+02,9.523238182067871094e+00,-6.884268522262573242e-01,-3.824593424797058105e-01,3.620000000000000000e+02
-4.980433033949370838e+02,-4.478141784605767270e+02,-4.631031717314713205e+02,-4.033374957157629979e+02,-5.125563159395958337e+02,-4.793633436266036369e+02,-3.624307627295228258e+02,-3.986010308065801837e+02,9.523238182067871094e+00,-6.884268522262573242e-01,-3.824593424797058105e-01,3.630000000000000000e+02
-4.998739795084343314e+02,-4.491207620781374317e+02,-4.610072608779605616e+02,-4.041598935429440189e+02,-5.085215113582329423e+02,-4.772968124606532001e+02,-3.603336362126426593e+02,-3.938193650839587008e+02,9.523238182067871094e+00,-6.884268522262573242e-01,-3.824593424797058105e-01,3.640000000000000000e+02
-4.992332855807326268e+02,-4.503271686016053081e+02,-4.592762969090248362e+02,-4.052297178226427832e+02,-5.029867968330111125e+02,-4.748141970040819615e+02,-3.591877350428583213e+02,-3.879495610934175147e+02,9.523238182067871094e+00,-6.884268522262573242e-01,-3.824593424797058105e-01,3.650000000000000000e+02
-4.957741298383615458e+02,-4.499959786244133966e+02,-4.587668063289391966e+02,-4.050956758019543713e+02,-4.979583451047772087e+02,-4.719800172830402971e+02,-3.587491002134302107e+02,-3.831995171586720517e+02,9.523238182067871094e+00,-6.884268522262573242e-01,-3.824593424797058105e-01,3.660000000000000000e+02
-4.893990831899366185e+02,-4.473126510574996928e+02,-4.593438684947171851e+02,-4.028045203926234308e+02,-4.947497579684213633e+02,-4.689097231021412426e+02,-3.583636379288450371e+02,-3.807595480637780838e+02,9.523238182067871094e+00,-6.884268522262573242e-01,-3.824593424797058105e-01,3.670000000000000000e+02
-4.810427318116944662e+02,-4.428344395623207674e+02,-4.604153191276166126e+02,-3.986588486153788153e+02,-4.934736093420807492e+02,-4.658350181953230731e+02,-3.577223181297907786e+02,-3.803764716091037599e+02,9.523238182067871094e+00,-6.884268522262573242e-01,-3.824593424797058105e-01,3.680000000000000000e+02
-4.728460368939973932e+02,-4.383512391288679737e+02,-4.617465115828906619e+02,-3.943457624541943005e+02,-4.936034980018152964e+02,-4.631970316844569879e+02,-3.572779199720785073e+02,-3.811732391991577060e+02,9.523238182067871094e+00,-6.884268522262573242e-01,-3.824593424797058105e-01,3.690000000000000000e+02
-4.671513303655481195e+02,-4.358765477175713841e+02,-4.636690334011378809e+02,-3.921196606681482990e+02,-4.947864971995231826e+02,-4.615860168771951066e+02,-3.579228248881390755e+02,-3.826799903898681805e+02,9.484992027282714844e+00,-6.501809358596801758e-01,-4.589512646198272705e-01,3.700000000000000000e+02
-4.649908789007105270e+02,-4.364623543735514204e+02,-4.664954292655193058e+02,-3.933724443787529026e+02,-4.969271950699114768e+02,-4.613894718157634998e+02,-3.601687639708380857e+02,-3.849247930996921241e+02,9.484992027282714844e+00,-6.501809358596801758e-01,-4.589512646198272705e-01,3.710000000000000000e+02
-4.653766131969387061e+02,-4.396359646023843197e+02,-4.698074264397617981e+02,-3.975464312205144779e+02,-4.995241115650551365e+02,-4.623301955523836568e+02,-3.635147052208070590e+02,-3.875865813229894457e+02,9.484992027282714844e+00,-6.501809358596801758e-01,-4.589512646198272705e-01,3.720000000000000000e+02
-4.660340396938879621e+02,-4.437489146091434122e+02,-4.724187068845227486e+02,-4.022944124928912970e+02,-5.012265949302195622e+02,-4.633540136180356512e+02,-3.665544874296170974e+02,-3.893657950872374158e+02,9.484992027282714844e+00,-6.501809358596801758e-01,-4.589512646198272705e-01,3.730000000000000000e+02
-4.649199644092004746e+02,-4.468939146207563908e+02,-4.731431979064452662e+02,-4.049148384842432051e+02,-5.004220332276938734e+02,-4.631481287381816401e+02,-3.677729981004409865e+02,-3.885661528076124114e+02,9.484992027282714844e+00,-6.501809358596801758e-01,-4.589512646198272705e-01,3.740000000000000000e+02
-4.612664792605711455e+02,-4.477896657887432639e+02,-4.717104202838092988e+02,-4.040729091490742348e+02,-4.965055493708184713e+02,-4.610096224011920185e+02,-3.664483608239279420e+02,-3.845489650969493596e+02,9.484992027282714844e+00,-6.501809358596801758e-01,-4.589512646198272705e-01,3.750000000000000000e+02
-4.555092769520731508e+02,-4.462206391712417144e+02,-4.689956189385048901e+02,-4.005426878790005958e+02,-4.905783368148618138e+02,-4.573727799587147729e+02,-3.630221258458593638e+02,-3.786151659342383482e+02,9.484992027282714844e+00,-6.501809358596801758e-01,-4.589512646198272705e-01,3.760000000000000000e+02
-4.485340844100315962e+02,-4.429576842221972584e+02,-4.663262971805093002e+02,-3.964563466868787600e+02,-4.847432245903901276e+02,-4.535130312141009199e+02,-3.587378400415036594e+02,-3.732486161803851701e+02,9.484992027282714844e+00,-6.501809358596801758e-01,-4.589512646198272705e-01,3.770000000000000000e+02
-4.411261574785232824e+02,-4.392937259473508220e+02,-4.644216860692018827e+02,-3.937209277454535368e+02,-4.805324836318761754e+02,-4.506428870356232892e+02,-3.548669232333711534e+02,-3.702098761691345317e+02,9.484992027282714844e+00,-6.501809358596801758e-01,-4.589512646198272705e-01,3.780000000000000000e+02
-4.339906040233310023e+02,-4.364229000872949200e+02,-4.628536134629807748e+02,-3.928544296680186108e+02,-4.778772368407710474e+02,-4.491158312560701233e+02,-3.520726074609028728e+02,-3.691681051671655496e+02,9.484992027282714844e+00,-6.501809358596801758e-01,-4.589512646198272705e-01,3.790000000000000000e+02
-4.279629282728616317e+02,-4.349250330323802700e+02,-4.605259469076631831e+02,-3.930198260483950889e+02,-4.755279127927983609e+02,-4.483307057994018123e+02,-3.502802674774995921e+02,-3.681596956585710814e+02,9.484992027282714844e+00,-6.501809358596801758e-01,-4.589512646198272705e-01,3.800000000000000000e+02
-4.238694132439693476e+02,-4.345888862967926798e+02,-4.568245015903873991e+02,-3.929842524327339106e+02,-4.724450805838534961e+02,-4.472978539599882879e+02,-3.490083561821261355e+02,-3.654589135546984835e+02,9.484992027282714844e+00,-6.501809358596801758e-01,-4.589512646198272705e-01,3.810000000000000000e+02
-4.220214098451649534e+02,-4.346489821357392884e+02,-4.524563111495251633e+02,-3.920706625324312427e+02,-4.688079943772481784e+02,-4.453392360737543640e+02,-3.478235924759237605e+02,-3.611247657409919611e+02,9.484992027282714844e+00,-6.501809358596801758e-01,-4.589512646198272705e-01,3.820000000000000000e+02
-4.218816870250897182e+02,-4.342810673004496493e+02,-4.491426104172990108e+02,-3.903980021408165157e+02,-4.657425954638561052e+02,-4.424225890930390506e+02,-3.465836603076261326e+02,-3.568147679511587285e+02,9.484992027282714844e+00,-6.501809358596801758e-01,-4.589512646198272705e-01,3.830000000000000000e+02
-4.223621949754544858e+02,-4.330491380447560914e+02,-4.482371001260135017e+02,-3.884561046821695527e+02,-4.641171085167147794e+02,-4.390055355120325657e+02,-3.453616425573920878e+02,-3.541072141033416756e+02,9.484992027282714844e+00,-6.501809358596801758e-01,-4.589512646198272705e-01,3.840000000000000000e+02
-4.226168132527575381e+02,-4.310559939444920019e+02,-4.493324420019102945e+02,-3.865764776621576857e+02,-4.635891462858803607e+02,-4.356336771166413655e+02,-3.442196530577446083e+02,-3.529690204396440549e+02,9.484992027282714844e+00,-6.501809358596801758e-01,-4.589512646198272705e-01,3.850000000000000000e+02
-4.226857254895589904e+02,-4.287605302352742456e+02,-4.501131439333246362e+02,-3.847422026998622187e+02,-4.627762909924431369e+02,-4.325954934332974062e+02,-3.430715865813522214e+02,-3.517968640336487169e+02,9.484992027282714844e+00,-6.501809358596801758e-01,-4.589512646198272705e-01,3.860000000000000000e+02
-4.234023096561898001e+02,-4.266072795040659003e+02,-4.478220242770405548e+02,-3.827179271175527902e+02,-4.603672955838633243e+02,-4.297929364754863855e+02,-3.417394337191385603e+02,-3.489068855305959005e+02,9.484992027282714844e+00,-6.501809358596801758e-01,-4.589512646198272705e-01,3.870000000000000000e+02
-4.255528971897115298e+02,-4.246738366218812644e+02,-4.413263521203361961e+02,-3.802090406093570891e+02,-4.561957288938447164e+02,-4.268517547281230691e+02,-3.401077983086145196e+02,-3.440162807252625043e+02,9.484992027282714844e+00,-6.501809358596801758e-01,-4.589512646198272705e-01,3.880000000000000000e+02
-4.289102341377806624e+02,-4.225225119696328875e+02,-4.320880172733932341e+02,-3.769117146187300023e+02,-4.513757034500583813e+02,-4.234120293315315848e+02,-3.382073876672559436e+02,-3.383884392667721386e+02,9.484992027282714844e+00,-6.501809358596801758e-01,-4.589512646198272705e-01,3.890000000000000000e+02
-4.319020420234010089e+02,-4.193726114368830622e+02,-4.231244291267455537e+02,-3.726059654319269612e+02,-4.474279762955204660e+02,-4.194612122343319243e+02,-3.361436436334231530e+02,-3.336765844214764911e+02,9.484992027282714844e+00,-6.501809358596801758e-01,-4.589512646198272705e-01,3.900000000000000000e+02
-4.322558810402222207e+02,-4.145705402620981204e+02,-4.167223148546979701e+02,-3.674148928889010222e+02,-4.451566849014564013e+02,-4.154852791682451425e+02,-3.339481518022828368e+02,-3.306736772224330707e+02,9.446745872497558594e+00,-6.884268522262573242e-01,-4.207052886486053467e-01,3.910000000000000000e+02
-4.282842431175427009e+02,-4.081198510266049198e+02,-4.127591368047010292e+02,-3.620366355402845784e+02,-4.441667577312828143e+02,-4.122667304772865009e+02,-3.314974267136194612e+02,-3.290539690488935776e+02,9.446745872497558594e+00,-6.884268522262573242e-01,-4.207052886486053467e-01,3.920000000000000000e+02
-4.199828289140339166e+02,-4.008885317072665657e+02,-4.089988741327374555e+02,-3.575740072131823126e+02,-4.433123383141480645e+02,-4.103885022060376286e+02,-3.285771809074899465e+02,-3.280634169941831715e+02,9.446745872497558594e+00,-6.884268522262573242e-01,-4.207052886486053467e-01,3.930000000000000000e+02
-4.091668247378511296e+02,-3.942618671130567236e+02,-4.030473010260843694e+02,-3.548843852151885585e+02,-4.415799493294716740e+02,-4.097608240722629489e+02,-3.250449458103742018e+02,-3.272248285475925513e+02,9.446745872497558594e+00,-6.884268522262573242e-01,-4.207052886486053467e-01,3.940000000000000000e+02
-3.984917883045959570e+02,-3.894027037433359055e+02,-3.942627489148417226e+02,-3.539007458637779564e+02,-4.386195979266008180e+02,-4.095430350973731493e+02,-3.209648230256445913e+02,-3.263390540771567885e+02,9.446745872497558594e+00,-6.884268522262573242e-01,-4.207052886486053467e-01,3.950000000000000000e+02
-3.900044414437320484e+02,-3.866170545940424290e+02,-3.840814850203862534e+02,-3.535660435575071006e+02,-4.345910535274317681e+02,-4.085834382312316393e+02,-3.166301733228615376e+02,-3.250234725357308889e+02,9.446745872497558594e+00,-6.884268522262573242e-01,-4.207052886486053467e-01,3.960000000000000000e+02
-3.842356569088306060e+02,-3.852662205937449471e+02,-3.746865117581435243e+02,-3.525728281833464735e+02,-4.296956574959644968e+02,-4.061247831304158353e+02,-3.124733340137008781e+02,-3.225840499701760109e+02,9.446745872497558594e+00,-6.884268522262573242e-01,-4.207052886486053467e-01,3.970000000000000000e+02
-3.804152829998270136e+02,-3.842221271430737488e+02,-3.673101760697136342e+02,-3.503516047387070103e+02,-4.240050138025183060e+02,-4.022903444370763282e+02,-3.089102103017862646e+02,-3.185688391475050594e+02,9.446745872497558594e+00,-6.884268522262573242e-01,-4.207052886486053467e-01,3.980000000000000000e+02
-3.774843920003384028e+02,-3.824723950727743613e+02,-3.615608224616253210e+02,-3.474545034803368253e+02,-4.177473817849754596e+02,-3.979867534734153196e+02,-3.061757008542629137e+02,-3.134292341325128746e+02,9.446745872497558594e+00,-6.884268522262573242e-01,-4.207052886486053467e-01,3.990000000000000000e+02
-3.749551987912111599e+02,-3.794772106189784608e+02,-3.560877593557170258e+02,-3.449785571036265992e+02,-4.115892483457012077e+02,-3.942701479014685901e+02,-3.041859133613484119e+02,-3.084256073941226077e+02,9.446745872497558594e+00,-6.884268522262573242e-01,-4.207052886486053467e-01,4.000000000000000000e+02
-3.729025397489881470e+02,-3.752133139624220348e+02,-3.497877768631833533e+02,-3.435283711724723616e+02,-4.063957369660163295e+02,-3.916172321415031092e+02,-3.024965270430959663e+02,-3.046584150575624790e+02,9.446745872497558594e+00,-6.884268522262573242e-01,-4.207052886486053467e-01,4.010000000000000000e+02
-3.712696623094109327e+02,-3.700853992919646771e+02,-3.425355422170978272e+02,-3.426183075102067050e+02,-4.025625756081681175e+02,-3.896221246573420558e+02,-3.004268811123329215e+02,-3.020747707459506728e+02,9.446745872497558594e+00,-6.884268522262573242e-01,-4.207052886486053467e-01,4.020000000000000000e+02
-3.693614318064364852e+02,-3.648239708081605386e+02,-3.350631399246472029e+02,-3.410151581560314753e+02,-3.995979978090265377e+02,-3.873290117540841493e+02,-2.973470205047076433e+02,-2.994463017342427520e+02,9.446745872497558594e+00,-6.884268522262573242e-01,-4.207052886486053467e-01,4.030000000000000000e+02
-3.661662679116407162e+02,-3.602891628828804187e+02,-3.283365524682935757e+02,-3.376870912494207460e+02,-3.964578151049340704e+02,-3.839106670452163144e+02,-2.930067620544177771e+02,-2.953975721834658543e+02,9.446745872497558594e+00,-6.884268522262573242e-01,-4.207052886486053467e-01,4.040000000000000000e+02
-3.612359679781923205e+02,-3.570742715545934516e+02,-3.229500634129612990e+02,-3.325185659958676752e+02,-3.923564460501454505e+02,-3.791344058884624246e+02,-2.876935443937873060e+02,-2.895242470121056613e+02,9.446745872497558594e+00,-6.884268522262573242e-01,-4.207052886486053467e-01,4.050000000000000000e+02
-3.552124130983220311e+02,-3.550777134553090946e+02,-3.188250580135893415e+02,-3.262437735897763105e+02,-3.872694889193446670e+02,-3.733008856336557528e+02,-2.820822515063246101e+02,-2.825872668449376306e+02,9.446745872497558594e+00,-6.884268522262573242e-01,-4.207052886486053467e-01,4.060000000000000000e+02
-3.494104968101971735e+02,-3.534362663273236649e+02,-3.152694355047435693e+02,-3.197859359313345067e+02,-3.816914787872121906e+02,-3.668456441359705877e+02,-2.768527619189967481e+02,-2.757146411705391529e+02,9.446745872497558594e+00,-6.884268522262573242e-01,-4.207052886486053467e-01,4.070000000000000000e+02
-3.448237766165932499e+02,-3.510244136278579390e+02,-3.113935004082543401e+02,-3.136545767592024276e+02,-3.760419419228301194e+02,-3.600720925041862301e+02,-2.723443654927148145e+02,-2.695024483391064223e+02,9.446745872497558594e+00,-6.884268522262573242e-01,-4.207052886486053467e-01,4.080000000000000000e+02
-3.414970571263756938e+02,-3.472331926370488873e+02,-3.067474942662965987e+02,-3.078957457245239766e+02,-3.704412791639933857e+02,-3.532635702562079132e+02,-2.685030584402036311e+02,-2.639061015391832825e+02,9.446745872497558594e+00,-6.884268522262573242e-01,-4.207052886486053467e-01,4.090000000000000000e+02
-3.388109399041788947e+02,-3.424046821034844470e+02,-3.017676964640274946e+02,-3.025065329796848346e+02,-3.650356571829461245e+02,-3.469478998885911096e+02,-2.651255951325656497e+02,-2.588812745394398007e+02,9.446745872497558594e+00,-6.884268522262573242e-01,-4.207052886486053467e-01,4.100000000000000000e+02
-3.362501693409806194e+02,-3.375297004705930703e+02,-2.975389288048909293e+02,-2.978114310449357163e+02,-3.603065757951724208e+02,-3.418790075197550777e+02,-2.621354752984050265e+02,-2.549088009539800623e+02,9.446745872497558594e+00,-6.884268522262573242e-01,-4.207052886486053467e-01,4.110000000000000000e+02
-3.337611975226482173e+02,-3.334469960683641148e+02,-2.948474203412793031e+02,-2.943958602146010435e+02,-3.568004126758646635e+02,-3.386024113213256896e+02,-2.596026637939048669e+02,-2.527035116660106269e+02,9.446745872497558594e+00,-6.884268522262573242e-01,-4.207052886486053467e-01,4.120000000000000000e+02
-3.313609479949618617e+02,-3.302108977296979901e+02,-2.932405874744847551e+02,-2.926387886026227534e+02,-3.544762793600536952e+02,-3.369902114788508243e+02,-2.574879144025831010e+02,-2.523680685744748189e+02,9.446745872497558594e+00,-6.884268522262573242e-01,-4.207052886486053467e-01,4.130000000000000000e+02
-3.285879053713122175e+02,-3.271329496074865801e+02,-2.910526533429369920e+02,-2.922646820949648827e+02,-3.524701327008253884e+02,-3.362310057636032070e+02,-2.554229354045028231e+02,-2.529413718199352843e+02,9.446745872497558594e+00,-6.884268522262573242e-01,-4.207052886486053467e-01,4.140000000000000000e+02
-3.246050259354117316e+02,-3.234098253927083988e+02,-2.866143725315289430e+02,-2.923141568104019825e+02,-3.497236040981219958e+02,-3.353424913128833396e+02,-2.528514775263370211e+02,-2.529369960312712919e+02,9.446745872497558594e+00,-6.884268522262573242e-01,-4.207052886486053467e-01,4.150000000000000000e+02
-3.190261771307514209e+02,-3.187807007500364307e+02,-2.796895283434771500e+02,-2.916025718850762587e+02,-3.459457214773192391e+02,-3.337740889715346384e+02,-2.494948234007974861e+02,-2.514481724490403849e+02,9.446745872497558594e+00,-6.884268522262573242e-01,-4.207052886486053467e-01,4.160000000000000000e+02
-3.126294110854730661e+02,-3.137113787806454184e+02,-2.718042518628183188e+02,-2.893569671714299147e+02,-3.418982297523352827e+02,-3.315925269180111172e+02,-2.457184772801615509e+02,-2.487900261901263548e+02,9.446745872497558594e+00,-6.884268522262573242e-01,-4.207052886486053467e-01,4.170000000000000000e+02
-3.070656250288188858e+02,-3.090524587961501766e+02,-2.650769733240854293e+02,-2.856247109118880871e+02,-3.386449554887542490e+02,-3.291758386804485781e+02,-2.423839295136144756e+02,-2.460850533367672597e+02,9.446745872497558594e+00,-6.884268522262573242e-01,-4.207052886486053467e-01,4.180000000000000000e+02
-3.036263362482536650e+02,-3.055138102510895806e+02,-2.605834748208026213e+02,-2.812294973144782944e+02,-3.365033935291280613e+02,-3.267883354703494660e+02,-2.402269573705887069e+02,-2.442163580393696520e+02,9.446745872497558594e+00,-6.884268522262573242e-01,-4.207052886486053467e-01,4.190000000000000000e+02
-3.021161353668821903e+02,-3.033214578290906047e+02,-2.577648489804450946e+02,-2.773329146258388391e+02,-3.347711641387345480e+02,-3.244361572549169068e+02,-2.392926206077952429e+02,-2.431385765349466510e+02,9.446745872497558594e+00,-6.884268522262573242e-01,-4.207052886486053467e-01,4.200000000000000000e+02
-3.008568213652347367e+02,-3.021664143518119090e+02,-2.553465261839171490e+02,-2.748644978848928986e+02,-3.324778521073521915e+02,-3.220423427220707708e+02,-2.389701626672388102e+02,-2.421000847744901421e+02,9.446745872497558594e+00,-6.884268522262573242e-01,-4.207052886486053467e-01,4.210000000000000000e+02
-2.978706215943716415e+02,-3.013430202021584137e+02,-2.527313170263569191e+02,-2.741040792723833874e+02,-3.293322337746976700e+02,-3.196639145603276120e+02,-2.386101115386586571e+02,-2.404100491230174157e+02,9.446745872497558594e+00,-6.884268522262573242e-01,-4.207052886486053467e-01,4.220000000000000000e+02
-2.922787609294293816e+02,-3.000098950450258144e+02,-2.504174675931221827e+02,-2.745930813752841004e+02,-3.258863364000385445e+02,-3.174971447569505472e+02,-2.381199191473199335e+02,-2.379516336208507710e+02,9.446745872497558594e+00,-6.884268522262573242e-01,-4.207052886486053467e-01,4.230000000000000000e+02
-2.848327211125495069e+02,-2.975746143289659358e+02,-2.491036369055022988e+02,-2.753887258717231816e+02,-3.228141483292824887e+02,-3.156718037692703547e+02,-2.379148510079230618e+02,-2.350272995875041033e+02,9.446745872497558594e+00,-6.884268522262573242e-01,-4.207052886486053467e-01,4.240000000000000000e+02
-2.772810773841347327e+02,-2.940890955126299104e+02,-2.485498583206262992e+02,-2.755087946273465604e+02,-3.201334293547020025e+02,-3.140273457132925614e+02,-2.382226277822171596e+02,-2.318260719637232796e+02,9.446745872497558594e+00,-6.884268522262573242e-01,-4.207052886486053467e-01,4.250000000000000000e+02
-2.711490893727154798e+02,-2.903573553833466576e+02,-2.474728279172359180e+02,-2.743308763443426415e+02,-3.171900967080737246e+02,-3.120627022098428824e+02,-2.384361158760032140e+02,-2.281102939557913487e+02,9.446745872497558594e+00,-6.884268522262573242e-01,-4.207052886486053467e-01,4.260000000000000000e+02
-2.668255943993365236e+02,-2.874902392733044962e+02,-2.446003032884314052e+02,-2.717532307765309270e+02,-3.133506707388164614e+02,-3.091219244795488521e+02,-2.372531792507484170e+02,-2.234041384062525140e+02,9.446745872497558594e+00,-6.884268522262573242e-01,-4.207052886486053467e-01,4.270000000000000000e+02
-2.635213865357677605e+02,-2.860608837105105522e+02,-2.397880181832997550e+02,-2.680750281303869542e+02,-3.086165343210068386e+02,-3.047637470551453589e+02,-2.336283732606245849e+02,-2.174555011044037656e+02,9.446745872497558594e+00,-6.884268522262573242e-01,-4.207052886486053467e-01,4.280000000000000000e+02
-2.600246457676551017e+02,-2.855189510819536736e+02,-2.341158219538631329e+02,-2.637532496377461939e+02,-3.035623217587640283e+02,-2.991443416614238231e+02,-2.277898058503938046e+02,-2.105964649702027600e+02,9.446745872497558594e+00,-6.884268522262573242e-01,-4.207052886486053467e-01,4.290000000000000000e+02
-2.557009340226707081e+02,-2.844906550266571230e+02,-2.289927436328180193e+02,-2.592508892255978026e+02,-2.987973297567741611e+02,-2.931512619266086404e+02,-2.214308738583565628e+02,-2.037896189895566295e+02,9.446745872497558594e+00,-6.884268522262573242e-01,-4.207052886486053467e-01,4.300000000000000000e+02
-2.510215065339143621e+02,-2.818792963801256519e+02,-2.252476260503076446e+02,-2.550518102844971509e+02,-2.946116086340130096e+02,-2.880797312275221884e+02,-2.168347489819543625e+02,-1.983457479707121820e+02,9.446745872497558594e+00,-6.884268522262573242e-01,-4.207052886486053467e-01,4.310000000000000000e+02
-2.471714741813607361e+02,-2.778800301154783483e+02,-2.229831658083728598e+02,-2.517042768184287524e+02,-2.911356910485624212e+02,-2.849301404652223937e+02,-2.155565922583568863e+02,-1.953943002953737960e+02,9.446745872497558594e+00,-6.884268522262573242e-01,-4.207052886486053467e-01,4.320000000000000000e+02
-2.449836944914193282e+02,-2.739574851449247035e+02,-2.220184622222345752e+02,-2.496976787074604545e+02,-2.886832782343467443e+02,-2.837851578026866264e+02,-2.176212949557648244e+02,-1.952816917021702920e+02,9.446745872497558594e+00,-6.884268522262573242e-01,-4.207052886486053467e-01,4.330000000000000000e+02
-2.440998038291054399e+02,-2.717201381107977340e+02,-2.222088350042276943e+02,-2.491743408252493737e+02,-2.877346449688998291e+02,-2.837865303364847023e+02,-2.217311477079836095e+02,-1.972469647539537618e+02,9.446745872497558594e+00,-6.884268522262573242e-01,-4.207052886486053467e-01,4.340000000000000000e+02
-2.432208034321520245e+02,-2.716591457940767214e+02,-2.233071345209705214e+02,-2.497266454149125821e+02,-2.884811374551568406e+02,-2.837917395557519740e+02,-2.261515777588924720e+02,-1.997221666082057254e+02,9.446745872497558594e+00,-6.884268522262573242e-01,-4.207052886486053467e-01,4.350000000000000000e+02
-2.413973704230941166e+02,-2.728655731263834241e+02,-2.247314110664417512e+02,-2.505356582731019444e+02,-2.904382169416940087e+02,-2.831991040975776741e+02,-2.295328876802332161e+02,-2.012380636661694098e+02,9.446745872497558594e+00,-6.884268522262573242e-01,-4.207052886486053467e-01,4.360000000000000000e+02
-2.391896932116828793e+02,-2.739113573721501780e+02,-2.257046124222488288e+02,-2.508247517777986104e+02,-2.926045487823585063e+02,-2.822464900470604334e+02,-2.311987446910668496e+02,-2.013375884099818904e+02,9.446745872497558594e+00,-6.884268522262573242e-01,-4.207052886486053467e-01,4.370000000000000000e+02
-2.384030979659505647e+02,-2.739759592807417903e+02,-2.256822942602059356e+02,-2.502993874151106866e+02,-2.940574640952700065e+02,-2.815510050713655801e+02,-2.310105651611113444e+02,-2.007128448438581927e+02,9.446745872497558594e+00,-6.884268522262573242e-01,-4.207052886486053467e-01,4.380000000000000000e+02
-2.403750062395597524e+02,-2.731551444772405830e+02,-2.245769709755272743e+02,-2.492273485952164265e+02,-2.944127627856223626e+02,-2.813588949851437064e+02,-2.292377448273696245e+02,-2.003862911565947797e+02,9.446745872497558594e+00,-6.884268522262573242e-01,-4.207052886486053467e-01,4.390000000000000000e+02
-2.443479096531727919e+02,-2.718359239283713578e+02,-2.225605319704907288e+02,-2.481411056300548807e+02,-2.937660502468961568e+02,-2.812490076625795155e+02,-2.266304580267806159e+02,-2.006710567968289070e+02,9.446745872497558594e+00,-6.884268522262573242e-01,-4.207052886486053467e-01,4.400000000000000000e+02
-2.476969542982326402e+02,-2.700201169161114194e+02,-2.197918515743685930e+02,-2.474787096948484759e+02,-2.923341075108969562e+02,-2.805712201390001610e+02,-2.244305642019385232e+02,-2.009255160421748769e+02,9.446745872497558594e+00,-6.884268522262573242e-01,-4.207052886486053467e-01,4.410000000000000000e+02
-2.481545899438604010e+02,-2.674547851875779543e+02,-2.165133695067686403e+02,-2.474675447155191250e+02,-2.903116772751636745e+02,-2.791722956764820083e+02,-2.239547956456724478e+02,-2.003677656273384855e+02,9.446745872497558594e+00,-6.884268522262573242e-01,-4.207052886486053467e-01,4.420000000000000000e+02
-2.461029839145248843e+02,-2.644139345534019867e+02,-2.133960229808797067e+02,-2.482252479784201569e+02,-2.880793457962772663e+02,-2.776674280815850580e+02,-2.257947087460199782e+02,-1.990934870694295569e+02,9.446745872497558594e+00,-6.501809358596801758e-01,-4.207052886486053467e-01,4.430000000000000000e+02
-2.446628675272756936e+02,-2.621134810025423576e+02,-2.115332452659483806e+02,-2.497932763329627051e+02,-2.863328152935496291e+02,-2.769326143748990035e+02,-2.292125218566277454e+02,-1.981548800349150952e+02,9.446745872497558594e+00,-6.501809358596801758e-01,-4.207052886486053467e-01,4.440000000000000000e+02
-2.472283195034435721e+02,-2.620307682991387992e+02,-2.117684147653189939e+02,-2.519560786374863710e+02,-2.856983550664717768e+02,-2.772550342188360446e+02,-2.323649302080366397e+02,-1.985120286239080087e+02,9.446745872497558594e+00,-6.501809358596801758e-01,-4.207052886486053467e-01,4.450000000000000000e+02
-2.545226395215026969e+02,-2.645964960529186101e+02,-2.138699488462289082e+02,-2.540422820439325733e+02,-2.860465631544002463e+02,-2.779372610692507806e+02,-2.333673500383656574e+02,-1.999049199860496628e+02,9.446745872497558594e+00,-6.501809358596801758e-01,-4.207052886486053467e-01,4.460000000000000000e+02
-2.637935509525461839e+02,-2.685263186004935960e+02,-2.164388736019225234e+02,-2.550559609542951875e+02,-2.862727060543379594e+02,-2.777660120945042763e+02,-2.314572149542204897e+02,-2.008860429410005963e+02,9.446745872497558594e+00,-6.501809358596801758e-01,-4.207052886486053467e-01,4.470000000000000000e+02
-2.708133804796207187e+02,-2.715641251807869594e+02,-2.178044925345116098e+02,-2.542094789784387103e+02,-2.850201704482801688e+02,-2.759852718387610366e+02,-2.273586525132564020e+02,-2.001216927202699480e+02,9.446745872497558594e+00,-6.501809358596801758e-01,-4.207052886486053467e-01,4.480000000000000000e+02
-2.728167582220760323e+02,-2.720669254679132791e+02,-2.171773032830246848e+02,-2.514665201551815699e+02,-2.818550539569009743e+02,-2.729345266367809018e+02,-2.226098407387139559e+02,-1.977319757177137944e+02,9.446745872497558594e+00,-6.501809358596801758e-01,-4.207052886486053467e-01,4.490000000000000000e+02
-2.698687435544666187e+02,-2.700379487217078349e+02,-2.150453984916839545e+02,-2.475958026079920273e+02,-2.777855706906243540e+02,-2.697852802180086655e+02,-2.184890705370457908e+02,-1.953181015947311607e+02,9.446745872497558594e+00,-6.501809358596801758e-01,-4.207052886486053467e-01,4.500000000000000000e+02
-2.638838837152779888e+02,-2.667386190548149898e+02,-2.125403966723629310e+02,-2.436338510088971816e+02,-2.745012585063823281e+02,-2.675805565796645169e+02,-2.154370296742795290e+02,-1.945718453183371821e+02,9.446745872497558594e+00,-6.501809358596801758e-01,-4.207052886486053467e-01,4.510000000000000000e+02
-2.567369046895501015e+02,-2.633553242374737238e+02,-2.104762939930435550e+02,-2.401898336490849033e+02,-2.729244676214188985e+02,-2.663856031239847653e+02,-2.132972557218026850e+02,-1.957612492038356322e+02,9.446745872497558594e+00,-6.501809358596801758e-01,-4.207052886486053467e-01,4.520000000000000000e+02
-2.493616432938683829e+02,-2.600321249496896598e+02,-2.089480357314839694e+02,-2.371633389283547331e+02,-2.723904857392549275e+02,-2.652511713214353222e+02,-2.118898538484786513e+02,-1.975168491306030774e+02,9.446745872497558594e+00,-6.501809358596801758e-01,-4.207052886486053467e-01,4.530000000000000000e+02
-2.422559253367462588e+02,-2.561139760729674890e+02,-2.076674753119380057e+02,-2.340591797811343895e+02,-2.712139998891261712e+02,-2.629914201456895171e+02,-2.111957361061622578e+02,-1.980742467829913949e+02,9.446745872497558594e+00,-6.501809358596801758e-01,-4.207052886486053467e-01,4.540000000000000000e+02
-2.362020425263815468e+02,-2.512225766118208412e+02,-2.064511968016311130e+02,-2.305710983471744839e+02,-2.681145956588816262e+02,-2.591140747995714264e+02,-2.109778370866597470e+02,-1.967608416738721644e+02,9.446745872497558594e+00,-6.501809358596801758e-01,-4.207052886486053467e-01,4.550000000000000000e+02
-2.320303803632523341e+02,-2.460311861150435107e+02,-2.052917924629589379e+02,-2.269173203416353317e+02,-2.632057808881563687e+02,-2.541541639064917035e+02,-2.103923506030700992e+02,-1.943666078715518779e+02,9.446745872497558594e+00,-6.501809358596801758e-01,-4.207052886486053467e-01,4.560000000000000000e+02
-2.297037291985698175e+02,-2.419834054631596700e+02,-2.040769381118320780e+02,-2.236742244129886785e+02,-2.577442254968282214e+02,-2.492042695194877524e+02,-2.082406837395399180e+02,-1.921764315748305307e+02,9.446745872497558594e+00,-6.501809358596801758e-01,-4.207052886486053467e-01,4.570000000000000000e+02
-2.280121915076356345e+02,-2.402388640298313476e+02,-2.024596227608749359e+02,-2.212916474716994344e+02,-2.530191603187204237e+02,-2.450795797969935848e+02,-2.038342450168404412e+02,-1.907048676804984098e+02,9.446745872497558594e+00,-6.501809358596801758e-01,-4.207052886486053467e-01,4.580000000000000000e+02
-2.255167548403339879e+02,-2.408147494258810184e+02,-2.001268442638813667e+02,-2.197060105373843726e+02,-2.494359398433048227e+02,-2.417640883051840319e+02,-1.977287364466774306e+02,-1.893376734554694849e+02,9.446745872497558594e+00,-6.501809358596801758e-01,-4.207052886486053467e-01,4.590000000000000000e+02
-2.218517075238248708e+02,-2.426144872818517797e+02,-1.971458743647035590e+02,-2.183383874613573425e+02,-2.464861296240051161e+02,-2.384860262032766514e+02,-1.915661286108049808e+02,-1.870985406819013406e+02,9.446745872497558594e+00,-6.501809358596801758e-01,-4.207052886486053467e-01,4.600000000000000000e+02
-2.179222498229435132e+02,-2.442057513713066328e+02,-1.939191444106284052e+02,-2.164678366739090052e+02,-2.434075089829316312e+02,-2.343078871747793528e+02,-1.870292961217896845e+02,-1.836912206596787200e+02,9.446745872497558594e+00,-6.501809358596801758e-01,-4.207052886486053467e-01,4.610000000000000000e+02
-2.146653001561489873e+02,-2.446455412671407430e+02,-1.907539674517850017e+02,-2.137275466086580309e+02,-2.398407150652346900e+02,-2.288315661220644870e+02,-1.847245180862212237e+02,-1.798249053144002119e+02,9.446745872497558594e+00,-6.501809358596801758e-01,-4.207052886486053467e-01,4.620000000000000000e+02
-2.116710176314277305e+02,-2.437901038014870210e+02,-1.875483413548922726e+02,-2.104121730689062133e+02,-2.360247540477198527e+02,-2.226106221357085815e+02,-1.838943922297899007e+02,-1.766377707844058023e+02,9.446745872497558594e+00,-6.501809358596801758e-01,-4.207052886486053467e-01,4.630000000000000000e+02
-2.072359990896018189e+02,-2.420747340218788395e+02,-1.840018989213283476e+02,-2.073938413083556043e+02,-2.325856924303025153e+02,-2.170243830005006203e+02,-1.831481245026443503e+02,-1.748827117555092627e+02,9.446745872497558594e+00,-6.501809358596801758e-01,-4.207052886486053467e-01,4.640000000000000000e+02
-1.999485226828439863e+02,-2.401219778243912515e+02,-1.801469599263045893e+02,-2.056490332846824458e+02,-2.301900750042841537e+02,-2.136037077795490404e+02,-1.815304494526606049e+02,-1.746085897992725222e+02,9.446745872497558594e+00,-6.501809358596801758e-01,-4.207052886486053467e-01,4.650000000000000000e+02
-1.902822693323914791e+02,-2.384756956208079828e+02,-1.765811958922777194e+02,-2.056342547084509533e+02,-2.292340122198193058e+02,-2.131179212400711549e+02,-1.790573721600503632e+02,-1.754442357445132075e+02,9.446745872497558594e+00,-6.501809358596801758e-01,-4.207052886486053467e-01,4.660000000000000000e+02
-1.805968793006195483e+02,-2.374712327471145272e+02,-1.740642999866754508e+02,-2.068912536245238698e+02,-2.296087576293002712e+02,-2.149648357697910797e+02,-1.764042179191951618e+02,-1.769715309444761715e+02,9.446745872497558594e+00,-6.501809358596801758e-01,-4.207052886486053467e-01,4.670000000000000000e+02
-1.735015304687078697e+02,-2.371129402913911690e+02,-1.728297443658595967e+02,-2.081628844536148790e+02,-2.306268606136686685e+02,-2.173357632083980207e+02,-1.741808076783274828e+02,-1.787125714260596396e+02,9.446745872497558594e+00,-6.501809358596801758e-01,-4.207052886486053467e-01,4.680000000000000000e+02
-1.700874192834864971e+02,-2.369646922784427261e+02,-1.722943596119441736e+02,-2.079949042926707534e+02,-2.312381650016791355e+02,-2.181514499502459330e+02,-1.724942206869420716e+02,-1.798480402156455966e+02,9.446745872497558594e+00,-6.501809358596801758e-01,-4.207052886486053467e-01,4.690000000000000000e+02
-1.694958669375901081e+02,-2.362385070988398184e+02,-1.714602278779461813e+02,-2.055002584800133718e+02,-2.305208141353627980e+02,-2.161918236966780569e+02,-1.710972119583998392e+02,-1.792222414782504529e+02,9.446745872497558594e+00,-6.501809358596801758e-01,-4.207052886486053467e-01,4.700000000000000000e+02
-1.698988459788101864e+02,-2.341771109508181326e+02,-1.696218404350231594e+02,-2.008507138511918129e+02,-2.281618844108634221e+02,-2.116597065126829875e+02,-1.698229116261927629e+02,-1.759474268725521142e+02,9.446745872497558594e+00,-6.501809358596801758e-01,-4.207052886486053467e-01,4.710000000000000000e+02
-1.697760791654418426e+02,-2.305525172580387334e+02,-1.667189845973857700e+02,-1.952079405614022107e+02,-2.245796782316992903e+02,-2.058475173999731851e+02,-1.687846081806981147e+02,-1.702242805137900632e+02,9.446745872497558594e+00,-6.501809358596801758e-01,-4.207052886486053467e-01,4.720000000000000000e+02
-1.685046084284817880e+02,-2.259055304957510089e+02,-1.630941959704521196e+02,-1.901208436797687682e+02,-2.205944681950049926e+02,-2.002614904400520572e+02,-1.681267173113460558e+02,-1.635772801216255630e+02,9.446745872497558594e+00,-6.501809358596801758e-01,-4.207052886486053467e-01,4.730000000000000000e+02
-1.662515086926000549e+02,-2.212842252271020698e+02,-1.590437373354516239e+02,-1.867032889080198856e+02,-2.169059271917253682e+02,-1.958601575357843103e+02,-1.676065706666909136e+02,-1.580669751312068456e+02,9.523238182067871094e+00,-7.266727685928344727e-01,-3.824593424797058105e-01,4.740000000000000000e+02
-1.637475706221837299e+02,-2.176235109033334538e+02,-1.546824390477302131e+02,-1.850343876167878534e+02,-2.137654856152357752e+02,-1.928085023693292896e+02,-1.664837290054915684e+02,-1.549350718693112867e+02,9.523238182067871094e+00,-7.266727685928344727e-01,-3.824593424797058105e-01,4.750000000000000000e+02
-1.621297943366216714e+02,-2.152025624253226397e+02,-1.502009089499551919e+02,-1.841369720048460294e+02,-2.110312849118588474e+02,-1.906680480836407696e+02,-1.639060152755409945e+02,-1.537442941167942081e+02,9.523238182067871094e+00,-7.266727685928344727e-01,-3.824593424797058105e-01,4.760000000000000000e+02
-1.624794675689258838e+02,-2.135630857524424755e+02,-1.461050310588937009e+02,-1.825848703372407726e+02,-2.084787949024319005e+02,-1.887224915087344925e+02,-1.595264557931623131e+02,-1.527719845065741993e+02,9.523238182067871094e+00,-7.266727685928344727e-01,-3.824593424797058105e-01,4.770000000000000000e+02
-1.649359081434129166e+02,-2.119051091925989567e+02,-1.430296340453498942e+02,-1.793968550545189373e+02,-2.060776647367338228e+02,-1.862750577905571845e+02,-1.538722404036227545e+02,-1.503863310636140795e+02,9.523238182067871094e+00,-7.266727685928344727e-01,-3.824593424797058105e-01,4.780000000000000000e+02
-1.680979120730612522e+02,-2.096300755616648530e+02,-1.412280228751897084e+02,-1.746371831609535548e+02,-2.040126168019628494e+02,-1.829167609004011865e+02,-1.481791716123825609e+02,-1.462877837847843239e+02,9.523238182067871094e+00,-7.266727685928344727e-01,-3.824593424797058105e-01,4.790000000000000000e+02
-1.696352878839088589e+02,-2.066561183051294392e+02,-1.402774280893486321e+02,-1.693030439463957464e+02,-2.024540215392730715e+02,-1.787351793997245295e+02,-1.438032637617902765e+02,-1.416156926854641824e+02,9.523238182067871094e+00,-7.266727685928344727e-01,-3.824593424797058105e-01,4.800000000000000000e+02
-1.680219120589972590e+02,-2.033595716878669464e+02,-1.393731409339136462e+02,-1.645757167437820954e+02,-2.012880920097350099e+02,-1.742965859259015815e+02,-1.415813977471507314e+02,-1.378949302919590991e+02,9.523238182067871094e+00,-7.266727685928344727e-01,-3.824593424797058105e-01,4.810000000000000000e+02
-1.639746540765859208e+02,-2.002601787665191750e+02,-1.379868671273936798e+02,-1.610081850840228981e+02,-2.000681906318454821e+02,-1.703014654799540040e+02,-1.414835961677692922e+02,-1.357843959640251796e+02,9.523238182067871094e+00,-7.266727685928344727e-01,-3.824593424797058105e-01,4.820000000000000000e+02
-1.601331036195185789e+02,-1.976969209843309727e+02,-1.362447155120012212e+02,-1.582864260267965619e+02,-1.982860264329056008e+02,-1.671263629409822897e+02,-1.426778144004761089e+02,-1.346955381013940496e+02,9.523238182067871094e+00,-7.266727685928344727e-01,-3.824593424797058105e-01,4.830000000000000000e+02
-1.590618716972253424e+02,-1.956831292964766362e+02,-1.346298060201304452e+02,-1.556980326095374494e+02,-1.957708687286954046e+02,-1.646331685514662695e+02,-1.439336465885933194e+02,-1.335082107279979482e+02,9.523238182067871094e+00,-7.266727685928344727e-01,-3.824593424797058105e-01,4.840000000000000000e+02
-1.613234431498635786e+02,-1.939826021467006285e+02,-1.333115578879430814e+02,-1.528265542041228855e+02,-1.928704971769182066e+02,-1.624138170994808661e+02,-1.441784470958573365e+02,-1.316309928785731245e+02,9.523238182067871094e+00,-7.266727685928344727e-01,-3.824593424797058105e-01,4.850000000000000000e+02
-1.653459483470801388e+02,-1.923264378513385964e+02,-1.318142901674996210e+02,-1.498361955872028375e+02,-1.902022902676960712e+02,-1.602128920636630482e+02,-1.429394068277320002e+02,-1.294077815628099870e+02,9.523238182067871094e+00,-7.266727685928344727e-01,-3.824593424797058105e-01,4.860000000000000000e+02
-1.690264553812739905e+02,-1.906241811918489475e+02,-1.294438745018944701e+02,-1.471534545026524938e+02,-1.881336075795593388e+02,-1.580950363939120962e+02,-1.404171379427864395e+02,-1.275552455103545526e+02,9.523238182067871094e+00,-7.266727685928344727e-01,-3.824593424797058105e-01,4.870000000000000000e+02
-1.713211005066307280e+02,-1.890066693048477191e+02,-1.261392455983684613e+02,-1.449444071971872745e+02,-1.864342911290361826e+02,-1.562033993247578110e+02,-1.371221895492326439e+02,-1.262495470785315774e+02,9.523238182067871094e+00,-7.266727685928344727e-01,-3.824593424797058105e-01,4.880000000000000000e+02
-1.723091198311835797e+02,-1.876297157177903046e+02,-1.229285399410837272e+02,-1.429320058343673736e+02,-1.844203091331346513e+02,-1.543969280578246526e+02,-1.333198283046233428e+02,-1.247879496619730162e+02,9.523238182067871094e+00,-7.266727685928344727e-01,-3.824593424797058105e-01,4.890000000000000000e+02
-1.720280189066388630e+02,-1.863492280118684903e+02,-1.214533514052463943e+02,-1.406904593860174373e+02,-1.814821729807927113e+02,-1.521909018732271761e+02,-1.287460010884658459e+02,-1.221675001369053462e+02,9.523238182067871094e+00,-7.266727685928344727e-01,-3.824593424797058105e-01,4.900000000000000000e+02
-1.697625354062936367e+02,-1.845397446230606420e+02,-1.228438321802746032e+02,-1.380250738169584110e+02,-1.775424966041814514e+02,-1.490875553509317797e+02,-1.228954947009335683e+02,-1.180190487902632412e+02,9.523238182067871094e+00,-7.266727685928344727e-01,-3.824593424797058105e-01,4.910000000000000000e+02
-1.648429680747374277e+02,-1.812921722867001790e+02,-1.268327712640307254e+02,-1.349766271535686428e+02,-1.730641649724966555e+02,-1.449662939604368148e+02,-1.156811270701009562e+02,-1.129917147958501573e+02,9.523238182067871094e+00,-7.266727685928344727e-01,-3.824593424797058105e-01,4.920000000000000000e+02
-1.580900869214383420e+02,-1.759557948643230247e+02,-1.318502157664656806e+02,-1.314721731951181027e+02,-1.686566519803775464e+02,-1.401560240841413361e+02,-1.078527496167296249e+02,-1.082287591772389987e+02,9.523238182067871094e+00,-7.266727685928344727e-01,-3.824593424797058105e-01,4.930000000000000000e+02
-1.520833770527488014e+02,-1.686681399542285362e+02,-1.360480909735616706e+02,-1.271075455608524862e+02,-1.646430932970647518e+02,-1.351524999561768254e+02,-1.006989416883027388e+02,-1.044468211058092493e+02,9.523238182067871094e+00,-7.266727685928344727e-01,-3.824593424797058105e-01,4.940000000000000000e+02
-1.495556131360916652e+02,-1.604550663634904595e+02,-1.384469435688831709e+02,-1.214499151398836148e+02,-1.609078815508587468e+02,-1.302869544413208587e+02,-9.518920597024475683e+01,-1.014736915257722103e+02,9.561484336853027344e+00,-6.119350194931030273e-01,-4.589512646198272705e-01,4.950000000000000000e+02
-1.512830575568327731e+02,-1.527695538945065437e+02,-1.393189335851392343e+02,-1.146593477525602793e+02,-1.570507500204437292e+02,-1.256565767422107456e+02,-9.128285682059777173e+01,-9.861437795593928968e+01,9.561484336853027344e+00,-6.119350194931030273e-01,-4.589512646198272705e-01,4.960000000000000000e+02
-1.555478194858958432e+02,-1.467510802910589973e+02,-1.395636499160207222e+02,-1.077546227369149392e+02,-1.526360111238054742e+02,-1.212978248890708528e+02,-8.801704965697649641e+01,-9.538989512633906998e+01,9.561484336853027344e+00,-6.119350194931030273e-01,-4.589512646198272705e-01,4.970000000000000000e+02
-1.597665541399561562e+02,-1.427108910332274263e+02,-1.396667403876690514e+02,-1.020882805920052760e+02,-1.473687618480167885e+02,-1.173158960806115374e+02,-8.429753093438898759e+01,-9.187713470997221066e+01,9.561484336853027344e+00,-6.119350194931030273e-01,-4.589512646198272705e-01,4.980000000000000000e+02
-1.627163762046193369e+02,-1.401817369850170962e+02,-1.391579639188992132e+02,-9.837719023555121112e+01,-1.411943794844635249e+02,-1.137717616097456812e+02,-7.971182260513376150e+01,-8.837090939346217056e+01,9.561484336853027344e+00,-6.119350194931030273e-01,-4.589512646198272705e-01,4.990000000000000000e+02
-1.652252620342197815e+02,-1.384259477075706855e+02,-1.370256318894315655e+02,-9.616120660315664281e+01,-1.343790818731858963e+02,-1.104582351057958931e+02,-7.471676911053850745e+01,-8.485073352405356673e+01,9.561484336853027344e+00,-6.119350194931030273e-01,-4.589512646198272705e-01,5.000000000000000000e+02
-1.687861296074659094e+02,-1.369575320665946947e+02,-1.327017779378602427e+02,-9.423578718407304677e+01,-1.275394309434634579e+02,-1.068960549907196764e+02,-7.016486516962720543e+01,-8.094118652570637096e+01,9.561484336853027344e+00,-6.119350194931030273e-01,-4.589512646198272705e-01,5.010000000000000000e+02
-1.736134019961772310e+02,-1.356882381711172911e+02,-1.267265878861148849e+02,-9.172271734715559433e+01,-1.215122461962450870e+02,-1.027021449638700688e+02,-6.669142283111568759e+01,-7.648673519612896143e+01,9.561484336853027344e+00,-6.119350194931030273e-01,-4.589512646198272705e-01,5.020000000000000000e+02
-1.780997034607615888e+02,-1.346860918759455217e+02,-1.204730916360090305e+02,-8.882348030603407096e+01,-1.170238437014038482e+02,-9.806203326648255825e+01,-6.445128078240998093e+01,-7.210912545822884567e+01,9.561484336853027344e+00,-6.119350194931030273e-01,-4.589512646198272705e-01,5.030000000000000000e+02
-1.801113786345754875e+02,-1.338733020412523160e+02,-1.151659312351167728e+02,-8.657250047215518407e+01,-1.143050307967616845e+02,-9.381461375360277088e+01,-6.323172445629779759e+01,-6.902355053261220519e+01,9.561484336853027344e+00,-6.119350194931030273e-01,-4.589512646198272705e-01,5.040000000000000000e+02
-1.787490794143146786e+02,-1.329842789875469862e+02,-1.110610955202913601e+02,-8.583293108493774071e+01,-1.129231590371946936e+02,-9.093053952613598767e+01,-6.262928854968998849e+01,-6.809850132896048081e+01,9.561484336853027344e+00,-6.119350194931030273e-01,-4.589512646198272705e-01,5.050000000000000000e+02
-1.749282006144441937e+02,-1.317957985256604161e+02,-1.074891961058028755e+02,-8.644636602175432927e+01,-1.119993699372511173e+02,-8.972043688995961475e+01,-6.209490941281376308e+01,-6.896548620527687490e+01,9.561484336853027344e+00,-6.119350194931030273e-01,-4.589512646198272705e-01,5.060000000000000000e+02
-1.704706981349044383e+02,-1.303488797608298455e+02,-1.036573415309931931e+02,-8.727655958318729290e+01,-1.107207904857281164e+02,-8.945289712481775268e+01,-6.099898878620982146e+01,-7.006486573482243330e+01,9.561484336853027344e+00,-6.119350194931030273e-01,-4.589512646198272705e-01,5.070000000000000000e+02
-1.668021072095667989e+02,-1.288921881207673437e+02,-9.941635956214275893e+01,-8.704849846568941985e+01,-1.088021500537322481e+02,-8.879298976450047576e+01,-5.891325156933697826e+01,-6.969687852282976337e+01,9.561484336853027344e+00,-6.119350194931030273e-01,-4.589512646198272705e-01,5.080000000000000000e+02
-1.644413270886360579e+02,-1.275779570371225589e+02,-9.528685374082604653e+01,-8.521236032170426711e+01,-1.065515178406245980e+02,-8.677009172802604553e+01,-5.599605121947055864e+01,-6.723042104204017733e+01,9.561484336853027344e+00,-6.119350194931030273e-01,-4.589512646198272705e-01,5.090000000000000000e+02
-1.633954465171739798e+02,-1.262422113046516472e+02,-9.181620313097593566e+01,-8.215304357904304311e+01,-1.044881017609000367e+02,-8.349384809444313760e+01,-5.307472891711310581e+01,-6.347556039320687660e+01,9.561484336853027344e+00,-6.119350194931030273e-01,-4.589512646198272705e-01,5.100000000000000000e+02
-1.636690466714499053e+02,-1.245366307994984254e+02,-8.899264296015127229e+01,-7.871656398371334262e+01,-1.028401821388468420e+02,-8.002165486473055012e+01,-5.116331558707622662e+01,-5.996275150048964520e+01,9.561484336853027344e+00,-6.119350194931030273e-01,-4.589512646198272705e-01,5.110000000000000000e+02
-1.652603363216320815e+02,-1.223140925603280778e+02,-8.633246093584472192e+01,-7.557411812141640439e+01,-1.013869757306861743e+02,-7.751086594954841757e+01,-5.069591292191915954e+01,-5.780842129077436198e+01,9.561484336853027344e+00,-6.119350194931030273e-01,-4.589512646198272705e-01,5.120000000000000000e+02
-1.678328396071648285e+02,-1.198964679014541161e+02,-8.351611078107981712e+01,-7.295991951694259114e+01,-9.980799246755952936e+01,-7.640179548249784602e+01,-5.113216459536681668e+01,-5.712025003158032632e+01,9.561484336853027344e+00,-6.119350194931030273e-01,-4.589512646198272705e-01,5.130000000000000000e+02
-1.706973045222498513e+02,-1.179358723742323036e+02,-8.085649002217564885e+01,-7.085769347762027337e+01,-9.818767080108756318e+01,-7.628729716195579158e+01,-5.133937358360020653e+01,-5.729275866312013932e+01,9.561484336853027344e+00,-6.119350194931030273e-01,-4.589512646198272705e-01,5.140000000000000000e+02
-1.732756347349692305e+02,-1.169745342861577910e+02,-7.908125023157225542e+01,-6.931266893335413215e+01,-9.712562838769190421e+01,-7.646769767872945067e+01,-5.048803660676003346e+01,-5.773671216749016821e+01,9.561484336853027344e+00,-6.119350194931030273e-01,-4.589512646198272705e-01,5.150000000000000000e+02
-1.755264862681887053e+02,-1.171024376801090057e+02,-7.863455871645987827e+01,-6.854065149683037816e+01,-9.724825023002824764e+01,-7.660936330343361078e+01,-4.871057795426679604e+01,-5.832042402118247537e+01,9.561484336853027344e+00,-6.119350194931030273e-01,-4.589512646198272705e-01,5.160000000000000000e+02
-1.777634665108512309e+02,-1.180088138484378533e+02,-7.919595910751104384e+01,-6.877909578068943119e+01,-9.853205578982738189e+01,-7.692520607389690213e+01,-4.697457613617189054e+01,-5.920888687233036762e+01,9.561484336853027344e+00,-6.119350194931030273e-01,-4.589512646198272705e-01,5.170000000000000000e+02
-1.799931666987337167e+02,-1.193203084217038850e+02,-7.985653517632670173e+01,-7.004972862329736927e+01,-1.000980227805764571e+02,-7.780001945758374404e+01,-4.629148857731024691e+01,-6.039102926716350339e+01,9.561484336853027344e+00,-6.119350194931030273e-01,-4.589512646198272705e-01,5.180000000000000000e+02
-1.815224925454671165e+02,-1.208657109431634353e+02,-7.972680180206543810e+01,-7.204148826636355807e+01,-1.007177754923931161e+02,-7.927717056218534708e+01,-4.694095835587063448e+01,-6.142326899349541236e+01,9.561484336853027344e+00,-6.119350194931030273e-01,-4.589512646198272705e-01,5.190000000000000000e+02
-1.813772966005383296e+02,-1.226448035525465912e+02,-7.839827169609407065e+01,-7.419251430609244835e+01,-9.960516612245123724e+01,-8.088225171368731026e+01,-4.834416695311529111e+01,-6.163043164301950583e+01,9.484992027282714844e+00,-6.884268522262573242e-01,-3.824593424797058105e-01,5.200000000000000000e+02
-1.792220326208830556e+02,-1.246147163593077494e+02,-7.595503163726220919e+01,-7.591208652504792553e+01,-9.681145455081605178e+01,-8.189795853056830310e+01,-4.961654915021881607e+01,-6.053742422909476772e+01,9.484992027282714844e+00,-6.884268522262573242e-01,-3.824593424797058105e-01,5.210000000000000000e+02
-1.758807835848039076e+02,-1.265923940776565360e+02,-7.275749626760671163e+01,-7.684263197844984461e+01,-9.297907427932454993e+01,-8.184107118936140068e+01,-5.026411168017898490e+01,-5.815661922406707163e+01,9.484992027282714844e+00,-6.884268522262573242e-01,-3.824593424797058105e-01,5.220000000000000000e+02
-1.728613013129154297e+02,-1.283729590366849607e+02,-6.936547837810508099e+01,-7.703115412851911969e+01,-8.885187426031006908e+01,-8.079711020301670032e+01,-5.044981319446674206e+01,-5.498420377963543615e+01,9.484992027282714844e+00,-6.884268522262573242e-01,-3.824593424797058105e-01,5.230000000000000000e+02
-1.712130213889865900e+02,-1.298755162426953120e+02,-6.661877350535064579e+01,-7.689842383653376601e+01,-8.507575650106855392e+01,-7.942086901030165791e+01,-5.071652269039827843e+01,-5.185179010034971725e+01,9.484992027282714844e+00,-6.884268522262573242e-01,-3.824593424797058105e-01,5.240000000000000000e+02
-1.707000714390005669e+02,-1.310940626965582396e+02,-6.554064674264100177e+01,-7.698380631254758555e+01,-8.235461377911428826e+01,-7.862420478182775696e+01,-5.152617335173499669e+01,-4.980183867044115686e+01,9.484992027282714844e+00,-6.884268522262573242e-01,-3.824593424797058105e-01,5.250000000000000000e+02
-1.700153848226634636e+02,-1.318999009180190569e+02,-6.685669567684203685e+01,-7.759558418726919626e+01,-8.152561318355697040e+01,-7.912545705426509812e+01,-5.304256012467840264e+01,-4.993383782789828729e+01,9.484992027282714844e+00,-6.884268522262573242e-01,-3.824593424797058105e-01,5.260000000000000000e+02
-1.678703821476456142e+02,-1.319972982103979575e+02,-7.042851243697623431e+01,-7.861753689953934554e+01,-8.320452857054215201e+01,-8.110313375041823747e+01,-5.525432005888569620e+01,-5.304092203863592658e+01,9.484992027282714844e+00,-6.884268522262573242e-01,-3.824593424797058105e-01,5.270000000000000000e+02
-1.640955474873669573e+02,-1.312364553504878586e+02,-7.517462405141759518e+01,-7.966451103710710413e+01,-8.722679407267605711e+01,-8.415455828272388317e+01,-5.817158542493234563e+01,-5.907113226065985145e+01,9.484992027282714844e+00,-6.884268522262573242e-01,-3.824593424797058105e-01,5.280000000000000000e+02
-1.599123932998129476e+02,-1.300798177774533997e+02,-7.968888929558534073e+01,-8.051981856456404785e+01,-9.246672461446632951e+01,-8.758295789251815222e+01,-6.179974198995864754e+01,-6.680981507380920448e+01,9.484992027282714844e+00,-6.884268522262573242e-01,-3.824593424797058105e-01,5.290000000000000000e+02
-1.572060265044437983e+02,-1.297065062602491707e+02,-8.309681773500506097e+01,-8.149132642748054423e+01,-9.734177126924623735e+01,-9.080979702541981169e+01,-6.589010174590384850e+01,-7.421164169137546196e+01,9.484992027282714844e+00,-6.884268522262573242e-01,-3.824593424797058105e-01,5.300000000000000000e+02
-1.573556142090149024e+02,-1.314285581374224421e+02,-8.541802934328416086e+01,-8.332041916627667888e+01,-1.006534450343801836e+02,-9.361661239575869331e+01,-6.977728416037871284e+01,-7.936366736868467342e+01,9.484992027282714844e+00,-6.884268522262573242e-01,-3.824593424797058105e-01,5.310000000000000000e+02
-1.604158564269441740e+02,-1.357045767047475238e+02,-8.715708760307052216e+01,-8.660969294576761968e+01,-1.020841865012775997e+02,-9.606985259644898179e+01,-7.257801984099387482e+01,-8.147335739352047312e+01,9.484992027282714844e+00,-6.884268522262573242e-01,-3.824593424797058105e-01,5.320000000000000000e+02
-1.651454064095714784e+02,-1.415230116671732503e+02,-8.859721202683158481e+01,-9.117765908535284325e+01,-1.020257194529058324e+02,-9.825287323036127418e+01,-7.369222565232939814e+01,-8.114044212191538463e+01,9.484992027282714844e+00,-6.884268522262573242e-01,-3.824593424797058105e-01,5.330000000000000000e+02
-1.697863843906538932e+02,-1.467710681283183476e+02,-8.953645930798802510e+01,-9.591933476991243879e+01,-1.010529224074871308e+02,-1.000785256956360172e+02,-7.323097124810146852e+01,-7.973277685138054949e+01,9.484992027282714844e+00,-6.884268522262573242e-01,-3.824593424797058105e-01,5.340000000000000000e+02
-1.730413434018705630e+02,-1.494616527443308769e+02,-8.970760805588224684e+01,-9.941438501839729724e+01,-9.962475114652852426e+01,-1.013559688585505683e+02,-7.202326585203491049e+01,-7.844384096541716644e+01,9.484992027282714844e+00,-6.884268522262573242e-01,-3.824593424797058105e-01,5.350000000000000000e+02
-1.746016482394643390e+02,-1.489590911001141649e+02,-8.937086743884901807e+01,-1.008992053147017032e+02,-9.822738241419938277e+01,-1.020382034867002403e+02,-7.117911107307054408e+01,-7.782888590785341876e+01,9.484992027282714844e+00,-6.884268522262573242e-01,-3.824593424797058105e-01,5.360000000000000000e+02
-1.749381958661242606e+02,-1.462976713598927745e+02,-8.934931577337101771e+01,-1.008250015642088329e+02,-9.760571620926657488e+01,-1.024012697070506874e+02,-7.150115063601833754e+01,-7.804738983880724845e+01,9.484992027282714844e+00,-6.884268522262573242e-01,-3.824593424797058105e-01,5.370000000000000000e+02
-1.746549759376348447e+02,-1.433817633243743330e+02,-9.035082723577306751e+01,-1.004929270272946269e+02,-9.860373597571242499e+01,-1.029649892556267332e+02,-7.309251430628592061e+01,-7.930033117702942036e+01,9.484992027282714844e+00,-6.884268522262573242e-01,-3.824593424797058105e-01,5.380000000000000000e+02
-1.740036068645599698e+02,-1.417113178907734437e+02,-9.219729171874678286e+01,-1.010010815873679348e+02,-1.015589315269330655e+02,-1.041595234836700001e+02,-7.531900223567754438e+01,-8.180670116087640054e+01,9.484992027282714844e+00,-6.884268522262573242e-01,-3.824593424797058105e-01,5.390000000000000000e+02
-1.729596043082324286e+02,-1.415873568298711689e+02,-9.376260712597013480e+01,-1.023451611389900791e+02,-1.057436784532619640e+02,-1.059364125264182803e+02,-7.708202411496222339e+01,-8.527286894475309964e+01,9.484992027282714844e+00,-6.884268522262573242e-01,-3.824593424797058105e-01,5.400000000000000000e+02
-1.717187250916463199e+02,-1.422783743878680980e+02,-9.377352362141118647e+01,-1.034387763691211148e+02,-1.094626239169128894e+02,-1.076154045424282231e+02,-7.729449890431533277e+01,-8.852731164112083206e+01,9.484992027282714844e+00,-6.884268522262573242e-01,-3.824593424797058105e-01,5.410000000000000000e+02
-1.710114770139848588e+02,-1.428428136292941417e+02,-9.180357692892721388e+01,-1.030606353608459358e+02,-1.109113645483148503e+02,-1.081649066561549262e+02,-7.543573806835274809e+01,-8.996327762330474798e+01,9.484992027282714844e+00,-6.884268522262573242e-01,-3.824593424797058105e-01,5.420000000000000000e+02
-1.717676264177280245e+02,-1.428574104691278990e+02,-8.857842835516294144e+01,-1.009267339385828564e+02,-1.092388831504949849e+02,-1.068296229497864260e+02,-7.197835937525724148e+01,-8.861804354418154617e+01,9.484992027282714844e+00,-6.884268522262573242e-01,-3.824593424797058105e-01,5.430000000000000000e+02
-1.742866602379376673e+02,-1.425364818062071208e+02,-8.534300011675441056e+01,-9.798425542530458188e+01,-1.050375822861469715e+02,-1.037163123679256387e+02,-6.838579661209405458e+01,-8.497593882139517518e+01,9.484992027282714844e+00,-6.884268522262573242e-01,-3.824593424797058105e-01,5.440000000000000000e+02
-1.776150306831118542e+02,-1.423176673435582416e+02,-8.288529504035705031e+01,-9.569984365021718986e+01,-9.990270946324562829e+01,-9.987678435147699929e+01,-6.649160009839124541e+01,-8.071069334555613750e+01,9.484992027282714844e+00,-6.884268522262573242e-01,-3.824593424797058105e-01,5.450000000000000000e+02
-1.797951470830926155e+02,-1.423720283448028567e+02,-8.108557918690530641e+01,-9.496090302515676740e+01,-9.543579321924426040e+01,-9.672584040174024267e+01,-6.745548043973485619e+01,-7.751529171138099628e+01,9.484992027282714844e+00,-6.884268522262573242e-01,-3.824593424797058105e-01,5.460000000000000000e+02
-1.789774838497964993e+02,-1.424426159928307243e+02,-7.932874903922584053e+01,-9.550651976056542480e+01,-9.247922065039711015e+01,-9.517003804924297583e+01,-7.094317001162289671e+01,-7.600913151367967657e+01,9.484992027282714844e+00,-6.501809358596801758e-01,-4.207052886486053467e-01,5.470000000000000000e+02
-1.746397269685876381e+02,-1.420686132210512369e+02,-7.732599367772127152e+01,-9.631240547349989356e+01,-9.109187005798048631e+01,-9.512481254406066000e+01,-7.519975135674940248e+01,-7.562351397687962162e+01,9.484992027282714844e+00,-6.501809358596801758e-01,-4.207052886486053467e-01,5.480000000000000000e+02
-1.680157839874318597e+02,-1.409824782931300433e+02,-7.556274423860577372e+01,-9.653389299676837254e+01,-9.107637270979921595e+01,-9.579845825026404782e+01,-7.811188345815935463e+01,-7.544272312469911412e+01,9.484992027282714844e+00,-6.501809358596801758e-01,-4.207052886486053467e-01,5.490000000000000000e+02
-1.614190252351327217e+02,-1.394132623448113009e+02,-7.496489510318679095e+01,-9.620781970525058568e+01,-9.241386112172403955e+01,-9.647031106795475353e+01,-7.857509211037813657e+01,-7.512965033966702322e+01,9.484992027282714844e+00,-6.501809358596801758e-01,-4.207052886486053467e-01,5.500000000000000000e+02
-1.569285152521224518e+02,-1.381133102681787932e+02,-7.608651269277379470e+01,-9.620209544621229725e+01,-9.517376905460059788e+01,-9.705865452240323066e+01,-7.716221025236700370e+01,-7.510556399450160825e+01,9.484992027282714844e+00,-6.501809358596801758e-01,-4.207052886486053467e-01,5.510000000000000000e+02
-1.553243495373790211e+02,-1.380409284412335182e+02,-7.854419306510408205e+01,-9.752701070793955296e+01,-9.909494544124390814e+01,-9.800494042289028584e+01,-7.559918092021780467e+01,-7.595537910822531558e+01,9.484992027282714844e+00,-6.501809358596801758e-01,-4.207052886486053467e-01,5.520000000000000000e+02
-1.559116851174403564e+02,-1.397896494221313333e+02,-8.120999565090914984e+01,-1.005805387331292877e+02,-1.034360993586951736e+02,-9.969249847533865250e+01,-7.549596472846496908e+01,-7.777213320741793723e+01,9.484992027282714844e+00,-6.501809358596801758e-01,-4.207052886486053467e-01,5.530000000000000000e+02
-1.572139472617109277e+02,-1.430743552301619275e+02,-8.306862021334472956e+01,-1.048851432018500418e+02,-1.074177608633799537e+02,-1.020523385594815409e+02,-7.738949745739409991e+01,-8.015291757880913792e+01,9.484992027282714844e+00,-6.501809358596801758e-01,-4.207052886486053467e-01,5.540000000000000000e+02
-1.580027176326702829e+02,-1.467006877078410980e+02,-8.409213831301349273e+01,-1.094578045807274975e+02,-1.109145150913846010e+02,-1.047607184767366562e+02,-8.082872145858709700e+01,-8.284026271222228388e+01,9.484992027282714844e+00,-6.501809358596801758e-01,-4.207052886486053467e-01,5.550000000000000000e+02
-1.580245444533538830e+02,-1.492252864121846869e+02,-8.541502280986060214e+01,-1.135056573007277620e+02,-1.147161978074445869e+02,-1.077840123034175122e+02,-8.524861813951793010e+01,-8.631831479440643307e+01,9.484992027282714844e+00,-6.501809358596801758e-01,-4.207052886486053467e-01,5.560000000000000000e+02
-1.580561146146274041e+02,-1.499587954450398684e+02,-8.859115631263921387e+01,-1.169545223135810375e+02,-1.200118739845456730e+02,-1.116491667572772712e+02,-9.067075328822375013e+01,-9.168776647447157302e+01,9.484992027282714844e+00,-6.501809358596801758e-01,-4.207052886486053467e-01,5.570000000000000000e+02
-1.593381382744291841e+02,-1.495606073971339356e+02,-9.440096693464602140e+01,-1.204634784241152374e+02,-1.274616153142742405e+02,-1.170977113237713638e+02,-9.748958391879568808e+01,-9.980281255854515621e+01,9.484992027282714844e+00,-6.501809358596801758e-01,-4.207052886486053467e-01,5.580000000000000000e+02
-1.627460030721040312e+02,-1.496616597246493257e+02,-1.020947513186247306e+02,-1.249380848584714840e+02,-1.365978877903380635e+02,-1.244099533447242720e+02,-1.055700290931090422e+02,-1.103543423586315839e+02,9.484992027282714844e+00,-6.501809358596801758e-01,-4.207052886486053467e-01,5.590000000000000000e+02
-1.681402229742643613e+02,-1.517115422029164620e+02,-1.097243398259306559e+02,-1.308804319347664205e+02,-1.460044598030399357e+02,-1.330121351948837400e+02,-1.136401349239295087e+02,-1.216779677226786589e+02,9.484992027282714844e+00,-6.501809358596801758e-01,-4.207052886486053467e-01,5.600000000000000000e+02
-1.742618817667635085e+02,-1.559366776881024634e+02,-1.154053689310203481e+02,-1.380106534631186150e+02,-1.540913302976114210e+02,-1.417196801021382271e+02,-1.197650406752873096e+02,-1.315155372295375855e+02,9.484992027282714844e+00,-6.501809358596801758e-01,-4.207052886486053467e-01,5.610000000000000000e+02
-1.793077886825503811e+02,-1.612507648071268704e+02,-1.185628101629472440e+02,-1.453913908358208573e+02,-1.598852454375810339e+02,-1.493967071294246125e+02,-1.226699789160147702e+02,-1.382143071863638397e+02,9.484992027282714844e+00,-6.501809358596801758e-01,-4.207052886486053467e-01,5.620000000000000000e+02
-1.819553675226752603e+02,-1.661574914724124028e+02,-1.201596431483148990e+02,-1.519255265705378406e+02,-1.633589372418482526e+02,-1.554915821242866514e+02,-1.227978398818513597e+02,-1.415390119490384677e+02,9.484992027282714844e+00,-6.501809358596801758e-01,-4.207052886486053467e-01,5.630000000000000000e+02
-1.822433851244059042e+02,-1.698326635918556349e+02,-1.217205542732745016e+02,-1.568681490250155548e+02,-1.652093507065728772e+02,-1.600807251987062045e+02,-1.221189424891281305e+02,-1.425955113352265471e+02,9.484992027282714844e+00,-6.501809358596801758e-01,-4.207052886486053467e-01,5.640000000000000000e+02
-1.816623837192255451e+02,-1.724615961399886146e+02,-1.240044549492404258e+02,-1.600421638636325952e+02,-1.663359854009977425e+02,-1.635035643338087539e+02,-1.227539210206787175e+02,-1.430082543367843755e+02,9.484992027282714844e+00,-6.501809358596801758e-01,-4.207052886486053467e-01,5.650000000000000000e+02
-1.822304840742963279e+02,-1.746511292334089376e+02,-1.265228273228422040e+02,-1.617348445905590779e+02,-1.673866704203646805e+02,-1.659975369857202168e+02,-1.255229166745539260e+02,-1.439953387176519755e+02,9.484992027282714844e+00,-6.501809358596801758e-01,-4.207052886486053467e-01,5.660000000000000000e+02
-1.850753080754047915e+02,-1.766090274179605331e+02,-1.283134329795684607e+02,-1.624822421601220412e+02,-1.686202911193631735e+02,-1.676557413763148361e+02,-1.296069811311881494e+02,-1.459572924580679683e+02,9.484992027282714844e+00,-6.501809358596801758e-01,-4.207052886486053467e-01,5.670000000000000000e+02
-1.895455090699933862e+02,-1.779488646000027074e+02,-1.292010981555959006e+02,-1.629307680453093781e+02,-1.701229865412115032e+02,-1.686858132423094503e+02,-1.335423938004751108e+02,-1.487344224114604003e+02,9.484992027282714844e+00,-6.501809358596801758e-01,-4.207052886486053467e-01,5.680000000000000000e+02
-1.936243145333028224e+02,-1.783104466739550844e+02,-1.303133240859478974e+02,-1.637829479731080937e+02,-1.721727285930010112e+02,-1.696479083901667764e+02,-1.366547007680965180e+02,-1.521934517671288631e+02,9.484992027282714844e+00,-6.501809358596801758e-01,-4.207052886486053467e-01,5.690000000000000000e+02
-1.954274890624819818e+02,-1.781443765472831728e+02,-1.333104380667045916e+02,-1.657136195181847143e+02,-1.754000901446597709e+02,-1.713675453658215702e+02,-1.397129536841366644e+02,-1.565977422484047565e+02,9.484992027282714844e+00,-6.501809358596801758e-01,-4.207052886486053467e-01,5.700000000000000000e+02
-1.946379642497831810e+02,-1.787951611762509856e+02,-1.390232550616528897e+02,-1.691854334566123725e+02,-1.805105961059307447e+02,-1.745231792760496319e+02,-1.442976131356663245e+02,-1.624429792693663330e+02,9.484992027282714844e+00,-6.501809358596801758e-01,-4.207052886486053467e-01,5.710000000000000000e+02
-1.926852509034706600e+02,-1.816345920300373109e+02,-1.467510765375736810e+02,-1.742372081949561107e+02,-1.877058751133554324e+02,-1.792209458329216432e+02,-1.514529333112186578e+02,-1.698919446852105466e+02,9.484992027282714844e+00,-6.501809358596801758e-01,-4.207052886486053467e-01,5.720000000000000000e+02
-1.914865809025632188e+02,-1.869036318436246802e+02,-1.548304953152801318e+02,-1.803942770260127872e+02,-1.962722027856489149e+02,-1.849060265302123298e+02,-1.607057251544483734e+02,-1.782752444079378620e+02,9.484992027282714844e+00,-6.501809358596801758e-01,-4.207052886486053467e-01,5.730000000000000000e+02
-1.918040260421021230e+02,-1.932561702411112492e+02,-1.619133170351196895e+02,-1.867894653374478366e+02,-2.047565803763172880e+02,-1.906844013087502390e+02,-1.701644865035250405e+02,-1.861160368059663597e+02,9.484992027282714844e+00,-6.501809358596801758e-01,-4.207052886486053467e-01,5.740000000000000000e+02
-1.926184086155753903e+02,-1.984737625136767747e+02,-1.678082993156749581e+02,-1.924536801329631999e+02,-2.116822339743921475e+02,-1.957934417746546387e+02,-1.775554768337460700e+02,-1.917711295022563718e+02,9.484992027282714844e+00,-6.501809358596801758e-01,-4.207052886486053467e-01,5.750000000000000000e+02
-1.919931126347910322e+02,-2.008744435948847240e+02,-1.732589256391183881e+02,-1.966522302835965093e+02,-2.162913125664108520e+02,-1.998814045443632494e+02,-1.814255625563637295e+02,-1.943285256812632724e+02,9.484992027282714844e+00,-6.501809358596801758e-01,-4.207052886486053467e-01,5.760000000000000000e+02
-1.886220954102373071e+02,-2.003481007092977961e+02,-1.790648111217287806e+02,-1.991332368856201356e+02,-2.187891762548824772e+02,-2.029805170923718833e+02,-1.817591119142325624e+02,-1.941662402652946184e+02,9.484992027282714844e+00,-6.501809358596801758e-01,-4.207052886486053467e-01,5.770000000000000000e+02
-1.827653359913165332e+02,-1.982424751038142858e+02,-1.854458298989411560e+02,-2.001696655263331195e+02,-2.199829765464273805e+02,-2.053246393170320516e+02,-1.797571963179234444e+02,-1.927551598725349322e+02,9.523238182067871094e+00,-6.501809358596801758e-01,-3.824593424797058105e-01,5.780000000000000000e+02
-1.759273726774990791e+02,-1.962545317750955292e+02,-1.921249083941565914e+02,-2.003581337566611182e+02,-2.206900020544289873e+02,-2.072209556823709136e+02,-1.770824978514920076e+02,-1.917958079170966812e+02,9.523238182067871094e+00,-6.501809358596801758e-01,-3.824593424797058105e-01,5.790000000000000000e+02
-1.697536046913864993e+02,-1.952609411046087189e+02,-1.988062688052959857e+02,-2.002905751092639548e+02,-2.213813787726376177e+02,-2.090204034427260922e+02,-1.750959028119705181e+02,-1.922679360858328437e+02,9.523238182067871094e+00,-6.501809358596801758e-01,-3.824593424797058105e-01,5.800000000000000000e+02
-1.651275394454041816e+02,-1.949945746244320617e+02,-2.053939504887966905e+02,-2.003108736934082117e+02,-2.222075549803612375e+02,-2.110575312231540011e+02,-1.744366278144534590e+02,-1.940272616272304731e+02,9.523238182067871094e+00,-6.501809358596801758e-01,-3.824593424797058105e-01,5.810000000000000000e+02
-1.620566770955883840e+02,-1.947148299270047573e+02,-2.117062630784421344e+02,-2.005234178250520927e+02,-2.232000246688567131e+02,-2.134779910540419223e+02,-1.750110882346034487e+02,-1.961662009581068560e+02,9.523238182067871094e+00,-6.501809358596801758e-01,-3.824593424797058105e-01,5.820000000000000000e+02
-1.601352586187967972e+02,-1.941725823147280607e+02,-2.170827611545246327e+02,-2.010086020338476374e+02,-2.243718489612037956e+02,-2.160716535174324235e+02,-1.762496259407271282e+02,-1.977848643184261164e+02,9.523238182067871094e+00,-6.501809358596801758e-01,-3.824593424797058105e-01,5.830000000000000000e+02
-1.590204627577950305e+02,-1.939621482879738323e+02,-2.204425340889793006e+02,-2.019738516772213188e+02,-2.256414276654031710e+02,-2.182935139916171465e+02,-1.774511960612107941e+02,-1.985476411071431357e+02,9.523238182067871094e+00,-6.501809358596801758e-01,-3.824593424797058105e-01,5.840000000000000000e+02
-1.585836951712371956e+02,-1.949334980559870019e+02,-2.208862073605123442e+02,-2.035926080231511150e+02,-2.267322896597215731e+02,-2.195222791671258165e+02,-1.780775931394964573e+02,-1.986563950056843169e+02,9.523238182067871094e+00,-6.501809358596801758e-01,-3.824593424797058105e-01,5.850000000000000000e+02
-1.588038855049380800e+02,-1.971962266030041064e+02,-2.183554007370603358e+02,-2.056274210949977714e+02,-2.272256559802444826e+02,-2.194034424077908625e+02,-1.779211220503148070e+02,-1.984094071597137372e+02,9.523238182067871094e+00,-6.501809358596801758e-01,-3.824593424797058105e-01,5.860000000000000000e+02
-1.596183961553415429e+02,-1.996413873650271853e+02,-2.137492418434067076e+02,-2.072403805830326746e+02,-2.267639244983856770e+02,-2.180447913578173029e+02,-1.770999755342108983e+02,-1.978253085765009018e+02,9.523238182067871094e+00,-6.501809358596801758e-01,-3.824593424797058105e-01,5.870000000000000000e+02
-1.608262497099894972e+02,-2.004813109013739449e+02,-2.083962512843336299e+02,-2.073246384163630864e+02,-2.252522141402951092e+02,-2.159557736935603316e+02,-1.758933356833367725e+02,-1.966647765743509808e+02,9.523238182067871094e+00,-6.501809358596801758e-01,-3.824593424797058105e-01,5.880000000000000000e+02
-1.620386665576170344e+02,-1.984603138968668645e+02,-2.033427514937538945e+02,-2.052379400429108500e+02,-2.229004389508081658e+02,-2.137879598227409588e+02,-1.745267136037400633e+02,-1.947626921606988617e+02,9.523238182067871094e+00,-6.501809358596801758e-01,-3.824593424797058105e-01,5.890000000000000000e+02
-1.627289395528732712e+02,-1.938314522215005127e+02,-1.990251166373527667e+02,-2.013712966359125858e+02,-2.200940012614810257e+02,-2.120247465975990053e+02,-1.730773147463260102e+02,-1.923063854001266009e+02,9.523238182067871094e+00,-6.501809358596801758e-01,-3.824593424797058105e-01,5.900000000000000000e+02
-1.624606040631060750e+02,-1.883605223405229481e+02,-1.954839133633904567e+02,-1.970333347221985605e+02,-2.172238641966323485e+02,-2.107661973713256884e+02,-1.715723910972501471e+02,-1.897878634068711108e+02,9.523238182067871094e+00,-6.501809358596801758e-01,-3.824593424797058105e-01,5.910000000000000000e+02
-1.611947615541575942e+02,-1.843260496499678993e+02,-1.927727395061137941e+02,-1.936794712606933899e+02,-2.146121971291322552e+02,-2.097281091420045414e+02,-1.701737509018075798e+02,-1.877051897147430282e+02,9.523238182067871094e+00,-6.501809358596801758e-01,-3.824593424797058105e-01,5.920000000000000000e+02
-1.593866579402638308e+02,-1.832051082254456560e+02,-1.910940300495440169e+02,-1.920866091802508890e+02,-2.125439897086544079e+02,-2.084949860355372948e+02,-1.692412640465645381e+02,-1.863148840484409448e+02,9.523238182067871094e+00,-6.501809358596801758e-01,-3.824593424797058105e-01,5.930000000000000000e+02
-1.576762647793893848e+02,-1.849260580649715848e+02,-1.905440947650549788e+02,-1.921084939030297392e+02,-2.112731650739624456e+02,-2.069020146139082499e+02,-1.691656540520834824e+02,-1.856366978740279592e+02,9.523238182067871094e+00,-6.501809358596801758e-01,-3.824593424797058105e-01,5.940000000000000000e+02
-1.563603406664678914e+02,-1.881032124057473993e+02,-1.907905384247205802e+02,-1.931208234132518555e+02,-2.109118391500414873e+02,-2.052809563958071521e+02,-1.701044478163457825e+02,-1.856465339537589898e+02,9.523238182067871094e+00,-6.501809358596801758e-01,-3.824593424797058105e-01,5.950000000000000000e+02
-1.551190887259508600e+02,-1.909781193104481645e+02,-1.910904637395506143e+02,-1.946577640320865612e+02,-2.112703852823033230e+02,-2.043230759484722512e+02,-1.718676799422664772e+02,-1.864081546044471906e+02,9.523238182067871094e+00,-6.501809358596801758e-01,-3.824593424797058105e-01,5.960000000000000000e+02
-1.532996613341856573e+02,-1.923745432464420446e+02,-1.907235604796896951e+02,-1.966302658499225799e+02,-2.118365516252233647e+02,-2.045894344245352841e+02,-1.740580931124932249e+02,-1.879720614418656623e+02,9.523238182067871094e+00,-6.501809358596801758e-01,-3.824593424797058105e-01,5.970000000000000000e+02
-1.505438355794249219e+02,-1.920769897490827134e+02,-1.894835612534825486e+02,-1.989869993189240631e+02,-2.120081911208617385e+02,-2.060201584361202549e+02,-1.763194669606200478e+02,-1.901204141429479932e+02,9.523238182067871094e+00,-6.501809358596801758e-01,-3.824593424797058105e-01,5.980000000000000000e+02
-1.471816419759397832e+02,-1.905598595291412494e+02,-1.877834493392110744e+02,-2.012601242994787754e+02,-2.114403254395656404e+02,-2.078613763487446704e+02,-1.784460096293769311e+02,-1.922283226362233108e+02,9.561484336853027344e+00,-6.884268522262573242e-01,-4.207052886486053467e-01,5.990000000000000000e+02
-1.439962642764112388e+02,-1.884712200480353204e+02,-1.862583680181123782e+02,-2.025587645070954750e+02,-2.102125501881746459e+02,-2.091102562008418317e+02,-1.802744076141061669e+02,-1.934475845836459484e+02,9.561484336853027344e+00,-6.884268522262573242e-01,-4.207052886486053467e-01,6.000000000000000000e+02
-1.415561664174092584e+02,-1.863252950703281385e+02,-1.852031213882255543e+02,-2.021121093577930878e+02,-2.086716210010054056e+02,-2.091406066170238773e+02,-1.815343982528283959e+02,-1.931407038435027061e+02,9.561484336853027344e+00,-6.884268522262573242e-01,-4.207052886486053467e-01,6.010000000000000000e+02
-1.397438696195386001e+02,-1.845125511015867232e+02,-1.843157291514726239e+02,-1.999081595633142570e+02,-2.071239836137683596e+02,-2.080461594551015878e+02,-1.818826933581112826e+02,-1.912800594368200109e+02,9.561484336853027344e+00,-6.884268522262573242e-01,-4.207052886486053467e-01,6.020000000000000000e+02
-1.379384706075979921e+02,-1.833829043817713682e+02,-1.829501208556794154e+02,-1.968558807183326280e+02,-2.056827840344049037e+02,-2.064950099707457412e+02,-1.811287703249035985e+02,-1.885353973418859823e+02,9.561484336853027344e+00,-6.884268522262573242e-01,-4.207052886486053467e-01,6.030000000000000000e+02
-1.357124748299938801e+02,-1.831402330523087585e+02,-1.806542500774048676e+02,-1.942920135689018934e+02,-2.043714764918477158e+02,-2.052704285378713394e+02,-1.794375421647710027e+02,-1.859767136251066404e+02,9.561484336853027344e+00,-6.884268522262573242e-01,-4.207052886486053467e-01,6.040000000000000000e+02
-1.334089282387503772e+02,-1.835940359351079678e+02,-1.775522771003634261e+02,-1.931977548349168501e+02,-2.032766715200887120e+02,-2.048537290145541192e+02,-1.772952662684037932e+02,-1.845546406623398070e+02,9.561484336853027344e+00,-6.884268522262573242e-01,-4.207052886486053467e-01,6.050000000000000000e+02
-1.320207222205535800e+02,-1.840968574400867510e+02,-1.742876037201021973e+02,-1.936947772663224896e+02,-2.025022990106299403e+02,-2.052780901222395187e+02,-1.752668326442071702e+02,-1.846437352936882235e+02,9.561484336853027344e+00,-6.884268522262573242e-01,-4.207052886486053467e-01,6.060000000000000000e+02
-1.323973229524199269e+02,-1.838781859385380812e+02,-1.716008081202016911e+02,-1.951016444143897388e+02,-2.019535918446199503e+02,-2.062211402184075268e+02,-1.737653123869458796e+02,-1.858534269171104825e+02,9.561484336853027344e+00,-6.884268522262573242e-01,-4.207052886486053467e-01,6.070000000000000000e+02
-1.344378803132531175e+02,-1.825711937557025522e+02,-1.698868270823404600e+02,-1.963922068792489881e+02,-2.012458033337497909e+02,-2.071714506299358618e+02,-1.729964951980764454e+02,-1.871651901123586867e+02,9.561484336853027344e+00,-6.884268522262573242e-01,-4.207052886486053467e-01,6.080000000000000000e+02
-1.369859775381155487e+02,-1.804664244085506652e+02,-1.690486741366803471e+02,-1.966897478236351162e+02,-1.999241315403451154e+02,-2.075538495395376231e+02,-1.730128803719089774e+02,-1.873379637195430405e+02,9.561484336853027344e+00,-6.884268522262573242e-01,-4.207052886486053467e-01,6.090000000000000000e+02
-1.385309455092319695e+02,-1.782314131452003494e+02,-1.687001868113402452e+02,-1.955548680166502891e+02,-1.978322766160817991e+02,-2.068462412150802265e+02,-1.737069995326164644e+02,-1.854665650621427631e+02,9.561484336853027344e+00,-6.884268522262573242e-01,-4.207052886486053467e-01,6.100000000000000000e+02
-1.380968768885795726e+02,-1.763473082065502240e+02,-1.684920426031749230e+02,-1.930666255512878706e+02,-1.952654688764087041e+02,-2.047702624084085983e+02,-1.747219508677153499e+02,-1.814973777128179790e+02,9.561484336853027344e+00,-6.884268522262573242e-01,-4.207052886486053467e-01,6.110000000000000000e+02
