F3,F4,C3,C4,P3,P4,Cz,Pz,Accel_x,Accel_y,Accel_z,Sample
-3.819877747446298599e-11,-4.001776687800884247e-11,-5.184119800105690956e-11,-5.184119800105690956e-11,-4.547473508864641190e-11,-4.001776687800884247e-11,-4.820321919396519661e-11,-4.820321919396519661e-11,9.484992027282714844e+00,-6.884268522262573242e-01,-4.207052886486053467e-01,2.010000000000000000e+02
-2.075492763673082663e+01,-2.025598852683833684e+01,-3.258280441159058682e+01,-1.579345515788190824e+01,-5.156243100517713174e+00,-9.067130317318515154e+00,-1.157986201938729209e+01,-1.662520562459030771e+01,9.484992027282714844e+00,-6.884268522262573242e-01,-4.207052886486053467e-01,2.020000000000000000e+02
-3.999284983189863851e+01,-3.854166866369087074e+01,-6.355204370591854968e+01,-3.109983617174566461e+01,-1.890888815917060128e+01,-2.389172808119110414e+01,-2.267568885985201632e+01,-3.195269430732059845e+01,9.484992027282714844e+00,-6.884268522262573242e-01,-4.207052886486053467e-01,2.030000000000000000e+02
-5.768595967968303739e+01,-5.477899626199359773e+01,-9.061536253187750845e+01,-4.593578112876275554e+01,-4.293953565013271145e+01,-4.495235183200384199e+01,-3.361248178213281790e+01,-4.569694875603636319e+01,9.484992027282714844e+00,-6.884268522262573242e-01,-4.207052886486053467e-01,2.040000000000000000e+02
-7.516211280647075910e+01,-7.070593026623919286e+01,-1.111513392119377386e+02,-6.081398674827323703e+01,-7.148543934794724919e+01,-6.743755997072639730e+01,-4.539047688296250271e+01,-5.863272238622630539e+01,9.484992027282714844e+00,-6.884268522262573242e-01,-4.207052886486053467e-01,2.050000000000000000e+02
-9.350878797874975135e+01,-8.799704165211824147e+01,-1.235732811354419027e+02,-7.623164864224781923e+01,-9.719280986769445008e+01,-8.628186927145907248e+01,-5.868522898995615833e+01,-7.170240973352520086e+01,9.484992027282714844e+00,-6.884268522262573242e-01,-4.207052886486053467e-01,2.060000000000000000e+02
-1.122521431082222989e+02,-1.066151913204930679e+02,-1.285772263383778409e+02,-9.215582370676929713e+01,-1.173076902399734536e+02,-1.009423276799107043e+02,-7.300736341534411622e+01,-8.512956598405253317e+01,9.484992027282714844e+00,-6.884268522262573242e-01,-4.207052886486053467e-01,2.070000000000000000e+02
-1.297528886893169329e+02,-1.250554957736912911e+02,-1.290850464974519127e+02,-1.079917682706773121e+02,-1.345638050348970864e+02,-1.152242237641730753e+02,-8.693527346715745807e+01,-9.839752823095841450e+01,9.561484336853027344e+00,-5.736890435218811035e-01,-4.207052886486053467e-01,2.080000000000000000e+02
-1.448945496279729923e+02,-1.420277943847750066e+02,-1.287530503345069519e+02,-1.230342396406413172e+02,-1.530039093333525670e+02,-1.328564272423664079e+02,-9.926464586069414509e+01,-1.109937154170611393e+02,9.561484336853027344e+00,-5.736890435218811035e-01,-4.207052886486053467e-01,2.090000000000000000e+02
-1.582687385325325522e+02,-1.576548672892677132e+02,-1.301674808872248832e+02,-1.369553176753925072e+02,-1.737681821269225111e+02,-1.537091148522385993e+02,-1.099960393495821336e+02,-1.230520056391715116e+02,9.561484336853027344e+00,-5.736890435218811035e-01,-4.207052886486053467e-01,2.100000000000000000e+02
-1.716208608527276738e+02,-1.729848569737960133e+02,-1.341038814930343506e+02,-1.498963819547543608e+02,-1.948865257187653697e+02,-1.743175894175246867e+02,-1.202253523488370774e+02,-1.352148682531806116e+02,9.561484336853027344e+00,-5.736890435218811035e-01,-4.207052886486053467e-01,2.110000000000000000e+02
-1.861330637724486223e+02,-1.885675573593207446e+02,-1.402222017508101999e+02,-1.621817510768823922e+02,-2.142498744447993886e+02,-1.915828265973495945e+02,-1.310757720924593741e+02,-1.479113160312263062e+02,9.561484336853027344e+00,-5.736890435218811035e-01,-4.207052886486053467e-01,2.120000000000000000e+02
-2.012893912510198788e+02,-2.037950890496804277e+02,-1.482434451073377204e+02,-1.740470708206885320e+02,-2.318748769731446373e+02,-2.055137637228517633e+02,-1.427259499349011094e+02,-1.608652153437496963e+02,9.561484336853027344e+00,-5.736890435218811035e-01,-4.207052886486053467e-01,2.130000000000000000e+02
-2.154422374583036799e+02,-2.176601607208485802e+02,-1.582917516197157966e+02,-1.856595485737161653e+02,-2.492084110628366034e+02,-2.185063580207197447e+02,-1.544135240899831842e+02,-1.733420569797835924e+02,9.561484336853027344e+00,-5.736890435218811035e-01,-4.207052886486053467e-01,2.140000000000000000e+02
-2.274886499117747007e+02,-2.298937475696457113e+02,-1.700947226352227517e+02,-1.972898282232345082e+02,-2.669470599798250987e+02,-2.325615140390546003e+02,-1.652806044514336463e+02,-1.848538658026436678e+02,9.561484336853027344e+00,-5.736890435218811035e-01,-4.207052886486053467e-01,2.150000000000000000e+02
-2.380566955288368263e+02,-2.411068680689777466e+02,-1.821114355651652659e+02,-2.092777074892019300e+02,-2.842119555020353801e+02,-2.476057354016575118e+02,-1.751401259955964633e+02,-1.955874520151801335e+02,9.561484336853027344e+00,-5.736890435218811035e-01,-4.207052886486053467e-01,2.160000000000000000e+02
-2.491563600036306525e+02,-2.518480394778407572e+02,-1.919437208868057496e+02,-2.216726723216688697e+02,-2.998164268306827580e+02,-2.622748979760026486e+02,-1.844086948588619634e+02,-2.061354580913830432e+02,9.561484336853027344e+00,-5.736890435218811035e-01,-4.207052886486053467e-01,2.170000000000000000e+02
-2.626732755762545821e+02,-2.618057904165389118e+02,-1.981863411211161292e+02,-2.338833788633100994e+02,-3.137658102483082985e+02,-2.756890214326531350e+02,-1.933687829942182361e+02,-2.168197836191457100e+02,9.561484336853027344e+00,-5.736890435218811035e-01,-4.207052886486053467e-01,2.180000000000000000e+02
-2.790327785195668184e+02,-2.702161796190521272e+02,-2.022718102283160988e+02,-2.448204192990751835e+02,-3.271219387114306301e+02,-2.880882914689937024e+02,-2.016185313763680824e+02,-2.272669148666691399e+02,9.561484336853027344e+00,-5.736890435218811035e-01,-4.207052886486053467e-01,2.190000000000000000e+02
-2.970446984273748967e+02,-2.770709023463614358e+02,-2.084460100451969993e+02,-2.536011335542625602e+02,-3.405794129344785688e+02,-2.999863869191667618e+02,-2.083497329525262103e+02,-2.366424523963733009e+02,9.561484336853027344e+00,-5.736890435218811035e-01,-4.207052886486053467e-01,2.200000000000000000e+02
-3.148588122267783547e+02,-2.836890932768701532e+02,-2.214059873008809518e+02,-2.602698391501598962e+02,-3.536123776837966943e+02,-3.112357130730042627e+02,-2.131994666178670741e+02,-2.443304242275034994e+02,9.561484336853027344e+00,-5.736890435218811035e-01,-4.207052886486053467e-01,2.210000000000000000e+02
-3.311320418787663584e+02,-2.918268831307796063e+02,-2.431655504688951623e+02,-2.658482109545857384e+02,-3.651927574061810446e+02,-3.211975237200349511e+02,-2.167947918313693663e+02,-2.504611558921105825e+02,9.561484336853027344e+00,-5.736890435218811035e-01,-4.207052886486053467e-01,2.220000000000000000e+02
-3.455214030842544162e+02,-3.021118949847123076e+02,-2.715442483222605006e+02,-2.715907256221189527e+02,-3.750919802570615502e+02,-3.296500848478362968e+02,-2.203898708811975666e+02,-2.558460687561837403e+02,9.561484336853027344e+00,-5.736890435218811035e-01,-4.207052886486053467e-01,2.230000000000000000e+02
-3.583200182817258792e+02,-3.134033699991559843e+02,-3.015027375834188206e+02,-2.780743536311902062e+02,-3.841673121909389010e+02,-3.372153471700294176e+02,-2.248928695185322795e+02,-2.613875459333439721e+02,9.561484336853027344e+00,-5.736890435218811035e-01,-4.207052886486053467e-01,2.240000000000000000e+02
-3.697799591258394685e+02,-3.237983585289057373e+02,-3.283127997186338689e+02,-2.849440629806340439e+02,-3.933808443156904104e+02,-3.447966990472168618e+02,-2.301907931384630501e+02,-2.674533863783171910e+02,9.561484336853027344e+00,-5.736890435218811035e-01,-4.207052886486053467e-01,2.250000000000000000e+02
-3.797941078574845051e+02,-3.323431299660287550e+02,-3.501461647634187102e+02,-2.915342975546464004e+02,-4.028084653677788083e+02,-3.527429133964378707e+02,-2.354155853915372063e+02,-2.737283721616186085e+02,9.561484336853027344e+00,-5.736890435218811035e-01,-4.207052886486053467e-01,2.260000000000000000e+02
-3.881644022081814001e+02,-3.397933169679681669e+02,-3.682649176651007110e+02,-2.977331240949552011e+02,-4.118151761758153953e+02,-3.606965418778590902e+02,-2.399104783792326998e+02,-2.796640967832299793e+02,9.561484336853027344e+00,-5.736890435218811035e-01,-4.207052886486053467e-01,2.270000000000000000e+02
-3.950593306223422587e+02,-3.477415750981244855e+02,-3.850379319013227359e+02,-3.042059643183929438e+02,-4.201262374926755001e+02,-3.681931376610546067e+02,-2.439830253622758391e+02,-2.851353149779852174e+02,9.561484336853027344e+00,-5.736890435218811035e-01,-4.207052886486053467e-01,2.280000000000000000e+02
-4.010914207158393765e+02,-3.570356768391748119e+02,-4.016430930517562956e+02,-3.117297838194535871e+02,-4.284917032537350678e+02,-3.752499332381485146e+02,-2.487102569608996419e+02,-2.907102325877112889e+02,9.561484336853027344e+00,-5.736890435218811035e-01,-4.207052886486053467e-01,2.290000000000000000e+02
-4.068788283165181383e+02,-3.670441463668430515e+02,-4.172599397305616549e+02,-3.203017663020391410e+02,-4.381304067935943749e+02,-3.823157654710830684e+02,-2.549392228947640433e+02,-2.972597091876614286e+02,9.561484336853027344e+00,-5.736890435218811035e-01,-4.207052886486053467e-01,2.300000000000000000e+02
-4.125341716653779258e+02,-3.763956702411092010e+02,-4.300851569151027434e+02,-3.289445783931505503e+02,-4.495112195616202371e+02,-3.897437949052400654e+02,-2.623824635825467340e+02,-3.052086699261963076e+02,9.561484336853027344e+00,-5.736890435218811035e-01,-4.207052886486053467e-01,2.310000000000000000e+02
-4.176525712911220580e+02,-3.843221913100592246e+02,-4.389881334685005640e+02,-3.364501220369102157e+02,-4.617172368289875521e+02,-3.974272190229321495e+02,-2.696232853172732575e+02,-3.140537033062355476e+02,9.561484336853027344e+00,-5.736890435218811035e-01,-4.207052886486053467e-01,2.320000000000000000e+02
-4.218571424834531172e+02,-3.912277091565233604e+02,-4.443602355022840129e+02,-3.423666236095532440e+02,-4.729896702054120396e+02,-4.049421149678037182e+02,-2.750571897835848176e+02,-3.225689393379047942e+02,9.523238182067871094e+00,-6.884268522262573242e-01,-4.589512646198272705e-01,2.330000000000000000e+02
-4.253254258045039933e+02,-3.980030868581084178e+02,-4.476565450189477815e+02,-3.472855458017866113e+02,-4.819206847723526153e+02,-4.119643305292156583e+02,-2.780013525050057979e+02,-3.295440037676635257e+02,9.523238182067871094e+00,-6.884268522262573242e-01,-4.589512646198272705e-01,2.340000000000000000e+02
-4.286837146529001075e+02,-4.049351948135340535e+02,-4.502783280346407082e+02,-3.521760980732674398e+02,-4.882754590742279106e+02,-4.185171692181083927e+02,-2.790809882481298700e+02,-3.344556171117715166e+02,9.523238182067871094e+00,-6.884268522262573242e-01,-4.589512646198272705e-01,2.350000000000000000e+02
-4.323207018168495779e+02,-4.114232491458310506e+02,-4.528255442459835649e+02,-3.574471924688023137e+02,-4.929039010229857922e+02,-4.248605084177652316e+02,-2.796559051334702417e+02,-3.375963088175562916e+02,9.523238182067871094e+00,-6.884268522262573242e-01,-4.589512646198272705e-01,2.360000000000000000e+02
-4.358444948714159182e+02,-4.167932022756931474e+02,-4.551894743938391912e+02,-3.626543897475416998e+02,-4.970320555777379923e+02,-4.312083736091726678e+02,-2.808467176598041988e+02,-3.397001026501002343e+02,9.523238182067871094e+00,-6.884268522262573242e-01,-4.589512646198272705e-01,2.370000000000000000e+02
-4.383622043958980612e+02,-4.212824934100008250e+02,-4.571656952078405993e+02,-3.670829392644382096e+02,-5.015871004810564955e+02,-4.375436316263394474e+02,-2.829712015798086213e+02,-3.415103871821702342e+02,9.523238182067871094e+00,-6.884268522262573242e-01,-4.589512646198272705e-01,2.380000000000000000e+02
-4.394472267738465234e+02,-4.260658845191724140e+02,-4.589476447622168962e+02,-3.705574572845257535e+02,-5.069721180891115182e+02,-4.436542915754243950e+02,-2.857426881495985072e+02,-3.436457842458316918e+02,9.523238182067871094e+00,-6.884268522262573242e-01,-4.589512646198272705e-01,2.390000000000000000e+02
-4.399125698499051396e+02,-4.322032739820510869e+02,-4.611272184939766703e+02,-3.736606010414502634e+02,-5.132438095207794504e+02,-4.493451130756188832e+02,-2.888874437594454321e+02,-3.466977242409575410e+02,9.523238182067871094e+00,-6.884268522262573242e-01,-4.589512646198272705e-01,2.400000000000000000e+02
-4.415976574605533642e+02,-4.395633087528544820e+02,-4.642808605591694686e+02,-3.772211183127924414e+02,-5.203685914750194570e+02,-4.547016727168488615e+02,-2.925521058676663415e+02,-3.512379865112038715e+02,9.523238182067871094e+00,-6.884268522262573242e-01,-4.589512646198272705e-01,2.410000000000000000e+02
-4.462319026946306622e+02,-4.468666778739066103e+02,-4.684850261434798995e+02,-3.816655393691976315e+02,-5.282934247214684547e+02,-4.602159745953235870e+02,-2.971325681982420974e+02,-3.575718902625744704e+02,9.523238182067871094e+00,-6.884268522262573242e-01,-4.589512646198272705e-01,2.420000000000000000e+02
-4.542661089235166401e+02,-4.528657455314209983e+02,-4.731251589363810126e+02,-3.868873207049937264e+02,-5.368134958324353647e+02,-4.665881680107340799e+02,-3.027304448114941806e+02,-3.654475391639380177e+02,9.523238182067871094e+00,-6.884268522262573242e-01,-4.589512646198272705e-01,2.430000000000000000e+02
-4.645920182948598267e+02,-4.575064545580189588e+02,-4.771777770301587225e+02,-3.926341028276460747e+02,-5.454278988645805839e+02,-4.742210317108151685e+02,-3.087633928037389524e+02,-3.740504536278676824e+02,9.523238182067871094e+00,-6.884268522262573242e-01,-4.589512646198272705e-01,2.440000000000000000e+02
-4.753236608148081359e+02,-4.619187574101783866e+02,-4.798596899304948238e+02,-3.988197904447179098e+02,-5.534100665135415511e+02,-4.827374596457352709e+02,-3.140838703201079625e+02,-3.823365335041489743e+02,9.523238182067871094e+00,-6.884268522262573242e-01,-4.589512646198272705e-01,2.450000000000000000e+02
-4.850045842856666241e+02,-4.672467883696444915e+02,-4.812309701837484681e+02,-4.053441164411674436e+02,-5.601765016765593828e+02,-4.910002133160328412e+02,-3.175483068490534606e+02,-3.894498127821370872e+02,9.523238182067871094e+00,-6.884268522262573242e-01,-4.589512646198272705e-01,2.460000000000000000e+02
-4.933603311352048877e+02,-4.734857987690243135e+02,-4.822772763324928746e+02,-4.116725652364921189e+02,-5.657110822458776056e+02,-4.977682466543419650e+02,-3.186456779809273030e+02,-3.949339508271573322e+02,9.523238182067871094e+00,-6.884268522262573242e-01,-4.589512646198272705e-01,2.470000000000000000e+02
-5.011517651453723374e+02,-4.794752755600447927e+02,-4.843477660099051718e+02,-4.168338965091620594e+02,-5.706528067787339751e+02,-5.025402310014560499e+02,-3.178146656998160324e+02,-3.987229225075093382e+02,9.523238182067871094e+00,-6.884268522262573242e-01,-4.589512646198272705e-01,2.480000000000000000e+02
-5.093606007058829164e+02,-4.840210912491224917e+02,-4.883314685710984122e+02,-4.201111275162315906e+02,-5.759326623378833574e+02,-5.059212238465970586e+02,-3.163398250360774000e+02,-4.011461123752274034e+02,9.523238182067871094e+00,-6.884268522262573242e-01,-4.589512646198272705e-01,2.490000000000000000e+02
-5.183576732758288017e+02,-4.870240105586549362e+02,-4.941995516556780785e+02,-4.218708207000440780e+02,-5.822194600945440470e+02,-5.091968626269176639e+02,-3.159184034534991952e+02,-4.030248625820099733e+02,9.523238182067871094e+00,-6.884268522262573242e-01,-4.589512646198272705e-01,2.500000000000000000e+02
-5.276714416617292045e+02,-4.895711337551356337e+02,-5.012395996887148613e+02,-4.236646913761283031e+02,-5.895704622381772424e+02,-5.134542734281885714e+02,-3.180593623091413065e+02,-4.056202063186369742e+02,9.523238182067871094e+00,-6.884268522262573242e-01,-4.589512646198272705e-01,2.510000000000000000e+02
-5.365036245402484383e+02,-4.930086634403751304e+02,-5.086611786032676719e+02,-4.273158421468433517e+02,-5.974719848479385291e+02,-5.189418193377177886e+02,-3.234642372384778355e+02,-4.101459659501338137e+02,9.523238182067871094e+00,-6.884268522262573242e-01,-4.589512646198272705e-01,2.520000000000000000e+02
-5.445350061716990240e+02,-4.979635042546128716e+02,-5.159273375540169582e+02,-4.336498734909891937e+02,-6.051304755463493166e+02,-5.251064692472959905e+02,-3.315822118285009310e+02,-4.169675501018537034e+02,9.523238182067871094e+00,-6.884268522262573242e-01,-4.589512646198272705e-01,2.530000000000000000e+02
-5.522825274062843164e+02,-5.041523349601498012e+02,-5.225544274806470639e+02,-4.419200549296228928e+02,-6.117895812384876990e+02,-5.311847782115646623e+02,-3.406336053524937597e+02,-4.251089961019956718e+02,9.523238182067871094e+00,-6.884268522262573242e-01,-4.589512646198272705e-01,2.540000000000000000e+02
-5.606065986420574063e+02,-5.109247491499827447e+02,-5.278203407038431578e+02,-4.503817166413673476e+02,-6.169849436245249308e+02,-5.367966654874016967e+02,-3.482964953540372335e+02,-4.326554066377698291e+02,9.523238182067871094e+00,-6.884268522262573242e-01,-4.589512646198272705e-01,2.550000000000000000e+02
-5.697404514237382500e+02,-5.178299510470010318e+02,-5.310146730461847255e+02,-4.575034883427306340e+02,-6.207672593771790162e+02,-5.420914298338443587e+02,-3.528914175083868940e+02,-4.379776144624165681e+02,9.523238182067871094e+00,-6.884268522262573242e-01,-4.589512646198272705e-01,2.560000000000000000e+02
-5.787548979313021391e+02,-5.246729996183548792e+02,-5.322308506626809503e+02,-4.628361571084747084e+02,-6.238215737452537724e+02,-5.474333474887453121e+02,-3.544213017498755107e+02,-4.409242018086683856e+02,9.523238182067871094e+00,-6.884268522262573242e-01,-4.589512646198272705e-01,2.570000000000000000e+02
-5.860783465956897089e+02,-5.312197135203509788e+02,-5.328915227420529845e+02,-4.669846945560170752e+02,-6.272866733765413301e+02,-5.529874541910912740e+02,-3.547004170194022663e+02,-4.429859625687686275e+02,9.523238182067871094e+00,-6.884268522262573242e-01,-4.589512646198272705e-01,2.580000000000000000e+02
-5.907266262972066215e+02,-5.370672699008123345e+02,-5.351817390720680123e+02,-4.709119285209208101e+02,-6.321988252685700900e+02,-5.585769067333585554e+02,-3.562887158135863501e+02,-4.462087730252201254e+02,9.523238182067871094e+00,-6.884268522262573242e-01,-4.589512646198272705e-01,2.590000000000000000e+02
-5.931505107195555411e+02,-5.418738434407819113e+02,-5.405246992156357919e+02,-4.752138379504503973e+02,-6.388136868981378029e+02,-5.638850492864485204e+02,-3.608009323142964604e+02,-4.516586496443806027e+02,9.523238182067871094e+00,-6.119350194931030273e-01,-4.207052886486053467e-01,2.600000000000000000e+02
-5.948780654590127597e+02,-5.456254175456792836e+02,-5.482883422252189121e+02,-4.798128089411625297e+02,-6.462956547522562687e+02,-5.687627068465694720e+02,-3.677589667028669282e+02,-4.586405400181065488e+02,9.523238182067871094e+00,-6.119350194931030273e-01,-4.207052886486053467e-01,2.610000000000000000e+02
-5.972534812557366877e+02,-5.485658494692843306e+02,-5.559300192571106436e+02,-4.840986863234147677e+02,-6.530598682708055094e+02,-5.733310927375928259e+02,-3.748769575680967137e+02,-4.652482138003138061e+02,9.523238182067871094e+00,-6.119350194931030273e-01,-4.207052886486053467e-01,2.620000000000000000e+02
-6.004224825688568217e+02,-5.508526370207182481e+02,-5.606191545539088565e+02,-4.873086473041698810e+02,-6.575705878988760560e+02,-5.777822893912903055e+02,-3.796238450356468093e+02,-4.697249515197290748e+02,9.523238182067871094e+00,-6.119350194931030273e-01,-4.207052886486053467e-01,2.630000000000000000e+02
-6.034283517543741482e+02,-5.523817552298582996e+02,-5.611096577525696603e+02,-4.889379726982634793e+02,-6.590820065735096023e+02,-5.820680833987914866e+02,-3.809212405119655500e+02,-4.715084400966833300e+02,9.523238182067871094e+00,-6.119350194931030273e-01,-4.207052886486053467e-01,2.640000000000000000e+02
-6.051808242418835562e+02,-5.530381452954404722e+02,-5.584309314958708228e+02,-4.890511205495558329e+02,-6.579090982676884778e+02,-5.857779327669777558e+02,-3.797120788837486884e+02,-4.712358918339331240e+02,9.523238182067871094e+00,-6.119350194931030273e-01,-4.207052886486053467e-01,2.650000000000000000e+02
-6.052619906992329106e+02,-5.531024978640111840e+02,-5.550181148471341430e+02,-4.883477958186761043e+02,-6.552085572936983908e+02,-5.883528704759258972e+02,-3.780471348216724436e+02,-4.699612053691643609e+02,9.523238182067871094e+00,-6.119350194931030273e-01,-4.207052886486053467e-01,2.660000000000000000e+02
-6.038570153926442572e+02,-5.532911840005283466e+02,-5.531644730568268642e+02,-4.878593738485834592e+02,-6.525388730675538227e+02,-5.894945378806751251e+02,-3.775335193949073869e+02,-4.684412662830504246e+02,9.523238182067871094e+00,-6.119350194931030273e-01,-4.207052886486053467e-01,2.670000000000000000e+02
-6.011461191673043913e+02,-5.542704051690411688e+02,-5.539703019544377867e+02,-4.883708780543258854e+02,-6.514090500248860280e+02,-5.894571159571678436e+02,-3.784232136278490088e+02,-4.670799209499131166e+02,9.523238182067871094e+00,-6.119350194931030273e-01,-4.207052886486053467e-01,2.680000000000000000e+02
-5.970610150934298872e+02,-5.560951965546254314e+02,-5.572353455392412798e+02,-4.899575886522232508e+02,-6.528515376526094087e+02,-5.890117283248896456e+02,-3.799664355102704576e+02,-4.663243254216180276e+02,9.523238182067871094e+00,-6.119350194931030273e-01,-4.207052886486053467e-01,2.690000000000000000e+02
-5.917794969428207423e+02,-5.581812151979800092e+02,-5.619111218815569373e+02,-4.920312999103663287e+02,-6.570394089431169959e+02,-5.891047207082901878e+02,-3.815157835928499139e+02,-4.668435904700091328e+02,9.523238182067871094e+00,-6.119350194931030273e-01,-4.207052886486053467e-01,2.700000000000000000e+02
-5.863305386755173458e+02,-5.599126394528913124e+02,-5.665928894644387128e+02,-4.938928805214258091e+02,-6.630981527762239693e+02,-5.904142725297364223e+02,-3.832561453038609329e+02,-4.691276023308471963e+02,9.523238182067871094e+00,-6.119350194931030273e-01,-4.207052886486053467e-01,2.710000000000000000e+02
-5.823999607417827065e+02,-5.613134134166917875e+02,-5.699391189495180470e+02,-4.953321923334671624e+02,-6.693424820810953406e+02,-5.930447090187706181e+02,-3.858895175164789748e+02,-4.728691829268290121e+02,9.523238182067871094e+00,-6.119350194931030273e-01,-4.207052886486053467e-01,2.720000000000000000e+02
-5.812386816473076578e+02,-5.630976083883581396e+02,-5.711557359787548194e+02,-4.967476826710997102e+02,-6.739767074321067639e+02,-5.964989385134816757e+02,-3.896516416536863971e+02,-4.768331888017646065e+02,9.523238182067871094e+00,-6.119350194931030273e-01,-4.207052886486053467e-01,2.730000000000000000e+02
-5.826321143964430576e+02,-5.660126350619254936e+02,-5.704418699597674731e+02,-4.986975423988198486e+02,-6.759454138965361381e+02,-5.999388982427869905e+02,-3.936956792866135970e+02,-4.795122334285664465e+02,9.523238182067871094e+00,-6.119350194931030273e-01,-4.207052886486053467e-01,2.740000000000000000e+02
-5.849999782738927934e+02,-5.700867180419237457e+02,-5.689663327118140614e+02,-5.013292564393835846e+02,-6.754314949334277571e+02,-6.026295095412261844e+02,-3.965498402867799541e+02,-4.801371622811312818e+02,9.523238182067871094e+00,-6.119350194931030273e-01,-4.207052886486053467e-01,2.750000000000000000e+02
-5.866858958759216875e+02,-5.745089317919951100e+02,-5.681608234540682361e+02,-5.042473130085102753e+02,-6.736779902401892741e+02,-6.043447334856564339e+02,-3.973512762900502366e+02,-4.792430123780590634e+02,9.523238182067871094e+00,-6.119350194931030273e-01,-4.207052886486053467e-01,2.760000000000000000e+02
-5.873225409958359933e+02,-5.782609397818673642e+02,-5.687894813297366454e+02,-5.069458027790537358e+02,-6.722665260235863798e+02,-6.054934056652306253e+02,-3.967900618906538739e+02,-4.783548964084062618e+02,9.523238182067871094e+00,-6.119350194931030273e-01,-4.207052886486053467e-01,2.770000000000000000e+02
-5.880457325362804113e+02,-5.808954491927149775e+02,-5.706352220598778331e+02,-5.093775376841745128e+02,-6.723436169232039674e+02,-6.068551804692949645e+02,-3.968673113027682007e+02,-4.790664871362514532e+02,9.523238182067871094e+00,-6.119350194931030273e-01,-4.207052886486053467e-01,2.780000000000000000e+02
-5.903855874108649004e+02,-5.827452005877721604e+02,-5.731360239213489649e+02,-5.120900969408070296e+02,-6.742732213072990817e+02,-6.090911493360176792e+02,-3.995449271257716077e+02,-4.821900832029937760e+02,9.523238182067871094e+00,-6.119350194931030273e-01,-4.207052886486053467e-01,2.790000000000000000e+02
-5.948664711136168535e+02,-5.844402678742588932e+02,-5.763344327776535465e+02,-5.157603125017527645e+02,-6.778018218105146389e+02,-6.123735203094317967e+02,-4.052975748959556768e+02,-4.874681954635241254e+02,9.523238182067871094e+00,-6.119350194931030273e-01,-4.207052886486053467e-01,2.800000000000000000e+02
-6.005426769965207541e+02,-5.862979142807250810e+02,-5.810967829368787534e+02,-5.205232059146259189e+02,-6.824197653229487059e+02,-6.163799392137129871e+02,-4.127113498601459014e+02,-4.938673395343901120e+02,9.523238182067871094e+00,-6.119350194931030273e-01,-4.207052886486053467e-01,2.810000000000000000e+02
-6.057725791392192605e+02,-5.882249293212964858e+02,-5.882505983374276184e+02,-5.256950960723785329e+02,-6.875641312979979602e+02,-6.205935608269187469e+02,-4.194471669437067476e+02,-5.001454261968767696e+02,9.523238182067871094e+00,-6.119350194931030273e-01,-4.207052886486053467e-01,2.820000000000000000e+02
-6.094349530569802482e+02,-5.901800838093752191e+02,-5.974442936924842797e+02,-5.301723234875760227e+02,-6.925945998852412231e+02,-6.246177777490224798e+02,-4.238136377554122873e+02,-5.053558959081814237e+02,9.523238182067871094e+00,-6.119350194931030273e-01,-4.207052886486053467e-01,2.830000000000000000e+02
-6.115245790501901411e+02,-5.925907056826847565e+02,-6.069297379587472960e+02,-5.332071614229290617e+02,-6.967769477665146951e+02,-6.282676587730776419e+02,-4.257316805461933313e+02,-5.090959168473736440e+02,9.523238182067871094e+00,-6.119350194931030273e-01,-4.207052886486053467e-01,2.840000000000000000e+02
-6.127616508374112527e+02,-5.961367110503933873e+02,-6.146507894289143223e+02,-5.349382087210967711e+02,-6.995083662317069866e+02,-6.314618128965192909e+02,-4.264160041017910885e+02,-5.114593897584281876e+02,9.523238182067871094e+00,-6.119350194931030273e-01,-4.207052886486053467e-01,2.850000000000000000e+02
-6.137730743906785165e+02,-6.010120784278792598e+02,-6.197489264897055818e+02,-5.362295915660265564e+02,-7.006887836702610457e+02,-6.341008998750705814e+02,-4.271683304896355367e+02,-5.127664093340483760e+02,9.523238182067871094e+00,-6.119350194931030273e-01,-4.207052886486053467e-01,2.860000000000000000e+02
-6.146667393191280553e+02,-6.063955199161714518e+02,-6.231218888254038575e+02,-5.379204785342445803e+02,-7.008832703716296919e+02,-6.360577291581925010e+02,-4.283569888651120436e+02,-5.132641412603302342e+02,9.523238182067871094e+00,-6.119350194931030273e-01,-4.207052886486053467e-01,2.870000000000000000e+02
-6.152714650093862474e+02,-6.107562324089286676e+02,-6.264903637598249588e+02,-5.400964518780870094e+02,-7.010357292097443178e+02,-6.372497477034148687e+02,-4.293861054896296992e+02,-5.130509510690599200e+02,9.523238182067871094e+00,-6.119350194931030273e-01,-4.207052886486053467e-01,2.880000000000000000e+02
-6.156349069693069396e+02,-6.128608079043202679e+02,-6.307792564251475369e+02,-5.420114728782973543e+02,-7.019090147710016936e+02,-6.377076411904150746e+02,-4.295185506265961521e+02,-5.122943186677360927e+02,9.523238182067871094e+00,-6.119350194931030273e-01,-4.207052886486053467e-01,2.890000000000000000e+02
-6.161938581620142941e+02,-6.126688599366344761e+02,-6.352149464553161806e+02,-5.427591340974578316e+02,-7.036725987819473858e+02,-6.376147988165666902e+02,-4.287072914744521768e+02,-5.115044350707689205e+02,9.523238182067871094e+00,-6.119350194931030273e-01,-4.207052886486053467e-01,2.900000000000000000e+02
-6.174511521126095204e+02,-6.113785299255500831e+02,-6.378785825119850870e+02,-5.421610887562804919e+02,-7.059037508950844995e+02,-6.373134618666616689e+02,-4.277022409656628952e+02,-5.114872402762749743e+02,9.523238182067871094e+00,-6.501809358596801758e-01,-3.824593424797058105e-01,2.910000000000000000e+02
-6.195159211140429534e+02,-6.106162894606586633e+02,-6.372279744784823379e+02,-5.411128223786336093e+02,-7.079252234709006188e+02,-6.372449354861162192e+02,-4.274685822740600543e+02,-5.128757430692973003e+02,9.523238182067871094e+00,-6.501809358596801758e-01,-3.824593424797058105e-01,2.920000000000000000e+02
-6.219857383973894684e+02,-6.114349103641789043e+02,-6.333477858470118917e+02,-5.410391902526301919e+02,-7.092044209790384457e+02,-6.377954947225262003e+02,-4.285554789819897223e+02,-5.156074280929294673e+02,9.523238182067871094e+00,-6.501809358596801758e-01,-3.824593424797058105e-01,2.930000000000000000e+02
-6.243031743293526006e+02,-6.138282636476527614e+02,-6.279976828051774191e+02,-5.428810233240546950e+02,-7.096261551356533346e+02,-6.391123892837572384e+02,-4.309422000838792997e+02,-5.188789087040130426e+02,9.523238182067871094e+00,-6.501809358596801758e-01,-3.824593424797058105e-01,2.940000000000000000e+02
-6.262395171359638653e+02,-6.169522301180663817e+02,-6.235135685996984876e+02,-5.464598122844997761e+02,-7.096031841840734842e+02,-6.410563205135765656e+02,-4.342758628063580204e+02,-5.217140305567747873e+02,9.523238182067871094e+00,-6.501809358596801758e-01,-3.824593424797058105e-01,2.950000000000000000e+02
-6.280394427410683420e+02,-6.197275836788901415e+02,-6.214435084457675202e+02,-5.507601866450661419e+02,-7.099785233261923167e+02,-6.433721501269685632e+02,-4.380662810848216395e+02,-5.236894595359252662e+02,9.523238182067871094e+00,-6.501809358596801758e-01,-3.824593424797058105e-01,2.960000000000000000e+02
-6.300987174969343414e+02,-6.214208671849337406e+02,-6.218518420321233862e+02,-5.548642493970361329e+02,-7.116182634594395040e+02,-6.459210913407346197e+02,-4.416499765084618048e+02,-5.251520359888054372e+02,9.523238182067871094e+00,-6.501809358596801758e-01,-3.824593424797058105e-01,2.970000000000000000e+02
-6.324772837764803626e+02,-6.219604465860811615e+02,-6.235910100958831208e+02,-5.586556034561421029e+02,-7.147591382402140425e+02,-6.486938387705838522e+02,-4.441805063192715579e+02,-5.266973608758748924e+02,9.523238182067871094e+00,-6.501809358596801758e-01,-3.824593424797058105e-01,2.980000000000000000e+02
-6.347178726238546460e+02,-6.219061708969912843e+02,-6.251624960582421409e+02,-5.626302643955635858e+02,-7.185407570744168879e+02,-6.515447141334246908e+02,-4.449658833000246432e+02,-5.283879947180065528e+02,9.523238182067871094e+00,-6.501809358596801758e-01,-3.824593424797058105e-01,2.990000000000000000e+02
-6.361888857413218830e+02,-6.220692040896407207e+02,-6.255060438961812679e+02,-5.670161183602394885e+02,-7.212460138418603037e+02,-6.539276045277192679e+02,-4.440072896942019725e+02,-5.294548416299271594e+02,9.523238182067871094e+00,-6.501809358596801758e-01,-3.824593424797058105e-01,3.000000000000000000e+02
-6.366861837991516495e+02,-6.229058300553409708e+02,-6.242748498725297850e+02,-5.710883744853330199e+02,-7.212868350067961956e+02,-6.550005790126156171e+02,-4.421585411548713296e+02,-5.287986145580631501e+02,9.523238182067871094e+00,-6.501809358596801758e-01,-3.824593424797058105e-01,3.010000000000000000e+02
-6.367502136897173841e+02,-6.240457821802956460e+02,-6.216431506593819449e+02,-5.734270462135986008e+02,-7.182769745338922576e+02,-6.541419073357701564e+02,-4.405709136114262492e+02,-5.258952245180271348e+02,9.523238182067871094e+00,-6.501809358596801758e-01,-3.824593424797058105e-01,3.020000000000000000e+02
-6.373464101407301996e+02,-6.243935513469333500e+02,-6.179959181962124148e+02,-5.729798657118053598e+02,-7.133227144685026815e+02,-6.514729753766097247e+02,-4.398256007452730501e+02,-5.213773264082112746e+02,9.523238182067871094e+00,-6.501809358596801758e-01,-3.824593424797058105e-01,3.030000000000000000e+02
-6.390639857481858144e+02,-6.228723037076294986e+02,-6.137770684259894551e+02,-5.699964639640442101e+02,-7.082879616857871952e+02,-6.479236952678663783e+02,-4.395722062079636316e+02,-5.168569775534415385e+02,9.523238182067871094e+00,-6.501809358596801758e-01,-3.824593424797058105e-01,3.040000000000000000e+02
-6.414649272660622046e+02,-6.192857011650313552e+02,-6.094937583210147523e+02,-5.659499288382294253e+02,-7.046686267916379620e+02,-6.447481323243844145e+02,-4.390408578938042297e+02,-5.141364728935200219e+02,9.523238182067871094e+00,-6.501809358596801758e-01,-3.824593424797058105e-01,3.050000000000000000e+02
-6.431926258181918001e+02,-6.145492317565324356e+02,-6.056909740572261853e+02,-5.624697429642737916e+02,-7.029637173927372942e+02,-6.428518271521021461e+02,-4.379059954435689406e+02,-5.143213787071751995e+02,9.523238182067871094e+00,-6.501809358596801758e-01,-3.824593424797058105e-01,3.060000000000000000e+02
-6.428643541772181607e+02,-6.100475587628418452e+02,-6.027679838803101120e+02,-5.602006741400938381e+02,-7.028164402440843332e+02,-6.423960394560554050e+02,-4.366122118011128350e+02,-5.172972175679715292e+02,9.523238182067871094e+00,-6.501809358596801758e-01,-3.824593424797058105e-01,3.070000000000000000e+02
-6.401167501756128786e+02,-6.066855056148006042e+02,-6.007252593003015591e+02,-5.585670784278771634e+02,-7.034636442167451378e+02,-6.428719653834209566e+02,-4.358469215563936245e+02,-5.217701279592320134e+02,9.523238182067871094e+00,-6.501809358596801758e-01,-3.824593424797058105e-01,3.080000000000000000e+02
-6.359809567088095719e+02,-6.045003523882583067e+02,-5.990812279244400997e+02,-5.565861535894173358e+02,-7.039642995986657752e+02,-6.434914171140006829e+02,-4.357566918525723167e+02,-5.258162636311919869e+02,9.523238182067871094e+00,-6.501809358596801758e-01,-3.824593424797058105e-01,3.090000000000000000e+02
-6.322561383304923766e+02,-6.031188495442952444e+02,-5.971039510731500286e+02,-5.539304880907400275e+02,-7.032213933794995455e+02,-6.436036030140869570e+02,-4.357818693854425760e+02,-5.277199558985452086e+02,9.523238182067871094e+00,-6.501809358596801758e-01,-3.824593424797058105e-01,3.100000000000000000e+02
-6.303636913444688616e+02,-6.024618935724954554e+02,-5.942677338077381819e+02,-5.512678692506738116e+02,-7.002446524438498727e+02,-6.429354861796343812e+02,-4.353146267108717211e+02,-5.267585369873395393e+02,9.523238182067871094e+00,-6.501809358596801758e-01,-3.824593424797058105e-01,3.110000000000000000e+02
-6.305690643374675801e+02,-6.028479234606541013e+02,-5.906508988457414944e+02,-5.496254524139235400e+02,-6.948052521343335002e+02,-6.415917118305386566e+02,-4.344725436734372579e+02,-5.235241649887541371e+02,9.484992027282714844e+00,-6.884268522262573242e-01,-4.971971809864044189e-01,3.120000000000000000e+02
-6.320787381489728887e+02,-6.043336869291683797e+02,-5.869612684305295716e+02,-5.494187005227623786e+02,-6.879392437352211118e+02,-6.398536288645274226e+02,-4.341260838864167795e+02,-5.195373859711909290e+02,9.484992027282714844e+00,-6.884268522262573242e-01,-4.971971809864044189e-01,3.130000000000000000e+02
-6.337291374922281193e+02,-6.060626677530718780e+02,-5.841029569561321750e+02,-5.500484938861511637e+02,-6.816155531013661175e+02,-6.379265306358161070e+02,-4.350916244860267170e+02,-5.163414208046201566e+02,9.484992027282714844e+00,-6.884268522262573242e-01,-4.971971809864044189e-01,3.140000000000000000e+02
-6.345757333375893268e+02,-6.065199282995996555e+02,-5.825344114789761534e+02,-5.503957402503149297e+02,-6.775788415998583787e+02,-6.358289653057761370e+02,-4.372631484895955509e+02,-5.146484506272574890e+02,9.484992027282714844e+00,-6.884268522262573242e-01,-4.971971809864044189e-01,3.150000000000000000e+02
-6.339849384984046310e+02,-6.047028035144132900e+02,-5.818633814183945105e+02,-5.497258241986492067e+02,-6.762223827135961756e+02,-6.335066872523129859e+02,-4.395319195135012933e+02,-5.140933065418311116e+02,9.484992027282714844e+00,-6.884268522262573242e-01,-4.971971809864044189e-01,3.160000000000000000e+02
-6.314550282353168313e+02,-6.011667781604702441e+02,-5.810330123008868668e+02,-5.482016116074206593e+02,-6.764396976300866982e+02,-6.310345676970092654e+02,-4.405885892079326140e+02,-5.136965298368197637e+02,9.484992027282714844e+00,-6.884268522262573242e-01,-4.971971809864044189e-01,3.170000000000000000e+02
-6.266537087584456458e+02,-5.978375674850237829e+02,-5.790405218299484886e+02,-5.466139076958666010e+02,-6.765690007632005063e+02,-6.286581153422630450e+02,-4.398898500250359120e+02,-5.126245949251257343e+02,9.484992027282714844e+00,-6.884268522262573242e-01,-4.971971809864044189e-01,3.180000000000000000e+02
-6.197616432886655957e+02,-5.965572655079881770e+02,-5.756874754783384560e+02,-5.456602592147031601e+02,-6.756070329813386479e+02,-6.266162489713482273e+02,-4.380017410479490536e+02,-5.106975055385739779e+02,9.484992027282714844e+00,-6.884268522262573242e-01,-4.971971809864044189e-01,3.190000000000000000e+02
-6.116571588733315821e+02,-5.975658036670582760e+02,-5.717360132644150781e+02,-5.454501725514567170e+02,-6.737123977827592398e+02,-6.249751833031981505e+02,-4.361516222482343892e+02,-5.084010461466209563e+02,9.484992027282714844e+00,-6.884268522262573242e-01,-4.971971809864044189e-01,3.200000000000000000e+02
-6.034918254888176534e+02,-5.993027671860976398e+02,-5.682433874607115740e+02,-5.456280091565321300e+02,-6.717305933699799425e+02,-6.237409662406728330e+02,-4.354491275709274305e+02,-5.065562730788286672e+02,9.484992027282714844e+00,-6.884268522262573242e-01,-4.971971809864044189e-01,3.210000000000000000e+02
-5.958761816642276017e+02,-5.997329113384730590e+02,-5.655443594417564555e+02,-5.458844813974673116e+02,-6.703171849943969391e+02,-6.231601923096008022e+02,-4.363330237383486292e+02,-5.059058834830776732e+02,9.484992027282714844e+00,-6.884268522262573242e-01,-4.971971809864044189e-01,3.220000000000000000e+02
-5.884795080787993129e+02,-5.979827142262099642e+02,-5.627350003097059243e+02,-5.462848641211716085e+02,-6.694524591170787744e+02,-6.237694387900280617e+02,-4.384570374224574607e+02,-5.067480220728090217e+02,9.484992027282714844e+00,-6.884268522262573242e-01,-4.971971809864044189e-01,3.230000000000000000e+02
-5.806145720371702055e+02,-5.948118269843720327e+02,-5.581678397879524027e+02,-5.470703490949144907e+02,-6.686499619991313921e+02,-6.259136048912696424e+02,-4.409167678287889203e+02,-5.086578300524233782e+02,9.484992027282714844e+00,-6.884268522262573242e-01,-4.971971809864044189e-01,3.240000000000000000e+02
-5.724036772616655071e+02,-5.915985513410564636e+02,-5.506225099329826662e+02,-5.481501637915823721e+02,-6.675290448904517007e+02,-6.290721144001148559e+02,-4.426674306560903460e+02,-5.104506895741493508e+02,9.484992027282714844e+00,-6.884268522262573242e-01,-4.971971809864044189e-01,3.250000000000000000e+02
-5.653704547677901928e+02,-5.889565709180437807e+02,-5.402146689991785706e+02,-5.488558875979948652e+02,-6.662009358457821691e+02,-6.317271725028501805e+02,-4.430231463419770535e+02,-5.106188350158936373e+02,9.484992027282714844e+00,-6.884268522262573242e-01,-4.971971809864044189e-01,3.260000000000000000e+02
-5.616453048901568081e+02,-5.863986306797427233e+02,-5.282997958938859711e+02,-5.483061906973259738e+02,-6.651745452894182336e+02,-6.321502690683391847e+02,-4.420459710833565623e+02,-5.081924678019760222e+02,9.484992027282714844e+00,-6.884268522262573242e-01,-4.971971809864044189e-01,3.270000000000000000e+02
-5.622517207736382261e+02,-5.833193136281902298e+02,-5.164895972177490648e+02,-5.461223809301047822e+02,-6.649107214943446706e+02,-6.295945318151407264e+02,-4.405317988576764492e+02,-5.034796161208302010e+02,9.484992027282714844e+00,-6.884268522262573242e-01,-4.971971809864044189e-01,3.280000000000000000e+02
-5.659457975193155335e+02,-5.801425883825642131e+02,-5.056294059957068612e+02,-5.428223536379429106e+02,-6.654005324702884536e+02,-6.248551748279885487e+02,-4.394743739828026037e+02,-4.979819231584783665e+02,9.484992027282714844e+00,-6.884268522262573242e-01,-4.971971809864044189e-01,3.290000000000000000e+02
-5.697492932154207210e+02,-5.782516403029833327e+02,-4.954927952167328158e+02,-5.394374127015232716e+02,-6.660736611999211618e+02,-6.196376626326133419e+02,-4.393139232357834771e+02,-4.933470057764707235e+02,9.484992027282714844e+00,-6.884268522262573242e-01,-4.971971809864044189e-01,3.300000000000000000e+02
-5.708770959531050266e+02,-5.785982146360242950e+02,-4.852488113464886510e+02,-5.366162508218866378e+02,-6.660852651588506887e+02,-6.152567992077767940e+02,-4.395864607747809032e+02,-4.901213227111875312e+02,9.484992027282714844e+00,-6.884268522262573242e-01,-4.971971809864044189e-01,3.310000000000000000e+02
-5.685117652237593120e+02,-5.803582244320302834e+02,-4.741622971593117200e+02,-5.340293418531510952e+02,-6.647859246127663937e+02,-6.118187621584954741e+02,-4.393477989971758007e+02,-4.874119203575041865e+02,9.484992027282714844e+00,-6.884268522262573242e-01,-4.971971809864044189e-01,3.320000000000000000e+02
-5.639982622360810183e+02,-5.811072516260691145e+02,-4.619980413228772704e+02,-5.306840695683096101e+02,-6.620724762452681489e+02,-6.085607551229986711e+02,-4.380402226998229480e+02,-4.838674681501199757e+02,9.484992027282714844e+00,-6.884268522262573242e-01,-4.971971809864044189e-01,3.330000000000000000e+02
-5.594166593924065864e+02,-5.785805795673209104e+02,-4.490723087944055578e+02,-5.259481771366379235e+02,-6.584275423431209902e+02,-6.049230145567016734e+02,-4.360147194038686393e+02,-4.791537246301660389e+02,9.484992027282714844e+00,-6.884268522262573242e-01,-4.971971809864044189e-01,3.340000000000000000e+02
-5.558514480704213838e+02,-5.725187493732320263e+02,-4.361719988592525397e+02,-5.203813212481434221e+02,-6.546553743905722058e+02,-6.012711475374695738e+02,-4.342063398858214214e+02,-4.745295810352954504e+02,9.484992027282714844e+00,-6.884268522262573242e-01,-4.971971809864044189e-01,3.350000000000000000e+02
-5.528027373185370834e+02,-5.649490238848163699e+02,-4.243827429919480210e+02,-5.155787719538839156e+02,-6.514715706226535303e+02,-5.985971311219750532e+02,-4.332683570681699621e+02,-4.718851623476543864e+02,9.484992027282714844e+00,-6.884268522262573242e-01,-4.971971809864044189e-01,3.360000000000000000e+02
-5.490381802237818647e+02,-5.586832897920952519e+02,-4.146400387912208316e+02,-5.131006674219152046e+02,-6.491454578068714909e+02,-5.975616245470895365e+02,-4.330059933309574944e+02,-4.720424567288755497e+02,9.484992027282714844e+00,-6.119350194931030273e-01,-4.207052886486053467e-01,3.370000000000000000e+02
-5.439001976872425530e+02,-5.553792564611110265e+02,-4.070153946124614777e+02,-5.133636465460098179e+02,-6.473427836682740235e+02,-5.978312484643388416e+02,-4.326279680875597933e+02,-4.738598179717816947e+02,9.484992027282714844e+00,-6.119350194931030273e-01,-4.207052886486053467e-01,3.380000000000000000e+02
-5.378476777848320580e+02,-5.547489872747055415e+02,-4.003047994231906159e+02,-5.153697135305430947e+02,-6.452685205641081438e+02,-5.982989514552652963e+02,-4.315003259440286456e+02,-4.749792975144089269e+02,9.484992027282714844e+00,-6.119350194931030273e-01,-4.207052886486053467e-01,3.390000000000000000e+02
-5.318971082746392085e+02,-5.552826831444194795e+02,-3.926353424157766767e+02,-5.173836768929455729e+02,-6.421091271135222769e+02,-5.978927164639312650e+02,-4.296128254808853626e+02,-4.735849100324700203e+02,9.484992027282714844e+00,-6.119350194931030273e-01,-4.207052886486053467e-01,3.400000000000000000e+02
-5.266624552280580929e+02,-5.555102877014055593e+02,-3.830627256534551179e+02,-5.178970782568349023e+02,-6.375840746994342680e+02,-5.961736676616249042e+02,-4.273310818229629149e+02,-4.696550501631722909e+02,9.484992027282714844e+00,-6.119350194931030273e-01,-4.207052886486053467e-01,3.410000000000000000e+02
-5.219440104834258136e+02,-5.546429028960687901e+02,-3.730281478179069836e+02,-5.161591078757460309e+02,-6.322565346885735380e+02,-5.932607057668101334e+02,-4.248216527777243527e+02,-4.647175019992346279e+02,9.484992027282714844e+00,-6.119350194931030273e-01,-4.207052886486053467e-01,3.420000000000000000e+02
-5.171551211726018664e+02,-5.523853948542924854e+02,-3.662304116970068435e+02,-5.121225241785333537e+02,-6.272883246606245393e+02,-5.893443392319018130e+02,-4.218789375747692247e+02,-4.604896170701283609e+02,9.484992027282714844e+00,-6.119350194931030273e-01,-4.207052886486053467e-01,3.430000000000000000e+02
-5.120688866724767649e+02,-5.486193182098955958e+02,-3.665407247198015739e+02,-5.061857674741720530e+02,-6.236764664467982584e+02,-5.844027713688717540e+02,-4.183804075193763765e+02,-4.576480464335961642e+02,9.484992027282714844e+00,-6.119350194931030273e-01,-4.207052886486053467e-01,3.440000000000000000e+02
-5.071601128960949154e+02,-5.435596238265633247e+02,-3.753062295615073936e+02,-4.991011253878765501e+02,-6.214602065373367168e+02,-5.784094363316814906e+02,-4.148084832612446462e+02,-4.556462359923766599e+02,9.484992027282714844e+00,-6.119350194931030273e-01,-4.207052886486053467e-01,3.450000000000000000e+02
-5.032778637441521141e+02,-5.381558737474574627e+02,-3.901408058817173696e+02,-4.919929473940850357e+02,-6.195213545492892990e+02,-5.717172551890653267e+02,-4.121129244737398949e+02,-4.534730640636786347e+02,9.484992027282714844e+00,-6.119350194931030273e-01,-4.207052886486053467e-01,3.460000000000000000e+02
-5.009760904669449246e+02,-5.340146064622975928e+02,-4.062530700583212138e+02,-4.861529702714111636e+02,-6.162357556228594149e+02,-5.651096577660432558e+02,-4.108926201692706854e+02,-4.505406689790291921e+02,9.484992027282714844e+00,-6.119350194931030273e-01,-4.207052886486053467e-01,3.470000000000000000e+02
-5.000448356120100470e+02,-5.325588245712770004e+02,-4.193287376479098612e+02,-4.825120133116272427e+02,-6.105707952380303141e+02,-5.593895971434712919e+02,-4.107049352028417388e+02,-4.470274473962124375e+02,9.484992027282714844e+00,-6.119350194931030273e-01,-4.207052886486053467e-01,3.480000000000000000e+02
-4.995434298714012584e+02,-5.340049699414635143e+02,-4.277652541943906499e+02,-4.811460547411249991e+02,-6.028208731402160083e+02,-5.549000957988318987e+02,-4.103115768143362629e+02,-4.436396874297856812e+02,9.484992027282714844e+00,-6.119350194931030273e-01,-4.207052886486053467e-01,3.490000000000000000e+02
-4.982806109407551958e+02,-5.370659288701708647e+02,-4.327431836894877506e+02,-4.812661596971829567e+02,-5.944185827512314972e+02,-5.514444973280317299e+02,-4.087565105794736837e+02,-4.411778211173598265e+02,9.484992027282714844e+00,-6.119350194931030273e-01,-4.207052886486053467e-01,3.500000000000000000e+02
-4.954584501835786341e+02,-5.396948907426062760e+02,-4.364995989669884011e+02,-4.817323207010565511e+02,-5.869637560710650632e+02,-5.486338607332086212e+02,-4.062690554311170672e+02,-4.402012728189081372e+02,9.484992027282714844e+00,-6.119350194931030273e-01,-4.207052886486053467e-01,3.510000000000000000e+02
-4.911328911970279023e+02,-5.402863324664931497e+02,-4.405032898423877441e+02,-4.816610463229803827e+02,-5.812189201363426037e+02,-5.462579605803064169e+02,-4.040614552877805181e+02,-4.408188985668191435e+02,9.484992027282714844e+00,-6.119350194931030273e-01,-4.207052886486053467e-01,3.520000000000000000e+02
-4.862069308975887907e+02,-5.384245312559023660e+02,-4.449259037028816692e+02,-4.806586115455293111e+02,-5.768213296915546380e+02,-5.443040689343999929e+02,-4.031558105486969907e+02,-4.425786724515473907e+02,9.484992027282714844e+00,-6.119350194931030273e-01,-4.207052886486053467e-01,3.530000000000000000e+02
-4.818956693265411104e+02,-5.347648288255468287e+02,-4.493656047832021159e+02,-4.786460792948296330e+02,-5.728691248506356715e+02,-5.426861417825255103e+02,-4.033701905650821118e+02,-4.445632819731097243e+02,9.484992027282714844e+00,-6.119350194931030273e-01,-4.207052886486053467e-01,3.540000000000000000e+02
-4.789610583242268831e+02,-5.303787846035427265e+02,-4.537137012429507195e+02,-4.756486122234707636e+02,-5.688405403421866140e+02,-5.410925727332967199e+02,-4.034818807344297511e+02,-4.458067547334737810e+02,9.484992027282714844e+00,-6.119350194931030273e-01,-4.207052886486053467e-01,3.550000000000000000e+02
-4.772510728315485267e+02,-5.261723893554528786e+02,-4.582556900277477325e+02,-4.718552764774890420e+02,-5.650582542921833920e+02,-5.391934136778806987e+02,-4.024332013761277267e+02,-4.458795566098995096e+02,9.484992027282714844e+00,-6.119350194931030273e-01,-4.207052886486053467e-01,3.560000000000000000e+02
-4.759229608908457294e+02,-5.227007864634467751e+02,-4.631298239932880279e+02,-4.678317535362293711e+02,-5.623276638441184332e+02,-5.369848950923289976e+02,-4.003934807063756125e+02,-4.451961569013551525e+02,9.484992027282714844e+00,-6.119350194931030273e-01,-4.207052886486053467e-01,3.570000000000000000e+02
-4.741849449010389890e+02,-5.202486595432797003e+02,-4.679103113297737764e+02,-4.644816263801608329e+02,-5.610836325656616737e+02,-5.348343303745105004e+02,-3.985962169413696756e+02,-4.446832085190460475e+02,9.484992027282714844e+00,-6.119350194931030273e-01,-4.207052886486053467e-01,3.580000000000000000e+02
-4.719083774440158550e+02,-5.188875317219828958e+02,-4.717833232515265536e+02,-4.625690841218722653e+02,-5.607897808907368926e+02,-5.330980817213028331e+02,-3.980612998650053669e+02,-4.449577482747106387e+02,9.484992027282714844e+00,-6.119350194931030273e-01,-4.207052886486053467e-01,3.590000000000000000e+02
-4.695675463685913655e+02,-5.184143819647104010e+02,-4.740714886476564516e+02,-4.621242060572046739e+02,-5.601157671078108251e+02,-5.316742435877433763e+02,-3.984315429396481250e+02,-4.456480455759203778e+02,9.484992027282714844e+00,-6.119350194931030273e-01,-4.207052886486053467e-01,3.600000000000000000e+02
-4.676130442112507808e+02,-5.183059590788677724e+02,-4.745607895554137485e+02,-4.622965779394073706e+02,-5.577602058049976677e+02,-5.299643786796063978e+02,-3.980959508487662788e+02,-4.454737703768814754e+02,9.484992027282714844e+00,-6.119350194931030273e-01,-4.207052886486053467e-01,3.610000000000000000e+02
-4.659392683376815967e+02,-5.178154726763743838e+02,-4.734292452023546502e+02,-4.618788018012203338e+02,-5.532627617313823976e+02,-5.273172923182169143e+02,-3.955697621692468147e+02,-4.431179721620551391e+02,9.484992027282714844e+00,-6.119350194931030273e-01,-4.207052886486053467e-01,3.620000000000000000e+02
-4.639884951850417565e+02,-5.161929935905545790e+02,-4.710358426486052394e+02,-4.601164144981325990e+02,-5.471948698639953363e+02,-5.235517478067592947e+02,-3.908980566750310572e+02,-4.382542779776290445e+02,9.484992027282714844e+00,-6.119350194931030273e-01,-4.207052886486053467e-01,3.630000000000000000e+02
-4.613702658025435994e+02,-5.129248453969153161e+02,-4.678387140285324222e+02,-4.571418618031966616e+02,-5.406535342113634215e+02,-5.190935748020619940e+02,-3.857838690629230314e+02,-4.318937842872326200e+02,9.484992027282714844e+00,-6.884268522262573242e-01,-4.589512646198272705e-01,3.640000000000000000e+02
-4.583328996559619100e+02,-5.079163236476044858e+02,-4.643713021706387281e+02,-4.536994250468469545e+02,-5.345192443359285335e+02,-5.146442887545736085e+02,-3.822725784823469439e+02,-4.257364451306630144e+02,9.484992027282714844e+00,-6.884268522262573242e-01,-4.589512646198272705e-01,3.650000000000000000e+02
-4.556106748981496821e+02,-5.015833579742793518e+02,-4.610776732635335975e+02,-4.504462278280702776e+02,-5.290376244925182618e+02,-5.107024783921297058e+02,-3.811199534302209031e+02,-4.210110548129598556e+02,9.484992027282714844e+00,-6.884268522262573242e-01,-4.589512646198272705e-01,3.660000000000000000e+02
-4.538215930422165911e+02,-4.947854184259433623e+02,-4.580470685218153903e+02,-4.474556544556112385e+02,-5.239348079927592607e+02,-5.073250204665052934e+02,-3.812373394173464476e+02,-4.177178985820930848e+02,9.484992027282714844e+00,-6.884268522262573242e-01,-4.589512646198272705e-01,3.670000000000000000e+02
-4.530300530705892470e+02,-4.885201632559026166e+02,-4.549561934099097016e+02,-4.443016755261051003e+02,-5.188459107188798498e+02,-5.042296924538168241e+02,-3.806274261955620659e+02,-4.148707637561265074e+02,9.484992027282714844e+00,-6.884268522262573242e-01,-4.589512646198272705e-01,3.680000000000000000e+02
-4.528268300762501894e+02,-4.834383518436400209e+02,-4.514101987439501045e+02,-4.405554353969321255e+02,-5.136855537955279942e+02,-5.010776852074329781e+02,-3.779466186704137272e+02,-4.115082533292461449e+02,9.484992027282714844e+00,-6.884268522262573242e-01,-4.589512646198272705e-01,3.690000000000000000e+02
-4.527036169212838104e+02,-4.794694096407868074e+02,-4.474136132489920783e+02,-4.361990093371834973e+02,-5.087230601284531986e+02,-4.977151690336509091e+02,-3.733906872200313956e+02,-4.075886815210196801e+02,9.484992027282714844e+00,-6.884268522262573242e-01,-4.589512646198272705e-01,3.700000000000000000e+02
-4.522692612723203638e+02,-4.759060784036159930e+02,-4.434611694063310097e+02,-4.316240780370476386e+02,-5.043652553295548842e+02,-4.942474110568266497e+02,-3.683065090347852220e+02,-4.040031393423410009e+02,9.484992027282714844e+00,-6.884268522262573242e-01,-4.589512646198272705e-01,3.710000000000000000e+02
-4.511837150163207752e+02,-4.719899471090884617e+02,-4.400933851475126630e+02,-4.272945164897214454e+02,-5.008282676411722605e+02,-4.909168505122961506e+02,-3.640381976809080697e+02,-4.016975101989651193e+02,9.484992027282714844e+00,-6.884268522262573242e-01,-4.589512646198272705e-01,3.720000000000000000e+02
-4.491002588805024516e+02,-4.675801471594486429e+02,-4.373646804535417232e+02,-4.234072128275790874e+02,-4.979358606173768749e+02,-4.878457770657973924e+02,-3.610419640318648362e+02,-4.006795243946025948e+02,9.484992027282714844e+00,-6.884268522262573242e-01,-4.589512646198272705e-01,3.730000000000000000e+02
-4.458712106892833162e+02,-4.633195684607326257e+02,-4.348015807329327345e+02,-4.198174300286411835e+02,-4.951972150060225886e+02,-4.848153678151049917e+02,-3.588806351062955855e+02,-3.997954590495737648e+02,9.484992027282714844e+00,-6.884268522262573242e-01,-4.589512646198272705e-01,3.740000000000000000e+02
-4.418337425042632276e+02,-4.600829039976538297e+02,-4.318999081531874253e+02,-4.162268122723987744e+02,-4.921127322432284927e+02,-4.812868975951801076e+02,-3.568612349632451242e+02,-3.974880293584260471e+02,9.484992027282714844e+00,-6.884268522262573242e-01,-4.589512646198272705e-01,3.750000000000000000e+02
-4.377446516851346132e+02,-4.581415684191094897e+02,-4.286228685252381183e+02,-4.124377817469328420e+02,-4.884663139930855777e+02,-4.767408182408662469e+02,-3.546370349268652262e+02,-3.929263647379561917e+02,9.484992027282714844e+00,-6.884268522262573242e-01,-4.589512646198272705e-01,3.760000000000000000e+02
-4.342512499573822424e+02,-4.568007797587697496e+02,-4.253560359789084941e+02,-4.085013916164414240e+02,-4.843546349761945748e+02,-4.711315145911883064e+02,-3.523393330951005282e+02,-3.866156767830611898e+02,9.484992027282714844e+00,-6.884268522262573242e-01,-4.589512646198272705e-01,3.770000000000000000e+02
-4.313386621866252426e+02,-4.548918088415534839e+02,-4.223867748273069083e+02,-4.047096621403520658e+02,-4.799551161815631986e+02,-4.650769804889021088e+02,-3.503358523544325180e+02,-3.800640603382148583e+02,9.484992027282714844e+00,-6.884268522262573242e-01,-4.589512646198272705e-01,3.780000000000000000e+02
-4.283366570390076049e+02,-4.517168575215059718e+02,-4.195346384625236169e+02,-4.014617574476660593e+02,-4.753425105824726415e+02,-4.595843681387464130e+02,-3.489653013988661314e+02,-3.748566470223638589e+02,9.484992027282714844e+00,-6.884268522262573242e-01,-4.589512646198272705e-01,3.790000000000000000e+02
-4.245571904262694716e+02,-4.476056138732942600e+02,-4.163901736646973859e+02,-3.990543463554499795e+02,-4.706127493477263215e+02,-4.554902995410566291e+02,-3.484115610722644760e+02,-3.718483403170480415e+02,9.484992027282714844e+00,-6.884268522262573242e-01,-4.589512646198272705e-01,3.800000000000000000e+02
-4.199859163947355682e+02,-4.435988348419941758e+02,-4.128961303753401353e+02,-3.974680020508735652e+02,-4.661684626649205256e+02,-4.530114164191684267e+02,-3.486092319615956967e+02,-3.709113438251915795e+02,9.484992027282714844e+00,-6.884268522262573242e-01,-4.589512646198272705e-01,3.810000000000000000e+02
-4.153513901165852076e+02,-4.405774062366301678e+02,-4.095540176834006161e+02,-3.962768819713471657e+02,-4.627070977721305098e+02,-4.516771797043322749e+02,-3.490918842665575994e+02,-3.711679263237381292e+02,9.484992027282714844e+00,-6.884268522262573242e-01,-4.589512646198272705e-01,3.820000000000000000e+02
-4.115146251502142150e+02,-4.386456722770030865e+02,-4.069316244207234377e+02,-3.948069788801217328e+02,-4.606844010938411884e+02,-4.506100502443605365e+02,-3.489475811297502332e+02,-3.713995861141117985e+02,9.484992027282714844e+00,-6.884268522262573242e-01,-4.589512646198272705e-01,3.830000000000000000e+02
-4.087723577937465507e+02,-4.372601122315320481e+02,-4.049362452641682921e+02,-3.925031146629100931e+02,-4.596717764442275893e+02,-4.489170791289097906e+02,-3.471278390210520683e+02,-3.704451899693985979e+02,9.484992027282714844e+00,-6.884268522262573242e-01,-4.589512646198272705e-01,3.840000000000000000e+02
-4.067242191267682756e+02,-4.358377410432372017e+02,-4.026540281854145178e+02,-3.892578076072009026e+02,-4.583574832389590483e+02,-4.460183148023213562e+02,-3.430630131425446052e+02,-3.675805713457775710e+02,9.484992027282714844e+00,-6.884268522262573242e-01,-4.589512646198272705e-01,3.850000000000000000e+02
-4.047579679680984555e+02,-4.341542879828921286e+02,-3.990348490058886455e+02,-3.854267563035687090e+02,-4.554257647712825019e+02,-4.418454279015386419e+02,-3.371505538446463106e+02,-3.628272290153854556e+02,9.484992027282714844e+00,-6.884268522262573242e-01,-4.589512646198272705e-01,3.860000000000000000e+02
-4.026017780699598916e+02,-4.321697093886245966e+02,-3.938220363492339402e+02,-3.814896671359338143e+02,-4.506187530261649954e+02,-4.368456517022982553e+02,-3.306523613307888354e+02,-3.569776818072623428e+02,9.484992027282714844e+00,-6.884268522262573242e-01,-4.589512646198272705e-01,3.870000000000000000e+02
-4.004021766125297290e+02,-4.296102238165447034e+02,-3.878296831815600854e+02,-3.776316776876674339e+02,-4.449564509660158365e+02,-4.317228640667358377e+02,-3.250102106997694591e+02,-3.511793912916887166e+02,9.484992027282714844e+00,-6.884268522262573242e-01,-4.589512646198272705e-01,3.880000000000000000e+02
-3.983289953136604709e+02,-4.259053629285142506e+02,-3.822856626641012099e+02,-3.736262975807871953e+02,-4.398304122220915815e+02,-4.269971749355054271e+02,-3.211136756455573504e+02,-3.462743901522267151e+02,9.484992027282714844e+00,-6.884268522262573242e-01,-4.589512646198272705e-01,3.890000000000000000e+02
-3.961800695181068477e+02,-4.206537514574013130e+02,-3.778700915135766536e+02,-3.691476520174746838e+02,-4.358154110057573689e+02,-4.226911000930754199e+02,-3.190713013616968965e+02,-3.423932032956049625e+02,9.484992027282714844e+00,-6.884268522262573242e-01,-4.589512646198272705e-01,3.900000000000000000e+02
-3.933995426435969875e+02,-4.141588892932711587e+02,-3.743279026813365817e+02,-3.642437830673561621e+02,-4.323437352258592909e+02,-4.184490805570999328e+02,-3.185325188537015038e+02,-3.391639383852555056e+02,9.484992027282714844e+00,-6.884268522262573242e-01,-4.589512646198272705e-01,3.910000000000000000e+02
-3.894676553474030243e+02,-4.074440650404781081e+02,-3.709085221979651124e+02,-3.595286979564302783e+02,-4.285167812637819225e+02,-4.140559247741089166e+02,-3.190860650169151995e+02,-3.363363642068650279e+02,9.484992027282714844e+00,-6.884268522262573242e-01,-4.589512646198272705e-01,3.920000000000000000e+02
-3.842653840532743743e+02,-4.016700929940623155e+02,-3.670811507730122685e+02,-3.558715807120606769e+02,-4.241581127579033819e+02,-4.098839675928579709e+02,-3.202788735444387385e+02,-3.341896049120421139e+02,9.484992027282714844e+00,-6.884268522262573242e-01,-4.589512646198272705e-01,3.930000000000000000e+02
-3.780954599638162108e+02,-3.974642183774533351e+02,-3.628094063775051836e+02,-3.537986374315191824e+02,-4.200119918045802478e+02,-4.067885487879984794e+02,-3.213494245068950477e+02,-3.332868850889515215e+02,9.484992027282714844e+00,-6.884268522262573242e-01,-4.589512646198272705e-01,3.940000000000000000e+02
-3.714203026267184669e+02,-3.947132213208442408e+02,-3.582739326133389568e+02,-3.530891650951452903e+02,-4.169551424169862912e+02,-4.054695264695928927e+02,-3.212214759540368050e+02,-3.338187540191306653e+02,9.484992027282714844e+00,-6.119350194931030273e-01,-3.824593424797058105e-01,3.950000000000000000e+02
-3.646264693269054078e+02,-3.928660441154434011e+02,-3.535713868474304036e+02,-3.529052803806698648e+02,-4.151256330107225949e+02,-4.058343841908967988e+02,-3.191003821427898401e+02,-3.352199082194658786e+02,9.484992027282714844e+00,-6.119350194931030273e-01,-3.824593424797058105e-01,3.960000000000000000e+02
-3.580221912787233123e+02,-3.913353856118048952e+02,-3.488866996867761827e+02,-3.523750086439465576e+02,-4.139003542592472513e+02,-4.069508966453649919e+02,-3.153046151345170074e+02,-3.364939040970607493e+02,9.484992027282714844e+00,-6.119350194931030273e-01,-3.824593424797058105e-01,3.970000000000000000e+02
-3.520058399767467563e+02,-3.896470237948544764e+02,-3.449854661442268480e+02,-3.511966815546825273e+02,-4.126885326684032407e+02,-4.076626449470304578e+02,-3.115056471650980257e+02,-3.369792852702616983e+02,9.484992027282714844e+00,-6.119350194931030273e-01,-3.824593424797058105e-01,3.980000000000000000e+02
-3.471874767242602502e+02,-3.874101152496139093e+02,-3.433471662177562393e+02,-3.498331288216122630e+02,-4.116513973097189591e+02,-4.073797345908624266e+02,-3.099219794139114583e+02,-3.368488679758665967e+02,9.484992027282714844e+00,-6.119350194931030273e-01,-3.824593424797058105e-01,3.990000000000000000e+02
-3.443015576198758936e+02,-3.844189573999194636e+02,-3.455098392141749173e+02,-3.491887416911663422e+02,-4.116089125743719705e+02,-4.064411298915861153e+02,-3.119334205474997361e+02,-3.369216617731208316e+02,9.484992027282714844e+00,-6.119350194931030273e-01,-3.824593424797058105e-01,4.000000000000000000e+02
-3.439482826741798362e+02,-3.809496847935811275e+02,-3.520243326135214375e+02,-3.500166712560474025e+02,-4.132861545135965571e+02,-4.058238149158846682e+02,-3.171780108009768355e+02,-3.380327901882733386e+02,9.484992027282714844e+00,-6.119350194931030273e-01,-3.824593424797058105e-01,4.010000000000000000e+02
-3.463144946964255269e+02,-3.779085867453131868e+02,-3.619162177198563768e+02,-3.524594698583528043e+02,-4.166931454496802871e+02,-4.064776274431628735e+02,-3.238654905411610798e+02,-3.405572202857588309e+02,9.484992027282714844e+00,-6.119350194931030273e-01,-3.824593424797058105e-01,4.020000000000000000e+02
-3.510104797070866880e+02,-3.764677612626587688e+02,-3.731670883488829986e+02,-3.559815896585098471e+02,-4.211704188749754394e+02,-4.087594846314991628e+02,-3.300292766864433815e+02,-3.443917642824176255e+02,9.484992027282714844e+00,-6.119350194931030273e-01,-3.824593424797058105e-01,4.030000000000000000e+02
-3.571005561289700836e+02,-3.773088385547525831e+02,-3.838116749448633982e+02,-3.596770266628011541e+02,-4.258917993725503948e+02,-4.122841220230129693e+02,-3.346746943076004754e+02,-3.491828745959560365e+02,9.484992027282714844e+00,-6.119350194931030273e-01,-3.824593424797058105e-01,4.040000000000000000e+02
-3.633569093001365218e+02,-3.800791835950435598e+02,-3.927649911379435252e+02,-3.627374961066857395e+02,-4.302585134056989773e+02,-4.162123986255737691e+02,-3.379982448315395231e+02,-3.544575773961610139e+02,9.484992027282714844e+00,-6.119350194931030273e-01,-3.824593424797058105e-01,4.050000000000000000e+02
-3.686861190370793793e+02,-3.835733767801682461e+02,-3.998640115755233637e+02,-3.648345978153370197e+02,-4.339295605243573846e+02,-4.197712025724617888e+02,-3.407601552694529801e+02,-3.596430124965386312e+02,9.484992027282714844e+00,-6.119350194931030273e-01,-3.824593424797058105e-01,4.060000000000000000e+02
-3.725571291812332220e+02,-3.865400348212060635e+02,-4.053925552510220314e+02,-3.662495478650375844e+02,-4.367212839486433040e+02,-4.226882463550623470e+02,-3.435755097316880438e+02,-3.642277610495766567e+02,9.484992027282714844e+00,-6.119350194931030273e-01,-3.824593424797058105e-01,4.070000000000000000e+02
-3.751968944070808902e+02,-3.884635277813522407e+02,-4.097267856430985375e+02,-3.676902790480467047e+02,-4.386518500527226934e+02,-4.252570500649044334e+02,-3.467272573598718282e+02,-3.681001991340640416e+02,9.484992027282714844e+00,-6.119350194931030273e-01,-3.824593424797058105e-01,4.080000000000000000e+02
-3.773817000042122345e+02,-3.897072791992836756e+02,-4.133290725124538767e+02,-3.698547208130139552e+02,-4.400416261121868047e+02,-4.279754235559221343e+02,-3.503762057816936704e+02,-3.716897872286858728e+02,9.484992027282714844e+00,-6.119350194931030273e-01,-3.824593424797058105e-01,4.090000000000000000e+02
-3.799141380521964493e+02,-3.909883235985862484e+02,-4.167436453319205611e+02,-3.729261344043361532e+02,-4.413441057962868399e+02,-4.309929663429234097e+02,-3.546182835979761876e+02,-3.755373755509922375e+02,9.484992027282714844e+00,-6.119350194931030273e-01,-3.824593424797058105e-01,4.100000000000000000e+02
-3.831164632615978007e+02,-3.926991531906573982e+02,-4.202519398293839004e+02,-3.762952574689779794e+02,-4.426507883247300015e+02,-4.337917632177686755e+02,-3.591641197158871819e+02,-3.795130794005522148e+02,9.484992027282714844e+00,-6.119350194931030273e-01,-3.824593424797058105e-01,4.110000000000000000e+02
-3.866776580279229165e+02,-3.946203398164429927e+02,-4.234149001679013509e+02,-3.787662681260808313e+02,-4.433196819755189608e+02,-4.353858719986092183e+02,-3.630692782535757033e+02,-3.824604342907368846e+02,9.484992027282714844e+00,-6.119350194931030273e-01,-3.824593424797058105e-01,4.120000000000000000e+02
-3.899111135203370395e+02,-3.961353018407849049e+02,-4.251125059008052176e+02,-3.792302664770609226e+02,-4.422389339614801429e+02,-4.349326261922778940e+02,-3.650892364663332046e+02,-3.828377123738141563e+02,9.484992027282714844e+00,-6.119350194931030273e-01,-3.824593424797058105e-01,4.130000000000000000e+02
-3.921794716911415435e+02,-3.966676769392884125e+02,-4.243152665751822497e+02,-3.774196668720037451e+02,-4.386859096315197348e+02,-4.323189715280809651e+02,-3.646215257353364905e+02,-3.799917688358505075e+02,9.484992027282714844e+00,-6.119350194931030273e-01,-3.824593424797058105e-01,4.140000000000000000e+02
-3.931668749081297847e+02,-3.960115612467393476e+02,-4.209966259955040186e+02,-3.742089583208389740e+02,-4.331002583428389698e+02,-4.283012369692814900e+02,-3.624496168294890595e+02,-3.749529730974190898e+02,9.484992027282714844e+00,-6.119350194931030273e-01,-3.824593424797058105e-01,4.150000000000000000e+02
-3.928760702548331665e+02,-3.944075570329969196e+02,-4.162530450016417944e+02,-3.711806785464777931e+02,-4.270209210362713748e+02,-4.241206852206805706e+02,-3.604795498698517804e+02,-3.699374061600301502e+02,9.561484336853027344e+00,-7.266727685928344727e-01,-3.442134261131286621e-01,4.160000000000000000e+02
-3.914792979777539585e+02,-3.923945235007468000e+02,-4.113656354788338376e+02,-3.697070855511828995e+02,-4.221278514247005660e+02,-4.208988337894911638e+02,-3.604921683167090123e+02,-3.668961348686684687e+02,9.561484336853027344e+00,-7.266727685928344727e-01,-3.442134261131286621e-01,4.170000000000000000e+02
-3.892195523391742427e+02,-3.905288473372761473e+02,-4.066088030855930811e+02,-3.701811487513682550e+02,-4.191528596721927897e+02,-4.192056172665847953e+02,-3.628731520793917298e+02,-3.663198684334815880e+02,9.561484336853027344e+00,-7.266727685928344727e-01,-3.442134261131286621e-01,4.180000000000000000e+02
-3.864251203363487548e+02,-3.890975104152212225e+02,-4.009397189084606907e+02,-3.719130190035125452e+02,-4.175720549763041163e+02,-4.189808041341125318e+02,-3.663655015499925867e+02,-3.672397011259890860e+02,9.561484336853027344e+00,-7.266727685928344727e-01,-3.442134261131286621e-01,4.190000000000000000e+02
-3.835460838975907336e+02,-3.879940442578299553e+02,-3.928945122807490407e+02,-3.736798792335393955e+02,-4.162946376120908099e+02,-4.197177029418012353e+02,-3.690130198532901886e+02,-3.682437932184766396e+02,9.561484336853027344e+00,-7.266727685928344727e-01,-3.442134261131286621e-01,4.200000000000000000e+02
-3.810823800365017178e+02,-3.868884294990371018e+02,-3.818563107403481354e+02,-3.744438775608255128e+02,-4.146718189300390804e+02,-4.207043729326387620e+02,-3.694614646002942209e+02,-3.684922304069004895e+02,9.561484336853027344e+00,-7.266727685928344727e-01,-3.442134261131286621e-01,4.210000000000000000e+02
-3.793885743327030013e+02,-3.855789162711566860e+02,-3.685354380092526299e+02,-3.737134630023329009e+02,-4.129128857101859467e+02,-4.212047701533665531e+02,-3.675782281214678733e+02,-3.679175443078624994e+02,9.561484336853027344e+00,-7.266727685928344727e-01,-3.442134261131286621e-01,4.220000000000000000e+02
-3.784800095511341169e+02,-3.841975608437396659e+02,-3.543319392693560985e+02,-3.714285602559307335e+02,-4.116083045410550767e+02,-4.205885595711501992e+02,-3.640780397424855437e+02,-3.667050859216828940e+02,9.561484336853027344e+00,-7.266727685928344727e-01,-3.442134261131286621e-01,4.230000000000000000e+02
-3.779570453803751207e+02,-3.830121806399947673e+02,-3.403006488301502941e+02,-3.676750641168355287e+02,-4.109100523981123843e+02,-4.184571837646521999e+02,-3.597279453383898726e+02,-3.647723799283012340e+02,9.561484336853027344e+00,-7.266727685928344727e-01,-3.442134261131286621e-01,4.240000000000000000e+02
-3.771057490359614803e+02,-3.819752966882529108e+02,-3.266857044979249167e+02,-3.625906443243093236e+02,-4.101834582054057137e+02,-4.147518037560407720e+02,-3.549218102024865402e+02,-3.617489920129032726e+02,9.561484336853027344e+00,-7.266727685928344727e-01,-3.442134261131286621e-01,4.250000000000000000e+02
-3.751711799051204252e+02,-3.805321316439817565e+02,-3.132773467485485526e+02,-3.565208898983332801e+02,-4.084246844928266000e+02,-4.097689393092350656e+02,-3.498750894776085261e+02,-3.573340310298740405e+02,9.561484336853027344e+00,-7.266727685928344727e-01,-3.442134261131286621e-01,4.260000000000000000e+02
-3.716951606909656221e+02,-3.780158076988709581e+02,-2.999986684638774932e+02,-3.501503236313506022e+02,-4.049910247837233328e+02,-4.040332731057305864e+02,-3.450159362572308055e+02,-3.515816954796296159e+02,9.561484336853027344e+00,-7.266727685928344727e-01,-3.442134261131286621e-01,4.270000000000000000e+02
-3.667505452410505313e+02,-3.743275484165951639e+02,-2.870810291812335890e+02,-3.443388503984992894e+02,-3.999627969401144583e+02,-3.980727683330560467e+02,-3.410027684701481121e+02,-3.448879322772845626e+02,9.561484336853027344e+00,-7.266727685928344727e-01,-3.442134261131286621e-01,4.280000000000000000e+02
-3.608988303230910333e+02,-3.701825517167681028e+02,-2.748136454692603365e+02,-3.397029963720165142e+02,-3.939065389064962801e+02,-3.922300283194385884e+02,-3.382732372416116959e+02,-3.378224777617756445e+02,9.561484336853027344e+00,-7.266727685928344727e-01,-3.442134261131286621e-01,4.290000000000000000e+02
-3.548468077837439978e+02,-3.665518630745782502e+02,-2.633252489165095085e+02,-3.362807437474771177e+02,-3.874049134745800984e+02,-3.866199202206457812e+02,-3.365774656181679347e+02,-3.310218083779545850e+02,9.561484336853027344e+00,-7.266727685928344727e-01,-3.442134261131286621e-01,4.300000000000000000e+02
-3.490233121772214417e+02,-3.637785626939480608e+02,-2.526590667661444058e+02,-3.336131780738137422e+02,-3.808531878039657386e+02,-3.812464561330084507e+02,-3.350178901336335002e+02,-3.251430103823013269e+02,9.561484336853027344e+00,-7.266727685928344727e-01,-3.442134261131286621e-01,4.310000000000000000e+02
-3.434010164854330469e+02,-3.612788447079424259e+02,-2.428853948933815445e+02,-3.312310809841583250e+02,-3.746326440828811428e+02,-3.761915807920413499e+02,-3.326612155493153296e+02,-3.207431204263443760e+02,9.561484336853027344e+00,-7.266727685928344727e-01,-3.442134261131286621e-01,4.320000000000000000e+02
-3.377042414707325406e+02,-3.582021621392013913e+02,-2.339072268000904842e+02,-3.291361660879897499e+02,-3.693103656036232678e+02,-3.717390995594219021e+02,-3.292242865235834870e+02,-3.180791698029693180e+02,9.561484336853027344e+00,-7.266727685928344727e-01,-3.442134261131286621e-01,4.330000000000000000e+02
-3.317877413370174509e+02,-3.544125798448608293e+02,-2.251303917061745778e+02,-3.278100505851398339e+02,-3.655005677273697984e+02,-3.683315784939991318e+02,-3.252354558038668983e+02,-3.169950641269447260e+02,9.561484336853027344e+00,-7.266727685928344727e-01,-3.442134261131286621e-01,4.340000000000000000e+02
-3.258098060575180170e+02,-3.507492360923820343e+02,-2.156245435052917401e+02,-3.276658986326760896e+02,-3.634189117216210434e+02,-3.663413011647066924e+02,-3.215167770887451297e+02,-3.169929659040908518e+02,9.561484336853027344e+00,-7.266727685928344727e-01,-3.442134261131286621e-01,4.350000000000000000e+02
-3.200317793983138017e+02,-3.482444716949294161e+02,-2.050677520818553603e+02,-3.283773965333029992e+02,-3.625267454298009397e+02,-3.657330787218566002e+02,-3.184316686981828752e+02,-3.173751581807341609e+02,9.561484336853027344e+00,-7.266727685928344727e-01,-3.442134261131286621e-01,4.360000000000000000e+02
-3.144727047188030156e+02,-3.470848016550180546e+02,-1.948310566516165636e+02,-3.287058376867116749e+02,-3.616310310262283565e+02,-3.657951801152680673e+02,-3.155623537085589305e+02,-3.172844717552034126e+02,9.561484336853027344e+00,-7.266727685928344727e-01,-3.442134261131286621e-01,4.370000000000000000e+02
-3.088502039953991698e+02,-3.463986860333334334e+02,-1.880249598313391743e+02,-3.271005407411930719e+02,-3.594548453144361702e+02,-3.651732107696734602e+02,-3.121175196514020627e+02,-3.156937955156563476e+02,9.561484336853027344e+00,-7.266727685928344727e-01,-3.442134261131286621e-01,4.380000000000000000e+02
-3.029624188410264196e+02,-3.450968127449514213e+02,-1.879466553945453597e+02,-3.227008377147121791e+02,-3.553298495454027943e+02,-3.623568286029822048e+02,-3.077083806775215180e+02,-3.116154098387619342e+02,9.561484336853027344e+00,-7.266727685928344727e-01,-3.442134261131286621e-01,4.390000000000000000e+02
-2.971808078997569282e+02,-3.428672892524541567e+02,-1.957890161962995990e+02,-3.159687920672558903e+02,-3.495581368637999731e+02,-3.564797760554743036e+02,-3.027772034704742055e+02,-3.046483041876354037e+02,9.561484336853027344e+00,-7.266727685928344727e-01,-3.442134261131286621e-01,4.400000000000000000e+02
-2.925162406889403428e+02,-3.402737304597776529e+02,-2.093783944613023777e+02,-3.084253569812485694e+02,-3.431989406785201027e+02,-3.479529447372096911e+02,-2.982590415460374516e+02,-2.955173107606960912e+02,9.484992027282714844e+00,-6.501809358596801758e-01,-3.824593424797058105e-01,4.410000000000000000e+02
-2.900225740514292738e+02,-3.378712203433101422e+02,-2.240797099902240461e+02,-3.016685628243571955e+02,-3.373937520187469090e+02,-3.384194150585672105e+02,-2.947444462239291170e+02,-2.860320471219101819e+02,9.484992027282714844e+00,-6.501809358596801758e-01,-3.824593424797058105e-01,4.420000000000000000e+02
-2.899048034540319350e+02,-3.353199011869542119e+02,-2.353324312204074431e+02,-2.964260751210267699e+02,-3.326607129245485339e+02,-3.299339086435729769e+02,-2.918998695906791454e+02,-2.782757431245754560e+02,9.484992027282714844e+00,-6.501809358596801758e-01,-3.824593424797058105e-01,4.430000000000000000e+02
-2.910513582343182861e+02,-3.314939692990433286e+02,-2.409912596975425458e+02,-2.923328519040569518e+02,-3.286579643450854746e+02,-3.238642816804490394e+02,-2.886909595746938066e+02,-2.735018363414446867e+02,9.484992027282714844e+00,-6.501809358596801758e-01,-3.824593424797058105e-01,4.440000000000000000e+02
-2.914706544658611165e+02,-3.255539587851785654e+02,-2.418593449970608162e+02,-2.885132512155514632e+02,-3.245960108374265474e+02,-3.202706017450746003e+02,-2.842527041000791996e+02,-2.715312440013317428e+02,9.484992027282714844e+00,-6.501809358596801758e-01,-3.824593424797058105e-01,4.450000000000000000e+02
-2.894570445686404128e+02,-3.179653880006228519e+02,-2.402974646265206502e+02,-2.844108911546018135e+02,-3.199626958370272405e+02,-3.181506581798889783e+02,-2.786872622841124212e+02,-2.710608577453590442e+02,9.484992027282714844e+00,-6.501809358596801758e-01,-3.824593424797058105e-01,4.460000000000000000e+02
-2.847217053872295764e+02,-3.104828911739407431e+02,-2.382244550296620673e+02,-2.802094555802734703e+02,-3.149512713105323201e+02,-3.162642304036917267e+02,-2.731249002689851295e+02,-2.705685106451653610e+02,9.484992027282714844e+00,-6.501809358596801758e-01,-3.824593424797058105e-01,4.470000000000000000e+02
-2.786632652973014501e+02,-3.050924118609318612e+02,-2.360293426342259409e+02,-2.766179056556393334e+02,-3.102314986119440618e+02,-3.138575354486874858e+02,-2.689902346784615474e+02,-2.690959330877660705e+02,9.484992027282714844e+00,-6.501809358596801758e-01,-3.824593424797058105e-01,4.480000000000000000e+02
-2.734884622888107515e+02,-3.027878535791760441e+02,-2.329088700989332210e+02,-2.742980335433121581e+02,-3.063222706998408285e+02,-3.108462876326043443e+02,-2.670391317306985002e+02,-2.664555036608287537e+02,9.484992027282714844e+00,-6.501809358596801758e-01,-3.824593424797058105e-01,4.490000000000000000e+02
-2.707223199844640931e+02,-3.030842579452405516e+02,-2.279572309248044348e+02,-2.733923202029918684e+02,-3.032001219325347847e+02,-3.075580420128699188e+02,-2.668646003085873417e+02,-2.629739296792192818e+02,9.484992027282714844e+00,-6.501809358596801758e-01,-3.824593424797058105e-01,4.500000000000000000e+02
-2.701674745178904686e+02,-3.044757318201936869e+02,-2.209480120891157640e+02,-2.734162947719996737e+02,-3.005011700164477588e+02,-3.044054399552096584e+02,-2.671720417818673923e+02,-2.591705346765409104e+02,9.484992027282714844e+00,-6.501809358596801758e-01,-3.824593424797058105e-01,4.510000000000000000e+02
-2.701302583758590572e+02,-3.053554564706896599e+02,-2.122960934207924311e+02,-2.734971654813141413e+02,-2.980336634235309248e+02,-3.016986610492335785e+02,-2.665812765632172159e+02,-2.555820192699393374e+02,9.484992027282714844e+00,-6.501809358596801758e-01,-3.824593424797058105e-01,4.520000000000000000e+02
-2.687901030558157345e+02,-3.047693786667925906e+02,-2.025226041725602499e+02,-2.727909869514114689e+02,-2.959971188741565129e+02,-2.995390100310373782e+02,-2.644176226091042281e+02,-2.526444605360115929e+02,9.484992027282714844e+00,-6.501809358596801758e-01,-3.824593424797058105e-01,4.530000000000000000e+02
-2.656542823283657526e+02,-3.026747085747720121e+02,-1.918843313652550933e+02,-2.708896623104540140e+02,-2.946666830382014268e+02,-2.977209747378019529e+02,-2.610340044730833142e+02,-2.505099591121618232e+02,9.484992027282714844e+00,-6.501809358596801758e-01,-3.824593424797058105e-01,4.540000000000000000e+02
-2.619162704078164552e+02,-2.997181791331040586e+02,-1.804868357351817849e+02,-2.680139605346696499e+02,-2.939238027415831311e+02,-2.957548367771369158e+02,-2.575006441963096222e+02,-2.488968387932427504e+02,9.484992027282714844e+00,-6.501809358596801758e-01,-3.824593424797058105e-01,4.550000000000000000e+02
-2.594039795177925498e+02,-2.967368543532199965e+02,-1.686364826098297272e+02,-2.648234354162034379e+02,-2.931865167429432404e+02,-2.931350653467150096e+02,-2.548609985850735029e+02,-2.471851344727465403e+02,9.484992027282714844e+00,-6.501809358596801758e-01,-3.824593424797058105e-01,4.560000000000000000e+02
-2.590192134341873498e+02,-2.942640094389198566e+02,-1.569719458862784904e+02,-2.618939923713999178e+02,-2.918311635253166969e+02,-2.897152995430340070e+02,-2.534234050415871025e+02,-2.447809329457263630e+02,9.484992027282714844e+00,-6.501809358596801758e-01,-3.824593424797058105e-01,4.570000000000000000e+02
-2.600513706840399664e+02,-2.923128160631854371e+02,-1.461946607866880186e+02,-2.592153780353810362e+02,-2.896375783262105870e+02,-2.858111727663106194e+02,-2.525655215830179259e+02,-2.414602571477862512e+02,9.484992027282714844e+00,-6.501809358596801758e-01,-3.824593424797058105e-01,4.580000000000000000e+02
-2.609737583878977603e+02,-2.905459834464522828e+02,-1.366429618210781882e+02,-2.561672784613951990e+02,-2.867953780478915178e+02,-2.818479921867779012e+02,-2.512052011520338510e+02,-2.373932270567122487e+02,9.484992027282714844e+00,-6.501809358596801758e-01,-3.824593424797058105e-01,4.590000000000000000e+02
-2.609518547987254351e+02,-2.886450486096803161e+02,-1.281131284048167345e+02,-2.521045320171269850e+02,-2.835406263170707462e+02,-2.778859913265980595e+02,-2.486038273393492091e+02,-2.328827446595746551e+02,9.484992027282714844e+00,-6.501809358596801758e-01,-3.824593424797058105e-01,4.600000000000000000e+02
-2.606081349769817734e+02,-2.865386997818714008e+02,-1.200760735385924818e+02,-2.471334446444441255e+02,-2.798963690857358415e+02,-2.735939200095517663e+02,-2.448888482097811448e+02,-2.281651143660137677e+02,9.484992027282714844e+00,-6.501809358596801758e-01,-3.824593424797058105e-01,4.610000000000000000e+02
-2.612947672755640269e+02,-2.843245052391616809e+02,-1.120664172858751044e+02,-2.423937439753208309e+02,-2.758158656965201772e+02,-2.688296524170086741e+02,-2.409025788948601985e+02,-2.235354132740358182e+02,9.484992027282714844e+00,-6.501809358596801758e-01,-3.824593424797058105e-01,4.620000000000000000e+02
-2.635806638952772119e+02,-2.820624703602529735e+02,-1.039061107973386697e+02,-2.395106945133534282e+02,-2.714890465705466340e+02,-2.642704061521360472e+02,-2.375567250808187509e+02,-2.196192430761298056e+02,9.484992027282714844e+00,-6.501809358596801758e-01,-3.824593424797058105e-01,4.630000000000000000e+02
-2.664588201545793709e+02,-2.797519702342756318e+02,-9.566308289478183724e+01,-2.395567528307601606e+02,-2.673592432542504866e+02,-2.613166962170068928e+02,-2.352661264284895424e+02,-2.173161935091416126e+02,9.484992027282714844e+00,-6.501809358596801758e-01,-3.824593424797058105e-01,4.640000000000000000e+02
-2.681238661806119126e+02,-2.775335961271794076e+02,-8.754796223190328419e+01,-2.422803774308774791e+02,-2.637734082093402321e+02,-2.611118631235108296e+02,-2.338927445913759584e+02,-2.172052987927870618e+02,9.484992027282714844e+00,-6.501809358596801758e-01,-3.824593424797058105e-01,4.650000000000000000e+02
-2.676285679175009591e+02,-2.758033748324426142e+02,-7.994454260970269388e+01,-2.461684323324113848e+02,-2.606641997415674723e+02,-2.634397305177440103e+02,-2.330912100661967088e+02,-2.188365408198451405e+02,9.484992027282714844e+00,-6.501809358596801758e-01,-3.824593424797058105e-01,4.660000000000000000e+02
-2.658385307542987448e+02,-2.749552066965782160e+02,-7.345944453990159673e+01,-2.492550311805396177e+02,-2.576607630795497244e+02,-2.665439000147828210e+02,-2.325857012845692680e+02,-2.206414561729525303e+02,9.484992027282714844e+00,-6.501809358596801758e-01,-3.824593424797058105e-01,4.670000000000000000e+02
-2.647540972074763204e+02,-2.749104871536628707e+02,-6.868456966333292257e+01,-2.500877474793944657e+02,-2.545484074313478686e+02,-2.681628169618761603e+02,-2.321083325590639106e+02,-2.207696866175244850e+02,9.484992027282714844e+00,-6.884268522262573242e-01,-3.824593424797058105e-01,4.680000000000000000e+02
-2.658261030814430796e+02,-2.749409337995925853e+02,-6.563656192704206660e+01,-2.482584748802332797e+02,-2.515978796219899323e+02,-2.670024373035037115e+02,-2.312124493563317174e+02,-2.183122862736222487e+02,9.484992027282714844e+00,-6.884268522262573242e-01,-3.824593424797058105e-01,4.690000000000000000e+02
-2.688191218979609403e+02,-2.740789140899928498e+02,-6.336011210362619295e+01,-2.443111625334372548e+02,-2.494202364867428514e+02,-2.634602499329948841e+02,-2.293604501766585599e+02,-2.139284465672003535e+02,9.484992027282714844e+00,-6.884268522262573242e-01,-3.824593424797058105e-01,4.700000000000000000e+02
-2.722013279180880545e+02,-2.718194008846974157e+02,-6.034302454305077390e+01,-2.392447453805937130e+02,-2.485032487902481080e+02,-2.590745101744614658e+02,-2.263460530312070205e+02,-2.093355242652947936e+02,9.484992027282714844e+00,-6.884268522262573242e-01,-3.824593424797058105e-01,4.710000000000000000e+02
-2.745544629316832470e+02,-2.684702498059078835e+02,-5.577720999114910683e+01,-2.339836872848352414e+02,-2.488781799959401724e+02,-2.552714719132204664e+02,-2.226431365614877222e+02,-2.060822113046976938e+02,9.484992027282714844e+00,-6.884268522262573242e-01,-3.824593424797058105e-01,4.720000000000000000e+02
-2.756054422657214218e+02,-2.648364495688315401e+02,-5.075030528028435128e+01,-2.290949578217071121e+02,-2.501494188898657285e+02,-2.524911369547082813e+02,-2.192313177617844531e+02,-2.046047320426248461e+02,9.484992027282714844e+00,-6.884268522262573242e-01,-3.824593424797058105e-01,4.730000000000000000e+02
-2.760005807137736156e+02,-2.615764020204323970e+02,-4.814748337049786642e+01,-2.248208887448257656e+02,-2.517167931349414403e+02,-2.502982382191624993e+02,-2.169327150867411547e+02,-2.042289311519105013e+02,9.484992027282714844e+00,-6.884268522262573242e-01,-3.824593424797058105e-01,4.740000000000000000e+02
-2.762751872095008139e+02,-2.588487064608125365e+02,-5.094869442715707919e+01,-2.213005393091940505e+02,-2.529102514263768171e+02,-2.481390213515687719e+02,-2.158201343742420022e+02,-2.039064803935942791e+02,9.484992027282714844e+00,-6.884268522262573242e-01,-3.824593424797058105e-01,4.750000000000000000e+02
-2.762175909889867853e+02,-2.564949651723719626e+02,-6.008111464647549838e+01,-2.187431251418609008e+02,-2.530223075248238729e+02,-2.459113518607038031e+02,-2.152349585242661760e+02,-2.029150176932373597e+02,9.484992027282714844e+00,-6.884268522262573242e-01,-3.824593424797058105e-01,4.760000000000000000e+02
-2.752654879357284585e+02,-2.544097193824861733e+02,-7.360731327560483805e+01,-2.173624326772982158e+02,-2.514548518417142304e+02,-2.438640450935215540e+02,-2.143777528686418918e+02,-2.009980480604996274e+02,9.484992027282714844e+00,-6.884268522262573242e-01,-3.824593424797058105e-01,4.770000000000000000e+02
-2.733945189509202010e+02,-2.526131263187226068e+02,-8.803959402837028847e+01,-2.170946721392454037e+02,-2.480726829372950988e+02,-2.420889773502992739e+02,-2.129102627816679387e+02,-1.981042104705024940e+02,9.484992027282714844e+00,-6.884268522262573242e-01,-3.824593424797058105e-01,4.780000000000000000e+02
-2.714211287247939595e+02,-2.509909973120763311e+02,-1.007249468323896053e+02,-2.173655894406284688e+02,-2.434973433909628966e+02,-2.402437547552304977e+02,-2.110542989202280069e+02,-1.942410843264441382e+02,9.484992027282714844e+00,-6.884268522262573242e-01,-3.824593424797058105e-01,4.790000000000000000e+02
-2.703074483267380401e+02,-2.491361737647344512e+02,-1.112781785316910828e+02,-2.172217635611972923e+02,-2.389449978084501822e+02,-2.378324918853709846e+02,-2.092055980364917787e+02,-1.896696076148660381e+02,9.484992027282714844e+00,-6.884268522262573242e-01,-3.824593424797058105e-01,4.800000000000000000e+02
-2.701903564998436877e+02,-2.466369097247629725e+02,-1.209465234412764403e+02,-2.158506793160959205e+02,-2.355607092793676429e+02,-2.347273934571825862e+02,-2.075237206029017898e+02,-1.851217080378496576e+02,9.484992027282714844e+00,-6.884268522262573242e-01,-3.824593424797058105e-01,4.810000000000000000e+02
-2.701891227938357360e+02,-2.435981430781028507e+02,-1.307008704574456601e+02,-2.131481392177637417e+02,-2.337267570026217527e+02,-2.313760498009739877e+02,-2.059027971984630483e+02,-1.816141784034130353e+02,9.484992027282714844e+00,-6.884268522262573242e-01,-3.824593424797058105e-01,4.820000000000000000e+02
-2.692295783851982378e+02,-2.408076142604080019e+02,-1.399390796783962969e+02,-2.098740880064893872e+02,-2.329221378915040077e+02,-2.284881635219461486e+02,-2.042554532799964591e+02,-1.798464760541398277e+02,9.484992027282714844e+00,-6.884268522262573242e-01,-3.824593424797058105e-01,4.830000000000000000e+02
-2.670549289076806190e+02,-2.392257454897936952e+02,-1.469494245927546672e+02,-2.072178208774002428e+02,-2.322317839803794186e+02,-2.265137325237836308e+02,-2.026950381649418489e+02,-1.796446305862765769e+02,9.484992027282714844e+00,-6.884268522262573242e-01,-3.824593424797058105e-01,4.840000000000000000e+02
-2.644109380257339694e+02,-2.391592845606103310e+02,-1.505210379556220062e+02,-2.060716122156153460e+02,-2.310175478780091680e+02,-2.254000876593374869e+02,-2.013713294886943856e+02,-1.799597408800822791e+02,9.484992027282714844e+00,-6.884268522262573242e-01,-3.824593424797058105e-01,4.850000000000000000e+02
-2.622709057242007589e+02,-2.398472504845180993e+02,-1.510597410493417669e+02,-2.065286962027336699e+02,-2.291576454450445794e+02,-2.247742186835051257e+02,-2.001576750637372015e+02,-1.794719638963106263e+02,9.484992027282714844e+00,-6.884268522262573242e-01,-3.824593424797058105e-01,4.860000000000000000e+02
-2.609530536694448983e+02,-2.398614771898051572e+02,-1.502316189746046291e+02,-2.079076573508597789e+02,-2.267649345307536919e+02,-2.242752925171202492e+02,-1.985923168510884409e+02,-1.773716791294228869e+02,9.484992027282714844e+00,-6.884268522262573242e-01,-3.824593424797058105e-01,4.870000000000000000e+02
-2.600500606181017247e+02,-2.380163301313978081e+02,-1.496672384601984618e+02,-2.091874569997050344e+02,-2.238560126437553777e+02,-2.236963030606754614e+02,-1.962262320415634349e+02,-1.737871682442212204e+02,9.484992027282714844e+00,-6.884268522262573242e-01,-3.824593424797058105e-01,4.880000000000000000e+02
-2.591841731855940907e+02,-2.340896854705559349e+02,-1.500498214079198078e+02,-2.095143846127957659e+02,-2.204614129869225962e+02,-2.229154647909205096e+02,-1.930846152119398198e+02,-1.696427397808888031e+02,9.484992027282714844e+00,-6.884268522262573242e-01,-3.824593424797058105e-01,4.890000000000000000e+02
-2.587240074037923705e+02,-2.288830041630748156e+02,-1.512755279340067318e+02,-2.085166363113261241e+02,-2.170749298670498320e+02,-2.218574321506946490e+02,-1.897869887249005387e+02,-1.661319758276545713e+02,9.484992027282714844e+00,-6.884268522262573242e-01,-3.824593424797058105e-01,4.900000000000000000e+02
-2.596707831177383810e+02,-2.237183011410104427e+02,-1.532036355216563379e+02,-2.063729886565240577e+02,-2.148228449279308734e+02,-2.205911952581250262e+02,-1.871827105369231958e+02,-1.641600785415246264e+02,9.484992027282714844e+00,-6.884268522262573242e-01,-3.824593424797058105e-01,4.910000000000000000e+02
-2.628039501975688381e+02,-2.198126136164414675e+02,-1.560521175392730129e+02,-2.036948383035389725e+02,-2.149180209571345586e+02,-2.193977821932193137e+02,-1.858162469445887837e+02,-1.640315732903407024e+02,9.484992027282714844e+00,-6.884268522262573242e-01,-3.824593424797058105e-01,4.920000000000000000e+02
-2.679291170596707161e+02,-2.178760127712835128e+02,-1.601004989773803118e+02,-2.012683661822806016e+02,-2.177303931648368689e+02,-2.186053522353663539e+02,-1.856935720720957761e+02,-1.654726928041019391e+02,9.484992027282714844e+00,-6.884268522262573242e-01,-3.824593424797058105e-01,4.930000000000000000e+02
-2.739510490087689050e+02,-2.179984467216041821e+02,-1.651990249316957033e+02,-1.997069255496855931e+02,-2.223278523427236451e+02,-2.182904488375768324e+02,-1.865023158390430353e+02,-1.678942961590000778e+02,9.484992027282714844e+00,-6.884268522262573242e-01,-3.824593424797058105e-01,4.940000000000000000e+02
-2.796662102594120825e+02,-2.197299564154692462e+02,-1.706996128205787500e+02,-1.991894309572387556e+02,-2.270064390176794404e+02,-2.181994822689923694e+02,-1.879779013037463073e+02,-1.706944930806196226e+02,9.484992027282714844e+00,-6.884268522262573242e-01,-3.824593424797058105e-01,4.950000000000000000e+02
-2.845232825845138223e+02,-2.222897945636516397e+02,-1.758172256130133064e+02,-1.994862786335427245e+02,-2.303821307740533939e+02,-2.180445055527152363e+02,-1.899857015240179408e+02,-1.733865691564842564e+02,9.484992027282714844e+00,-6.884268522262573242e-01,-3.824593424797058105e-01,4.960000000000000000e+02
-2.886993804991896013e+02,-2.248519183250650713e+02,-1.799258293742941532e+02,-2.002678064154129061e+02,-2.320465386767473319e+02,-2.178861089096262731e+02,-1.922326430286152572e+02,-1.754992133940552321e+02,9.484992027282714844e+00,-6.884268522262573242e-01,-3.824593424797058105e-01,4.970000000000000000e+02
-2.925296264679482192e+02,-2.267815570070233662e+02,-1.825090392512558992e+02,-2.014014589505850381e+02,-2.322620384504762114e+02,-2.181329133620884022e+02,-1.939661300370198660e+02,-1.764454308484255307e+02,9.484992027282714844e+00,-6.884268522262573242e-01,-3.824593424797058105e-01,4.980000000000000000e+02
-2.958770441783060505e+02,-2.276877866985473702e+02,-1.830461111245042503e+02,-2.029158801509356636e+02,-2.311869920869503403e+02,-2.190722730250051882e+02,-1.941076633571381080e+02,-1.756258464117081530e+02,9.408499717712402344e+00,-6.884268522262573242e-01,-4.589512646198272705e-01,4.990000000000000000e+02
-2.980010414196115107e+02,-2.273023910320573577e+02,-1.812442017114094597e+02,-2.046326468328402370e+02,-2.285827798695186175e+02,-2.204016743578222304e+02,-1.918646730787336310e+02,-1.728059938176184005e+02,9.408499717712402344e+00,-6.884268522262573242e-01,-4.589512646198272705e-01,5.000000000000000000e+02
-2.979935512577737882e+02,-2.253910374238585064e+02,-1.775234784369358749e+02,-2.058764118975907422e+02,-2.243393399955589302e+02,-2.212968334610745842e+02,-1.873554191971325054e+02,-1.684553139859376643e+02,9.408499717712402344e+00,-6.884268522262573242e-01,-4.589512646198272705e-01,5.010000000000000000e+02
-2.954050597274886059e+02,-2.218926101080253375e+02,-1.731721535259689517e+02,-2.056911359259747769e+02,-2.191674139379824737e+02,-2.210175897530975817e+02,-1.816878432500025156e+02,-1.636551692205789550e+02,9.408499717712402344e+00,-6.884268522262573242e-01,-4.589512646198272705e-01,5.020000000000000000e+02
-2.905921057030038810e+02,-2.171910918738094551e+02,-1.697797309846664575e+02,-2.035048940421027055e+02,-2.145403944531235538e+02,-2.194777110812856336e+02,-1.763576871519026099e+02,-1.595323152995144937e+02,9.408499717712402344e+00,-6.884268522262573242e-01,-4.589512646198272705e-01,5.030000000000000000e+02
-2.845619836963514899e+02,-2.121713726360881083e+02,-1.683146862324826998e+02,-1.996722406184230749e+02,-2.117611969809026959e+02,-2.172304356670706511e+02,-1.724118951566642863e+02,-1.566402037338962145e+02,9.408499717712402344e+00,-6.884268522262573242e-01,-4.589512646198272705e-01,5.040000000000000000e+02
-2.784566452308961289e+02,-2.078419585861001906e+02,-1.686780013197326298e+02,-1.953484467504458735e+02,-2.110129092380416296e+02,-2.149353714640392354e+02,-1.700155914692782062e+02,-1.548132275129746631e+02,9.408499717712402344e+00,-6.884268522262573242e-01,-4.589512646198272705e-01,5.050000000000000000e+02
-2.730391307178767875e+02,-2.047482001722064524e+02,-1.701206276351704219e+02,-1.917305512170892143e+02,-2.113087783179694270e+02,-2.128771148862115297e+02,-1.686724192634528663e+02,-1.535773482434588004e+02,9.408499717712402344e+00,-6.884268522262573242e-01,-4.589512646198272705e-01,5.060000000000000000e+02
-2.685025730059232956e+02,-2.026937971071315587e+02,-1.720291285641760624e+02,-1.893028556432936966e+02,-2.113440810130769023e+02,-2.109698556216098950e+02,-1.677872939634808063e+02,-1.526501226804193720e+02,9.408499717712402344e+00,-6.884268522262573242e-01,-4.589512646198272705e-01,5.070000000000000000e+02
-2.646548911399113422e+02,-2.010418092407685435e+02,-1.742337124224709441e+02,-1.877150592843668164e+02,-2.103831640396642797e+02,-2.091140170727644545e+02,-1.670427372183789885e+02,-1.520107893254053124e+02,9.408499717712402344e+00,-6.884268522262573242e-01,-4.589512646198272705e-01,5.080000000000000000e+02
-2.612644507211698510e+02,-1.993041697006201503e+02,-1.766209409811649493e+02,-1.863043417774556474e+02,-2.084169008230642248e+02,-2.074163125510476675e+02,-1.663479708269746880e+02,-1.515294950091856663e+02,9.408499717712402344e+00,-6.884268522262573242e-01,-4.589512646198272705e-01,5.090000000000000000e+02
-2.582644273215105386e+02,-1.974540441358490170e+02,-1.786949539030874803e+02,-1.846965277387866990e+02,-2.056874977105071594e+02,-2.060225898518324357e+02,-1.655819241544295437e+02,-1.506755913894858168e+02,9.408499717712402344e+00,-6.884268522262573242e-01,-4.589512646198272705e-01,5.100000000000000000e+02
-2.556936735120716548e+02,-1.957199491131418654e+02,-1.798133041188825700e+02,-1.829489919894758714e+02,-2.022863778123551128e+02,-2.048140166038410825e+02,-1.645105810512282005e+02,-1.487587045461177695e+02,9.408499717712402344e+00,-6.884268522262573242e-01,-4.589512646198272705e-01,5.110000000000000000e+02
-2.535177650437408374e+02,-1.941880646769827763e+02,-1.799742609152663135e+02,-1.812441636875396398e+02,-1.982706845480302036e+02,-2.033763550788980865e+02,-1.629825839019895284e+02,-1.455487432684694795e+02,9.408499717712402344e+00,-6.884268522262573242e-01,-4.589512646198272705e-01,5.120000000000000000e+02
-2.515599228642272465e+02,-1.927133454690779217e+02,-1.801813840823429018e+02,-1.795779451148973749e+02,-1.940060049535832150e+02,-2.013073228969510637e+02,-1.611333551864690889e+02,-1.416138008506486585e+02,9.408499717712402344e+00,-6.884268522262573242e-01,-4.589512646198272705e-01,5.130000000000000000e+02
-2.496047527237456052e+02,-1.912362106330624556e+02,-1.816894852622403960e+02,-1.777857036894506564e+02,-1.901683378240904858e+02,-1.985463244766706339e+02,-1.592948267335173114e+02,-1.379374051237609820e+02,9.408499717712402344e+00,-6.884268522262573242e-01,-4.589512646198272705e-01,5.140000000000000000e+02
-2.475194649806262532e+02,-1.900573793563517029e+02,-1.846520156663418675e+02,-1.757948966564745206e+02,-1.872977523556328379e+02,-1.953977239824562275e+02,-1.576393235641771753e+02,-1.351068819479987724e+02,9.408499717712402344e+00,-6.884268522262573242e-01,-4.589512646198272705e-01,5.150000000000000000e+02
-2.452246596694917571e+02,-1.896154403572109004e+02,-1.875710519853987535e+02,-1.737256626341841184e+02,-1.853730521931447583e+02,-1.922490005323852529e+02,-1.559176441566487483e+02,-1.328468073871858905e+02,9.408499717712402344e+00,-6.884268522262573242e-01,-4.589512646198272705e-01,5.160000000000000000e+02
-2.425379982876061149e+02,-1.898847608102901177e+02,-1.883880374722148190e+02,-1.716897011688101884e+02,-1.838725613308388347e+02,-1.892928573082044750e+02,-1.536082750148107152e+02,-1.303646066566693662e+02,9.408499717712402344e+00,-6.884268522262573242e-01,-4.589512646198272705e-01,5.170000000000000000e+02
-2.391054534582303859e+02,-1.900180470082004831e+02,-1.864508233635083343e+02,-1.695466496909384659e+02,-1.822318100079100986e+02,-1.865010676271176635e+02,-1.504019251465078924e+02,-1.271682004654285265e+02,9.408499717712402344e+00,-6.884268522262573242e-01,-4.589512646198272705e-01,5.180000000000000000e+02
-2.345831336290484614e+02,-1.887143256953177115e+02,-1.835440668078026647e+02,-1.669517519459268442e+02,-1.802224085585648936e+02,-1.837964971275659991e+02,-1.465993998085277781e+02,-1.235512456898577511e+02,9.408499717712402344e+00,-6.884268522262573242e-01,-4.589512646198272705e-01,5.190000000000000000e+02
-2.289673749262456113e+02,-1.851168005618410461e+02,-1.828562700626061996e+02,-1.637042624509913367e+02,-1.779415225469965662e+02,-1.811861199468285122e+02,-1.430311158853764937e+02,-1.202908919685960427e+02,9.484992027282714844e+00,-6.119350194931030273e-01,-4.207052886486053467e-01,5.200000000000000000e+02
-2.227858174383018195e+02,-1.795055021959688020e+02,-1.866344928633488962e+02,-1.600452959058811757e+02,-1.755667358119499113e+02,-1.787161789056262933e+02,-1.405243508610210483e+02,-1.179014553909737515e+02,9.484992027282714844e+00,-6.119350194931030273e-01,-4.207052886486053467e-01,5.210000000000000000e+02
-2.169563919307493052e+02,-1.732141874604603800e+02,-1.945102902670887488e+02,-1.565881879406033477e+02,-1.732145444082480026e+02,-1.763338196062913994e+02,-1.393390804366126758e+02,-1.161952877807125333e+02,9.484992027282714844e+00,-6.119350194931030273e-01,-4.207052886486053467e-01,5.220000000000000000e+02
-2.123841532348715191e+02,-1.678785823437738145e+02,-2.038520143139185166e+02,-1.539296083235967671e+02,-1.709771469888264619e+02,-1.738318067863956458e+02,-1.389867571080130801e+02,-1.145382721546920948e+02,9.484992027282714844e+00,-6.119350194931030273e-01,-4.207052886486053467e-01,5.230000000000000000e+02
-2.095413189035934920e+02,-1.646234561830442544e+02,-2.116762419902825059e+02,-1.522990938828561411e+02,-1.689446607408972341e+02,-1.709674879469703228e+02,-1.385335131863503193e+02,-1.124988261120306561e+02,9.484992027282714844e+00,-6.119350194931030273e-01,-4.207052886486053467e-01,5.240000000000000000e+02
-2.082398952855219250e+02,-1.637163562354307942e+02,-2.163965291974991487e+02,-1.515306633836426045e+02,-1.670923100210593475e+02,-1.676696474577483968e+02,-1.371372930582201661e+02,-1.102554924103260419e+02,9.484992027282714844e+00,-6.119350194931030273e-01,-4.207052886486053467e-01,5.250000000000000000e+02
-2.076968284963922997e+02,-1.647117780062271777e+02,-2.181345927286047299e+02,-1.512794364683768435e+02,-1.651966541582751233e+02,-1.641512583111252752e+02,-1.344691234020110642e+02,-1.084436409710178850e+02,9.484992027282714844e+00,-6.119350194931030273e-01,-4.207052886486053467e-01,5.260000000000000000e+02
-2.068738330101004976e+02,-1.667728749422276451e+02,-2.178257413265919240e+02,-1.512001526727217424e+02,-1.629985660268230276e+02,-1.608084595932632510e+02,-1.308288536429554370e+02,-1.076724074991234374e+02,9.484992027282714844e+00,-6.119350194931030273e-01,-4.207052886486053467e-01,5.270000000000000000e+02
-2.049557688693239470e+02,-1.689095176967612133e+02,-2.162991561825183453e+02,-1.509351317872369691e+02,-1.605130774670597020e+02,-1.579505636255516947e+02,-1.269619003437965148e+02,-1.081583315089983444e+02,9.484992027282714844e+00,-6.119350194931030273e-01,-4.207052886486053467e-01,5.280000000000000000e+02
-2.017396032309516158e+02,-1.701494643309242747e+02,-2.141158268990839133e+02,-1.500422650378777689e+02,-1.581277391237044867e+02,-1.555628447048875387e+02,-1.237065538788328922e+02,-1.096994969132438200e+02,9.484992027282714844e+00,-6.119350194931030273e-01,-4.207052886486053467e-01,5.290000000000000000e+02
-1.977004399986553835e+02,-1.697656616652875528e+02,-2.118705902919036816e+02,-1.480727446644586962e+02,-1.562942694122102694e+02,-1.533143221946438643e+02,-1.216284308036283619e+02,-1.118918833827729031e+02,9.484992027282714844e+00,-6.119350194931030273e-01,-4.207052886486053467e-01,5.300000000000000000e+02
-1.936531734456066260e+02,-1.675328159276277802e+02,-2.102177657544061731e+02,-1.448336514590819206e+02,-1.550830104914821277e+02,-1.508419704064781399e+02,-1.207743525457344731e+02,-1.143834296123941385e+02,9.484992027282714844e+00,-6.119350194931030273e-01,-4.207052886486053467e-01,5.310000000000000000e+02
-1.902182516942366419e+02,-1.638275811815419729e+02,-2.094432783659149209e+02,-1.406290510584767617e+02,-1.540815748794257161e+02,-1.480902355973203157e+02,-1.206523475993826651e+02,-1.170222520974011786e+02,9.484992027282714844e+00,-6.119350194931030273e-01,-4.207052886486053467e-01,5.320000000000000000e+02
-1.874771235044245259e+02,-1.594328003429582168e+02,-2.091634915802569594e+02,-1.362214368881341215e+02,-1.527750018186679881e+02,-1.453822455991648894e+02,-1.204521684795008696e+02,-1.198409101473725968e+02,9.484992027282714844e+00,-6.119350194931030273e-01,-4.207052886486053467e-01,5.330000000000000000e+02
-1.850525799056104006e+02,-1.551371585234246595e+02,-2.086793204116174820e+02,-1.324663512919660207e+02,-1.510206762560519564e+02,-1.431080365361030999e+02,-1.193992982223699073e+02,-1.228577746488863340e+02,9.484992027282714844e+00,-6.119350194931030273e-01,-4.207052886486053467e-01,5.340000000000000000e+02
-1.824715917666180758e+02,-1.513886110247203760e+02,-2.077106888589332812e+02,-1.298407063146059954e+02,-1.490970659551239805e+02,-1.412756055774098058e+02,-1.170788515002805070e+02,-1.257746933485941554e+02,9.484992027282714844e+00,-6.119350194931030273e-01,-4.207052886486053467e-01,5.350000000000000000e+02
-1.794416346916377734e+02,-1.482227202657750240e+02,-2.066924548904516996e+02,-1.281918122858251081e+02,-1.472708783436992235e+02,-1.393606272777597042e+02,-1.135997218583506765e+02,-1.278341009873083749e+02,9.484992027282714844e+00,-6.119350194931030273e-01,-4.207052886486053467e-01,5.360000000000000000e+02
-1.758361425444936685e+02,-1.454878159242525726e+02,-2.062329488012273941e+02,-1.268982883172211586e+02,-1.453640166904096986e+02,-1.366733614365730318e+02,-1.095689516677812207e+02,-1.281105067620819682e+02,9.484992027282714844e+00,-6.119350194931030273e-01,-4.207052886486053467e-01,5.370000000000000000e+02
-1.715357283361954615e+02,-1.431690073300696895e+02,-2.062760050434626464e+02,-1.253588767200108123e+02,-1.428181591239535919e+02,-1.329926922677550465e+02,-1.058879764635212268e+02,-1.261769338513822731e+02,9.484992027282714844e+00,-6.119350194931030273e-01,-4.207052886486053467e-01,5.380000000000000000e+02
-1.664136849350888951e+02,-1.415439044719332742e+02,-2.058868820644474908e+02,-1.234794666025845800e+02,-1.392286288484829129e+02,-1.289218371109564032e+02,-1.033919729464032571e+02,-1.226344459586252924e+02,9.484992027282714844e+00,-6.119350194931030273e-01,-4.207052886486053467e-01,5.390000000000000000e+02
-1.605298493588406927e+02,-1.410119126275476447e+02,-2.039550655981875025e+02,-1.217816966525933822e+02,-1.348051009213759244e+02,-1.255909038785939629e+02,-1.024222941982479824e+02,-1.189217165339923667e+02,9.484992027282714844e+00,-6.119350194931030273e-01,-4.207052886486053467e-01,5.400000000000000000e+02
-1.542816771472080291e+02,-1.416926129776566086e+02,-2.001597219041796052e+02,-1.209897769082181185e+02,-1.302790897436425439e+02,-1.238784129790565203e+02,-1.025512097996033845e+02,-1.163928368796387076e+02,9.484992027282714844e+00,-6.119350194931030273e-01,-4.207052886486053467e-01,5.410000000000000000e+02
-1.482591187216939943e+02,-1.431165544774667069e+02,-1.952803588336028042e+02,-1.213762923047361255e+02,-1.263497905657804949e+02,-1.237531695863453933e+02,-1.027032236439426924e+02,-1.153714434809535305e+02,9.484992027282714844e+00,-6.119350194931030273e-01,-4.207052886486053467e-01,5.420000000000000000e+02
-1.428903590197332960e+02,-1.443272646911427728e+02,-1.906026666621564800e+02,-1.223718262013262574e+02,-1.232154437377430440e+02,-1.242655084683046880e+02,-1.017013337979951757e+02,-1.150085838523300481e+02,9.484992027282714844e+00,-6.119350194931030273e-01,-4.207052886486053467e-01,5.430000000000000000e+02
-1.382255683448638592e+02,-1.444079940793308197e+02,-1.870369558200000029e+02,-1.227958219309402921e+02,-1.206120841980100522e+02,-1.241996090774700860e+02,-9.893697629350026546e+01,-1.140751640894413867e+02,9.484992027282714844e+00,-6.119350194931030273e-01,-4.207052886486053467e-01,5.440000000000000000e+02
-1.340706541843828745e+02,-1.430553261471268343e+02,-1.847333504586313211e+02,-1.215915028384461039e+02,-1.182282172735867789e+02,-1.228578813760705088e+02,-9.470571602988093218e+01,-1.119607633249379433e+02,9.523238182067871094e+00,-7.266727685928344727e-01,-4.589512646198272705e-01,5.450000000000000000e+02
-1.302840836269751890e+02,-1.407204229070357542e+02,-1.833544469751886936e+02,-1.185166652555981273e+02,-1.160044416379168979e+02,-1.203665720222670643e+02,-8.998711686824390199e+01,-1.090007428324934153e+02,9.523238182067871094e+00,-7.266727685928344727e-01,-4.589512646198272705e-01,5.460000000000000000e+02
-1.268802530911452777e+02,-1.381813445221814618e+02,-1.825482859185885900e+02,-1.142750845489244966e+02,-1.140358857893570530e+02,-1.173372573105752963e+02,-8.589529332675738260e+01,-1.059768249996504892e+02,9.523238182067871094e+00,-7.266727685928344727e-01,-4.589512646198272705e-01,5.470000000000000000e+02
-1.238502651364633493e+02,-1.359206134231499163e+02,-1.821399652097061335e+02,-1.100244573794352618e+02,-1.123015335555301135e+02,-1.142870545978912560e+02,-8.323938721779813932e+01,-1.034528369668369123e+02,9.523238182067871094e+00,-7.266727685928344727e-01,-4.589512646198272705e-01,5.480000000000000000e+02
-1.209948518140245142e+02,-1.338608161101183214e+02,-1.820141370318524423e+02,-1.066860699285480223e+02,-1.106381318186704448e+02,-1.113768969138473039e+02,-8.240651495383281144e+01,-1.016176175107611925e+02,9.523238182067871094e+00,-7.266727685928344727e-01,-4.589512646198272705e-01,5.490000000000000000e+02
-1.180758660425763082e+02,-1.316696216629297851e+02,-1.819878102836973994e+02,-1.045594257308548549e+02,-1.090164921094201418e+02,-1.086380884766094823e+02,-8.338856846711132675e+01,-1.005921156871791027e+02,9.523238182067871094e+00,-7.266727685928344727e-01,-4.589512646198272705e-01,5.500000000000000000e+02
-1.151760273968975525e+02,-1.292858670968435035e+02,-1.818490045300495694e+02,-1.033999057827186334e+02,-1.077360217065997858e+02,-1.063298464629988302e+02,-8.570615398826521414e+01,-1.005869482299294759e+02,9.523238182067871094e+00,-7.266727685928344727e-01,-4.589512646198272705e-01,5.510000000000000000e+02
-1.128228256157017313e+02,-1.271172190612669510e+02,-1.814549958146999415e+02,-1.027324908008722559e+02,-1.071932773554926825e+02,-1.049268560964392236e+02,-8.830688255389213737e+01,-1.015568441919876932e+02,9.523238182067871094e+00,-7.266727685928344727e-01,-4.589512646198272705e-01,5.520000000000000000e+02
-1.116202287454962061e+02,-1.257123997692087869e+02,-1.807337241774712311e+02,-1.020992413612639211e+02,-1.073974763179285219e+02,-1.046704713529306900e+02,-8.980044146174259367e+01,-1.027656293806739995e+02,9.523238182067871094e+00,-7.266727685928344727e-01,-4.589512646198272705e-01,5.530000000000000000e+02
-1.116618074889756826e+02,-1.252500284784819087e+02,-1.796413886458121851e+02,-1.011466448013197805e+02,-1.078072104682705685e+02,-1.051572144846904848e+02,-8.917975219321851910e+01,-1.029725963035052700e+02,9.523238182067871094e+00,-7.266727685928344727e-01,-4.589512646198272705e-01,5.540000000000000000e+02
-1.123085082637862797e+02,-1.253532933380993200e+02,-1.782382554636551504e+02,-9.965793643736105878e+01,-1.077915116797848896e+02,-1.054834556597052142e+02,-8.659263486974123225e+01,-1.013277828858517751e+02,9.523238182067871094e+00,-7.266727685928344727e-01,-4.589512646198272705e-01,5.550000000000000000e+02
-1.125926239285581687e+02,-1.253984789352216467e+02,-1.768545645913873159e+02,-9.764054763298008766e+01,-1.073148628012404515e+02,-1.049333373068839137e+02,-8.343987384325373569e+01,-9.819016844192992721e+01,9.523238182067871094e+00,-7.266727685928344727e-01,-4.589512646198272705e-01,5.560000000000000000e+02
-1.118872201547674194e+02,-1.250078967266090331e+02,-1.760762067275045410e+02,-9.540806785739187035e+01,-1.070945034613177995e+02,-1.036072813605169358e+02,-8.153782974400201056e+01,-9.499479825776325015e+01,9.523238182067871094e+00,-7.266727685928344727e-01,-4.589512646198272705e-01,5.570000000000000000e+02
-1.102284625113570655e+02,-1.242885364631565608e+02,-1.763712253460525972e+02,-9.354997063776863797e+01,-1.079689226278078422e+02,-1.023933037736678671e+02,-8.193660950225603301e+01,-9.319625173481108504e+01,9.523238182067871094e+00,-7.266727685928344727e-01,-4.589512646198272705e-01,5.580000000000000000e+02
-1.080622419261435425e+02,-1.236840739284198207e+02,-1.776188215634974767e+02,-9.276637229237530846e+01,-1.100762868396741396e+02,-1.023023465573387512e+02,-8.437271191796207859e+01,-9.326162418770036311e+01,9.523238182067871094e+00,-7.266727685928344727e-01,-4.589512646198272705e-01,5.590000000000000000e+02
-1.057795776073835441e+02,-1.236704673332405946e+02,-1.790526492945355130e+02,-9.364346738470339915e+01,-1.127037638701094693e+02,-1.037947367367196421e+02,-8.777809721206358518e+01,-9.464037232997543470e+01,9.523238182067871094e+00,-7.266727685928344727e-01,-4.589512646198272705e-01,5.600000000000000000e+02
-1.035573915854547522e+02,-1.245595146616706188e+02,-1.798247579685321398e+02,-9.644334231050743256e+01,-1.149773687217311817e+02,-1.066566710862571199e+02,-9.126872983589055366e+01,-9.659646349635841034e+01,9.523238182067871094e+00,-7.266727685928344727e-01,-4.589512646198272705e-01,5.610000000000000000e+02
-1.015801688415176613e+02,-1.264295136178807297e+02,-1.797509648987834225e+02,-1.009226233853496524e+02,-1.166576301907971356e+02,-1.103661154169712972e+02,-9.462588134409816121e+01,-9.889870965648515266e+01,9.523238182067871094e+00,-7.266727685928344727e-01,-4.589512646198272705e-01,5.620000000000000000e+02
-1.002352285652305000e+02,-1.290482978405507311e+02,-1.794896092440230859e+02,-1.062350797051167319e+02,-1.181798336101455789e+02,-1.144359898040165717e+02,-9.790956758252468717e+01,-1.016155652262223157e+02,9.523238182067871094e+00,-7.266727685928344727e-01,-4.589512646198272705e-01,5.630000000000000000e+02
-9.992551828820069204e+01,-1.317650171405948640e+02,-1.798764578357895516e+02,-1.110520623910870199e+02,-1.199051896750934247e+02,-1.183965155471632897e+02,-1.007951322527424054e+02,-1.043408280252551776e+02,9.523238182067871094e+00,-7.266727685928344727e-01,-4.589512646198272705e-01,5.640000000000000000e+02
-1.006592241171256319e+02,-1.335629601859109243e+02,-1.810022418740300054e+02,-1.139823441047119559e+02,-1.214388133978172846e+02,-1.216068779190936766e+02,-1.025056649127473065e+02,-1.058871022329294647e+02,9.523238182067871094e+00,-7.266727685928344727e-01,-4.589512646198272705e-01,5.650000000000000000e+02
-1.019089283619232447e+02,-1.334552463527597865e+02,-1.819584999676753796e+02,-1.141643991014461790e+02,-1.218146102175087435e+02,-1.233390569219700410e+02,-1.024981684608992509e+02,-1.050033443711745349e+02,9.523238182067871094e+00,-7.266727685928344727e-01,-4.589512646198272705e-01,5.660000000000000000e+02
-1.029786895455836202e+02,-1.310708896019441454e+02,-1.815845280462599476e+02,-1.116553412100547575e+02,-1.203872224651495344e+02,-1.231905217474813981e+02,-1.011241206115792011e+02,-1.014892033432133758e+02,9.523238182067871094e+00,-7.266727685928344727e-01,-4.589512646198272705e-01,5.670000000000000000e+02
-1.035405536958314769e+02,-1.269767147722268419e+02,-1.795442214042413980e+02,-1.073027150255547895e+02,-1.175026834234522539e+02,-1.213921238800139690e+02,-9.943280197679450794e+01,-9.654504753433502628e+01,9.523238182067871094e+00,-7.266727685928344727e-01,-4.589512646198272705e-01,5.680000000000000000e+02
-1.037747071052981482e+02,-1.223936116561235394e+02,-1.766538454122637631e+02,-1.021712882761057699e+02,-1.142608764526084997e+02,-1.186112929312730557e+02,-9.819058194957142405e+01,-9.191209445914137177e+01,9.523238182067871094e+00,-7.266727685928344727e-01,-4.589512646198272705e-01,5.690000000000000000e+02
-1.039850670223877387e+02,-1.184511697358757374e+02,-1.740621996257796127e+02,-9.697325472733791685e+01,-1.116234241521306103e+02,-1.153922316374446382e+02,-9.709790486657584552e+01,-8.857124057298278785e+01,9.523238182067871094e+00,-7.266727685928344727e-01,-4.589512646198272705e-01,5.700000000000000000e+02
-1.041604701830692647e+02,-1.155599513251436292e+02,-1.720238706135332905e+02,-9.194532810870805406e+01,-1.097464314167737029e+02,-1.118152825118522742e+02,-9.508182696148287505e+01,-8.620637683157110587e+01,9.523238182067871094e+00,-7.266727685928344727e-01,-4.589512646198272705e-01,5.710000000000000000e+02
-1.040411281224405684e+02,-1.134030146805671393e+02,-1.694785979972384666e+02,-8.718141813673719298e+01,-1.080963254120870261e+02,-1.077338214662086102e+02,-9.147487801558600040e+01,-8.382231066289023147e+01,9.446745872497558594e+00,-6.501809358596801758e-01,-4.589512646198272705e-01,5.720000000000000000e+02
-1.036639122229771601e+02,-1.114839468741338351e+02,-1.649294412335111701e+02,-8.299326737516093999e+01,-1.060962010170442227e+02,-1.033070135592934093e+02,-8.694212666623570840e+01,-8.078562373225213378e+01,9.446745872497558594e+00,-6.501809358596801758e-01,-4.589512646198272705e-01,5.730000000000000000e+02
-1.037575477129721548e+02,-1.096710979650779336e+02,-1.578775847530669125e+02,-7.988347763986894279e+01,-1.036354968073537748e+02,-9.920817317362161702e+01,-8.321197501319693401e+01,-7.728249205756583251e+01,9.446745872497558594e+00,-6.501809358596801758e-01,-4.589512646198272705e-01,5.740000000000000000e+02
-1.054230971540509927e+02,-1.082281961373773811e+02,-1.494960206869909598e+02,-7.816868302385046263e+01,-1.010911726023223309e+02,-9.623303362375372672e+01,-8.179012334179424215e+01,-7.393938960511150071e+01,9.446745872497558594e+00,-6.501809358596801758e-01,-4.589512646198272705e-01,5.750000000000000000e+02
-1.092632123971980036e+02,-1.073642916367352882e+02,-1.418855105509574059e+02,-7.769188334659702377e+01,-9.904962751155471778e+01,-9.469857240106648533e+01,-8.279987938623889931e+01,-7.123576908993345569e+01,9.446745872497558594e+00,-6.501809358596801758e-01,-4.589512646198272705e-01,5.760000000000000000e+02
-1.147591789625694219e+02,-1.068651922632598144e+02,-1.365419592080215807e+02,-7.800132000613302807e+01,-9.806334949818119640e+01,-9.426284655076960917e+01,-8.496132602898796904e+01,-6.938374928267512587e+01,9.446745872497558594e+00,-6.501809358596801758e-01,-4.589512646198272705e-01,5.770000000000000000e+02
-1.205144166920672433e+02,-1.062851907082949765e+02,-1.333359418206964619e+02,-7.887338329314661678e+01,-9.849944589704682585e+01,-9.435840087553151534e+01,-8.663207854256324936e+01,-6.862263858518781490e+01,9.446745872497558594e+00,-6.501809358596801758e-01,-4.589512646198272705e-01,5.780000000000000000e+02
-1.251816566112065630e+02,-1.055608973140297167e+02,-1.308183980131798307e+02,-8.064386418531285017e+01,-1.003720382806895941e+02,-9.479669944871056941e+01,-8.694544994735770160e+01,-6.933857460752915358e+01,9.446745872497558594e+00,-6.501809358596801758e-01,-4.589512646198272705e-01,5.790000000000000000e+02
-1.282671220924094087e+02,-1.053814493021200178e+02,-1.275036276496575738e+02,-8.392697480086644646e+01,-1.031792400502854434e+02,-9.593018321449198993e+01,-8.615160316659603268e+01,-7.168434450435233884e+01,9.446745872497558594e+00,-6.501809358596801758e-01,-4.589512646198272705e-01,5.800000000000000000e+02
-1.301624694316888053e+02,-1.067687242057581898e+02,-1.230300472063790949e+02,-8.891510007626857259e+01,-1.059799847871981910e+02,-9.822266716646845452e+01,-8.511030608692453825e+01,-7.512189773094360135e+01,9.446745872497558594e+00,-6.501809358596801758e-01,-4.589512646198272705e-01,5.810000000000000000e+02
-1.315387341776768153e+02,-1.100892450081337302e+02,-1.183642285242822254e+02,-9.492644431534790783e+01,-1.078380702203030523e+02,-1.016635846466233488e+02,-8.458902997725817841e+01,-7.855199016067490447e+01,9.446745872497558594e+00,-6.501809358596801758e-01,-4.589512646198272705e-01,5.820000000000000000e+02
-1.327994443213283375e+02,-1.143978631562677037e+02,-1.150875639107034658e+02,-1.006875706423452357e+02,-1.083650902254557877e+02,-1.055875097089519841e+02,-8.495156638112530345e+01,-8.106575519484613324e+01,9.446745872497558594e+00,-6.501809358596801758e-01,-4.589512646198272705e-01,5.830000000000000000e+02
-1.340833611679772730e+02,-1.178390697545873991e+02,-1.144373118847142905e+02,-1.051330072656674020e+02,-1.078978552785629290e+02,-1.090415240573493065e+02,-8.623790446051498293e+01,-8.258916959782072809e+01,9.446745872497558594e+00,-6.501809358596801758e-01,-4.589512646198272705e-01,5.840000000000000000e+02
-1.356438046188195585e+02,-1.189021708666296036e+02,-1.167157152362306078e+02,-1.079611338228096429e+02,-1.071123118771392910e+02,-1.113261031939582608e+02,-8.825105451398485457e+01,-8.369243219286727253e+01,9.446745872497558594e+00,-6.501809358596801758e-01,-4.589512646198272705e-01,5.850000000000000000e+02
-1.380385529073100770e+02,-1.174977378494331788e+02,-1.212002373993891524e+02,-1.094185979970352491e+02,-1.064131465800019214e+02,-1.122411536364816129e+02,-9.045970325006783241e+01,-8.471943999740324216e+01,9.446745872497558594e+00,-6.501809358596801758e-01,-4.589512646198272705e-01,5.860000000000000000e+02
