F3,F4,C3,C4,P3,P4,Cz,Pz,Accel_x,Accel_y,Accel_z,Sample
-2.137312549166381359e-11,-6.139089236967265606e-12,-2.364686224609613419e-11,-1.182343112304806709e-11,-3.910827217623591423e-11,-2.091837814077734947e-11,-3.910827217623591423e-11,-1.409716787748038769e-11,9.484992027282714844e+00,-8.031646609306335449e-01,3.824593871831893921e-02,2.260000000000000000e+02
-1.033382603733798533e+01,5.075750213802621147e-01,-8.138785527307845769e-01,2.630415698900378629e+00,-5.666622920234658523e+00,-4.273400978504469094e+00,-5.576655642496007204e+00,-8.457134704392501590e+00,9.484992027282714844e+00,-8.031646609306335449e-01,3.824593871831893921e-02,2.270000000000000000e+02
-2.005405594044214013e+01,-7.584809171172537390e-01,-3.188498226843876182e+00,4.258272659214981104e+00,-1.168107071025633559e+01,-8.931666482239961624e+00,-1.077026921852029773e+01,-1.402038452750866782e+01,9.484992027282714844e+00,-8.031646609306335449e-01,3.824593871831893921e-02,2.280000000000000000e+02
-2.835441595554311789e+01,-4.051743893272146124e+00,-7.257899450291006360e+00,4.221569806276875170e+00,-1.816720721961564777e+01,-1.464045468174299458e+01,-1.592054092993294034e+01,-1.640289057722384314e+01,9.484992027282714844e+00,-8.031646609306335449e-01,3.824593871831893921e-02,2.290000000000000000e+02
-3.448434870738037716e+01,-8.046855185882918704e+00,-1.172594730219270787e+01,2.371911538822587318e+00,-2.497415528164492571e+01,-2.206631008110525727e+01,-2.182592739825213357e+01,-1.798547187097665301e+01,9.484992027282714844e+00,-8.031646609306335449e-01,3.824593871831893921e-02,2.300000000000000000e+02
-3.834888589538559245e+01,-1.119757386072967620e+01,-1.522673797464631207e+01,-9.648420874245857703e-01,-3.183815913290118260e+01,-3.121149235907341790e+01,-2.871508034709404455e+01,-2.139481493225366648e+01,9.484992027282714844e+00,-8.031646609306335449e-01,3.824593871831893921e-02,2.310000000000000000e+02
-4.087537261673833200e+01,-1.307353358960597234e+01,-1.762368066739190908e+01,-5.180568461711118289e+00,-3.863485249857058079e+01,-4.114374799865299792e+01,-3.566862635848337959e+01,-2.711719512845911595e+01,9.484992027282714844e+00,-8.031646609306335449e-01,3.824593871831893921e-02,2.320000000000000000e+02
-4.366002570379032477e+01,-1.440499422268987928e+01,-1.996344032727347440e+01,-9.626776360902567831e+00,-4.547125750090799556e+01,-5.056936233984652063e+01,-4.125072094358165486e+01,-3.342506905209074830e+01,9.484992027282714844e+00,-8.031646609306335449e-01,3.824593871831893921e-02,2.330000000000000000e+02
-4.803028637391889788e+01,-1.602247954892663984e+01,-2.324167013442593088e+01,-1.381212158856328642e+01,-5.248271492843605301e+01,-5.877143084225417624e+01,-4.476021746158039605e+01,-3.834368436087243026e+01,9.484992027282714844e+00,-8.031646609306335449e-01,3.824593871831893921e-02,2.340000000000000000e+02
-5.423312169629843993e+01,-1.796045639312660569e+01,-2.732345182064955225e+01,-1.747782919763585596e+01,-5.949437819537888572e+01,-6.596948431395048829e+01,-4.681837429149982199e+01,-4.138308153007665169e+01,9.484992027282714844e+00,-8.031646609306335449e-01,3.824593871831893921e-02,2.350000000000000000e+02
-6.139330334852547821e+01,-1.961588054851483776e+01,-3.107594779537248542e+01,-2.049547756126435161e+01,-6.589467062226685812e+01,-7.270720453008925688e+01,-4.871472623676527292e+01,-4.333685642629552603e+01,9.484992027282714844e+00,-8.031646609306335449e-01,3.824593871831893921e-02,2.360000000000000000e+02
-6.823940881973203432e+01,-2.057602504940831523e+01,-3.344397454836416728e+01,-2.265241444839011820e+01,-7.091974718412348011e+01,-7.890580344798991064e+01,-5.123573946045780758e+01,-4.472620562532711119e+01,9.484992027282714844e+00,-8.031646609306335449e-01,3.824593871831893921e-02,2.370000000000000000e+02
-7.397105115939802999e+01,-2.104908565045599289e+01,-3.429552799204566327e+01,-2.354889864090341689e+01,-7.414898390935286443e+01,-8.362003017095912583e+01,-5.412671648550895043e+01,-4.490324011002485349e+01,9.484992027282714844e+00,-8.031646609306335449e-01,3.824593871831893921e-02,2.380000000000000000e+02
-7.863943184363142791e+01,-2.145928808783259001e+01,-3.429882836702608984e+01,-2.282284268653961590e+01,-7.581394503475758029e+01,-8.585629631631900338e+01,-5.658767152038581116e+01,-4.290677562732935257e+01,9.484992027282714844e+00,-8.414105772972106934e-01,3.824593871831893921e-02,2.390000000000000000e+02
-8.293334446773724267e+01,-2.184142003930719511e+01,-3.424315876450464202e+01,-2.064717301236464664e+01,-7.674605732019563220e+01,-8.575607801672958885e+01,-5.819610479375842260e+01,-3.913405780425318881e+01,9.484992027282714844e+00,-8.414105772972106934e-01,3.824593871831893921e-02,2.400000000000000000e+02
-8.774762144895476013e+01,-2.189043686485933904e+01,-3.470901041735987747e+01,-1.808499988792777913e+01,-7.812928757226882226e+01,-8.503271441823881105e+01,-5.940494555460918491e+01,-3.596521345161090721e+01,9.484992027282714844e+00,-8.414105772972106934e-01,3.824593871831893921e-02,2.410000000000000000e+02
-9.388852203387386908e+01,-2.168965444166576617e+01,-3.635193153423506374e+01,-1.684298429901787131e+01,-8.126028667631135249e+01,-8.618420863516439567e+01,-6.133083428251029545e+01,-3.650920844113534258e+01,9.484992027282714844e+00,-8.414105772972106934e-01,3.824593871831893921e-02,2.420000000000000000e+02
-1.018917570506009724e+02,-2.222863498865160636e+01,-4.012431462082759026e+01,-1.839466854901570514e+01,-8.723633266714705314e+01,-9.103454449997479969e+01,-6.512370633528826147e+01,-4.246865289726019910e+01,9.484992027282714844e+00,-8.414105772972106934e-01,3.824593871831893921e-02,2.430000000000000000e+02
-1.117385246440640003e+02,-2.493771335735192451e+01,-4.672770922662539306e+01,-2.303758768853981564e+01,-9.639439233439679811e+01,-9.967332603901513721e+01,-7.132380163495326997e+01,-5.286149961559840449e+01,9.484992027282714844e+00,-8.414105772972106934e-01,3.824593871831893921e-02,2.440000000000000000e+02
-1.225166485761249078e+02,-3.049508353603954447e+01,-5.556398415802141244e+01,-2.960640141529893299e+01,-1.076947372123277091e+02,-1.104915051428770312e+02,-7.944982481154374909e+01,-6.449132956334233313e+01,9.484992027282714844e+00,-8.414105772972106934e-01,3.824593871831893921e-02,2.450000000000000000e+02
-1.324752022700442922e+02,-3.800532636478504855e+01,-6.434041379186419363e+01,-3.611882700931937507e+01,-1.187007405791714518e+02,-1.211783720064140653e+02,-8.800337420641790231e+01,-7.368643223086473881e+01,9.484992027282714844e+00,-8.414105772972106934e-01,3.824593871831893921e-02,2.460000000000000000e+02
-1.398350654714115535e+02,-4.540698265133630684e+01,-7.015606026424939046e+01,-4.091998585352757800e+01,-1.266433863776255748e+02,-1.299490735286012750e+02,-9.506818855640949550e+01,-7.812881560253981661e+01,9.484992027282714844e+00,-8.414105772972106934e-01,3.824593871831893921e-02,2.470000000000000000e+02
-1.440022867600980589e+02,-5.084543597896004030e+01,-7.150968013862666339e+01,-4.352076153796360813e+01,-1.301271065547930448e+02,-1.362707325768719784e+02,-9.936471327040771939e+01,-7.784462374602117052e+01,9.484992027282714844e+00,-8.414105772972106934e-01,3.824593871831893921e-02,2.480000000000000000e+02
-1.461848266596218764e+02,-5.387787619745353140e+01,-6.959603668730824211e+01,-4.463123148314730315e+01,-1.302178876309571933e+02,-1.408178778023934683e+02,-1.011277759972876993e+02,-7.502075557050329735e+01,9.484992027282714844e+00,-8.414105772972106934e-01,3.824593871831893921e-02,2.490000000000000000e+02
-1.486573028595271353e+02,-5.554806013870876313e+01,-6.765219244724949021e+01,-4.552680114524355304e+01,-1.298868190429907372e+02,-1.448563887872460327e+02,-1.020546978630195554e+02,-7.280196068148234190e+01,9.484992027282714844e+00,-8.414105772972106934e-01,3.824593871831893921e-02,2.500000000000000000e+02
-1.530306519072526044e+02,-5.735067677718717505e+01,-6.870290652268795384e+01,-4.726770913850805300e+01,-1.320506281874040724e+02,-1.494840164606721373e+02,-1.041786714037175443e+02,-7.361426979336692966e+01,9.484992027282714844e+00,-8.414105772972106934e-01,3.824593871831893921e-02,2.510000000000000000e+02
-1.589004886784825885e+02,-5.999970329284832360e+01,-7.344256463889132647e+01,-5.020740755245924447e+01,-1.376670945055952870e+02,-1.551143466593480298e+02,-1.084478805526991891e+02,-7.786697056175989928e+01,9.484992027282714844e+00,-8.414105772972106934e-01,3.824593871831893921e-02,2.520000000000000000e+02
-1.641022356940704867e+02,-6.294463785289730140e+01,-7.987649764263278485e+01,-5.389717724863771764e+01,-1.452971601103290595e+02,-1.613771280279256644e+02,-1.141109759318314900e+02,-8.385007968759327923e+01,9.484992027282714844e+00,-8.414105772972106934e-01,3.824593871831893921e-02,2.530000000000000000e+02
-1.664509793088407150e+02,-6.488314647341110231e+01,-8.485863262814200425e+01,-5.729370685358708215e+01,-1.523225519447378247e+02,-1.674116073217905978e+02,-1.193620783426595153e+02,-8.895110579086349389e+01,9.484992027282714844e+00,-8.414105772972106934e-01,3.824593871831893921e-02,2.540000000000000000e+02
-1.654962231690010412e+02,-6.475452744930976223e+01,-8.619353147566516782e+01,-5.917858796300174617e+01,-1.567096480347454417e+02,-1.723691553947078319e+02,-1.226446876370432619e+02,-9.134701980967838608e+01,9.484992027282714844e+00,-8.414105772972106934e-01,3.824593871831893921e-02,2.550000000000000000e+02
-1.628279183358661157e+02,-6.247839224544702574e+01,-8.377680388417229551e+01,-5.874140669424491534e+01,-1.579977185475595434e+02,-1.758799635611062513e+02,-1.235628102741370640e+02,-9.095743538379542770e+01,9.484992027282714844e+00,-8.414105772972106934e-01,3.824593871831893921e-02,2.560000000000000000e+02
-1.608067000923099386e+02,-5.902919121639797595e+01,-7.926005110838991641e+01,-5.614885246244648442e+01,-1.570697259607090928e+02,-1.782547623961299905e+02,-1.228422119552133154e+02,-8.906690174363893675e+01,9.484992027282714844e+00,-8.414105772972106934e-01,3.824593871831893921e-02,2.570000000000000000e+02
-1.609788774538799316e+02,-5.594027434110023478e+01,-7.488608920252363532e+01,-5.271928416197988554e+01,-1.552702308461780376e+02,-1.802979187748805998e+02,-1.216246584159803206e+02,-8.716406103556937524e+01,9.484992027282714844e+00,-8.414105772972106934e-01,3.824593871831893921e-02,2.580000000000000000e+02
-1.635187489270883816e+02,-5.459786528441247810e+01,-7.246048604956854433e+01,-5.039980372212880866e+01,-1.537139788894569392e+02,-1.828174357941829840e+02,-1.208056145686773561e+02,-8.608304932693999945e+01,9.484992027282714844e+00,-8.414105772972106934e-01,3.824593871831893921e-02,2.590000000000000000e+02
-1.678538900508287952e+02,-5.566736515002122587e+01,-7.290438249653425373e+01,-5.070515370703833469e+01,-1.531583555298930150e+02,-1.861495998318973761e+02,-1.208507174044630119e+02,-8.604469823969861864e+01,9.484992027282714844e+00,-8.414105772972106934e-01,7.649187743663787842e-02,2.600000000000000000e+02
-1.734548510282406824e+02,-5.883308948952168294e+01,-7.620107616109339688e+01,-5.375966812408796613e+01,-1.541828182654899138e+02,-1.900226186793652232e+02,-1.219392100286590903e+02,-8.720077191356676849e+01,9.484992027282714844e+00,-8.414105772972106934e-01,7.649187743663787842e-02,2.610000000000000000e+02
-1.798401144046194986e+02,-6.289899419013170245e+01,-8.146448694007244740e+01,-5.814233253118936773e+01,-1.572354948222578059e+02,-1.938368695972080786e+02,-1.240526535407866504e+02,-8.986136782150924773e+01,9.484992027282714844e+00,-8.414105772972106934e-01,7.649187743663787842e-02,2.620000000000000000e+02
-1.860063673176236989e+02,-6.622029172450959322e+01,-8.717405305716829389e+01,-6.171451015194747924e+01,-1.624054476094602251e+02,-1.971133221028658227e+02,-1.268590022406665412e+02,-9.411883634922833153e+01,9.484992027282714844e+00,-8.414105772972106934e-01,7.649187743663787842e-02,2.630000000000000000e+02
-1.903404229418365503e+02,-6.737172071320549094e+01,-9.176552797567410380e+01,-6.290423639529558386e+01,-1.691731195994316295e+02,-1.997637570426850289e+02,-1.296479084420307117e+02,-9.937696187173742146e+01,9.484992027282714844e+00,-8.414105772972106934e-01,7.649187743663787842e-02,2.640000000000000000e+02
-1.915826870200955909e+02,-6.581582236072796377e+01,-9.442940373659371289e+01,-6.158513111698084685e+01,-1.764668839593018674e+02,-2.020286782697594390e+02,-1.316323101796788251e+02,-1.044578644916564372e+02,9.484992027282714844e+00,-8.414105772972106934e-01,7.649187743663787842e-02,2.650000000000000000e+02
-1.901118913884552057e+02,-6.221439870108687842e+01,-9.556171540252148588e+01,-5.900494561661253101e+01,-1.830851787930228056e+02,-2.042308789630465071e+02,-1.325355505403626921e+02,-1.083359965081619976e+02,9.484992027282714844e+00,-8.414105772972106934e-01,7.649187743663787842e-02,2.660000000000000000e+02
-1.881588925689870848e+02,-5.814299265260240190e+01,-9.640685080817365815e+01,-5.691210511021245111e+01,-1.882136328722867802e+02,-2.066101676380367280e+02,-1.329678430595445207e+02,-1.108305247910545859e+02,9.484992027282714844e+00,-8.414105772972106934e-01,7.649187743663787842e-02,2.670000000000000000e+02
-1.883897261702154537e+02,-5.530021848202193269e+01,-9.805354050675646249e+01,-5.653253199038476851e+01,-1.916581396920964835e+02,-2.093279640683153957e+02,-1.341093043451801350e+02,-1.125872970635159618e+02,9.484992027282714844e+00,-8.414105772972106934e-01,7.649187743663787842e-02,2.680000000000000000e+02
-1.918949421759414236e+02,-5.466059487370904435e+01,-1.005511569074940326e+02,-5.803992936550889681e+01,-1.936649540013786464e+02,-2.125016801563074296e+02,-1.368064636997014532e+02,-1.143423312622167032e+02,9.484992027282714844e+00,-8.414105772972106934e-01,7.649187743663787842e-02,2.690000000000000000e+02
-1.973286361870407291e+02,-5.610096197221909620e+01,-1.028652554409779896e+02,-6.071785820278410029e+01,-1.945586244543967496e+02,-2.161153584627618329e+02,-1.407960979361482714e+02,-1.161355559829501090e+02,9.484992027282714844e+00,-8.414105772972106934e-01,7.649187743663787842e-02,2.700000000000000000e+02
-2.019906866327914940e+02,-5.870226955661968304e+01,-1.037015642816379568e+02,-6.352888574042071923e+01,-1.945698513258757885e+02,-2.198800766417502928e+02,-1.447754199963314932e+02,-1.172048670580084035e+02,9.484992027282714844e+00,-8.414105772972106934e-01,7.649187743663787842e-02,2.710000000000000000e+02
-2.039065945125148573e+02,-6.142892091745693506e+01,-1.025016887050940113e+02,-6.563079247449422837e+01,-1.939651884333186445e+02,-2.232432150500649186e+02,-1.473302810795462392e+02,-1.166471042456071245e+02,9.484992027282714844e+00,-8.414105772972106934e-01,7.649187743663787842e-02,2.720000000000000000e+02
-2.031032969248949485e+02,-6.361317085694238926e+01,-9.979219962780939568e+01,-6.653170854341533413e+01,-1.931988867967866099e+02,-2.255932253644498360e+02,-1.479246813373774785e+02,-1.142300320190679486e+02,9.484992027282714844e+00,-8.414105772972106934e-01,7.649187743663787842e-02,2.730000000000000000e+02
-2.011275522559540150e+02,-6.491544236461072614e+01,-9.668681539224871813e+01,-6.592391696405195489e+01,-1.927722658337527264e+02,-2.264994952228028069e+02,-1.470848230969086217e+02,-1.106343977051622005e+02,9.484992027282714844e+00,-8.414105772972106934e-01,7.649187743663787842e-02,2.740000000000000000e+02
-1.995205244295786997e+02,-6.498395748051314058e+01,-9.407995682981913887e+01,-6.351277126114882776e+01,-1.928626372765081669e+02,-2.258018898711345628e+02,-1.457142332611606435e+02,-1.069643591647059111e+02,9.484992027282714844e+00,-8.414105772972106934e-01,7.649187743663787842e-02,2.750000000000000000e+02
-1.988199090441632961e+02,-6.336266925360126834e+01,-9.227562555740200878e+01,-5.915936247802142134e+01,-1.931725974997566482e+02,-2.235952125571395754e+02,-1.443406121567936680e+02,-1.040639672855002118e+02,9.484992027282714844e+00,-8.414105772972106934e-01,7.649187743663787842e-02,2.760000000000000000e+02
-1.989335852435226570e+02,-5.993262575047052110e+01,-9.132649029820458964e+01,-5.335131990378795308e+01,-1.933306671936391012e+02,-2.203162340094822866e+02,-1.430895920446114360e+02,-1.023394563113399727e+02,9.484992027282714844e+00,-8.414105772972106934e-01,7.649187743663787842e-02,2.770000000000000000e+02
-2.001975641583674133e+02,-5.552181294636665143e+01,-9.162494229216486019e+01,-4.759452030061743244e+01,-1.935653440168835004e+02,-2.169453087576994221e+02,-1.423033244401981392e+02,-1.021722402084901660e+02,9.484992027282714844e+00,-8.414105772972106934e-01,7.649187743663787842e-02,2.780000000000000000e+02
-2.037057152714601216e+02,-5.193123758516097155e+01,-9.400136917445297513e+01,-4.416914605928582205e+01,-1.949116677634233383e+02,-2.150034982773772754e+02,-1.429128523925646732e+02,-1.042701704053611138e+02,9.484992027282714844e+00,-8.414105772972106934e-01,7.649187743663787842e-02,2.790000000000000000e+02
-2.102997756304432642e+02,-5.103295807491849700e+01,-9.903246883183487626e+01,-4.507190992200708024e+01,-1.985108966692575905e+02,-2.160100120687750405e+02,-1.459025557688378285e+02,-1.092733739915190654e+02,9.484992027282714844e+00,-8.414105772972106934e-01,7.649187743663787842e-02,2.800000000000000000e+02
-2.191532952944853605e+02,-5.348815700028680453e+01,-1.061061468226785109e+02,-5.069549714518598194e+01,-2.044833204327251224e+02,-2.205633846083671870e+02,-1.512660613361199466e+02,-1.167723199547667718e+02,9.484992027282714844e+00,-8.414105772972106934e-01,7.649187743663787842e-02,2.810000000000000000e+02
-2.275851631857349275e+02,-5.818672377962406017e+01,-1.132456475378373852e+02,-5.925813793610245739e+01,-2.114487966871906792e+02,-2.277463096972035146e+02,-1.575732665867913056e+02,-1.247853644149470256e+02,9.484992027282714844e+00,-8.414105772972106934e-01,7.649187743663787842e-02,2.820000000000000000e+02
-2.327285591159774185e+02,-6.305889735324385015e+01,-1.181957680285358947e+02,-6.764217011786035982e+01,-2.173396118838277289e+02,-2.355013343087437079e+02,-1.628077527192467642e+02,-1.306178798873615960e+02,9.484992027282714844e+00,-8.414105772972106934e-01,7.649187743663787842e-02,2.830000000000000000e+02
-2.338244336487201736e+02,-6.670743661316154771e+01,-1.201063963433618937e+02,-7.321361131090634444e+01,-2.209628935647942853e+02,-2.418486340896151887e+02,-1.658570116569612765e+02,-1.327387021738163639e+02,9.484992027282714844e+00,-8.414105772972106934e-01,7.649187743663787842e-02,2.840000000000000000e+02
-2.330348880627698236e+02,-6.945650798397807080e+01,-1.203702771467485491e+02,-7.528768989263073763e+01,-2.229560823646452263e+02,-2.460083844134089759e+02,-1.673131311617516985e+02,-1.320746369850523934e+02,9.523238182067871094e+00,-8.796565532684326172e-01,3.824593871831893921e-02,2.850000000000000000e+02
-2.337877528686386768e+02,-7.282333886764831732e+01,-1.216412851406737445e+02,-7.508751041585446728e+01,-2.252044116923416368e+02,-2.484931413123188122e+02,-1.688297343507176720e+02,-1.313298660645850759e+02,9.523238182067871094e+00,-8.796565532684326172e-01,3.824593871831893921e-02,2.860000000000000000e+02
-2.379065445002173647e+02,-7.784416951784911021e+01,-1.255958831122848096e+02,-7.430172240104093362e+01,-2.291267516651598726e+02,-2.501601277318343364e+02,-1.716151915562879822e+02,-1.326910039599847551e+02,9.523238182067871094e+00,-8.796565532684326172e-01,3.824593871831893921e-02,2.870000000000000000e+02
-2.440378890369308920e+02,-8.380787742230302229e+01,-1.312898823975872347e+02,-7.358456759807097569e+01,-2.342967251758427665e+02,-2.511965581106562695e+02,-1.754198100520463868e+02,-1.359133687891367117e+02,9.523238182067871094e+00,-8.796565532684326172e-01,3.824593871831893921e-02,2.880000000000000000e+02
-2.488626709878378165e+02,-8.865781067215624489e+01,-1.356985676213306533e+02,-7.235992979204908693e+01,-2.386346466585486326e+02,-2.510584032761290985e+02,-1.788520108944697995e+02,-1.385933430210524477e+02,9.523238182067871094e+00,-8.796565532684326172e-01,3.824593871831893921e-02,2.890000000000000000e+02
-2.500781286335095501e+02,-9.077420049933402879e+01,-1.362059549126754803e+02,-7.001646384911569498e+01,-2.400601424047488024e+02,-2.494130241490879030e+02,-1.806225183815028572e+02,-1.384486114715230372e+02,9.523238182067871094e+00,-8.796565532684326172e-01,3.824593871831893921e-02,2.900000000000000000e+02
-2.484866950874008182e+02,-9.051097070564571823e+01,-1.329875540609361906e+02,-6.720745059121416887e+01,-2.382308776959071110e+02,-2.470910426225487413e+02,-1.805662240761395196e+02,-1.355143702333533611e+02,9.523238182067871094e+00,-8.796565532684326172e-01,3.824593871831893921e-02,2.910000000000000000e+02
-2.473282219627338350e+02,-9.002893561398124689e+01,-1.291541438879889370e+02,-6.585558802214484331e+01,-2.349100157489733363e+02,-2.459710322293260845e+02,-1.796465842964768171e+02,-1.322372489365255035e+02,9.523238182067871094e+00,-8.796565532684326172e-01,3.824593871831893921e-02,2.920000000000000000e+02
-2.494890722239080674e+02,-9.153528285913859008e+01,-1.284022551040008011e+02,-6.772728252623949174e+01,-2.326935678772738356e+02,-2.477346821262971730e+02,-1.791314918136928895e+02,-1.314402129266996440e+02,9.523238182067871094e+00,-8.796565532684326172e-01,3.824593871831893921e-02,2.930000000000000000e+02
-2.550700466839782905e+02,-9.547760923727304316e+01,-1.320958670509234594e+02,-7.282989753386463860e+01,-2.331857865266750309e+02,-2.525430215806382535e+02,-1.797473378460874187e+02,-1.340556035011521487e+02,9.523238182067871094e+00,-8.796565532684326172e-01,3.824593871831893921e-02,2.940000000000000000e+02
-2.613490218970766250e+02,-1.002191430713954219e+02,-1.382165199564340696e+02,-7.908132456129075649e+01,-2.360729964318248335e+02,-2.588021897201310821e+02,-1.814209889364647665e+02,-1.385605031615921234e+02,9.523238182067871094e+00,-8.796565532684326172e-01,3.824593871831893921e-02,2.950000000000000000e+02
-2.649753199812325306e+02,-1.033436308260433805e+02,-1.429967887234004138e+02,-8.357600802698894427e+01,-2.396869906604000846e+02,-2.642427389958060076e+02,-1.835838611289076994e+02,-1.423657470591488732e+02,9.523238182067871094e+00,-8.796565532684326172e-01,3.824593871831893921e-02,2.960000000000000000e+02
-2.643923591542431950e+02,-1.033654973517061819e+02,-1.437968320543987204e+02,-8.440092307192857390e+01,-2.423847423118967868e+02,-2.673981328874657493e+02,-1.855893281922111555e+02,-1.437404422356798079e+02,9.523238182067871094e+00,-8.796565532684326172e-01,3.824593871831893921e-02,2.970000000000000000e+02
-2.606141081028700910e+02,-1.005139563297350946e+02,-1.408788880472699816e+02,-8.163092526739592358e+01,-2.435474151765420459e+02,-2.683171371079089909e+02,-1.869265992761363577e+02,-1.427033285177514585e+02,9.523238182067871094e+00,-8.796565532684326172e-01,3.824593871831893921e-02,2.980000000000000000e+02
-2.561343693460123063e+02,-9.627425091841163862e+01,-1.368565322199487753e+02,-7.696701865918845442e+01,-2.435570479316412218e+02,-2.681077201632694482e+02,-1.872864426605202084e+02,-1.405025240492605860e+02,9.523238182067871094e+00,-8.796565532684326172e-01,3.824593871831893921e-02,2.990000000000000000e+02
-2.532045901841403008e+02,-9.238885008194540660e+01,-1.345609873103423411e+02,-7.252950456907592525e+01,-2.430920663780010500e+02,-2.678905468940743049e+02,-1.866722595848673336e+02,-1.384573524292756872e+02,9.523238182067871094e+00,-8.796565532684326172e-01,3.824593871831893921e-02,3.000000000000000000e+02
-2.527957769794134606e+02,-9.011667183306877860e+01,-1.351484428669206181e+02,-6.973099541562136494e+01,-2.425303956817155040e+02,-2.680635115616333337e+02,-1.855284423672485445e+02,-1.371238032917069063e+02,9.523238182067871094e+00,-8.796565532684326172e-01,3.824593871831893921e-02,3.010000000000000000e+02
-2.545894757533724260e+02,-8.996179607647724197e+01,-1.377401014800057624e+02,-6.881047046979193738e+01,-2.418659823889195195e+02,-2.683096231349935579e+02,-1.846339694344836744e+02,-1.361684649214990941e+02,9.523238182067871094e+00,-8.796565532684326172e-01,3.824593871831893921e-02,3.020000000000000000e+02
-2.575281076071564712e+02,-9.167396435013534983e+01,-1.404914601677177473e+02,-6.904806211434065233e+01,-2.409339444231109439e+02,-2.681128103340967641e+02,-1.846592194711115553e+02,-1.347875965916451833e+02,9.523238182067871094e+00,-8.796565532684326172e-01,3.824593871831893921e-02,3.030000000000000000e+02
-2.603950260689679226e+02,-9.442112213727145331e+01,-1.419958783437657814e+02,-6.938742775210295122e+01,-2.395666324012410655e+02,-2.672685269230232734e+02,-1.856733748736153018e+02,-1.323602384728370964e+02,9.523238182067871094e+00,-8.796565532684326172e-01,3.824593871831893921e-02,3.040000000000000000e+02
-2.622762445519551875e+02,-9.724052422472686885e+01,-1.420064532701646556e+02,-6.913735704291585193e+01,-2.376417742854259814e+02,-2.660797596913505458e+02,-1.870935929027430973e+02,-1.290306410698551360e+02,9.523238182067871094e+00,-8.796565532684326172e-01,3.824593871831893921e-02,3.050000000000000000e+02
-2.629249751611805550e+02,-9.969100673975378868e+01,-1.412243146360740411e+02,-6.840438880661571375e+01,-2.352340166493271170e+02,-2.652228776258009475e+02,-1.882268399770955227e+02,-1.258660440187983909e+02,9.523238182067871094e+00,-8.796565532684326172e-01,3.824593871831893921e-02,3.060000000000000000e+02
-2.628810884340765597e+02,-1.021867570053192367e+02,-1.405890593991017568e+02,-6.796631500199850962e+01,-2.328503701289317291e+02,-2.653976633418161555e+02,-1.889370118642331136e+02,-1.243422754814210691e+02,9.523238182067871094e+00,-8.796565532684326172e-01,3.824593871831893921e-02,3.070000000000000000e+02
-2.631306199283677643e+02,-1.055164543219340771e+02,-1.406751652917032800e+02,-6.860855837863249462e+01,-2.314006486542382959e+02,-2.669160504511239083e+02,-1.897678544499207192e+02,-1.253714818136943450e+02,9.523238182067871094e+00,-8.796565532684326172e-01,3.824593871831893921e-02,3.080000000000000000e+02
-2.644036895662371762e+02,-1.097818152647601835e+02,-1.415217259870282476e+02,-7.039888056505242275e+01,-2.316625882107653069e+02,-2.694512467217900848e+02,-1.913416433467701268e+02,-1.285834620161882924e+02,9.523238182067871094e+00,-8.796565532684326172e-01,3.824593871831893921e-02,3.090000000000000000e+02
-2.666160649218811614e+02,-1.137366667599280845e+02,-1.428479299542985359e+02,-7.254054121235073183e+01,-2.335925299439392120e+02,-2.721923564947850309e+02,-1.936273652969736077e+02,-1.325087166724431427e+02,9.523238182067871094e+00,-8.796565532684326172e-01,3.824593871831893921e-02,3.100000000000000000e+02
-2.689336788634829531e+02,-1.153676072115873694e+02,-1.443694533545508989e+02,-7.399889575947560161e+01,-2.362061632896080710e+02,-2.743976740822660645e+02,-1.958674148670629336e+02,-1.355699857630810641e+02,9.523238182067871094e+00,-8.796565532684326172e-01,3.824593871831893921e-02,3.110000000000000000e+02
-2.704078545412752419e+02,-1.134185721690962509e+02,-1.459324208243820067e+02,-7.436497558431618415e+01,-2.383033644573291099e+02,-2.759239836714851890e+02,-1.972750497183021992e+02,-1.370427630971365147e+02,9.408499717712402344e+00,-8.031646609306335449e-01,3.824593871831893921e-02,3.120000000000000000e+02
-2.706328503818481295e+02,-1.085406263246290450e+02,-1.474110455540278508e+02,-7.414831549284588164e+01,-2.394314961856547370e+02,-2.772088613757566691e+02,-1.977768022665680974e+02,-1.372028012717788670e+02,9.408499717712402344e+00,-8.031646609306335449e-01,3.824593871831893921e-02,3.130000000000000000e+02
-2.699150201722845281e+02,-1.029625937213627367e+02,-1.485651494449283234e+02,-7.422691205553616101e+01,-2.401350968971947282e+02,-2.786440406909399030e+02,-1.980003125538315771e+02,-1.367150155774488951e+02,9.408499717712402344e+00,-8.031646609306335449e-01,3.824593871831893921e-02,3.140000000000000000e+02
-2.689194868983889251e+02,-9.889320326062062350e+01,-1.490851260024201395e+02,-7.500677091191062118e+01,-2.412270519715948467e+02,-2.799412037448823298e+02,-1.985133466563295315e+02,-1.360252316455982964e+02,9.408499717712402344e+00,-8.031646609306335449e-01,3.824593871831893921e-02,3.150000000000000000e+02
-2.681859095868759368e+02,-9.703105889423616759e+01,-1.488310724459424534e+02,-7.612444810783483717e+01,-2.428441093077090329e+02,-2.802299519813999495e+02,-1.991482046938467647e+02,-1.353762217517744659e+02,9.408499717712402344e+00,-8.031646609306335449e-01,3.824593871831893921e-02,3.160000000000000000e+02
-2.678938155630405618e+02,-9.641112773128547531e+01,-1.480276643989763272e+02,-7.694667781491989444e+01,-2.442838154837635898e+02,-2.789252244462031740e+02,-1.991611888317597732e+02,-1.352535961381009599e+02,9.408499717712402344e+00,-8.031646609306335449e-01,3.824593871831893921e-02,3.170000000000000000e+02
-2.679177728856753902e+02,-9.553367888025260868e+01,-1.471532919689291248e+02,-7.728872458378089050e+01,-2.447666092451020177e+02,-2.765261027487831598e+02,-1.980571504909910345e+02,-1.364923835398259371e+02,9.408499717712402344e+00,-8.031646609306335449e-01,3.824593871831893921e-02,3.180000000000000000e+02
-2.679874924172732449e+02,-9.360243945971561175e+01,-1.465697390770950221e+02,-7.760136772925230275e+01,-2.442596225985234071e+02,-2.744390428048604349e+02,-1.961769535439500203e+02,-1.396740465968521505e+02,9.408499717712402344e+00,-8.031646609306335449e-01,3.824593871831893921e-02,3.190000000000000000e+02
-2.678191180731849386e+02,-9.082158526195044601e+01,-1.462465958016584011e+02,-7.849545462045740862e+01,-2.434744556714666430e+02,-2.738613660343771699e+02,-1.944299698884576344e+02,-1.443369399153923212e+02,9.408499717712402344e+00,-8.031646609306335449e-01,3.824593871831893921e-02,3.200000000000000000e+02
-2.672332905268529544e+02,-8.777683851084259459e+01,-1.458699738977079789e+02,-8.017784846515957042e+01,-2.430973551624480251e+02,-2.747779744767572652e+02,-1.935028960637372109e+02,-1.488917924200801792e+02,9.408499717712402344e+00,-8.031646609306335449e-01,3.824593871831893921e-02,3.210000000000000000e+02
-2.662796160233739897e+02,-8.477998265426776925e+01,-1.452198007640690491e+02,-8.237675728813032094e+01,-2.431362904284350748e+02,-2.760732401892457801e+02,-1.933784192995820774e+02,-1.515277135214074917e+02,9.408499717712402344e+00,-8.031646609306335449e-01,3.824593871831893921e-02,3.220000000000000000e+02
-2.652612856510172605e+02,-8.185701489375902895e+01,-1.444118214303401260e+02,-8.471371906598170654e+01,-2.430859291129481790e+02,-2.766464685224129880e+02,-1.935753363619114680e+02,-1.514040702120686603e+02,9.408499717712402344e+00,-8.031646609306335449e-01,3.824593871831893921e-02,3.230000000000000000e+02
-2.645269720911443301e+02,-7.916214947754532716e+01,-1.437401800873202831e+02,-8.697174172359649447e+01,-2.426566634938357083e+02,-2.763762615266217608e+02,-1.936929649381754359e+02,-1.491020307760976493e+02,9.408499717712402344e+00,-8.031646609306335449e-01,3.824593871831893921e-02,3.240000000000000000e+02
-2.641011140041136400e+02,-7.710642424476512247e+01,-1.432922961630857230e+02,-8.891695872822919000e+01,-2.421934487730431442e+02,-2.759370253330927767e+02,-1.935944620142890926e+02,-1.459767687576058108e+02,9.408499717712402344e+00,-8.031646609306335449e-01,3.824593871831893921e-02,3.250000000000000000e+02
-2.634698431965485383e+02,-7.591772528001206410e+01,-1.427742728166960546e+02,-8.998960253354198358e+01,-2.423160080866560406e+02,-2.757153027527399445e+02,-1.931380391151981826e+02,-1.430568027514155460e+02,9.408499717712402344e+00,-8.031646609306335449e-01,3.824593871831893921e-02,3.260000000000000000e+02
-2.618223466361990859e+02,-7.513655322436787287e+01,-1.417613740909096407e+02,-8.945057703716486230e+01,-2.432115465591157317e+02,-2.750631348799230409e+02,-1.919753583686023717e+02,-1.405013006927416370e+02,9.408499717712402344e+00,-8.031646609306335449e-01,3.824593871831893921e-02,3.270000000000000000e+02
-2.586711417216729956e+02,-7.377265257571565371e+01,-1.401313128044148755e+02,-8.708168923886809409e+01,-2.443965052531985123e+02,-2.727864075046257994e+02,-1.898419286351567052e+02,-1.379890576090805610e+02,9.408499717712402344e+00,-8.031646609306335449e-01,3.824593871831893921e-02,3.280000000000000000e+02
-2.543921173905291369e+02,-7.117284981031122015e+01,-1.382483188128534835e+02,-8.378645813048578361e+01,-2.452165512415285775e+02,-2.684364467044479170e+02,-1.870690454040503710e+02,-1.354813748227397809e+02,9.408499717712402344e+00,-8.031646609306335449e-01,3.824593871831893921e-02,3.290000000000000000e+02
-2.501874495085596664e+02,-6.778963123839614013e+01,-1.367245974726424720e+02,-8.131878957414087949e+01,-2.455257229211569552e+02,-2.630662615333554299e+02,-1.846358755083670076e+02,-1.334887492728018401e+02,9.408499717712402344e+00,-8.031646609306335449e-01,3.824593871831893921e-02,3.300000000000000000e+02
-2.473851672267135768e+02,-6.495879455935053670e+01,-1.359786445903165486e+02,-8.112844626161214023e+01,-2.457889587660361599e+02,-2.585907522359643167e+02,-1.835021602038282253e+02,-1.325484229486845607e+02,9.408499717712402344e+00,-8.031646609306335449e-01,3.824593871831893921e-02,3.310000000000000000e+02
-2.465431267654280987e+02,-6.369941667472153313e+01,-1.359493258710484440e+02,-8.322974553545805065e+01,-2.464511191747042744e+02,-2.562797008603793074e+02,-1.837541525768004931e+02,-1.324847079978655984e+02,9.408499717712402344e+00,-8.031646609306335449e-01,3.824593871831893921e-02,3.320000000000000000e+02
-2.470211834728720817e+02,-6.358004353335476821e+01,-1.361212058571724128e+02,-8.609782363395095217e+01,-2.472042143966037884e+02,-2.557662017723840790e+02,-1.843842387583443383e+02,-1.322481945344949565e+02,9.408499717712402344e+00,-8.031646609306335449e-01,3.824593871831893921e-02,3.330000000000000000e+02
-2.473450732989637686e+02,-6.280330363390453385e+01,-1.357566629311811539e+02,-8.773749900849838923e+01,-2.469273160817713801e+02,-2.554372519562680850e+02,-1.839627983883084426e+02,-1.305591609796580599e+02,9.408499717712402344e+00,-8.031646609306335449e-01,3.824593871831893921e-02,3.340000000000000000e+02
-2.461041426835627988e+02,-5.962217448160217259e+01,-1.341832236444286650e+02,-8.704734188577441500e+01,-2.444574080637288489e+02,-2.537709810529838137e+02,-1.816400877331402626e+02,-1.267969540139150695e+02,9.408499717712402344e+00,-8.031646609306335449e-01,3.824593871831893921e-02,3.350000000000000000e+02
-2.427436994009128171e+02,-5.392942501921868370e+01,-1.310696392413678382e+02,-8.439717556896871997e+01,-2.395650117501824070e+02,-2.503932903055184624e+02,-1.776474463195417002e+02,-1.213641681864219208e+02,9.408499717712402344e+00,-8.031646609306335449e-01,3.824593871831893921e-02,3.360000000000000000e+02
-2.377423142450441844e+02,-4.755433353566897381e+01,-1.266252046050974798e+02,-8.109348812516623184e+01,-2.332704095742724348e+02,-2.460273369865804511e+02,-1.729577388916607106e+02,-1.152872251990989412e+02,9.408499717712402344e+00,-8.031646609306335449e-01,3.824593871831893921e-02,3.370000000000000000e+02
-2.321491458571131830e+02,-4.288697254988659324e+01,-1.215903053354642793e+02,-7.834875112081437010e+01,-2.271998069972503345e+02,-2.416173723075129374e+02,-1.685084838028149079e+02,-1.095088977107325547e+02,9.408499717712402344e+00,-8.031646609306335449e-01,3.824593871831893921e-02,3.380000000000000000e+02
-2.269186714180322610e+02,-4.098373365452903272e+01,-1.169350592633991823e+02,-7.664172083649265232e+01,-2.225130446043382904e+02,-2.375760655006179718e+02,-1.646765278612303973e+02,-1.045164386893907817e+02,9.408499717712402344e+00,-8.031646609306335449e-01,3.824593871831893921e-02,3.390000000000000000e+02
-2.225592046976479423e+02,-4.084116160487823777e+01,-1.134119859109101753e+02,-7.581167782399154476e+01,-2.193048455858003081e+02,-2.337761963509458383e+02,-1.613587740500739756e+02,-1.004910346683884654e+02,9.408499717712402344e+00,-8.031646609306335449e-01,3.824593871831893921e-02,3.400000000000000000e+02
-2.192505069061177494e+02,-4.050084688478446537e+01,-1.112927916086985078e+02,-7.552778658244483267e+01,-2.169437965435678279e+02,-2.300546243927003047e+02,-1.584343592591856691e+02,-9.760719515046218930e+01,9.408499717712402344e+00,-8.031646609306335449e-01,3.824593871831893921e-02,3.410000000000000000e+02
-2.171444190352365240e+02,-3.896861816427343683e+01,-1.104848246266766409e+02,-7.560338841230563389e+01,-2.149461971001825304e+02,-2.265641857044470839e+02,-1.560906235640301247e+02,-9.607284363175739372e+01,9.408499717712402344e+00,-8.031646609306335449e-01,3.824593871831893921e-02,3.420000000000000000e+02
-2.164080133677477420e+02,-3.716037822609763452e+01,-1.108445664169837528e+02,-7.601830096826324734e+01,-2.135092312491220810e+02,-2.236721289847031358e+02,-1.547213754225011257e+02,-9.593673682755874665e+01,9.484992027282714844e+00,-8.031646609306335449e-01,3.824593871831893921e-02,3.430000000000000000e+02
-2.168898377986571404e+02,-3.699831230352805278e+01,-1.123024878678123741e+02,-7.690118223562234334e+01,-2.132215658378295871e+02,-2.217000653426290455e+02,-1.545642126468975448e+02,-9.702544581826555259e+01,9.484992027282714844e+00,-8.031646609306335449e-01,3.824593871831893921e-02,3.440000000000000000e+02
-2.177634136410395058e+02,-3.952444703001009429e+01,-1.146443087455942305e+02,-7.861904608195331434e+01,-2.143279521619937782e+02,-2.209145414432352368e+02,-1.554866452285522200e+02,-9.918625177080519961e+01,9.484992027282714844e+00,-8.031646609306335449e-01,3.824593871831893921e-02,3.450000000000000000e+02
-2.176760024694959839e+02,-4.380780728282485370e+01,-1.172365374068120900e+02,-8.175026725884836765e+01,-2.163660492978351613e+02,-2.217209262660878721e+02,-1.571269726156453999e+02,-1.025274651512986281e+02,9.484992027282714844e+00,-8.031646609306335449e-01,3.824593871831893921e-02,3.460000000000000000e+02
-2.155472580371639424e+02,-4.762884098304323288e+01,-1.191275227439164155e+02,-8.665877356719613545e+01,-2.185332429803379455e+02,-2.245889821642702486e+02,-1.591613793491112006e+02,-1.071945179457094355e+02,9.484992027282714844e+00,-8.031646609306335449e-01,3.824593871831893921e-02,3.470000000000000000e+02
-2.114816560787515414e+02,-4.924105432898414847e+01,-1.195666192260904381e+02,-9.282284413693344050e+01,-2.203146062021861553e+02,-2.294651395633992479e+02,-1.613247278134828093e+02,-1.126879551744911510e+02,9.484992027282714844e+00,-8.031646609306335449e-01,3.824593871831893921e-02,3.480000000000000000e+02
-2.069477871329225991e+02,-4.853307066543732162e+01,-1.184708272537637299e+02,-9.855726702707988807e+01,-2.216079943749808194e+02,-2.351213337256369869e+02,-1.631219461865501899e+02,-1.173862237224799969e+02,9.484992027282714844e+00,-8.031646609306335449e-01,3.824593871831893921e-02,3.490000000000000000e+02
-2.038791367678986148e+02,-4.661421136887847183e+01,-1.163789006253343814e+02,-1.016843925144722789e+02,-2.222269444904653710e+02,-2.392886027045382207e+02,-1.636551056909619319e+02,-1.190373785309684536e+02,9.484992027282714844e+00,-8.031646609306335449e-01,3.824593871831893921e-02,3.500000000000000000e+02
-2.033272158129476566e+02,-4.447145234717702067e+01,-1.139664044139983616e+02,-1.009221776938130688e+02,-2.214985562532157246e+02,-2.398851212842761242e+02,-1.620389951722219735e+02,-1.162239967026009708e+02,9.484992027282714844e+00,-8.031646609306335449e-01,3.824593871831893921e-02,3.510000000000000000e+02
-2.048219772855611609e+02,-4.219521189984048704e+01,-1.116742552277772234e+02,-9.696445617196016542e+01,-2.186765114420953751e+02,-2.365537452984739275e+02,-1.582800328361743141e+02,-1.097919865847703704e+02,9.484992027282714844e+00,-8.031646609306335449e-01,3.824593871831893921e-02,3.520000000000000000e+02
-2.070435281621823833e+02,-3.951316113058088320e+01,-1.098648701228927393e+02,-9.227453820420464581e+01,-2.139841298226179447e+02,-2.311872064432135403e+02,-1.538151748559708949e+02,-1.029381225673417362e+02,9.484992027282714844e+00,-8.031646609306335449e-01,3.824593871831893921e-02,3.530000000000000000e+02
-2.091945542501593991e+02,-3.689653102176474420e+01,-1.092662558889135767e+02,-8.961039278594074631e+01,-2.092262916124469712e+02,-2.268327069228588471e+02,-1.509592035464635273e+02,-9.956235050155572708e+01,9.484992027282714844e+00,-8.031646609306335449e-01,3.824593871831893921e-02,3.540000000000000000e+02
-2.117520287084148549e+02,-3.586418181788909010e+01,-1.110470755865015349e+02,-9.039510145003731623e+01,-2.071271944727549794e+02,-2.257834041825659028e+02,-1.514658959070774245e+02,-1.019423161077494910e+02,9.484992027282714844e+00,-8.031646609306335449e-01,3.824593871831893921e-02,3.550000000000000000e+02
-2.158313636946352290e+02,-3.797009078237584845e+01,-1.161881519309663986e+02,-9.418722077408716586e+01,-2.097055700354317196e+02,-2.283828294856897401e+02,-1.553456325467549277e+02,-1.094336426025992068e+02,9.484992027282714844e+00,-8.031646609306335449e-01,3.824593871831893921e-02,3.560000000000000000e+02
-2.217796284420020925e+02,-4.340519185481787190e+01,-1.245836770264510278e+02,-9.952373036974216802e+01,-2.169426305744530055e+02,-2.333780012186416002e+02,-1.609812531372735975e+02,-1.191578013964077627e+02,9.484992027282714844e+00,-8.031646609306335449e-01,3.824593871831893921e-02,3.570000000000000000e+02
-2.284336429732529723e+02,-5.062512183817156597e+01,-1.346973657222087013e+02,-1.052262155556007883e+02,-2.267973923977360187e+02,-2.392307872774130146e+02,-1.664365489110372209e+02,-1.280411551795277774e+02,9.484992027282714844e+00,-8.031646609306335449e-01,3.824593871831893921e-02,3.580000000000000000e+02
-2.338318096805145956e+02,-5.741415896478432046e+01,-1.441539483959988956e+02,-1.109482885210321683e+02,-2.364395375827654675e+02,-2.450182003712390042e+02,-1.707387005060978709e+02,-1.345054827081028748e+02,9.484992027282714844e+00,-8.031646609306335449e-01,3.824593871831893921e-02,3.590000000000000000e+02
-2.366751899821157394e+02,-6.237230451714623314e+01,-1.508233018683968680e+02,-1.166008946287603862e+02,-2.436334691075251726e+02,-2.502104284986417042e+02,-1.740071182978088018e+02,-1.385710782153302034e+02,9.484992027282714844e+00,-8.031646609306335449e-01,3.824593871831893921e-02,3.600000000000000000e+02
-2.370730800191574872e+02,-6.543757345239370693e+01,-1.535851573974468920e+02,-1.214542535664535876e+02,-2.473406266611086153e+02,-2.539207424669582451e+02,-1.765205650858496256e+02,-1.406678282068515955e+02,9.484992027282714844e+00,-8.031646609306335449e-01,3.824593871831893921e-02,3.610000000000000000e+02
-2.358952768582730641e+02,-6.710491020268739248e+01,-1.523805287814808480e+02,-1.240381023795971487e+02,-2.474851271651158413e+02,-2.547782639810388901e+02,-1.778829143577854666e+02,-1.405995603499143272e+02,9.484992027282714844e+00,-8.031646609306335449e-01,3.824593871831893921e-02,3.620000000000000000e+02
-2.335629722307798488e+02,-6.737000893023088111e+01,-1.478564865526220160e+02,-1.231531534876112346e+02,-2.445157119443123293e+02,-2.518454674141262331e+02,-1.772692950713008031e+02,-1.377976751203727872e+02,9.484992027282714844e+00,-8.031646609306335449e-01,3.824593871831893921e-02,3.630000000000000000e+02
-2.297151858178160637e+02,-6.565348501370127110e+01,-1.411204756428780911e+02,-1.191333192692088687e+02,-2.392675345672969343e+02,-2.457448169308214574e+02,-1.744987999640570706e+02,-1.325355942572057870e+02,9.523238182067871094e+00,-8.414105772972106934e-01,7.649187743663787842e-02,3.640000000000000000e+02
-2.241837544587505135e+02,-6.180371715301862423e+01,-1.337191349746516380e+02,-1.141030302309193303e+02,-2.330374789228847021e+02,-2.387618625622795889e+02,-1.707358389731950865e+02,-1.266499703132318473e+02,9.523238182067871094e+00,-8.414105772972106934e-01,7.649187743663787842e-02,3.650000000000000000e+02
-2.181611041990423132e+02,-5.703199818892582584e+01,-1.274966425967003261e+02,-1.107833817654983477e+02,-2.274524559450903780e+02,-2.335806999678235343e+02,-1.679534551740141524e+02,-1.227286549835724827e+02,9.523238182067871094e+00,-8.414105772972106934e-01,7.649187743663787842e-02,3.660000000000000000e+02
-2.140645603569651598e+02,-5.359769883179254180e+01,-1.240489159984562093e+02,-1.106828409689815089e+02,-2.239369241292898778e+02,-2.315938505678088859e+02,-1.675184940064314105e+02,-1.222932947196762257e+02,9.523238182067871094e+00,-8.414105772972106934e-01,7.649187743663787842e-02,3.670000000000000000e+02
-2.138866868465494804e+02,-5.328028453957460897e+01,-1.240020090727754223e+02,-1.130723434154981533e+02,-2.230667610024941041e+02,-2.321371694607931886e+02,-1.691427379258608426e+02,-1.246067172246186487e+02,9.523238182067871094e+00,-8.414105772972106934e-01,7.649187743663787842e-02,3.680000000000000000e+02
-2.174545829919298399e+02,-5.595019030372719726e+01,-1.266779528750970485e+02,-1.155307414428933726e+02,-2.242930493633926972e+02,-2.331857330992452262e+02,-1.711117849549571019e+02,-1.272442885000178308e+02,9.523238182067871094e+00,-8.414105772972106934e-01,7.649187743663787842e-02,3.690000000000000000e+02
-2.222915253706808585e+02,-5.956465289737687385e+01,-1.304762685479382753e+02,-1.156082656823363664e+02,-2.262896208865790868e+02,-2.328480842521464638e+02,-1.715521420852280698e+02,-1.279679359510301992e+02,9.523238182067871094e+00,-8.414105772972106934e-01,7.649187743663787842e-02,3.700000000000000000e+02
-2.253580397884886111e+02,-6.166512338476582045e+01,-1.337235293519596553e+02,-1.123690983368702518e+02,-2.277221757469337717e+02,-2.304865217358014888e+02,-1.696686865305625815e+02,-1.262976333620258629e+02,9.523238182067871094e+00,-8.414105772972106934e-01,7.649187743663787842e-02,3.710000000000000000e+02
-2.252215270272989756e+02,-6.115541019868517481e+01,-1.354190385726342356e+02,-1.068165600522718819e+02,-2.279431032399111245e+02,-2.267894548960388192e+02,-1.660584535703579832e+02,-1.235678698354961398e+02,9.523238182067871094e+00,-8.414105772972106934e-01,7.649187743663787842e-02,3.720000000000000000e+02
-2.228515880233085227e+02,-5.898075147760707182e+01,-1.354911823209505428e+02,-1.011138107454443116e+02,-2.271942143797850804e+02,-2.230211733650721726e+02,-1.620798401417264358e+02,-1.216697520351510775e+02,9.523238182067871094e+00,-8.414105772972106934e-01,7.649187743663787842e-02,3.730000000000000000e+02
-2.205167014154238814e+02,-5.731491195213678225e+01,-1.345999022039283091e+02,-9.730192178013055582e+01,-2.262399979705348869e+02,-2.201676219101256038e+02,-1.589517091182281092e+02,-1.217053357700009428e+02,9.523238182067871094e+00,-8.414105772972106934e-01,7.649187743663787842e-02,3.740000000000000000e+02
-2.198847770277764084e+02,-5.801090544002492777e+01,-1.337155449264208755e+02,-9.633983093158644806e+01,-2.257264973587650729e+02,-2.185185045061768960e+02,-1.572337445021345275e+02,-1.235276859299439138e+02,9.523238182067871094e+00,-8.414105772972106934e-01,7.649187743663787842e-02,3.750000000000000000e+02
-2.209080822658411307e+02,-6.143981561167363736e+01,-1.336157898085805300e+02,-9.786136712226425516e+01,-2.257089431314943795e+02,-2.177459832125958883e+02,-1.568238038253446121e+02,-1.261425054828586099e+02,9.523238182067871094e+00,-8.414105772972106934e-01,7.649187743663787842e-02,3.760000000000000000e+02
-2.221739620203048275e+02,-6.633386558108087172e+01,-1.344026274768036728e+02,-1.005637572889067997e+02,-2.256313521066451813e+02,-2.172280801930915004e+02,-1.571807760133119700e+02,-1.283261400748568235e+02,9.523238182067871094e+00,-8.414105772972106934e-01,7.649187743663787842e-02,3.770000000000000000e+02
-2.221139535202436264e+02,-7.049886631765414791e+01,-1.352712233065998362e+02,-1.029175174114074025e+02,-2.247148210378625208e+02,-2.163619886120508227e+02,-1.575246501231408729e+02,-1.290327854181273324e+02,9.523238182067871094e+00,-8.414105772972106934e-01,7.649187743663787842e-02,3.780000000000000000e+02
-2.199768762604178960e+02,-7.187843593212761562e+01,-1.348474376282365483e+02,-1.038735545987452724e+02,-2.224606991189941709e+02,-2.147693069259807999e+02,-1.570430203140203957e+02,-1.276913007863399798e+02,9.523238182067871094e+00,-8.414105772972106934e-01,7.649187743663787842e-02,3.790000000000000000e+02
-2.159954972679145158e+02,-6.948427937301518398e+01,-1.321173919763173217e+02,-1.032913340106327382e+02,-2.189693655399011050e+02,-2.124040926446982667e+02,-1.552355370691645930e+02,-1.245511245723204752e+02,9.523238182067871094e+00,-8.414105772972106934e-01,7.649187743663787842e-02,3.800000000000000000e+02
-2.109703979800864886e+02,-6.387345170048189402e+01,-1.273815286506933262e+02,-1.018772493016006706e+02,-2.149327919159725298e+02,-2.095496679876719099e+02,-1.522887377564098870e+02,-1.208038814783674297e+02,9.523238182067871094e+00,-8.414105772972106934e-01,7.649187743663787842e-02,3.810000000000000000e+02
-2.058060587759119926e+02,-5.697934328818945460e+01,-1.223789783975305454e+02,-1.006355571529571193e+02,-2.112971897071610101e+02,-2.066679626261345675e+02,-1.490995800436154468e+02,-1.180439527692553838e+02,9.523238182067871094e+00,-8.414105772972106934e-01,7.649187743663787842e-02,3.820000000000000000e+02
-2.012557103292375587e+02,-5.129787755524930049e+01,-1.192203270842397842e+02,-1.001328382519751585e+02,-2.087053616905399167e+02,-2.041180456868108877e+02,-1.467174200480203581e+02,-1.171236519539903611e+02,9.523238182067871094e+00,-8.414105772972106934e-01,7.649187743663787842e-02,3.830000000000000000e+02
-1.977668443956915780e+02,-4.874485912540509958e+01,-1.187828539172433011e+02,-1.000646354449983164e+02,-2.069750640520896923e+02,-2.018721516137443359e+02,-1.455060050461451056e+02,-1.172204913215423403e+02,9.523238182067871094e+00,-8.414105772972106934e-01,7.649187743663787842e-02,3.840000000000000000e+02
-1.952930524811583837e+02,-4.974108357241371436e+01,-1.198588596574907115e+02,-9.944614473662625187e+01,-2.049928956152809860e+02,-1.994388200945771814e+02,-1.447348729486622005e+02,-1.160668685796759974e+02,9.523238182067871094e+00,-8.414105772972106934e-01,7.649187743663787842e-02,3.850000000000000000e+02
-1.931828537283056448e+02,-5.301767936064462106e+01,-1.198730091237296165e+02,-9.728483788370806451e+01,-2.012842078255062006e+02,-1.961166268320463359e+02,-1.430633920352773885e+02,-1.114414462699705837e+02,9.523238182067871094e+00,-8.414105772972106934e-01,7.649187743663787842e-02,3.860000000000000000e+02
-1.904109529155687142e+02,-5.624346168285853764e+01,-1.167202739260197859e+02,-9.322534146446292880e+01,-1.950418858405868150e+02,-1.914663130803708100e+02,-1.395769068536067152e+02,-1.028975909771847910e+02,9.523238182067871094e+00,-8.414105772972106934e-01,7.649187743663787842e-02,3.870000000000000000e+02
-1.861868204026226294e+02,-5.712579057524678205e+01,-1.103045538354374457e+02,-8.771257018878588951e+01,-1.869059374485832450e+02,-1.856895900333159943e+02,-1.344746806002023050e+02,-9.234564849461912672e+01,9.523238182067871094e+00,-8.414105772972106934e-01,7.649187743663787842e-02,3.880000000000000000e+02
-1.805854067209289724e+02,-5.442888926145684536e+01,-1.025874870670412520e+02,-8.163657029885655447e+01,-1.787941769470451163e+02,-1.796081799944867043e+02,-1.288075209362037867e+02,-8.295892341150965876e+01,9.484992027282714844e+00,-8.414105772972106934e-01,3.824593871831893921e-02,3.890000000000000000e+02
-1.746860819574607149e+02,-4.846251370810563230e+01,-9.618930102308081587e+01,-7.580947475878269870e+01,-1.727627685256537688e+02,-1.742027234542497354e+02,-1.235783183415821895e+02,-7.719205038730194701e+01,9.484992027282714844e+00,-8.414105772972106934e-01,3.824593871831893921e-02,3.900000000000000000e+02
-1.700119803959846649e+02,-4.085867577050495925e+01,-9.272395215260360146e+01,-7.066274048017987752e+01,-1.697199089084806474e+02,-1.700123249710110258e+02,-1.191283221907749521e+02,-7.539296297195653551e+01,9.484992027282714844e+00,-8.414105772972106934e-01,3.824593871831893921e-02,3.910000000000000000e+02
-1.675937907219110912e+02,-3.375896282177708940e+01,-9.211473963691855715e+01,-6.627233823354913511e+01,-1.689889520753552006e+02,-1.668148090627578313e+02,-1.153461719553154126e+02,-7.596154081926499657e+01,9.484992027282714844e+00,-8.414105772972106934e-01,3.824593871831893921e-02,3.920000000000000000e+02
-1.673045208486594220e+02,-2.879660236099806525e+01,-9.315744927759874372e+01,-6.253850125727211662e+01,-1.689975531836058735e+02,-1.638184092400675809e+02,-1.122966839643293042e+02,-7.672721321205369804e+01,9.484992027282714844e+00,-8.414105772972106934e-01,3.824593871831893921e-02,3.930000000000000000e+02
-1.679420282732346550e+02,-2.639468590048662122e+01,-9.456046414221486884e+01,-5.931871596084801013e+01,-1.684096043487260204e+02,-1.602204317805833398e+02,-1.104081008652722176e+02,-7.632818812611196790e+01,9.484992027282714844e+00,-8.414105772972106934e-01,3.824593871831893921e-02,3.940000000000000000e+02
-1.679659105052271570e+02,-2.577996928100404261e+01,-9.551443756277762986e+01,-5.648705416792120104e+01,-1.667402338221822902e+02,-1.557420143763179112e+02,-1.099138041132555372e+02,-7.458910355298428385e+01,9.484992027282714844e+00,-8.414105772972106934e-01,3.824593871831893921e-02,3.950000000000000000e+02
-1.663484426697472145e+02,-2.568395944871963366e+01,-9.557079341652524818e+01,-5.401928308351193664e+01,-1.641279686752791349e+02,-1.508121111614163965e+02,-1.101959815792456538e+02,-7.194018174943880695e+01,9.484992027282714844e+00,-8.414105772972106934e-01,3.824593871831893921e-02,3.960000000000000000e+02
-1.630043418476177521e+02,-2.522995029684656743e+01,-9.438488076166140672e+01,-5.213340633789096046e+01,-1.607959132862245042e+02,-1.463609244802190688e+02,-1.099159315001234063e+02,-6.879413349651099452e+01,9.484992027282714844e+00,-8.414105772972106934e-01,3.824593871831893921e-02,3.970000000000000000e+02
-1.586412204798584753e+02,-2.439342525674493345e+01,-9.188574053715785794e+01,-5.134955924772458502e+01,-1.569267143796931805e+02,-1.434087133385261268e+02,-1.080269015470162230e+02,-6.560444592555950294e+01,9.484992027282714844e+00,-8.414105772972106934e-01,3.824593871831893921e-02,3.980000000000000000e+02
-1.542820498765662478e+02,-2.379925972492614505e+01,-8.872970351251467491e+01,-5.229463945504073763e+01,-1.530289931954448548e+02,-1.426538534249904160e+02,-1.047547355376957512e+02,-6.333478259448816061e+01,9.484992027282714844e+00,-8.414105772972106934e-01,3.824593871831893921e-02,3.990000000000000000e+02
-1.507993947092613780e+02,-2.414818221356060235e+01,-8.632812533730668747e+01,-5.526822260842391188e+01,-1.501584972176337942e+02,-1.441750773494118221e+02,-1.015481644704286737e+02,-6.340545210709638013e+01,9.484992027282714844e+00,-8.414105772972106934e-01,3.824593871831893921e-02,4.000000000000000000e+02
-1.486519955108468594e+02,-2.577241278888325837e+01,-8.603154985355786266e+01,-5.983897628470413110e+01,-1.494190677441828257e+02,-1.472992392069133984e+02,-9.996421138705136400e+01,-6.665934091048643495e+01,9.484992027282714844e+00,-8.414105772972106934e-01,3.824593871831893921e-02,4.010000000000000000e+02
-1.478564010458244411e+02,-2.857282320554068633e+01,-8.800591345914392605e+01,-6.482073090344204047e+01,-1.509686069308065726e+02,-1.507122813095556921e+02,-1.004720748870770421e+02,-7.213814339689315602e+01,9.484992027282714844e+00,-8.414105772972106934e-01,3.824593871831893921e-02,4.020000000000000000e+02
-1.481640073574664029e+02,-3.219990695895825183e+01,-9.091505172694701287e+01,-6.877254006747295989e+01,-1.534972295034109493e+02,-1.529079900952308435e+02,-1.022311496702502609e+02,-7.710368459205983527e+01,9.484992027282714844e+00,-8.414105772972106934e-01,3.824593871831893921e-02,4.030000000000000000e+02
-1.494021961657804241e+02,-3.622840068471461450e+01,-9.299101154804736780e+01,-7.079280756160846977e+01,-1.549385034059553163e+02,-1.529236537492931802e+02,-1.039770295819057537e+02,-7.884465216947648969e+01,9.484992027282714844e+00,-8.414105772972106934e-01,3.824593871831893921e-02,4.040000000000000000e+02
-1.518005594216753025e+02,-4.027004545515308109e+01,-9.374193939960218813e+01,-7.110390464788929421e+01,-1.540862724679219582e+02,-1.510109878869300246e+02,-1.051705260053547590e+02,-7.701276005815316239e+01,9.484992027282714844e+00,-8.414105772972106934e-01,3.824593871831893921e-02,4.050000000000000000e+02
-1.559860277610064259e+02,-4.412539811674992052e+01,-9.472763501530835129e+01,-7.098682111408845685e+01,-1.518028953497691873e+02,-1.487247157830327069e+02,-1.064168623855193800e+02,-7.435115196716810715e+01,9.484992027282714844e+00,-8.414105772972106934e-01,3.824593871831893921e-02,4.060000000000000000e+02
-1.624576477612723693e+02,-4.795297773355969184e+01,-9.846837405817302624e+01,-7.203526144875593218e+01,-1.506333027963598852e+02,-1.481687793075159334e+02,-1.088701814788839783e+02,-7.484490286861148434e+01,9.484992027282714844e+00,-8.414105772972106934e-01,3.824593871831893921e-02,4.070000000000000000e+02
-1.707729419594949150e+02,-5.221608208100934689e+01,-1.062003273005054780e+02,-7.516043400847615885e+01,-1.529131080622339596e+02,-1.507153889436056033e+02,-1.131661920132839896e+02,-8.059044676444057131e+01,9.484992027282714844e+00,-8.414105772972106934e-01,3.824593871831893921e-02,4.080000000000000000e+02
-1.791204774237720585e+02,-5.727196646498902055e+01,-1.163930270725688843e+02,-7.999421916023300128e+01,-1.588222067107165003e+02,-1.560315809395933684e+02,-1.187270856639458998e+02,-8.998199468984489613e+01,9.484992027282714844e+00,-8.414105772972106934e-01,3.824593871831893921e-02,4.090000000000000000e+02
-1.848640425871154775e+02,-6.285561906527362908e+01,-1.254496672598282885e+02,-8.509818280850402061e+01,-1.660315248343181338e+02,-1.621764818677772837e+02,-1.239493206240256313e+02,-9.878673023394958363e+01,9.484992027282714844e+00,-8.414105772972106934e-01,3.824593871831893921e-02,4.100000000000000000e+02
-1.859428849375163963e+02,-6.795632686752520613e+01,-1.301402413297853400e+02,-8.882735789093828771e+01,-1.712974836328448873e+02,-1.667840870900245136e+02,-1.271361822135986586e+02,-1.031965242744249736e+02,9.484992027282714844e+00,-8.414105772972106934e-01,3.824593871831893921e-02,4.110000000000000000e+02
-1.822157869949616043e+02,-7.134587755515204321e+01,-1.297727093895491635e+02,-9.023114528454050287e+01,-1.727000804124058959e+02,-1.684808140090440247e+02,-1.275362190547982664e+02,-1.023096397737931511e+02,9.484992027282714844e+00,-8.414105772972106934e-01,3.824593871831893921e-02,4.120000000000000000e+02
-1.756943216673333836e+02,-7.241543290975283753e+01,-1.263462897755750873e+02,-8.937948094396733723e+01,-1.707015558802499982e+02,-1.674883361532415620e+02,-1.257961581460531306e+02,-9.819144301779897432e+01,9.484992027282714844e+00,-8.414105772972106934e-01,3.824593871831893921e-02,4.130000000000000000e+02
-1.693543848572751358e+02,-7.161893836749754882e+01,-1.227123658074385730e+02,-8.697807082275153334e+01,-1.673006674925404695e+02,-1.650373083578135720e+02,-1.235170740566873064e+02,-9.384801193527459873e+01,9.484992027282714844e+00,-8.414105772972106934e-01,3.824593871831893921e-02,4.140000000000000000e+02
-1.652953663825966260e+02,-7.011912004995713232e+01,-1.204454644570778328e+02,-8.371784901844409887e+01,-1.642414472385876252e+02,-1.622360934481769164e+02,-1.222176785008416573e+02,-9.108265604350174272e+01,9.484992027282714844e+00,-8.414105772972106934e-01,3.824593871831893921e-02,4.150000000000000000e+02
-1.635709873565845101e+02,-6.894066725484469771e+01,-1.191935698006301436e+02,-7.995758495598340687e+01,-1.619251656301316871e+02,-1.594286455132828451e+02,-1.224295321458494072e+02,-8.990264208236840204e+01,9.484992027282714844e+00,-8.796565532684326172e-01,3.824593871831893921e-02,4.160000000000000000e+02
-1.625178093291810910e+02,-6.835709546117487889e+01,-1.177577866824003650e+02,-7.594182334820618507e+01,-1.597868931543926010e+02,-1.565008688304285442e+02,-1.235234577220253414e+02,-8.946525730926146025e+01,9.484992027282714844e+00,-8.796565532684326172e-01,3.824593871831893921e-02,4.170000000000000000e+02
-1.602402942320920829e+02,-6.798692806104597253e+01,-1.155957653518383950e+02,-7.219743114241077819e+01,-1.574164549581964820e+02,-1.536302661420804725e+02,-1.243075437025563588e+02,-8.924923679398739296e+01,9.484992027282714844e+00,-8.796565532684326172e-01,3.824593871831893921e-02,4.180000000000000000e+02
-1.560660360818706067e+02,-6.740206468044021904e+01,-1.132901479868634169e+02,-6.954292893861793345e+01,-1.551269669779076139e+02,-1.515463621639414669e+02,-1.238671800741490188e+02,-8.930543596278505447e+01,9.484992027282714844e+00,-8.796565532684326172e-01,3.824593871831893921e-02,4.190000000000000000e+02
-1.509045522416794256e+02,-6.663287111656262596e+01,-1.117364462483010357e+02,-6.854512326097210462e+01,-1.534747785505460342e+02,-1.509296562628767333e+02,-1.220277364491998924e+02,-8.963100701173505058e+01,9.484992027282714844e+00,-8.796565532684326172e-01,3.824593871831893921e-02,4.200000000000000000e+02
-1.464092638222319920e+02,-6.613713319786441502e+01,-1.111013710311235627e+02,-6.889663981341550425e+01,-1.524543150977158348e+02,-1.515413141100232224e+02,-1.192343054251173271e+02,-8.963289550319996124e+01,9.484992027282714844e+00,-8.796565532684326172e-01,3.824593871831893921e-02,4.210000000000000000e+02
-1.437717375751515192e+02,-6.634863489465897146e+01,-1.106921698617572929e+02,-6.939222584669710159e+01,-1.513794550369952958e+02,-1.520465780346871725e+02,-1.161208876933651482e+02,-8.842179895089793717e+01,9.484992027282714844e+00,-8.796565532684326172e-01,3.824593871831893921e-02,4.220000000000000000e+02
-1.431313117791960394e+02,-6.728219131199875847e+01,-1.098272593685895799e+02,-6.869413605748297869e+01,-1.496136380622201614e+02,-1.508836530861217398e+02,-1.131833604692103563e+02,-8.570715232701422792e+01,9.484992027282714844e+00,-8.796565532684326172e-01,3.824593871831893921e-02,4.230000000000000000e+02
-1.439135087841856375e+02,-6.853925261620611309e+01,-1.087507631809236273e+02,-6.631170714351912920e+01,-1.473254746700356463e+02,-1.475109872122097840e+02,-1.107179711589146791e+02,-8.237702314231330547e+01,9.484992027282714844e+00,-8.796565532684326172e-01,3.824593871831893921e-02,4.240000000000000000e+02
-1.455745687194588527e+02,-6.967035771581282688e+01,-1.086129959669497111e+02,-6.296163294335235605e+01,-1.454316456716153425e+02,-1.429452875434292309e+02,-1.089122694150087227e+02,-8.009255333256078302e+01,9.484992027282714844e+00,-8.796565532684326172e-01,3.824593871831893921e-02,4.250000000000000000e+02
-1.479786716796954806e+02,-7.056703430453319470e+01,-1.104891765356034057e+02,-6.000919596204164463e+01,-1.447764533450117597e+02,-1.390955121043591589e+02,-1.078999535700238539e+02,-8.014230940761808597e+01,9.484992027282714844e+00,-8.796565532684326172e-01,3.824593871831893921e-02,4.260000000000000000e+02
-1.511331771755129694e+02,-7.159467042270040338e+01,-1.143389378950688524e+02,-5.852157416309989912e+01,-1.453760263345031944e+02,-1.374441234587786766e+02,-1.077107729167555590e+02,-8.250480717879156600e+01,9.484992027282714844e+00,-8.796565532684326172e-01,3.824593871831893921e-02,4.270000000000000000e+02
-1.546974575664244185e+02,-7.341423110073338876e+01,-1.188513213542648828e+02,-5.878060518767961184e+01,-1.464525205857230503e+02,-1.381623110667451328e+02,-1.082002902431977418e+02,-8.592696531940953264e+01,9.484992027282714844e+00,-8.796565532684326172e-01,3.824593871831893921e-02,4.280000000000000000e+02
-1.578982718712550195e+02,-7.664353257615425719e+01,-1.223207530169366919e+02,-6.057177745182139006e+01,-1.471702545335797367e+02,-1.403242886833045304e+02,-1.090655055260881454e+02,-8.897638150426075754e+01,9.484992027282714844e+00,-8.796565532684326172e-01,3.824593871831893921e-02,4.290000000000000000e+02
-1.600344596377678954e+02,-8.153361283561253003e+01,-1.238352438514795040e+02,-6.374571250796520872e+01,-1.473382485813849598e+02,-1.429020021456881295e+02,-1.099805263493549319e+02,-9.117003152633537866e+01,9.484992027282714844e+00,-8.796565532684326172e-01,3.824593871831893921e-02,4.300000000000000000e+02
-1.611123443646579290e+02,-8.778197773254709091e+01,-1.238557530506382136e+02,-6.829645543971173538e+01,-1.474686826357788050e+02,-1.455814808880040800e+02,-1.107881194406770646e+02,-9.320814328423421102e+01,9.484992027282714844e+00,-8.796565532684326172e-01,3.824593871831893921e-02,4.310000000000000000e+02
-1.619588005975622309e+02,-9.456823323529539493e+01,-1.237983678268328731e+02,-7.382340865068260882e+01,-1.482201951888628173e+02,-1.486849036506371249e+02,-1.116071846167474177e+02,-9.612580365678206817e+01,9.484992027282714844e+00,-8.796565532684326172e-01,3.824593871831893921e-02,4.320000000000000000e+02
-1.635923445399392904e+02,-1.008204122149843442e+02,-1.249930707868753643e+02,-7.907123516191222734e+01,-1.497641456798544368e+02,-1.523741096099861352e+02,-1.127358668375320576e+02,-1.001389634554529948e+02,9.484992027282714844e+00,-8.796565532684326172e-01,3.824593871831893921e-02,4.330000000000000000e+02
-1.663254903571876184e+02,-1.056228889349521296e+02,-1.277910129784881974e+02,-8.231625764355953834e+01,-1.515846971903206395e+02,-1.559986658188051933e+02,-1.143689936729092551e+02,-1.042302221910047137e+02,9.484992027282714844e+00,-8.796565532684326172e-01,3.824593871831893921e-02,4.340000000000000000e+02
-1.693647207207180827e+02,-1.085884413968097419e+02,-1.314068303187607398e+02,-8.253217519820384496e+01,-1.528277958630983449e+02,-1.583138090467643906e+02,-1.163478972983032236e+02,-1.068641068359561359e+02,9.484992027282714844e+00,-8.796565532684326172e-01,3.824593871831893921e-02,4.350000000000000000e+02
-1.712805906681790020e+02,-1.099558748129838364e+02,-1.345066464020123931e+02,-8.032766593647920672e+01,-1.528955737789722207e+02,-1.584361159436521120e+02,-1.181871037291111861e+02,-1.071968243095757316e+02,9.484992027282714844e+00,-8.796565532684326172e-01,3.824593871831893921e-02,4.360000000000000000e+02
-1.709870400089696432e+02,-1.103066530021877725e+02,-1.360433945963072802e+02,-7.765820717429608067e+01,-1.518233705330437715e+02,-1.566440838702335441e+02,-1.193862963339076941e+02,-1.056942051548076051e+02,9.484992027282714844e+00,-8.796565532684326172e-01,3.824593871831893921e-02,4.370000000000000000e+02
-1.684485662560384753e+02,-1.100782574727825249e+02,-1.357480895902706379e+02,-7.637811453877759504e+01,-1.501493697711553068e+02,-1.542194074144840670e+02,-1.197491362347595896e+02,-1.036206151919790273e+02,9.484992027282714844e+00,-8.796565532684326172e-01,3.824593871831893921e-02,4.380000000000000000e+02
-1.645915250696459680e+02,-1.092530769339153949e+02,-1.340238623907364399e+02,-7.681582515134675759e+01,-1.483942113696173237e+02,-1.524137864765284576e+02,-1.193971781845036730e+02,-1.019156918371894562e+02,9.484992027282714844e+00,-8.796565532684326172e-01,3.824593871831893921e-02,4.390000000000000000e+02
-1.606031682434571621e+02,-1.075319786972451084e+02,-1.315039190937625335e+02,-7.761742438892201790e+01,-1.466190229246362833e+02,-1.514736477177907545e+02,-1.184956816047929351e+02,-1.005167417891309469e+02,9.484992027282714844e+00,-8.796565532684326172e-01,3.824593871831893921e-02,4.400000000000000000e+02
-1.573067159919140749e+02,-1.049142434063734584e+02,-1.287645492149722486e+02,-7.700753806774491750e+01,-1.445064313068685351e+02,-1.506220928435857331e+02,-1.170469017563129910e+02,-9.873142549963711190e+01,9.484992027282714844e+00,-8.796565532684326172e-01,3.824593871831893921e-02,4.410000000000000000e+02
-1.551205659440929594e+02,-1.021838497809127375e+02,-1.264191730355430536e+02,-7.436759565005695549e+01,-1.419359348887971919e+02,-1.489829377528108125e+02,-1.150424867575686676e+02,-9.625424803204020918e+01,9.484992027282714844e+00,-8.796565532684326172e-01,3.824593871831893921e-02,4.420000000000000000e+02
-1.544204611997978418e+02,-1.007642926676927857e+02,-1.253195232325831512e+02,-7.078819206004186526e+01,-1.394801665144987055e+02,-1.465430392371658854e+02,-1.128333416612313158e+02,-9.379566281060010624e+01,9.484992027282714844e+00,-8.796565532684326172e-01,3.824593871831893921e-02,4.430000000000000000e+02
-1.556469422010015933e+02,-1.018596359409231127e+02,-1.263646648863300470e+02,-6.819459114788776333e+01,-1.382113352592675710e+02,-1.442418377199621773e+02,-1.112293785313624994e+02,-9.264983539226284392e+01,9.484992027282714844e+00,-8.796565532684326172e-01,3.824593871831893921e-02,4.440000000000000000e+02
-1.588170053542839923e+02,-1.054562339243506131e+02,-1.298094217835439395e+02,-6.785433578494200901e+01,-1.388440072958710516e+02,-1.431471580603240454e+02,-1.110521265282698096e+02,-9.353520411646695720e+01,9.484992027282714844e+00,-8.796565532684326172e-01,3.824593871831893921e-02,4.450000000000000000e+02
-1.629019900284263258e+02,-1.100394900670872858e+02,-1.346425457209777505e+02,-6.950497568668072290e+01,-1.409710999798912781e+02,-1.435493170965226000e+02,-1.124557485747368446e+02,-9.577419798854850796e+01,9.484992027282714844e+00,-8.796565532684326172e-01,3.824593871831893921e-02,4.460000000000000000e+02
-1.659445823667409741e+02,-1.134311826885446521e+02,-1.388054023771373977e+02,-7.170597419859575439e+01,-1.431853575984730469e+02,-1.448037678861469431e+02,-1.146570586873822322e+02,-9.763553702075864749e+01,9.484992027282714844e+00,-8.031646609306335449e-01,7.649187743663787842e-02,4.470000000000000000e+02
-1.661910385308888181e+02,-1.142377128792747953e+02,-1.403839142454260127e+02,-7.299166936998653910e+01,-1.440885033303959517e+02,-1.459538270111072507e+02,-1.164020494651076660e+02,-9.762770804275191949e+01,9.484992027282714844e+00,-8.031646609306335449e-01,7.649187743663787842e-02,4.480000000000000000e+02
-1.634010078558706027e+02,-1.127982396874279516e+02,-1.389222340300214000e+02,-7.286257498568033952e+01,-1.433233349269075916e+02,-1.464601327727020816e+02,-1.168134673859142367e+02,-9.567366368178056746e+01,9.484992027282714844e+00,-8.031646609306335449e-01,7.649187743663787842e-02,4.490000000000000000e+02
-1.590485360763150311e+02,-1.108274545374950719e+02,-1.356921912664652154e+02,-7.192670031264412955e+01,-1.417059732327447819e+02,-1.464060030046139218e+02,-1.159054996564486828e+02,-9.316788400529105729e+01,9.484992027282714844e+00,-8.031646609306335449e-01,7.649187743663787842e-02,4.500000000000000000e+02
-1.550320451957976502e+02,-1.099744734838893976e+02,-1.325709166622566499e+02,-7.121268108468473201e+01,-1.403683862376904017e+02,-1.461684627203308082e+02,-1.143615983633612814e+02,-9.186636989019802968e+01,9.484992027282714844e+00,-8.031646609306335449e-01,7.649187743663787842e-02,4.510000000000000000e+02
-1.519947067950961355e+02,-1.104420449796189416e+02,-1.304442715058369231e+02,-7.122557825336389214e+01,-1.397131269688163684e+02,-1.459895247401686902e+02,-1.128238054543576254e+02,-9.250695428285712296e+01,9.484992027282714844e+00,-8.031646609306335449e-01,7.649187743663787842e-02,4.520000000000000000e+02
-1.488872119511091796e+02,-1.107992403735501625e+02,-1.285682983623273685e+02,-7.141643558143982773e+01,-1.390906464691900055e+02,-1.457760335713285258e+02,-1.113334622702982415e+02,-9.421296526560945495e+01,9.484992027282714844e+00,-8.031646609306335449e-01,7.649187743663787842e-02,4.530000000000000000e+02
-1.442929696400894954e+02,-1.091437027884707618e+02,-1.254815877673561317e+02,-7.042673160345657379e+01,-1.373926348118829992e+02,-1.451087479194934531e+02,-1.093726150611237244e+02,-9.507176150755935851e+01,9.484992027282714844e+00,-8.031646609306335449e-01,7.649187743663787842e-02,4.540000000000000000e+02
-1.382558162594020814e+02,-1.046605507680279743e+02,-1.206059833961160166e+02,-6.700878825574852726e+01,-1.339665043905272341e+02,-1.433576278452262613e+02,-1.064380166233052023e+02,-9.340101780057807446e+01,9.484992027282714844e+00,-8.031646609306335449e-01,7.649187743663787842e-02,4.550000000000000000e+02
-1.327281917649869456e+02,-9.832210354399325070e+01,-1.150216822705097002e+02,-6.108257638573991244e+01,-1.291155267192409610e+02,-1.399750779355699706e+02,-1.026525920808508090e+02,-8.883931476687359918e+01,9.484992027282714844e+00,-8.031646609306335449e-01,7.649187743663787842e-02,4.560000000000000000e+02
-1.300482539414546181e+02,-9.222041230261874034e+01,-1.106864536341022358e+02,-5.418840500590317788e+01,-1.239091801791137186e+02,-1.350072825679510515e+02,-9.888836341512933359e+01,-8.262429346642124983e+01,9.484992027282714844e+00,-8.031646609306335449e-01,7.649187743663787842e-02,4.570000000000000000e+02
-1.308149369171914032e+02,-8.814715717767228398e+01,-1.088327523807254238e+02,-4.889524843445019542e+01,-1.195676910137569848e+02,-1.295069497411611792e+02,-9.626286000249501740e+01,-7.696241119692570010e+01,9.484992027282714844e+00,-8.031646609306335449e-01,7.649187743663787842e-02,4.580000000000000000e+02
-1.332025856686249199e+02,-8.656796315156123001e+01,-1.089999485882717636e+02,-4.738065450186502403e+01,-1.168526253023678692e+02,-1.252786144881597465e+02,-9.534962955111041083e+01,-7.383861018258426157e+01,9.484992027282714844e+00,-8.031646609306335449e-01,7.649187743663787842e-02,4.590000000000000000e+02
-1.343872397879538312e+02,-8.667088114892914064e+01,-1.095049362601030225e+02,-5.004542959522495948e+01,-1.157430193110385517e+02,-1.237883447953361156e+02,-9.570645585909755937e+01,-7.385461986791824529e+01,9.484992027282714844e+00,-8.031646609306335449e-01,7.649187743663787842e-02,4.600000000000000000e+02
-1.327613186814526216e+02,-8.722862209360687302e+01,-1.088098600309658650e+02,-5.513040246203127026e+01,-1.154774787467504211e+02,-1.249388200047183091e+02,-9.612856369029827874e+01,-7.574878363477535004e+01,9.484992027282714844e+00,-8.031646609306335449e-01,7.649187743663787842e-02,4.610000000000000000e+02
-1.289642998765635866e+02,-8.743317420021202224e+01,-1.065571197736755948e+02,-5.965739170630467925e+01,-1.149368934372710100e+02,-1.268276546440392849e+02,-9.547976878716849569e+01,-7.703584701666068213e+01,9.484992027282714844e+00,-8.031646609306335449e-01,7.649187743663787842e-02,4.620000000000000000e+02
-1.250033613153814258e+02,-8.708834451298696422e+01,-1.035291552700646207e+02,-6.107582019773894899e+01,-1.132321003274814757e+02,-1.269299100862510841e+02,-9.345071841394042167e+01,-7.555344452033261859e+01,9.484992027282714844e+00,-8.031646609306335449e-01,7.649187743663787842e-02,4.630000000000000000e+02
-1.225300259178699207e+02,-8.625537943558128973e+01,-1.008400651908095824e+02,-5.852087665195506361e+01,-1.102234091838072345e+02,-1.238774623212218557e+02,-9.062889258883615184e+01,-7.096780294586756099e+01,9.484992027282714844e+00,-8.031646609306335449e-01,7.649187743663787842e-02,4.640000000000000000e+02
-1.218579582212120158e+02,-8.491136736787692030e+01,-9.917506204833216543e+01,-5.293705660365344556e+01,-1.066438024188621512e+02,-1.183571439334054958e+02,-8.786570651592887771e+01,-6.509077677140214746e+01,9.484992027282714844e+00,-8.031646609306335449e-01,7.649187743663787842e-02,4.650000000000000000e+02
-1.222711093575948098e+02,-8.300259491378500343e+01,-9.855524183459419874e+01,-4.619769863604994953e+01,-1.036567186890945322e+02,-1.123786652026271895e+02,-8.554325563877455352e+01,-6.062200886580012593e+01,9.484992027282714844e+00,-8.031646609306335449e-01,7.649187743663787842e-02,4.660000000000000000e+02
-1.228685775728439467e+02,-8.072355477478924968e+01,-9.847679338589193776e+01,-4.000354883061231703e+01,-1.020616199259384302e+02,-1.076242993887499324e+02,-8.340334347868929399e+01,-5.919996075463757279e+01,9.484992027282714844e+00,-8.031646609306335449e-01,7.649187743663787842e-02,4.670000000000000000e+02
-1.229796276089136882e+02,-7.856568590251617934e+01,-9.808219249498938552e+01,-3.527343632310987687e+01,-1.016803578202657263e+02,-1.043600500476461548e+02,-8.102069392607540976e+01,-6.028758235789678110e+01,9.408499717712402344e+00,-9.179025292396545410e-01,7.649187743663787842e-02,4.680000000000000000e+02
-1.220403170799332884e+02,-7.695494225311750824e+01,-9.634396935534289241e+01,-3.216624592184507492e+01,-1.014029973439910464e+02,-1.017484858258108034e+02,-7.837915642632833624e+01,-6.177149314030214100e+01,9.408499717712402344e+00,-9.179025292396545410e-01,7.649187743663787842e-02,4.690000000000000000e+02
-1.195577337520036281e+02,-7.582152966080781198e+01,-9.246518615113870965e+01,-3.040256663470245257e+01,-9.993982079069974134e+01,-9.903388566840953899e+01,-7.596748630856427553e+01,-6.170727086552221863e+01,9.408499717712402344e+00,-9.179025292396545410e-01,7.649187743663787842e-02,4.700000000000000000e+02
-1.155304176140674599e+02,-7.462126111453363819e+01,-8.646249783145276524e+01,-2.952864907963498808e+01,-9.677660361317339266e+01,-9.634548019060275692e+01,-7.434757305535367777e+01,-5.972026300986578917e+01,9.408499717712402344e+00,-9.179025292396545410e-01,7.649187743663787842e-02,4.710000000000000000e+02
-1.108680010116638641e+02,-7.290136283596365274e+01,-7.947387797487215266e+01,-2.906541379226746358e+01,-9.262399962085510197e+01,-9.443313808070047344e+01,-7.368131939981435607e+01,-5.701550810598212138e+01,9.408499717712402344e+00,-9.179025292396545410e-01,7.649187743663787842e-02,4.720000000000000000e+02
-1.070814132901192579e+02,-7.090241201294406892e+01,-7.331920014767911198e+01,-2.866995208411003659e+01,-8.898814821979453882e+01,-9.379550388681468576e+01,-7.368172477242706009e+01,-5.522570924345313870e+01,9.408499717712402344e+00,-9.179025292396545410e-01,7.649187743663787842e-02,4.730000000000000000e+02
-1.052334928776281231e+02,-6.953689531583893313e+01,-6.943298533119661897e+01,-2.831367116880892354e+01,-8.714920773718881719e+01,-9.418076518316138390e+01,-7.394656852563275606e+01,-5.520178731427552066e+01,9.408499717712402344e+00,-9.179025292396545410e-01,7.649187743663787842e-02,4.740000000000000000e+02
-1.050655049637502998e+02,-6.964238589750942765e+01,-6.794176880278496355e+01,-2.830108372426809638e+01,-8.732723683205631460e+01,-9.490815959138853941e+01,-7.425860271069564078e+01,-5.664870444773748659e+01,9.408499717712402344e+00,-9.179025292396545410e-01,7.649187743663787842e-02,4.750000000000000000e+02
-1.052377315378959111e+02,-7.116651352192042168e+01,-6.767242464666367141e+01,-2.900369846245644112e+01,-8.867013996269838572e+01,-9.554131237548745048e+01,-7.455355908444630586e+01,-5.862155385249093342e+01,9.408499717712402344e+00,-9.179025292396545410e-01,7.649187743663787842e-02,4.760000000000000000e+02
-1.045855436568397181e+02,-7.310202952439328783e+01,-6.713512186472144094e+01,-3.047828273381958297e+01,-9.002476033810467015e+01,-9.616848961769551352e+01,-7.469410419381620159e+01,-6.027745560950415893e+01,9.408499717712402344e+00,-9.179025292396545410e-01,7.649187743663787842e-02,4.770000000000000000e+02
-1.032183235881341261e+02,-7.432598986320513745e+01,-6.566015621108658706e+01,-3.231688989121607847e+01,-9.079763162700101020e+01,-9.708183276651561755e+01,-7.441661541537177982e+01,-6.132858285957388489e+01,9.408499717712402344e+00,-9.179025292396545410e-01,7.649187743663787842e-02,4.780000000000000000e+02
-1.023505565313387251e+02,-7.461138952649400835e+01,-6.373230686751503526e+01,-3.388715188161677361e+01,-9.117959669822857904e+01,-9.830879086736786121e+01,-7.358690209216820222e+01,-6.204400346565637392e+01,9.408499717712402344e+00,-9.179025292396545410e-01,7.649187743663787842e-02,4.790000000000000000e+02
-1.029574050788729664e+02,-7.482870327109586128e+01,-6.227762430889640655e+01,-3.473392201307740379e+01,-9.162149807170521854e+01,-9.952606981540657216e+01,-7.249877498531486708e+01,-6.291609135123121632e+01,9.408499717712402344e+00,-9.179025292396545410e-01,7.649187743663787842e-02,4.800000000000000000e+02
-1.045229356350309899e+02,-7.605322981764521728e+01,-6.157230968467683851e+01,-3.474753496307221212e+01,-9.213040250381277474e+01,-1.003574266465845994e+02,-7.181628373682315214e+01,-6.417768909509777586e+01,9.408499717712402344e+00,-9.179025292396545410e-01,7.649187743663787842e-02,4.810000000000000000e+02
-1.051692101512441013e+02,-7.838082882647529459e+01,-6.080279804489032358e+01,-3.398078398523773558e+01,-9.210509162594644295e+01,-1.006176164092810268e+02,-7.209758556071233215e+01,-6.544391810993136005e+01,9.408499717712402344e+00,-9.179025292396545410e-01,7.649187743663787842e-02,4.820000000000000000e+02
-1.031996236306288210e+02,-8.061958065746370039e+01,-5.872420739877850338e+01,-3.238834690827275153e+01,-9.088715180892540957e+01,-1.002263677489199836e+02,-7.327484619712026870e+01,-6.581937233650569397e+01,9.408499717712402344e+00,-9.179025292396545410e-01,7.649187743663787842e-02,4.830000000000000000e+02
-9.871309096671825500e+01,-8.123697371815899260e+01,-5.485757493568462451e+01,-2.983163239026191604e+01,-8.849998298488753790e+01,-9.899997882672823835e+01,-7.455598820224008705e+01,-6.455826747503374463e+01,9.408499717712402344e+00,-9.179025292396545410e-01,7.649187743663787842e-02,4.840000000000000000e+02
-9.379767098257730140e+01,-7.974617142362529876e+01,-5.015527810607602532e+01,-2.636619973014262541e+01,-8.586860227483543895e+01,-9.671915151791324661e+01,-7.489762619727548554e+01,-6.183075512607308610e+01,9.408499717712402344e+00,-9.179025292396545410e-01,7.649187743663787842e-02,4.850000000000000000e+02
-9.104466391311677853e+01,-7.724974702878563448e+01,-4.648221602274963971e+01,-2.248060970922352908e+01,-8.426093923660141627e+01,-9.350017792735638977e+01,-7.370294827764973888e+01,-5.885714753168531388e+01,9.408499717712402344e+00,-9.179025292396545410e-01,7.649187743663787842e-02,4.860000000000000000e+02
-9.161384661583656452e+01,-7.560990994308005497e+01,-4.527029065096053273e+01,-1.897433558640227602e+01,-8.436266293469986977e+01,-9.003055833696259924e+01,-7.119425134415155298e+01,-5.710353645932855216e+01,9.408499717712402344e+00,-9.179025292396545410e-01,7.649187743663787842e-02,4.870000000000000000e+02
-9.450243491321771216e+01,-7.597480036112000334e+01,-4.646183600977792594e+01,-1.654817153375108774e+01,-8.573359640489854883e+01,-8.728090233955003896e+01,-6.819585881874400002e+01,-5.714996229229780056e+01,9.408499717712402344e+00,-9.179025292396545410e-01,7.649187743663787842e-02,4.880000000000000000e+02
-9.760354125473054410e+01,-7.798447280378567825e+01,-4.866726990003451192e+01,-1.551440310507484810e+01,-8.713995750497008430e+01,-8.588849566462590701e+01,-6.558069314074191425e+01,-5.832989391241699195e+01,9.408499717712402344e+00,-9.179025292396545410e-01,7.649187743663787842e-02,4.890000000000000000e+02
-9.954270005406408472e+01,-8.031856589211047037e+01,-5.042426607850325126e+01,-1.590040641315306402e+01,-8.757503227165136650e+01,-8.583720477729571030e+01,-6.388530745885236684e+01,-5.958359688136965815e+01,9.408499717712402344e+00,-9.179025292396545410e-01,7.649187743663787842e-02,4.900000000000000000e+02
-1.006407652193258855e+02,-8.199425309829931052e+01,-5.145906102189519515e+01,-1.777255496866848716e+01,-8.718836227095857794e+01,-8.678840973183321239e+01,-6.334677837267497580e+01,-6.074184233802941435e+01,9.408499717712402344e+00,-9.179025292396545410e-01,7.649187743663787842e-02,4.910000000000000000e+02
-1.022373912584839672e+02,-8.319240776499752599e+01,-5.283411829854128428e+01,-2.136225670361108087e+01,-8.732990074150507098e+01,-8.869817398584325474e+01,-6.414392930054350472e+01,-6.292334445839333057e+01,9.408499717712402344e+00,-9.179025292396545410e-01,7.649187743663787842e-02,4.920000000000000000e+02
-1.051646539805491329e+02,-8.494943453033911851e+01,-5.585768270286484949e+01,-2.679512174158105609e+01,-8.957590865517829570e+01,-9.199790352665104365e+01,-6.644371644094189833e+01,-6.754065028392221848e+01,9.484992027282714844e+00,-8.031646609306335449e-01,3.824593871831893921e-02,4.930000000000000000e+02
-1.088788448878617601e+02,-8.815124492421111313e+01,-6.074750523798149970e+01,-3.368563638166165219e+01,-9.444134970574862109e+01,-9.706563558023617588e+01,-7.014010806833368861e+01,-7.481427754185733647e+01,9.484992027282714844e+00,-8.031646609306335449e-01,3.824593871831893921e-02,4.940000000000000000e+02
-1.120288130081477220e+02,-9.280901742334728510e+01,-6.626116511202565107e+01,-4.104586258597919368e+01,-1.008221617824972327e+02,-1.035215760365172173e+02,-7.462227585947653097e+01,-8.323560567723041004e+01,9.484992027282714844e+00,-8.031646609306335449e-01,3.824593871831893921e-02,4.950000000000000000e+02
-1.137927789657366020e+02,-9.816977135809385402e+01,-7.060295164263999368e+01,-4.767763238352068811e+01,-1.066748891167062538e+02,-1.101490257960480221e+02,-7.895598059961912440e+01,-9.054856093451491006e+01,9.484992027282714844e+00,-8.031646609306335449e-01,3.824593871831893921e-02,4.960000000000000000e+02
-1.146121865985833210e+02,-1.033403893220015561e+02,-7.275024524151604055e+01,-5.273537657949242430e+01,-1.103959615769548464e+02,-1.156031489742904341e+02,-8.241505509211333447e+01,-9.534589657769424775e+01,9.484992027282714844e+00,-8.031646609306335449e-01,3.824593871831893921e-02,4.970000000000000000e+02
-1.156418315973064637e+02,-1.077397966216025225e+02,-7.301906907506315747e+01,-5.599002598305889933e+01,-1.117604030947428555e+02,-1.192254290534341408e+02,-8.486116851369104097e+01,-9.780296675760672542e+01,9.484992027282714844e+00,-8.031646609306335449e-01,3.824593871831893921e-02,4.980000000000000000e+02
-1.175242045810238096e+02,-1.110606760684252663e+02,-7.246956883590803500e+01,-5.761953736671739534e+01,-1.116834609686022759e+02,-1.211572232636905255e+02,-8.657793760546246631e+01,-9.896160344950544641e+01,9.484992027282714844e+00,-8.031646609306335449e-01,3.824593871831893921e-02,4.990000000000000000e+02
-1.197180662692392161e+02,-1.130067008674074316e+02,-7.184235775470222052e+01,-5.780979191827196928e+01,-1.111672897752522999e+02,-1.217195660049637809e+02,-8.775469890832641795e+01,-9.939793665484955909e+01,9.484992027282714844e+00,-8.031646609306335449e-01,3.824593871831893921e-02,5.000000000000000000e+02
-1.209900738706159018e+02,-1.132550845860666868e+02,-7.106326108421575327e+01,-5.661627242308921382e+01,-1.104841988216188042e+02,-1.208475657950997970e+02,-8.820302204783445177e+01,-9.866046570677576710e+01,9.484992027282714844e+00,-8.031646609306335449e-01,3.824593871831893921e-02,5.010000000000000000e+02
-1.204977708099113443e+02,-1.117274606232660830e+02,-6.966630418121400226e+01,-5.422828362700221305e+01,-1.092796839888140994e+02,-1.182644493308645224e+02,-8.761328517347294564e+01,-9.599701143787859792e+01,9.484992027282714844e+00,-8.031646609306335449e-01,3.824593871831893921e-02,5.020000000000000000e+02
-1.183977719285441026e+02,-1.088379168002565791e+02,-6.754698055509595633e+01,-5.132109922095696675e+01,-1.073003630329494058e+02,-1.142076095353598362e+02,-8.602419231841133751e+01,-9.155703624003268715e+01,9.484992027282714844e+00,-8.031646609306335449e-01,3.824593871831893921e-02,5.030000000000000000e+02
-1.155223230592793584e+02,-1.054131530607963043e+02,-6.523438219053815601e+01,-4.906391338907715749e+01,-1.048885572280813108e+02,-1.098298551010186088e+02,-8.393507324537000613e+01,-8.680245751937627574e+01,9.484992027282714844e+00,-8.031646609306335449e-01,3.824593871831893921e-02,5.040000000000000000e+02
-1.126260634275488997e+02,-1.023235727947294720e+02,-6.347580956428086552e+01,-4.863304026992699391e+01,-1.027768890915334055e+02,-1.066834663167475128e+02,-8.194003574650031396e+01,-8.366344819993042847e+01,9.484992027282714844e+00,-8.031646609306335449e-01,3.824593871831893921e-02,5.050000000000000000e+02
-1.100049799272922826e+02,-1.001179655780556885e+02,-6.263770424495214684e+01,-5.052350557008381315e+01,-1.015150646607401939e+02,-1.056634952852642186e+02,-8.034193514468842068e+01,-8.318868154248599467e+01,9.484992027282714844e+00,-8.031646609306335449e-01,3.824593871831893921e-02,5.060000000000000000e+02
-1.077404703504230667e+02,-9.891361343280841822e+01,-6.253494517695530419e+01,-5.418434345902147697e+01,-1.011655354601015802e+02,-1.063913851194371887e+02,-7.920646808155163399e+01,-8.490715137354490594e+01,9.484992027282714844e+00,-8.031646609306335449e-01,3.824593871831893921e-02,5.070000000000000000e+02
-1.061047706718969437e+02,-9.854839391434380502e+01,-6.276651553914859960e+01,-5.830048626124929001e+01,-1.014916228804278404e+02,-1.076186247832058172e+02,-7.873052069594120894e+01,-8.741344193712967581e+01,9.484992027282714844e+00,-8.031646609306335449e-01,3.824593871831893921e-02,5.080000000000000000e+02
-1.055760693587484411e+02,-9.883026415074209581e+01,-6.313389401305138904e+01,-6.158935393718118689e+01,-1.022962271077926601e+02,-1.082603064674821240e+02,-7.935075836644855940e+01,-8.956661105369066433e+01,9.484992027282714844e+00,-8.031646609306335449e-01,3.824593871831893921e-02,5.090000000000000000e+02
-1.064500549382482433e+02,-9.970948070730921131e+01,-6.375274665825912734e+01,-6.360132163227270041e+01,-1.035425232430541627e+02,-1.081431395493963663e+02,-8.131685994981258148e+01,-9.123164190466386003e+01,9.484992027282714844e+00,-8.031646609306335449e-01,3.824593871831893921e-02,5.100000000000000000e+02
-1.085543337084415754e+02,-1.012872890352019510e+02,-6.489469353569762688e+01,-6.499456672197069906e+01,-1.052911619502414879e+02,-1.079443741716528393e+02,-8.417926671282262419e+01,-9.306256910734626331e+01,9.484992027282714844e+00,-8.031646609306335449e-01,3.824593871831893921e-02,5.110000000000000000e+02
-1.114221864579171495e+02,-1.036534601236957087e+02,-6.682878796092255413e+01,-6.708773787616942741e+01,-1.076915870134869522e+02,-1.085566368857723631e+02,-8.688188721335203013e+01,-9.570703993678614552e+01,9.484992027282714844e+00,-8.031646609306335449e-01,3.824593871831893921e-02,5.120000000000000000e+02
-1.146826837706900051e+02,-1.066142220273404320e+02,-6.975704836349686389e+01,-7.095971300541495452e+01,-1.110283882671849938e+02,-1.104683054173006553e+02,-8.855616937153016011e+01,-9.917642409597645781e+01,9.484992027282714844e+00,-8.031646609306335449e-01,3.824593871831893921e-02,5.130000000000000000e+02
-1.181118521597979623e+02,-1.094681020564171803e+02,-7.365216036404970623e+01,-7.662304245014811954e+01,-1.155166701109828864e+02,-1.134732353853967481e+02,-8.925773448312560276e+01,-1.027498883480598977e+02,9.484992027282714844e+00,-8.031646609306335449e-01,3.824593871831893921e-02,5.140000000000000000e+02
-1.212016354734175820e+02,-1.110372257147280521e+02,-7.791033548292233490e+01,-8.275862918712385863e+01,-1.207622670985858804e+02,-1.166481216853814544e+02,-8.981243476698398354e+01,-1.052418937915566346e+02,9.484992027282714844e+00,-8.031646609306335449e-01,3.824593871831893921e-02,5.150000000000000000e+02
-1.227792982497587104e+02,-1.100486161371492386e+02,-8.114495784625756869e+01,-8.720954027639541550e+01,-1.253733268421849516e+02,-1.185160785657536167e+02,-9.081224268400586652e+01,-1.053709879462580830e+02,9.484992027282714844e+00,-8.031646609306335449e-01,3.824593871831893921e-02,5.160000000000000000e+02
-1.213322605756545727e+02,-1.056902362434726257e+02,-8.158620215733003533e+01,-8.802582272321154733e+01,-1.273612426243789741e+02,-1.175189570148187386e+02,-9.172118270686530650e+01,-1.021971596846816510e+02,9.484992027282714844e+00,-8.031646609306335449e-01,3.824593871831893921e-02,5.170000000000000000e+02
-1.160143609732118648e+02,-9.801618606614775331e+01,-7.807788863310690886e+01,-8.453459995230844015e+01,-1.253294911966393101e+02,-1.128379948468125917e+02,-9.104680275024702496e+01,-9.566231563272071980e+01,9.484992027282714844e+00,-8.031646609306335449e-01,3.824593871831893921e-02,5.180000000000000000e+02
-1.074956321701009188e+02,-8.799772347343616730e+01,-7.096559056306159619e+01,-7.781642655543623732e+01,-1.195587001755905021e+02,-1.051280825039383444e+02,-8.751587478996282243e+01,-8.694468316546686992e+01,9.484992027282714844e+00,-8.031646609306335449e-01,3.824593871831893921e-02,5.190000000000000000e+02
-9.776240839347417477e+01,-7.722603590623597825e+01,-6.203068487237584350e+01,-7.021590601184556135e+01,-1.119522151452051730e+02,-9.643733078517573176e+01,-8.120185034061398710e+01,-7.809994178516564034e+01,9.523238182067871094e+00,-8.414105772972106934e-01,7.649187743663787842e-02,5.200000000000000000e+02
-8.888260835698713436e+01,-6.742383311699349235e+01,-5.336588910181797019e+01,-6.407840837484036456e+01,-1.047329037374042855e+02,-8.904952105484028380e+01,-7.355621321179762617e+01,-7.089877410737216223e+01,9.523238182067871094e+00,-8.414105772972106934e-01,7.649187743663787842e-02,5.210000000000000000e+02
-8.175565404123619828e+01,-5.990375202771406293e+01,-4.608373573749315710e+01,-6.045944597752747995e+01,-9.894219222746471587e+01,-8.397271573138061740e+01,-6.630575657804001821e+01,-6.562857048124487847e+01,9.523238182067871094e+00,-8.414105772972106934e-01,7.649187743663787842e-02,5.220000000000000000e+02
-7.591982055994412804e+01,-5.507031095884684646e+01,-3.996025327319148346e+01,-5.866615006120565567e+01,-9.402719067101452310e+01,-8.033164471771965509e+01,-6.021468021354280609e+01,-6.097578989101884872e+01,9.523238182067871094e+00,-8.414105772972106934e-01,7.649187743663787842e-02,5.230000000000000000e+02
-7.050876706671726879e+01,-5.216581384072614469e+01,-3.427884047449481386e+01,-5.696117224942099710e+01,-8.882731976022557774e+01,-7.627996411499225360e+01,-5.479854145072363281e+01,-5.530748785246396437e+01,9.523238182067871094e+00,-8.414105772972106934e-01,7.649187743663787842e-02,5.240000000000000000e+02
-6.535905316710011448e+01,-4.952094669863444665e+01,-2.899231574028965497e+01,-5.388368133712788222e+01,-8.300575523745328610e+01,-7.068951507215888341e+01,-4.918061561119543512e+01,-4.831042995030361453e+01,9.523238182067871094e+00,-8.414105772972106934e-01,7.649187743663787842e-02,5.250000000000000000e+02
-6.117367452730286459e+01,-4.538995321648695835e+01,-2.501641085229084638e+01,-4.916053812586267213e+01,-7.759445096006606946e+01,-6.410306075256994518e+01,-4.323503393543546736e+01,-4.146154064351560464e+01,9.523238182067871094e+00,-8.414105772972106934e-01,7.649187743663787842e-02,5.260000000000000000e+02
-5.865439843746855786e+01,-3.899304001145370080e+01,-2.334889554553319613e+01,-4.358051413868997770e+01,-7.417468685676976747e+01,-5.809673865850118091e+01,-3.792769359994349543e+01,-3.680246148028936659e+01,9.523238182067871094e+00,-8.414105772972106934e-01,7.649187743663787842e-02,5.270000000000000000e+02
-5.754834370183380088e+01,-3.106159452471626992e+01,-2.388723688014010804e+01,-3.813787434299410961e+01,-7.346959089003121335e+01,-5.372168899264784159e+01,-3.453500544392045413e+01,-3.511791125514196210e+01,9.523238182067871094e+00,-8.414105772972106934e-01,7.649187743663787842e-02,5.280000000000000000e+02
-5.662932824969425383e+01,-2.342824085758647357e+01,-2.516704630380013441e+01,-3.338014428870303618e+01,-7.463210026587466928e+01,-5.059881589796555090e+01,-3.347489719863597202e+01,-3.525393499140272979e+01,9.523238182067871094e+00,-8.414105772972106934e-01,7.649187743663787842e-02,5.290000000000000000e+02
-5.467367365423899628e+01,-1.790328356385288089e+01,-2.535792511988711340e+01,-2.956333800132756551e+01,-7.586228464815644656e+01,-4.757265799584001797e+01,-3.384811637412894925e+01,-3.521624668227491384e+01,9.523238182067871094e+00,-8.414105772972106934e-01,7.649187743663787842e-02,5.300000000000000000e+02
-5.150629221531107760e+01,-1.525502917852691098e+01,-2.365014231285022106e+01,-2.724501203074350997e+01,-7.578998599287683646e+01,-4.421631456471959609e+01,-3.411867538487445017e+01,-3.396288501131584781e+01,9.523238182067871094e+00,-8.414105772972106934e-01,7.649187743663787842e-02,5.310000000000000000e+02
-4.817496515644893407e+01,-1.504091751670495114e+01,-2.081681486700449568e+01,-2.740750045119307288e+01,-7.441425243208163920e+01,-4.157657196018703871e+01,-3.330260770192717246e+01,-3.217260529616396525e+01,9.523238182067871094e+00,-8.414105772972106934e-01,7.649187743663787842e-02,5.320000000000000000e+02
-4.616704334707605994e+01,-1.630795903626665222e+01,-1.852578581408533864e+01,-3.070456476297124482e+01,-7.285444227805874107e+01,-4.130388937761608759e+01,-3.159452858845179435e+01,-3.134476673344556730e+01,9.523238182067871094e+00,-8.414105772972106934e-01,7.649187743663787842e-02,5.330000000000000000e+02
-4.642234583629510780e+01,-1.845672710963054897e+01,-1.809251639029912440e+01,-3.650305371607294092e+01,-7.225185140276107632e+01,-4.397542030459385387e+01,-2.994776517362652157e+01,-3.224823032741960560e+01,9.523238182067871094e+00,-8.414105772972106934e-01,7.649187743663787842e-02,5.340000000000000000e+02
-4.891825427083040267e+01,-2.149965996646881194e+01,-1.974625148582754264e+01,-4.283797887012656247e+01,-7.287896503539332116e+01,-4.829090031344344425e+01,-2.913966873548497460e+01,-3.427022046518436582e+01,9.523238182067871094e+00,-8.414105772972106934e-01,7.649187743663787842e-02,5.350000000000000000e+02
-5.294765794090858435e+01,-2.556741690850918758e+01,-2.284734131359755338e+01,-4.760754116498469557e+01,-7.420500885918568201e+01,-5.198389324545269119e+01,-2.926279202770410848e+01,-3.619418677451972144e+01,9.523238182067871094e+00,-8.414105772972106934e-01,7.649187743663787842e-02,5.360000000000000000e+02
-5.764050429938765774e+01,-3.024559734437792713e+01,-2.660786808797365666e+01,-5.006770604890130016e+01,-7.569031749381088048e+01,-5.361206389030712671e+01,-3.002725633700265462e+01,-3.749980932025482616e+01,9.523238182067871094e+00,-8.414105772972106934e-01,7.649187743663787842e-02,5.370000000000000000e+02
-6.229915065002273877e+01,-3.448016814327758084e+01,-3.058672597355780454e+01,-5.126142486562503109e+01,-7.742060743748834284e+01,-5.354784960985125508e+01,-3.138252030256671787e+01,-3.887213121968329688e+01,9.523238182067871094e+00,-8.414105772972106934e-01,7.649187743663787842e-02,5.380000000000000000e+02
-6.650050955160577359e+01,-3.725097494943406673e+01,-3.467789760283403666e+01,-5.296782826325602400e+01,-7.995257014908838755e+01,-5.333790773169948807e+01,-3.369883880799443432e+01,-4.151432267680911536e+01,9.523238182067871094e+00,-8.414105772972106934e-01,7.649187743663787842e-02,5.390000000000000000e+02
-7.010963836260771131e+01,-3.844920229909541831e+01,-3.886504401804040754e+01,-5.615463964342347936e+01,-8.362006171221673867e+01,-5.420915318405513972e+01,-3.733236247013473985e+01,-4.602962274173046353e+01,9.523238182067871094e+00,-8.414105772972106934e-01,7.649187743663787842e-02,5.400000000000000000e+02
-7.323102432712039445e+01,-3.913010221522216625e+01,-4.309399846053338479e+01,-6.035797169635043247e+01,-8.808008218404575018e+01,-5.619695161098889002e+01,-4.211062152473778042e+01,-5.190812877572079742e+01,9.523238182067871094e+00,-8.414105772972106934e-01,7.649187743663787842e-02,5.410000000000000000e+02
-7.601950765211950056e+01,-4.081981744370108345e+01,-4.728198745869940467e+01,-6.444542726420058898e+01,-9.253851194738263075e+01,-5.855316398143622791e+01,-4.731218052105077732e+01,-5.793996292578799512e+01,9.523238182067871094e+00,-8.414105772972106934e-01,7.649187743663787842e-02,5.420000000000000000e+02
-7.842197661795557906e+01,-4.438171128409794619e+01,-5.127873370646921103e+01,-6.786057508273938765e+01,-9.634442906915319327e+01,-6.075672759326334926e+01,-5.211816815874271924e+01,-6.302427831113959655e+01,9.523238182067871094e+00,-8.414105772972106934e-01,7.649187743663787842e-02,5.430000000000000000e+02
-8.015150593979842597e+01,-4.938197304421197487e+01,-5.476865060126328899e+01,-7.109505388932029746e+01,-9.931280723198096894e+01,-6.298975010291997023e+01,-5.602508375325396628e+01,-6.667620166054643960e+01,9.523238182067871094e+00,-8.414105772972106934e-01,7.649187743663787842e-02,5.440000000000000000e+02
-8.108924090438040366e+01,-5.450545764311186758e+01,-5.734638923680540756e+01,-7.503848179960505149e+01,-1.015579144432786052e+02,-6.572383329413514730e+01,-5.888493264114822523e+01,-6.901943621859481937e+01,9.523238182067871094e+00,-8.414105772972106934e-01,7.649187743663787842e-02,5.450000000000000000e+02
-8.182068700617628565e+01,-5.866793834689286768e+01,-5.889925610178306670e+01,-8.000722448265491948e+01,-1.032092949136840616e+02,-6.906981115311737085e+01,-6.075259019154646012e+01,-7.055004189756209598e+01,9.523238182067871094e+00,-8.414105772972106934e-01,7.649187743663787842e-02,5.460000000000000000e+02
-8.366355406312322884e+01,-6.184457764078808850e+01,-5.999356829387124890e+01,-8.543926854037545127e+01,-1.044270148841283117e+02,-7.266495172168924910e+01,-6.188102960721835188e+01,-7.195155921158448109e+01,9.523238182067871094e+00,-8.414105772972106934e-01,7.649187743663787842e-02,5.470000000000000000e+02
-8.786639693179267852e+01,-6.488564126638800644e+01,-6.175015555628215225e+01,-9.041076394536685257e+01,-1.056458587573793011e+02,-7.611433481757785557e+01,-6.284622682332428667e+01,-7.393701477381455334e+01,9.523238182067871094e+00,-8.414105772972106934e-01,7.649187743663787842e-02,5.480000000000000000e+02
-9.447952859130327852e+01,-6.854189885465154930e+01,-6.509083188643671747e+01,-9.430218909274208272e+01,-1.075828066562266940e+02,-7.934187536506578908e+01,-6.443826819202240586e+01,-7.697315741274496759e+01,9.523238182067871094e+00,-8.414105772972106934e-01,7.649187743663787842e-02,5.490000000000000000e+02
-1.019266624611509542e+02,-7.267020334616654509e+01,-6.993837940534922382e+01,-9.698983090093861392e+01,-1.108003534351928465e+02,-8.242782916278611083e+01,-6.718102139457914745e+01,-8.097309045282827356e+01,9.523238182067871094e+00,-8.414105772972106934e-01,7.649187743663787842e-02,5.500000000000000000e+02
-1.078656861050135376e+02,-7.637986776271759481e+01,-7.515273545642367026e+01,-9.862200733042482170e+01,-1.152059697935851545e+02,-8.521947137626284530e+01,-7.087243296609631216e+01,-8.525678580221938319e+01,9.484992027282714844e+00,-7.266727685928344727e-01,0.000000000000000000e+00,5.510000000000000000e+02
-1.107727181313753135e+02,-7.891218611277349737e+01,-7.935976033264751095e+01,-9.945158371482784787e+01,-1.200149681567995685e+02,-8.728056156280945288e+01,-7.466730827725314157e+01,-8.891145130567247179e+01,9.484992027282714844e+00,-7.266727685928344727e-01,0.000000000000000000e+00,5.520000000000000000e+02
-1.109356700262451341e+02,-8.030173654081329460e+01,-8.194615465448896430e+01,-9.990515151251725001e+01,-1.242245760802825316e+02,-8.828769218911247663e+01,-7.771318983027140348e+01,-9.127723580367228351e+01,9.484992027282714844e+00,-7.266727685928344727e-01,0.000000000000000000e+00,5.530000000000000000e+02
-1.099942008983462074e+02,-8.113626693490584785e+01,-8.328074051983230675e+01,-1.005573483362250045e+02,-1.271076711180458005e+02,-8.837208245533020090e+01,-7.972395401928042702e+01,-9.212530078291183600e+01,9.484992027282714844e+00,-7.266727685928344727e-01,0.000000000000000000e+00,5.540000000000000000e+02
-1.094672122391762059e+02,-8.173757665133143746e+01,-8.401256393448375093e+01,-1.017291046948489566e+02,-1.283024536666030144e+02,-8.796804542070276511e+01,-8.094169679355854896e+01,-9.145372824468358885e+01,9.484992027282714844e+00,-7.266727685928344727e-01,0.000000000000000000e+00,5.550000000000000000e+02
-1.096466620794085429e+02,-8.176243490252431911e+01,-8.427640042253005959e+01,-1.030462207316909371e+02,-1.276613640600708095e+02,-8.737969208823415102e+01,-8.164301609187077702e+01,-8.931842827645459693e+01,9.484992027282714844e+00,-7.266727685928344727e-01,0.000000000000000000e+00,5.560000000000000000e+02
-1.098414585792106664e+02,-8.077148397195276175e+01,-8.373809566020781858e+01,-1.036296079227358859e+02,-1.253280294227788545e+02,-8.666262999002265133e+01,-8.185330901090765110e+01,-8.609193971903323472e+01,9.484992027282714844e+00,-7.266727685928344727e-01,0.000000000000000000e+00,5.570000000000000000e+02
-1.095868934174636706e+02,-7.918192672378779662e+01,-8.245719316437771340e+01,-1.030269907156957743e+02,-1.221064529751320151e+02,-8.601379167543746007e+01,-8.161964598578833829e+01,-8.291352006531087682e+01,9.484992027282714844e+00,-7.266727685928344727e-01,0.000000000000000000e+00,5.580000000000000000e+02
-1.094817822957497810e+02,-7.846665208711920059e+01,-8.154501126001287048e+01,-1.020533477930684967e+02,-1.195720509393704560e+02,-8.613760135418669961e+01,-8.144145276469043893e+01,-8.160073877320519387e+01,9.484992027282714844e+00,-7.266727685928344727e-01,0.000000000000000000e+00,5.590000000000000000e+02
-1.107329082232545261e+02,-8.016200069302783504e+01,-8.268032939636168521e+01,-1.025102869281645326e+02,-1.194126852558374594e+02,-8.793476249600644223e+01,-8.217871342350099439e+01,-8.362014696997857754e+01,9.484992027282714844e+00,-7.266727685928344727e-01,0.000000000000000000e+00,5.600000000000000000e+02
-1.138703074116206153e+02,-8.451436941276404013e+01,-8.672590496643488223e+01,-1.057454719801544343e+02,-1.222880998320124490e+02,-9.160909647273456358e+01,-8.433548007864555984e+01,-8.875846982595203372e+01,9.484992027282714844e+00,-7.266727685928344727e-01,0.000000000000000000e+00,5.610000000000000000e+02
-1.180169696011671476e+02,-9.010344151274455271e+01,-9.275519913490052204e+01,-1.112812446149196148e+02,-1.272093653197698586e+02,-9.608906057702824910e+01,-8.741192739243342658e+01,-9.479399247507126347e+01,9.484992027282714844e+00,-7.266727685928344727e-01,0.000000000000000000e+00,5.620000000000000000e+02
-1.215487968174707021e+02,-9.489135030625766376e+01,-9.855744955812861008e+01,-1.168926751102326307e+02,-1.321644418973492066e+02,-9.954493605407878931e+01,-9.009730109775136953e+01,-9.883666156044046147e+01,9.484992027282714844e+00,-7.266727685928344727e-01,0.000000000000000000e+00,5.630000000000000000e+02
-1.235132618720890605e+02,-9.774594777752827213e+01,-1.022732800462117666e+02,-1.202288065238294621e+02,-1.355487656948516815e+02,-1.007189952589369568e+02,-9.124871992574571777e+01,-9.944517787512313589e+01,9.484992027282714844e+00,-7.266727685928344727e-01,0.000000000000000000e+00,5.640000000000000000e+02
-1.243317660762882042e+02,-9.901821874007066526e+01,-1.036438970956123740e+02,-1.205680191839092004e+02,-1.371329052675000639e+02,-9.987484255527942878e+01,-9.076789454398658563e+01,-9.766891076787169368e+01,9.484992027282714844e+00,-7.266727685928344727e-01,0.000000000000000000e+00,5.650000000000000000e+02
-1.250762651163367991e+02,-9.975857969948901882e+01,-1.037397586388860873e+02,-1.191424087155905909e+02,-1.377224986633718800e+02,-9.846079064748028031e+01,-8.956417255088581442e+01,-9.598697945583671753e+01,9.484992027282714844e+00,-7.266727685928344727e-01,0.000000000000000000e+00,5.660000000000000000e+02
-1.261264853827506158e+02,-1.005146345656012272e+02,-1.035507080069573931e+02,-1.178191306227372479e+02,-1.379392684820722934e+02,-9.779701358068723493e+01,-8.867362123196471657e+01,-9.604637518861636636e+01,9.484992027282714844e+00,-7.266727685928344727e-01,0.000000000000000000e+00,5.670000000000000000e+02
-1.266735838486370085e+02,-1.009500197291160930e+02,-1.029420329143349591e+02,-1.174616127111562491e+02,-1.374228195133664485e+02,-9.802963277913022466e+01,-8.841728365253766242e+01,-9.728064788653227879e+01,9.484992027282714844e+00,-7.266727685928344727e-01,0.000000000000000000e+00,5.680000000000000000e+02
-1.256192861575918869e+02,-1.005348674880092403e+02,-1.010361948130548626e+02,-1.174643567946345684e+02,-1.352797514503272396e+02,-9.828705532922322163e+01,-8.836884998083405662e+01,-9.767975984877284645e+01,9.484992027282714844e+00,-7.266727685928344727e-01,0.000000000000000000e+00,5.690000000000000000e+02
-1.228679922145011005e+02,-9.938138539041119657e+01,-9.751955428203200427e+01,-1.166924804909494924e+02,-1.312824195950770445e+02,-9.775268369059267570e+01,-8.803458405032051814e+01,-9.588799568053673283e+01,9.484992027282714844e+00,-7.266727685928344727e-01,0.000000000000000000e+00,5.700000000000000000e+02
-1.195603948432863035e+02,-9.822007995550347914e+01,-9.338827532037976198e+01,-1.147123473017272772e+02,-1.264990473608968387e+02,-9.649575288870346412e+01,-8.745429214401883655e+01,-9.252901439298693731e+01,9.484992027282714844e+00,-7.266727685928344727e-01,0.000000000000000000e+00,5.710000000000000000e+02
-1.169851541393636580e+02,-9.757299436993343988e+01,-9.029065817262471683e+01,-1.121208665440494769e+02,-1.226253071863229707e+02,-9.527779644873407960e+01,-8.710395344209700852e+01,-8.953155713556316186e+01,9.523238182067871094e+00,-8.414105772972106934e-01,7.649187743663787842e-02,5.720000000000000000e+02
-1.153929410401533460e+02,-9.714975534978430005e+01,-8.915700595117232297e+01,-1.098746322484485063e+02,-1.206507911064691143e+02,-9.468698567278806877e+01,-8.728476023239636561e+01,-8.827223717847118678e+01,9.523238182067871094e+00,-8.414105772972106934e-01,7.649187743663787842e-02,5.730000000000000000e+02
-1.140450985668176145e+02,-9.622893203911439741e+01,-8.955458782762798364e+01,-1.084851642021180851e+02,-1.201735615620600583e+02,-9.459528702690022328e+01,-8.770838355655359919e+01,-8.844354875824865303e+01,9.523238182067871094e+00,-8.414105772972106934e-01,7.649187743663787842e-02,5.740000000000000000e+02
-1.124097280767909979e+02,-9.459817464486059180e+01,-9.038402222771946981e+01,-1.078495577339144802e+02,-1.200101507243653032e+02,-9.448439334879185481e+01,-8.775605932210419269e+01,-8.868303771170394612e+01,9.523238182067871094e+00,-8.414105772972106934e-01,7.649187743663787842e-02,5.750000000000000000e+02
-1.110532793011980175e+02,-9.292097053930137918e+01,-9.106352319067809731e+01,-1.076336394881473097e+02,-1.194160855983554939e+02,-9.416809015629951318e+01,-8.713355057898843370e+01,-8.814718743475805240e+01,9.523238182067871094e+00,-8.414105772972106934e-01,7.649187743663787842e-02,5.760000000000000000e+02
-1.110600456469337587e+02,-9.199815024569033994e+01,-9.185695549848242081e+01,-1.075677393930786820e+02,-1.186265892482824711e+02,-9.399637363772308163e+01,-8.618360609858791577e+01,-8.733502439759831759e+01,9.523238182067871094e+00,-8.414105772972106934e-01,7.649187743663787842e-02,5.770000000000000000e+02
-1.125040881666973291e+02,-9.167714849499179763e+01,-9.304609563857047760e+01,-1.073448670874686286e+02,-1.182182145317674440e+02,-9.427599234260742378e+01,-8.548840023933917109e+01,-8.741155100460127869e+01,9.523238182067871094e+00,-8.414105772972106934e-01,7.649187743663787842e-02,5.780000000000000000e+02
-1.137373628736095270e+02,-9.067828250195861983e+01,-9.402517234161950910e+01,-1.064828835995313057e+02,-1.180999666186462491e+02,-9.460576385533749999e+01,-8.517955358886683825e+01,-8.889559072225802083e+01,9.523238182067871094e+00,-8.414105772972106934e-01,7.649187743663787842e-02,5.790000000000000000e+02
-1.125484950224154090e+02,-8.770973542657134203e+01,-9.352961478472116141e+01,-1.046140594739217704e+02,-1.173669720284342475e+02,-9.401076758429826441e+01,-8.473829753189966141e+01,-9.112265926880900224e+01,9.523238182067871094e+00,-8.414105772972106934e-01,7.649187743663787842e-02,5.800000000000000000e+02
-1.082710765325373359e+02,-8.285171533955644918e+01,-9.093211538739342359e+01,-1.020410903122938180e+02,-1.152786939446605174e+02,-9.189787576146227366e+01,-8.356737778216847801e+01,-9.293039122010213759e+01,9.523238182067871094e+00,-8.414105772972106934e-01,7.649187743663787842e-02,5.810000000000000000e+02
-1.027728593546808042e+02,-7.781316119060011260e+01,-8.726138776088828308e+01,-9.987308646567362302e+01,-1.123101244006238630e+02,-8.888103672267970978e+01,-8.176419047698800568e+01,-9.371978559483613935e+01,9.523238182067871094e+00,-8.414105772972106934e-01,7.649187743663787842e-02,5.820000000000000000e+02
-9.920952502706768428e+01,-7.470952235894310434e+01,-8.472384997006065532e+01,-9.933627436456845317e+01,-1.100224443455153960e+02,-8.652530171702892403e+01,-8.024205026631716464e+01,-9.376851004371656018e+01,9.523238182067871094e+00,-8.414105772972106934e-01,7.649187743663787842e-02,5.830000000000000000e+02
-9.958455895541737846e+01,-7.446230680875123653e+01,-8.502191896137173899e+01,-1.007653102927779400e+02,-1.097289229238558619e+02,-8.613093883209694468e+01,-7.998656377598672407e+01,-9.363415644380711456e+01,9.523238182067871094e+00,-8.414105772972106934e-01,7.649187743663787842e-02,5.840000000000000000e+02
-1.033127391048337813e+02,-7.626225503026103070e+01,-8.802489740384498873e+01,-1.032390149842176470e+02,-1.112676326538457943e+02,-8.768124620104754285e+01,-8.114808836418160354e+01,-9.345958667743889237e+01,9.523238182067871094e+00,-8.414105772972106934e-01,7.649187743663787842e-02,5.850000000000000000e+02
-1.079667126455105972e+02,-7.844098327344045174e+01,-9.201192510061628127e+01,-1.052663947916062170e+02,-1.131561431183636159e+02,-8.994013100597658195e+01,-8.288055142233315564e+01,-9.294068495658848406e+01,9.523238182067871094e+00,-8.414105772972106934e-01,7.649187743663787842e-02,5.860000000000000000e+02
-1.113085551681742800e+02,-7.977425951321083630e+01,-9.515195073690119898e+01,-1.059079172341762387e+02,-1.139736827554133924e+02,-9.154556244719606184e+01,-8.408168988885336148e+01,-9.186261564161486604e+01,9.523238182067871094e+00,-8.414105772972106934e-01,7.649187743663787842e-02,5.870000000000000000e+02
-1.126554550749488044e+02,-8.001295582765442305e+01,-9.673224521976408141e+01,-1.052891673251815519e+02,-1.135299340062192641e+02,-9.198712028251429729e+01,-8.428169452802103478e+01,-9.045978223731526668e+01,9.523238182067871094e+00,-8.414105772972106934e-01,7.649187743663787842e-02,5.880000000000000000e+02
-1.125480170145547163e+02,-7.941425474705806664e+01,-9.706230670271179406e+01,-1.041004942288755046e+02,-1.126379396576976433e+02,-9.158237965420812543e+01,-8.381283534273643454e+01,-8.913038670628611726e+01,9.523238182067871094e+00,-8.414105772972106934e-01,7.649187743663787842e-02,5.890000000000000000e+02
-1.114606220392297473e+02,-7.808528644092098148e+01,-9.644514596227418224e+01,-1.027246585407510793e+02,-1.118474670830946707e+02,-9.068910016494191950e+01,-8.318949028967836057e+01,-8.785032792618130770e+01,9.523238182067871094e+00,-8.414105772972106934e-01,7.649187743663787842e-02,5.900000000000000000e+02
-1.090945697627075788e+02,-7.596511657638325232e+01,-9.452298932026678813e+01,-1.009402451635787656e+02,-1.106062852713730535e+02,-8.915194961802080797e+01,-8.244630128042626893e+01,-8.601877493044230505e+01,9.523238182067871094e+00,-8.414105772972106934e-01,7.649187743663787842e-02,5.910000000000000000e+02
-1.049297345104387205e+02,-7.334983648265642842e+01,-9.076188347715378768e+01,-9.842952734865957609e+01,-1.078062562537434133e+02,-8.659100766038500296e+01,-8.113358590831921902e+01,-8.299484398301956389e+01,9.523238182067871094e+00,-8.414105772972106934e-01,7.649187743663787842e-02,5.920000000000000000e+02
-9.926581327654548659e+01,-7.114314384458293716e+01,-8.549618316268242779e+01,-9.540836682260396628e+01,-1.031069786152365850e+02,-8.309815685221656167e+01,-7.888603773850081780e+01,-7.879756819265548984e+01,9.523238182067871094e+00,-8.414105772972106934e-01,7.649187743663787842e-02,5.930000000000000000e+02
-9.350030127512945910e+01,-7.031378600025777814e+01,-8.027849626316765352e+01,-9.258902369760380680e+01,-9.755974211217471748e+01,-7.943829976403139881e+01,-7.587397409869845433e+01,-7.423594614680314407e+01,9.523238182067871094e+00,-8.414105772972106934e-01,7.649187743663787842e-02,5.940000000000000000e+02
-8.928349423412601027e+01,-7.099672085785596209e+01,-7.698271522598406591e+01,-9.047900421813119465e+01,-9.282304028608996305e+01,-7.645158423001339543e+01,-7.267379980778241588e+01,-7.030137792982350220e+01,9.523238182067871094e+00,-8.414105772972106934e-01,7.649187743663787842e-02,5.950000000000000000e+02
-8.735218743547375198e+01,-7.217316365542296808e+01,-7.638024040222990152e+01,-8.878457712404360791e+01,-8.975422062453071703e+01,-7.428710575273180439e+01,-6.977705527865691693e+01,-6.738093112020305853e+01,9.523238182067871094e+00,-8.414105772972106934e-01,7.649187743663787842e-02,5.960000000000000000e+02
-8.709105034881940810e+01,-7.233826157536259416e+01,-7.747467523542218260e+01,-8.659988535313823377e+01,-8.778093916473699210e+01,-7.231001622476833290e+01,-6.730226770412446058e+01,-6.502277053430407250e+01,9.484992027282714844e+00,-9.561483860015869141e-01,-3.824593871831893921e-02,5.970000000000000000e+02
-8.706519062433562794e+01,-7.057317711137011429e+01,-7.817878985339666542e+01,-8.321592102000522573e+01,-8.558034750304796034e+01,-6.976617914206872229e+01,-6.511958618171047419e+01,-6.239642108324733272e+01,9.484992027282714844e+00,-9.561483860015869141e-01,-3.824593871831893921e-02,5.980000000000000000e+02
-8.590282813576686749e+01,-6.704769137982748362e+01,-7.674160476662473229e+01,-7.873413973305196123e+01,-8.228251718945284665e+01,-6.646909731809319055e+01,-6.308529751524292806e+01,-5.896002965390380268e+01,9.484992027282714844e+00,-9.561483860015869141e-01,-3.824593871831893921e-02,5.990000000000000000e+02
-8.283128136018876830e+01,-6.259604486915077359e+01,-7.279644336563069373e+01,-7.391715605509671150e+01,-7.806665232247723907e+01,-6.283092283560836222e+01,-6.106074924688437022e+01,-5.477308641390573030e+01,9.484992027282714844e+00,-9.561483860015869141e-01,-3.824593871831893921e-02,6.000000000000000000e+02
-7.776797833450928010e+01,-5.792938174163873555e+01,-6.738604032389957865e+01,-6.955089520922138036e+01,-7.381668521806932404e+01,-5.936533309886362986e+01,-5.881143498840356187e+01,-5.036345526449076715e+01,9.484992027282714844e+00,-9.561483860015869141e-01,-3.824593871831893921e-02,6.010000000000000000e+02
-7.131061930400846904e+01,-5.332425785249392902e+01,-6.218707305973657640e+01,-6.604609543040805875e+01,-7.042068961159384344e+01,-5.634528648859486566e+01,-5.612140459975125850e+01,-4.646454766507122258e+01,9.484992027282714844e+00,-9.561483860015869141e-01,-3.824593871831893921e-02,6.020000000000000000e+02
-6.476208269831840880e+01,-4.899494508375596524e+01,-5.860672039307974046e+01,-6.359681900697160017e+01,-6.839061192584267701e+01,-5.397603255763169727e+01,-5.314199240634297894e+01,-4.383492391451181902e+01,9.484992027282714844e+00,-9.561483860015869141e-01,-3.824593871831893921e-02,6.030000000000000000e+02
-5.985568751050595893e+01,-4.554049250655270953e+01,-5.722905020178041013e+01,-6.246154532394848502e+01,-6.784816243566820049e+01,-5.268207642658671830e+01,-5.053776701164497354e+01,-4.303865133373801655e+01,9.484992027282714844e+00,-9.561483860015869141e-01,-3.824593871831893921e-02,6.040000000000000000e+02
-5.791024246606866654e+01,-4.377069095875458515e+01,-5.768548013540566899e+01,-6.276828270325131598e+01,-6.852113478779756406e+01,-5.289151905305516266e+01,-4.906039642750147323e+01,-4.402837789096338383e+01,9.484992027282714844e+00,-9.561483860015869141e-01,-3.824593871831893921e-02,6.050000000000000000e+02
-5.883406842896147282e+01,-4.393256464676733231e+01,-5.886187270751906908e+01,-6.390819750798345922e+01,-6.962845122928411001e+01,-5.434350772006291663e+01,-4.881138077998002700e+01,-4.577876779271355190e+01,9.484992027282714844e+00,-9.561483860015869141e-01,-3.824593871831893921e-02,6.060000000000000000e+02
-6.089392109597793024e+01,-4.509900874226650558e+01,-5.937091190079263470e+01,-6.428269377639026061e+01,-6.994908061590467696e+01,-5.569098946057420108e+01,-4.892113164542024606e+01,-4.651089481831877492e+01,9.484992027282714844e+00,-9.561483860015869141e-01,-3.824593871831893921e-02,6.070000000000000000e+02
-6.173145867103266937e+01,-4.547186871687290477e+01,-5.817001896866167954e+01,-6.203547055531998922e+01,-6.832898118021876144e+01,-5.507725332934751350e+01,-4.808363917963288259e+01,-4.467568434387430898e+01,9.484992027282714844e+00,-9.561483860015869141e-01,-3.824593871831893921e-02,6.080000000000000000e+02
-5.995799175553111127e+01,-4.352427214948284018e+01,-5.502761271809140453e+01,-5.639845163780864823e+01,-6.435226838838934782e+01,-5.141048116136516910e+01,-4.554631635706391535e+01,-4.005647075896195020e+01,9.484992027282714844e+00,-9.561483860015869141e-01,-3.824593871831893921e-02,6.090000000000000000e+02
-5.596897875060676597e+01,-3.907659269274472535e+01,-5.050152506390804774e+01,-4.847188977436690038e+01,-5.857857416483057023e+01,-4.524127321191735973e+01,-4.166391440636289190e+01,-3.398127971981193696e+01,9.484992027282714844e+00,-9.561483860015869141e-01,-3.824593871831893921e-02,6.100000000000000000e+02
-5.124281993161821447e+01,-3.337902740563049520e+01,-4.540787243678278173e+01,-4.057925962069020898e+01,-5.208521641174411343e+01,-3.839002281305693032e+01,-3.749799265015826677e+01,-2.828345243711737567e+01,9.484992027282714844e+00,-9.561483860015869141e-01,-3.824593871831893921e-02,6.110000000000000000e+02
-4.680334763322935032e+01,-2.812839182159814300e+01,-4.020505034453708504e+01,-3.460428605812558089e+01,-4.571942472655791789e+01,-3.260593349614282488e+01,-3.384623399728661752e+01,-2.384393654743871593e+01,9.484992027282714844e+00,-9.561483860015869141e-01,-3.824593871831893921e-02,6.120000000000000000e+02
-4.236101136524121102e+01,-2.427605069729179377e+01,-3.483203025119473750e+01,-3.073023141786779888e+01,-3.972824032507196534e+01,-2.843166198906328646e+01,-3.061725129330079653e+01,-2.003482050274396897e+01,9.484992027282714844e+00,-9.561483860015869141e-01,-3.824593871831893921e-02,6.130000000000000000e+02
