F3,F4,C3,C4,P3,P4,Cz,Pz,Accel_x,Accel_y,Accel_z,Sample
-2.501110429875552654e-11,-5.968558980384841561e-12,-1.091393642127513885e-11,-9.777068044058978558e-12,-3.001332515850663185e-11,-3.456079866737127304e-11,-4.547473508864641190e-11,-1.546140993013978004e-11,9.446745872497558594e+00,-8.414105772972106934e-01,3.059675097465515137e-01,2.020000000000000000e+02
-1.854177322040641229e+01,-1.475935807122959886e+01,-9.127279169063513109e+00,-7.927294305664645435e+00,-4.604015774647268699e+01,-3.878912020048710474e+01,-3.929935903541172593e+01,-6.730142462399271608e+00,9.446745872497558594e+00,-8.414105772972106934e-01,3.059675097465515137e-01,2.030000000000000000e+02
-4.143554714442871045e+01,-2.936700793012840904e+01,-1.980410462778718284e+01,-1.687504339464067016e+01,-8.078031848430327955e+01,-7.209004112385036933e+01,-6.613271822289152624e+01,-1.808863142110158151e+01,9.446745872497558594e+00,-8.414105772972106934e-01,3.059675097465515137e-01,2.040000000000000000e+02
-6.888680185832390634e+01,-4.316137787030930895e+01,-3.198965025744519153e+01,-2.616628034982659301e+01,-1.022770753824352141e+02,-9.845065936890296143e+01,-7.851038434485417383e+01,-3.396082222205359358e+01,9.446745872497558594e+00,-8.414105772972106934e-01,3.059675097465515137e-01,2.050000000000000000e+02
-9.679364514591588886e+01,-5.521145717986917134e+01,-4.393072091540307156e+01,-3.350762793986564247e+01,-1.182101768264542443e+02,-1.207416240675438530e+02,-8.523538426530831202e+01,-4.954174666065682686e+01,9.446745872497558594e+00,-8.414105772972106934e-01,3.059675097465515137e-01,2.060000000000000000e+02
-1.206405432357610152e+02,-6.519113420365812317e+01,-5.368204006679616214e+01,-3.696176259575031509e+01,-1.375192079740677400e+02,-1.428602036350430353e+02,-9.649093798479862016e+01,-6.014003745260697542e+01,9.446745872497558594e+00,-8.414105772972106934e-01,3.059675097465515137e-01,2.070000000000000000e+02
-1.396675961760911377e+02,-7.401660080383857121e+01,-6.101362455609933022e+01,-3.711273693754924352e+01,-1.624831079959794806e+02,-1.665205175051846709e+02,-1.147744852553360033e+02,-6.598360096588476154e+01,9.446745872497558594e+00,-8.414105772972106934e-01,3.059675097465515137e-01,2.080000000000000000e+02
-1.574785840557583469e+02,-8.355441033476148505e+01,-6.806596874667002339e+01,-3.742266630505105240e+01,-1.889135425002823467e+02,-1.911691347136802506e+02,-1.348927213103697795e+02,-7.238837487140972371e+01,9.523238182067871094e+00,-7.649186849594116211e-01,3.442134261131286621e-01,2.090000000000000000e+02
-1.788330159027268564e+02,-9.560087766741997939e+01,-7.811420295026073291e+01,-4.224594471421301023e+01,-2.128376824616216254e+02,-2.162974252207077370e+02,-1.515184177542059842e+02,-8.524339936218348157e+01,9.523238182067871094e+00,-7.649186849594116211e-01,3.442134261131286621e-01,2.100000000000000000e+02
-2.058027159656589902e+02,-1.109713171670528595e+02,-9.331905037957540117e+01,-5.392186055953720825e+01,-2.354584628372867883e+02,-2.429054489924010340e+02,-1.652656795339689779e+02,-1.060918779106987131e+02,9.523238182067871094e+00,-7.649186849594116211e-01,3.442134261131286621e-01,2.110000000000000000e+02
-2.365718761316175005e+02,-1.293230008447563932e+02,-1.131577631011014091e+02,-7.119632848754622501e+01,-2.611606503651696585e+02,-2.723413430540344962e+02,-1.811018264451904543e+02,-1.311174032876067486e+02,9.523238182067871094e+00,-7.649186849594116211e-01,3.442134261131286621e-01,2.120000000000000000e+02
-2.673944655029692967e+02,-1.495879289292961971e+02,-1.347329795719383583e+02,-9.020402274109392238e+01,-2.916735778397719514e+02,-3.041367166551785886e+02,-2.019652002803359210e+02,-1.545112445638080771e+02,9.523238182067871094e+00,-7.649186849594116211e-01,3.442134261131286621e-01,2.130000000000000000e+02
-2.955626016733031065e+02,-1.705063209824652972e+02,-1.547552178981909492e+02,-1.072576753748517149e+02,-3.235614187061687517e+02,-3.357366658647397344e+02,-2.253286534000339998e+02,-1.729631187021359437e+02,9.523238182067871094e+00,-7.649186849594116211e-01,3.442134261131286621e-01,2.140000000000000000e+02
-3.209760931891855762e+02,-1.909883249168519228e+02,-1.717653673485560830e+02,-1.213255501424171143e+02,-3.518575102850140865e+02,-3.647747121075972245e+02,-2.462819055046015819e+02,-1.876361482772904310e+02,9.523238182067871094e+00,-7.649186849594116211e-01,3.442134261131286621e-01,2.150000000000000000e+02
-3.455842982322797070e+02,-2.103939627902863663e+02,-1.869699168900056065e+02,-1.343523619558925475e+02,-3.754927738348460480e+02,-3.914598300773650408e+02,-2.630954726843247045e+02,-2.025723889593898548e+02,9.523238182067871094e+00,-7.649186849594116211e-01,3.442134261131286621e-01,2.160000000000000000e+02
-3.716734761180550777e+02,-2.287921415333462392e+02,-2.031036263503149257e+02,-1.493104804269025863e+02,-3.984201163351308423e+02,-4.183851323615272122e+02,-2.789111351697001737e+02,-2.213330171866043656e+02,9.523238182067871094e+00,-7.649186849594116211e-01,3.442134261131286621e-01,2.170000000000000000e+02
-4.003745037931485058e+02,-2.469717000859287737e+02,-2.222402321717299856e+02,-1.676616430087619847e+02,-4.254265445247283424e+02,-4.478744934496921815e+02,-2.980586258262342199e+02,-2.445678452180700333e+02,9.523238182067871094e+00,-7.649186849594116211e-01,3.442134261131286621e-01,2.180000000000000000e+02
-4.311408201198319148e+02,-2.659646157452360740e+02,-2.442700891813447015e+02,-1.883107379846878757e+02,-4.574119471391973093e+02,-4.796639222547537429e+02,-3.214667611100535396e+02,-2.700011942258852287e+02,9.523238182067871094e+00,-7.649186849594116211e-01,3.442134261131286621e-01,2.190000000000000000e+02
-4.622362940218440599e+02,-2.862574086666478479e+02,-2.671842250319023151e+02,-2.087954797628117376e+02,-4.910092677171319338e+02,-5.112800501185679423e+02,-3.460789638746314267e+02,-2.944245418172258724e+02,9.523238182067871094e+00,-7.649186849594116211e-01,3.442134261131286621e-01,2.200000000000000000e+02
-4.918027345273121682e+02,-3.072596564746322088e+02,-2.887577502533913503e+02,-2.274747723928817322e+02,-5.223567036958552308e+02,-5.405278422076748939e+02,-3.683387859236167969e+02,-3.159718660702817488e+02,9.523238182067871094e+00,-7.649186849594116211e-01,3.442134261131286621e-01,2.210000000000000000e+02
-5.188113808175739905e+02,-3.274684483041152134e+02,-3.080501578724415594e+02,-2.446163451596664800e+02,-5.505834459977245388e+02,-5.673291903409658516e+02,-3.875607801476480745e+02,-3.349334751556709762e+02,9.523238182067871094e+00,-7.649186849594116211e-01,3.442134261131286621e-01,2.220000000000000000e+02
-5.432414377701643389e+02,-3.451791987569491766e+02,-3.254043082012533432e+02,-2.613837826940012974e+02,-5.774995369980524629e+02,-5.930381476451898379e+02,-4.057251089181904717e+02,-3.525887819233405480e+02,9.523238182067871094e+00,-7.649186849594116211e-01,3.442134261131286621e-01,2.230000000000000000e+02
-5.653604841402602688e+02,-3.591684926913213189e+02,-3.411128566289196442e+02,-2.778126157225673296e+02,-6.044420309596580410e+02,-6.181738063776792842e+02,-4.244821698267455758e+02,-3.691483287258529344e+02,9.523238182067871094e+00,-7.649186849594116211e-01,3.442134261131286621e-01,2.240000000000000000e+02
-5.847971385421594732e+02,-3.689373392654763961e+02,-3.542391415092411080e+02,-2.919285695457716656e+02,-6.300383377199805182e+02,-6.411523566392702378e+02,-4.428975492714566826e+02,-3.827474698379048732e+02,9.523238182067871094e+00,-7.649186849594116211e-01,3.442134261131286621e-01,2.250000000000000000e+02
-6.003658633146155807e+02,-3.745934829877438688e+02,-3.628947245141466738e+02,-3.010689499237697646e+02,-6.511644730959792469e+02,-6.594237083915068069e+02,-4.581617937592259295e+02,-3.905892936166276286e+02,9.523238182067871094e+00,-7.649186849594116211e-01,3.442134261131286621e-01,2.260000000000000000e+02
-6.109822805122200862e+02,-3.766994678891128387e+02,-3.658260268154904225e+02,-3.042481446576405233e+02,-6.658239556641246963e+02,-6.718577484391530561e+02,-4.681939658194742151e+02,-3.913979630031517445e+02,9.523238182067871094e+00,-7.649186849594116211e-01,3.442134261131286621e-01,2.270000000000000000e+02
-6.169553447026867161e+02,-3.762346926229294013e+02,-3.638627729598308633e+02,-3.032843777013512181e+02,-6.749526882599807323e+02,-6.799973409923281906e+02,-4.734101650461902864e+02,-3.870526901893163085e+02,9.523238182067871094e+00,-7.649186849594116211e-01,3.442134261131286621e-01,2.280000000000000000e+02
-6.204439623156083599e+02,-3.745126156972730200e+02,-3.598616101996897214e+02,-3.015471507469028438e+02,-6.816533456940155702e+02,-6.870131491427709989e+02,-4.762261222273759813e+02,-3.818774744103341163e+02,9.523238182067871094e+00,-7.649186849594116211e-01,3.442134261131286621e-01,2.290000000000000000e+02
-6.245369379584478793e+02,-3.728846922944013613e+02,-3.571388129781473708e+02,-3.014782317486776719e+02,-6.889540107867383085e+02,-6.954296059278417488e+02,-4.791637764987221999e+02,-3.801163711048154710e+02,9.446745872497558594e+00,-8.414105772972106934e-01,2.677215635776519775e-01,2.300000000000000000e+02
-6.316036270144529681e+02,-3.723497711472260789e+02,-3.576826086321211733e+02,-3.031840942273540804e+02,-6.982030938794032409e+02,-7.057074987974610849e+02,-4.833971595456068826e+02,-3.836632617437201134e+02,9.446745872497558594e+00,-8.414105772972106934e-01,2.677215635776519775e-01,2.310000000000000000e+02
-6.421542364399726921e+02,-3.733738374092459367e+02,-3.614810858698435823e+02,-3.052640655696246768e+02,-7.091120573792322830e+02,-7.167269005071625543e+02,-4.887013794142967527e+02,-3.917037560543094514e+02,9.446745872497558594e+00,-8.414105772972106934e-01,2.677215635776519775e-01,2.320000000000000000e+02
-6.550037720853240444e+02,-3.760565722007076488e+02,-3.672594817757021701e+02,-3.068414915270741403e+02,-7.208324407241302652e+02,-7.273944579413237079e+02,-4.943703118942512447e+02,-4.021618587657928856e+02,9.446745872497558594e+00,-8.414105772972106934e-01,2.677215635776519775e-01,2.330000000000000000e+02
-6.684957740678094069e+02,-3.804354240412270656e+02,-3.738183130089403221e+02,-3.087187902024168125e+02,-7.329177392877704733e+02,-7.377877629693366544e+02,-5.001163450866774838e+02,-4.134570136504519269e+02,9.446745872497558594e+00,-8.414105772972106934e-01,2.677215635776519775e-01,2.340000000000000000e+02
-6.818041882469847224e+02,-3.866192774594837829e+02,-3.809215224912873055e+02,-3.126748767930531585e+02,-7.456129181836392945e+02,-7.490078879121849695e+02,-5.063473878151357894e+02,-4.252508752830110552e+02,9.446745872497558594e+00,-8.414105772972106934e-01,2.677215635776519775e-01,2.350000000000000000e+02
-6.954122700301368241e+02,-3.946763222316844804e+02,-3.892724989092912438e+02,-3.198511399886073150e+02,-7.596621651802197448e+02,-7.622436225814740283e+02,-5.138629799873278898e+02,-4.380493485177182720e+02,9.446745872497558594e+00,-8.414105772972106934e-01,2.677215635776519775e-01,2.360000000000000000e+02
-7.105249082635623381e+02,-4.044866889834368635e+02,-3.998050744149725233e+02,-3.299203313337989130e+02,-7.759574709422490741e+02,-7.780593332238718176e+02,-5.233397106777301815e+02,-4.523806221075205940e+02,9.446745872497558594e+00,-8.414105772972106934e-01,2.677215635776519775e-01,2.370000000000000000e+02
-7.278855337326219797e+02,-4.157438728721892858e+02,-4.128042002274071365e+02,-3.416449704175254283e+02,-7.950408394092887647e+02,-7.963153000856830204e+02,-5.348994926524496805e+02,-4.681657503263368199e+02,9.446745872497558594e+00,-8.414105772972106934e-01,2.677215635776519775e-01,2.380000000000000000e+02
-7.468360797510994189e+02,-4.280279400794187836e+02,-4.273044016731960255e+02,-3.538787648293462098e+02,-8.164423458859869243e+02,-8.163281229171882387e+02,-5.479176007303426559e+02,-4.843895878896594240e+02,9.446745872497558594e+00,-8.414105772972106934e-01,2.677215635776519775e-01,2.390000000000000000e+02
-7.653249188335321378e+02,-4.407655698639545108e+02,-4.411119769567694675e+02,-3.658113672978740851e+02,-8.382183885661324894e+02,-8.368234013556880200e+02,-5.611293946176888312e+02,-4.990929151915781858e+02,9.446745872497558594e+00,-8.414105772972106934e-01,2.677215635776519775e-01,2.400000000000000000e+02
-7.809388250650230248e+02,-4.530838638637567328e+02,-4.516126785823046248e+02,-3.764140792228348573e+02,-8.573181530359649969e+02,-8.558633356716024991e+02,-5.730313439629771892e+02,-5.099117096559048150e+02,9.446745872497558594e+00,-8.414105772972106934e-01,2.677215635776519775e-01,2.410000000000000000e+02
-7.923042027380596437e+02,-4.638034017270043137e+02,-4.571034341173667599e+02,-3.841604955789582618e+02,-8.710037159808273373e+02,-8.713397176523681082e+02,-5.824755678466572135e+02,-5.152474472722483370e+02,9.446745872497558594e+00,-8.414105772972106934e-01,2.677215635776519775e-01,2.420000000000000000e+02
-7.998550553888785544e+02,-4.717804343775499092e+02,-4.578689137278001908e+02,-3.878103751023212453e+02,-8.785625642084062292e+02,-8.821167533107388863e+02,-5.891714659994577232e+02,-5.154768519092426686e+02,9.446745872497558594e+00,-8.414105772972106934e-01,2.677215635776519775e-01,2.430000000000000000e+02
-8.053721949709953378e+02,-4.764405081779853504e+02,-4.561309802855241742e+02,-3.876632916797329926e+02,-8.819755636624829549e+02,-8.889932580958331982e+02,-5.937769336451833624e+02,-5.131224594424592169e+02,9.446745872497558594e+00,-8.414105772972106934e-01,2.677215635776519775e-01,2.440000000000000000e+02
-8.106494387239910111e+02,-4.780550630835549555e+02,-4.546792113104754662e+02,-3.858330161238976643e+02,-8.847737399783907222e+02,-8.944136838264601010e+02,-5.974485096227545000e+02,-5.114543233940096343e+02,9.446745872497558594e+00,-8.414105772972106934e-01,2.677215635776519775e-01,2.450000000000000000e+02
-8.163422998653251170e+02,-4.774843797597068260e+02,-4.550639302519321063e+02,-3.848786675120264817e+02,-8.897396219253107574e+02,-9.008045618742132774e+02,-6.010739927648437515e+02,-5.123235760690367897e+02,9.446745872497558594e+00,-8.414105772972106934e-01,2.677215635776519775e-01,2.460000000000000000e+02
-8.218705988385632963e+02,-4.755918529917674391e+02,-4.567423089466501551e+02,-3.858263234544866691e+02,-8.971683671183700426e+02,-9.087493650696337681e+02,-6.046931583475122807e+02,-5.149374530658271851e+02,9.446745872497558594e+00,-8.414105772972106934e-01,2.677215635776519775e-01,2.470000000000000000e+02
-8.263410013878374230e+02,-4.728321564911080941e+02,-4.578963563186780448e+02,-3.874224910082864426e+02,-9.050927458667304109e+02,-9.165945211780986028e+02,-6.075937051812386471e+02,-5.167034659388004911e+02,9.446745872497558594e+00,-8.414105772972106934e-01,2.677215635776519775e-01,2.480000000000000000e+02
-8.295916334841331263e+02,-4.693343364015069596e+02,-4.572484524562534034e+02,-3.874194501596254554e+02,-9.112551836867610291e+02,-9.219332597304735373e+02,-6.090841530316415628e+02,-5.155278172732888606e+02,9.446745872497558594e+00,-8.414105772972106934e-01,2.677215635776519775e-01,2.490000000000000000e+02
-8.324540013441986730e+02,-4.653177142835819495e+02,-4.553294143739876745e+02,-3.847889368226720421e+02,-9.150724777654086211e+02,-9.237373920101299518e+02,-6.092945854510940080e+02,-5.116897487045403068e+02,9.446745872497558594e+00,-8.414105772972106934e-01,2.677215635776519775e-01,2.500000000000000000e+02
-8.361062960919997522e+02,-4.614056027735430234e+02,-4.541427363667025929e+02,-3.808727724019537959e+02,-9.179265399001276364e+02,-9.233336515053399580e+02,-6.092788201841326554e+02,-5.077657542710281859e+02,9.446745872497558594e+00,-8.414105772972106934e-01,2.677215635776519775e-01,2.510000000000000000e+02
-8.412070323374149439e+02,-4.585629003953180245e+02,-4.555865757279943864e+02,-3.784628161340232282e+02,-9.217565888345702660e+02,-9.234791825463585155e+02,-6.103353065530197910e+02,-5.067363188749126266e+02,9.446745872497558594e+00,-8.414105772972106934e-01,2.677215635776519775e-01,2.520000000000000000e+02
-8.475988314939348811e+02,-4.577512373574123785e+02,-4.600540078891509665e+02,-3.796853652675147828e+02,-9.274699095139742440e+02,-9.264602718839491899e+02,-6.131844487986429613e+02,-5.099105307881526414e+02,9.446745872497558594e+00,-8.414105772972106934e-01,2.677215635776519775e-01,2.530000000000000000e+02
-8.547434639078247756e+02,-4.596035155316010332e+02,-4.663680784475645851e+02,-3.845720675116551206e+02,-9.346286523014289287e+02,-9.328381517054324377e+02,-6.177037381776433449e+02,-5.163201384630838220e+02,9.446745872497558594e+00,-8.414105772972106934e-01,2.677215635776519775e-01,2.540000000000000000e+02
-8.623848392153001896e+02,-4.643199608968988628e+02,-4.729667618244341156e+02,-3.914512630789326977e+02,-9.424140954941203745e+02,-9.416656771696152646e+02,-6.233163151206615566e+02,-5.238720697248307943e+02,9.408499717712402344e+00,-8.414105772972106934e-01,2.294756323099136353e-01,2.550000000000000000e+02
-8.708304723763825450e+02,-4.717722267588956129e+02,-4.792095002649181197e+02,-3.986148525493552484e+02,-9.506326664080272622e+02,-9.516484998093201284e+02,-6.295402463231037018e+02,-5.311039905670355665e+02,9.408499717712402344e+00,-8.414105772972106934e-01,2.294756323099136353e-01,2.560000000000000000e+02
-8.806788531909680842e+02,-4.816687474487072791e+02,-4.857377084167529802e+02,-4.057294679123636456e+02,-9.597749873745199238e+02,-9.621260951425442727e+02,-6.362437644468820963e+02,-5.381206329156694892e+02,9.408499717712402344e+00,-8.414105772972106934e-01,2.294756323099136353e-01,2.570000000000000000e+02
-8.923259026707876274e+02,-4.936554631723581679e+02,-4.937887094599198008e+02,-4.138954164701804075e+02,-9.703667280812776426e+02,-9.732492575428072996e+02,-6.436139444041202751e+02,-5.462148385787996858e+02,9.408499717712402344e+00,-8.414105772972106934e-01,2.294756323099136353e-01,2.580000000000000000e+02
-9.056945462700191456e+02,-5.072923059249402513e+02,-5.042173020376301338e+02,-4.245199578228958899e+02,-9.825543608193988803e+02,-9.855756119913812654e+02,-6.521001354694151360e+02,-5.567778495292200205e+02,9.408499717712402344e+00,-8.414105772972106934e-01,2.294756323099136353e-01,2.590000000000000000e+02
-9.202868301135031288e+02,-5.218945455311389878e+02,-5.169749083048093325e+02,-4.380390714434203687e+02,-9.963110075624895217e+02,-9.995669359325229379e+02,-6.623380886490811008e+02,-5.703757407456301962e+02,9.408499717712402344e+00,-8.414105772972106934e-01,2.294756323099136353e-01,2.600000000000000000e+02
-9.352994822036350797e+02,-5.363276403661274117e+02,-5.311434637033034960e+02,-4.533735298674607179e+02,-1.011651130543856425e+03,-1.015169911300322610e+03,-6.747847524808980779e+02,-5.863092418104184844e+02,9.408499717712402344e+00,-8.414105772972106934e-01,2.294756323099136353e-01,2.610000000000000000e+02
-9.495657227393594439e+02,-5.489815416800436196e+02,-5.451447539490097824e+02,-4.682793983713096395e+02,-1.028161629843843002e+03,-1.031446862793861328e+03,-6.890279069811419959e+02,-6.025143094888437645e+02,9.408499717712402344e+00,-8.414105772972106934e-01,2.294756323099136353e-01,2.620000000000000000e+02
-9.614802493108336421e+02,-5.581647652976733980e+02,-5.569397205486062603e+02,-4.802045923861707024e+02,-1.044181972968266109e+03,-1.046439719855904968e+03,-7.033188917144348125e+02,-6.158551447700839390e+02,9.408499717712402344e+00,-8.414105772972106934e-01,2.294756323099136353e-01,2.630000000000000000e+02
-9.693081891638698835e+02,-5.629030517190140017e+02,-5.644677978473262101e+02,-4.872237916914061771e+02,-1.056813063648550042e+03,-1.057691875058891583e+03,-7.150329279848278929e+02,-6.231418307927572187e+02,9.408499717712402344e+00,-8.414105772972106934e-01,2.294756323099136353e-01,2.640000000000000000e+02
-9.719724577214802821e+02,-5.636582815904042718e+02,-5.664951543018700022e+02,-4.887543118361172105e+02,-1.063365422354849670e+03,-1.063476683911917235e+03,-7.220419054757483082e+02,-6.227987974214369160e+02,9.408499717712402344e+00,-8.414105772972106934e-01,2.294756323099136353e-01,2.650000000000000000e+02
-9.697971429935059859e+02,-5.622774074714686776e+02,-5.634296278750505280e+02,-4.857629565216244600e+02,-1.063285356575445121e+03,-1.063979506323184751e+03,-7.240171996261288996e+02,-6.161454039748100513e+02,9.408499717712402344e+00,-8.414105772972106934e-01,2.294756323099136353e-01,2.660000000000000000e+02
-9.644333196729603515e+02,-5.609022009820864696e+02,-5.572486968437000314e+02,-4.802135600178207255e+02,-1.058740475764237999e+03,-1.061311747350364158e+03,-7.225094586646614516e+02,-6.068690992020648309e+02,9.408499717712402344e+00,-8.414105772972106934e-01,2.294756323099136353e-01,2.670000000000000000e+02
-9.577862054846137880e+02,-5.604391335519046606e+02,-5.502217710077301263e+02,-4.738944172259763263e+02,-1.053041351285338351e+03,-1.058018709720214474e+03,-7.196246234784712215e+02,-5.985002116979509310e+02,9.408499717712402344e+00,-8.414105772972106934e-01,2.294756323099136353e-01,2.680000000000000000e+02
-9.507664197782777364e+02,-5.597806875588478306e+02,-5.433056940239864616e+02,-4.673344680456560241e+02,-1.048130541399059211e+03,-1.055150844091062936e+03,-7.163867526850420973e+02,-5.917166427836538105e+02,9.408499717712402344e+00,-8.414105772972106934e-01,2.294756323099136353e-01,2.690000000000000000e+02
-9.430070797671432956e+02,-5.565958276525320798e+02,-5.356680923601296627e+02,-4.596904527909265994e+02,-1.043389983643005507e+03,-1.051587649063116487e+03,-7.122006204434235315e+02,-5.839866395640074188e+02,9.408499717712402344e+00,-8.414105772972106934e-01,2.294756323099136353e-01,2.700000000000000000e+02
-9.338627759241018111e+02,-5.492917821709194186e+02,-5.259246654003997037e+02,-4.498374752597611064e+02,-1.036858539648829492e+03,-1.045355222348222242e+03,-7.058356330677773940e+02,-5.722404279802585734e+02,9.408499717712402344e+00,-8.414105772972106934e-01,2.294756323099136353e-01,2.710000000000000000e+02
-9.237767031933060480e+02,-5.386885658547503226e+02,-5.140523955999038890e+02,-4.378595606755657741e+02,-1.027689173572970503e+03,-1.035876118134331591e+03,-6.970091687417982484e+02,-5.563753342474497003e+02,9.408499717712402344e+00,-8.414105772972106934e-01,2.294756323099136353e-01,2.720000000000000000e+02
-9.146526683265790325e+02,-5.280168078456690637e+02,-5.021533483210711779e+02,-4.256576200903822951e+02,-1.017498634408456610e+03,-1.025116184958250187e+03,-6.871600809887820560e+02,-5.402819233630550571e+02,9.408499717712402344e+00,-8.414105772972106934e-01,2.294756323099136353e-01,2.730000000000000000e+02
-9.087593862217537435e+02,-5.210854675180753475e+02,-4.932223179239887827e+02,-4.160317857424150816e+02,-1.009323698407737197e+03,-1.016509731179788673e+03,-6.787506194933174584e+02,-5.291756314125013887e+02,9.408499717712402344e+00,-8.414105772972106934e-01,2.294756323099136353e-01,2.740000000000000000e+02
-9.071373920255106214e+02,-5.199364094641925931e+02,-4.889864923538779635e+02,-4.109051621730048964e+02,-1.005197036221370922e+03,-1.012539206837180473e+03,-6.737109065454977781e+02,-5.255352113421024569e+02,9.408499717712402344e+00,-8.414105772972106934e-01,2.294756323099136353e-01,2.750000000000000000e+02
-9.089768840475209117e+02,-5.237144424266392662e+02,-4.888122469129574483e+02,-4.101169594558949711e+02,-1.004639860401970850e+03,-1.013061598411841260e+03,-6.723051451643517566e+02,-5.273702014287989641e+02,9.408499717712402344e+00,-8.414105772972106934e-01,2.294756323099136353e-01,2.760000000000000000e+02
-9.124656303453703003e+02,-5.294888964509395919e+02,-4.906250312017650685e+02,-4.117177567165188066e+02,-1.005417683078063874e+03,-1.015767407759783396e+03,-6.732566671302196255e+02,-5.303583015179277709e+02,9.408499717712402344e+00,-8.414105772972106934e-01,2.294756323099136353e-01,2.770000000000000000e+02
-9.161749562283549722e+02,-5.342431432054540892e+02,-4.928033971070364601e+02,-4.134121057700921256e+02,-1.005708241952709841e+03,-1.018205299053355475e+03,-6.748839343656194387e+02,-5.316971543571761458e+02,9.408499717712402344e+00,-8.414105772972106934e-01,2.294756323099136353e-01,2.780000000000000000e+02
-9.196092688259368515e+02,-5.364625313402764277e+02,-4.951076987130043108e+02,-4.139004905582123683e+02,-1.005521801940721048e+03,-1.019467585045617170e+03,-6.762169154706136851e+02,-5.319406426907830792e+02,9.408499717712402344e+00,-8.414105772972106934e-01,2.294756323099136353e-01,2.790000000000000000e+02
-9.225514292385718136e+02,-5.362932067373750442e+02,-4.978387326613901678e+02,-4.131401727652183240e+02,-1.006067063117545672e+03,-1.020145811353064119e+03,-6.772153462470130307e+02,-5.332344729550912916e+02,9.408499717712402344e+00,-8.414105772972106934e-01,2.294756323099136353e-01,2.800000000000000000e+02
-9.241647267772896157e+02,-5.345335164376278954e+02,-5.003566260443935789e+02,-4.116157618869445400e+02,-1.007853064213472862e+03,-1.020925514824834409e+03,-6.780773443686064184e+02,-5.360296859293052876e+02,9.408499717712402344e+00,-8.414105772972106934e-01,2.294756323099136353e-01,2.810000000000000000e+02
-9.230335012649793498e+02,-5.315690100742126560e+02,-5.007839640932439238e+02,-4.095068830264634698e+02,-1.009568707328146502e+03,-1.021415489342696333e+03,-6.784407755945761664e+02,-5.377742108711761375e+02,9.484992027282714844e+00,-8.031646609306335449e-01,3.059675097465515137e-01,2.820000000000000000e+02
-9.182295403926967765e+02,-5.271122131151015537e+02,-4.973922045830767615e+02,-4.064615897443885615e+02,-1.008935398624132631e+03,-1.020339511106994792e+03,-6.773067030671007842e+02,-5.349313512487586877e+02,9.484992027282714844e+00,-8.031646609306335449e-01,3.059675097465515137e-01,2.830000000000000000e+02
-9.103030827327407906e+02,-5.206999920703964335e+02,-4.902756453817295892e+02,-4.019353492481304784e+02,-1.004686834960331453e+03,-1.016706820180728073e+03,-6.737740376669419220e+02,-5.262542237179463882e+02,9.484992027282714844e+00,-8.031646609306335449e-01,3.059675097465515137e-01,2.840000000000000000e+02
-9.010864130071444151e+02,-5.122687031138641487e+02,-4.814966177942484364e+02,-3.955878127629393362e+02,-9.976896231139226074e+02,-1.010645468375785981e+03,-6.678772329283913223e+02,-5.140495148264585623e+02,9.484992027282714844e+00,-8.031646609306335449e-01,3.059675097465515137e-01,2.850000000000000000e+02
-8.924029062268627968e+02,-5.022872052238873266e+02,-4.734179636384925516e+02,-3.873972953725283332e+02,-9.900882525102142608e+02,-1.003101618628568644e+03,-6.607085316405551794e+02,-5.022369237541738016e+02,9.484992027282714844e+00,-8.031646609306335449e-01,3.059675097465515137e-01,2.860000000000000000e+02
-8.848584061627990422e+02,-4.915178352593413820e+02,-4.667850177737369677e+02,-3.776034687079833247e+02,-9.833259054082542434e+02,-9.948932632912465124e+02,-6.536796746649881698e+02,-4.931269001837242172e+02,9.484992027282714844e+00,-8.031646609306335449e-01,3.059675097465515137e-01,2.870000000000000000e+02
-8.777620801079802959e+02,-4.807664992395954187e+02,-4.603764632353516504e+02,-3.667256029873523175e+02,-9.769643637896257360e+02,-9.862138057487966307e+02,-6.475492311603957205e+02,-4.859249908473447022e+02,9.484992027282714844e+00,-8.031646609306335449e-01,3.059675097465515137e-01,2.880000000000000000e+02
-8.701243107343219663e+02,-4.708077555328702601e+02,-4.524909595555288888e+02,-3.556418092513940223e+02,-9.693808952246085937e+02,-9.770358079328836993e+02,-6.420251947270955952e+02,-4.781316481705765113e+02,9.484992027282714844e+00,-8.031646609306335449e-01,3.059675097465515137e-01,2.890000000000000000e+02
-8.617498313493067599e+02,-4.623256356186259950e+02,-4.427879256129140231e+02,-3.454734533947076329e+02,-9.595896964112597516e+02,-9.677956586062210818e+02,-6.362149132687945894e+02,-4.682739965238358764e+02,9.484992027282714844e+00,-8.031646609306335449e-01,3.059675097465515137e-01,2.900000000000000000e+02
-8.535219862449409902e+02,-4.557028400708157960e+02,-4.327875733753098757e+02,-3.371880811299416791e+02,-9.484614968654925633e+02,-9.594737148119405674e+02,-6.294840403533132758e+02,-4.574140443403487666e+02,9.484992027282714844e+00,-8.031646609306335449e-01,3.059675097465515137e-01,2.910000000000000000e+02
-8.468223062301797199e+02,-4.508162655086015320e+02,-4.247496560954378992e+02,-3.312247652137307909e+02,-9.383256164814130216e+02,-9.529597209099106294e+02,-6.220426006257255267e+02,-4.483127114360512451e+02,9.484992027282714844e+00,-8.031646609306335449e-01,3.059675097465515137e-01,2.920000000000000000e+02
-8.427134216303447829e+02,-4.471535619333021714e+02,-4.201323251057315247e+02,-3.275059196606623004e+02,-9.314537207355906503e+02,-9.484402205380806663e+02,-6.148927521145819810e+02,-4.433377165343399611e+02,9.484992027282714844e+00,-8.031646609306335449e-01,3.059675097465515137e-01,2.930000000000000000e+02
-8.414433979387140425e+02,-4.442618745587473086e+02,-4.189443492660349193e+02,-3.257864005749780745e+02,-9.287322257509416659e+02,-9.454878519611195316e+02,-6.092679114111258514e+02,-4.430114220000655223e+02,9.484992027282714844e+00,-8.031646609306335449e-01,3.059675097465515137e-01,2.940000000000000000e+02
-8.423653039366436133e+02,-4.421038155838249395e+02,-4.201867980078949927e+02,-3.258942693415229996e+02,-9.293862266540294286e+02,-9.436842378050034768e+02,-6.059589900744529132e+02,-4.461392417267216501e+02,9.484992027282714844e+00,-8.031646609306335449e-01,3.059675097465515137e-01,2.950000000000000000e+02
-8.441378872029754348e+02,-4.408937306623406585e+02,-4.226071875809250287e+02,-3.275629956996088481e+02,-9.316428648180478831e+02,-9.430368632768019097e+02,-6.049188168984815093e+02,-4.509501692574023082e+02,9.484992027282714844e+00,-8.031646609306335449e-01,3.059675097465515137e-01,2.960000000000000000e+02
-8.452214715952793540e+02,-4.405492711589043893e+02,-4.250944718925393886e+02,-3.301348110743978168e+02,-9.337061620108487432e+02,-9.437730056035256894e+02,-6.053759462050380762e+02,-4.561074667618240710e+02,9.484992027282714844e+00,-8.031646609306335449e-01,3.059675097465515137e-01,2.970000000000000000e+02
-8.447204314117084323e+02,-4.404513895967477310e+02,-4.268393179339886387e+02,-3.327438903467483442e+02,-9.345674723093143257e+02,-9.459039239351558308e+02,-6.064405428124193804e+02,-4.610734827409300465e+02,9.484992027282714844e+00,-8.031646609306335449e-01,3.059675097465515137e-01,2.980000000000000000e+02
-8.431852918705595812e+02,-4.399882943094326038e+02,-4.276792518200128370e+02,-3.350802832939971836e+02,-9.344296741193520575e+02,-9.491892868732468287e+02,-6.078341331219096446e+02,-4.660195186330690831e+02,9.484992027282714844e+00,-8.031646609306335449e-01,3.059675097465515137e-01,2.990000000000000000e+02
-8.425606479040325212e+02,-4.394170292559721247e+02,-4.284571664214546445e+02,-3.379577229811827124e+02,-9.345323557347358019e+02,-9.534886361414594376e+02,-6.101298511926097490e+02,-4.715010632422857384e+02,9.484992027282714844e+00,-8.031646609306335449e-01,3.059675097465515137e-01,3.000000000000000000e+02
-8.448151556649806935e+02,-4.399509172152140764e+02,-4.306601747504510627e+02,-3.427460653830959245e+02,-9.362579328040819746e+02,-9.588430321931068647e+02,-6.141354008100767032e+02,-4.778455977868699733e+02,9.484992027282714844e+00,-8.031646609306335449e-01,3.059675097465515137e-01,3.010000000000000000e+02
-8.499637556382172079e+02,-4.425628701196018255e+02,-4.350642083720769051e+02,-3.497490201408275539e+02,-9.398755210909946527e+02,-9.648793337864328805e+02,-6.197612946554434075e+02,-4.843233566589618704e+02,9.484992027282714844e+00,-8.031646609306335449e-01,3.059675097465515137e-01,3.020000000000000000e+02
-8.551812948467080560e+02,-4.463928657300349414e+02,-4.403374946438511301e+02,-3.569365042644260484e+02,-9.438241621898437188e+02,-9.700926074476794838e+02,-6.253283869226497700e+02,-4.887392828298527547e+02,9.484992027282714844e+00,-8.031646609306335449e-01,3.059675097465515137e-01,3.030000000000000000e+02
-8.562237092550235502e+02,-4.484568587605767220e+02,-4.431563010306400656e+02,-3.605710813385275060e+02,-9.453376086557707367e+02,-9.720714095250262972e+02,-6.281245228944742394e+02,-4.882552491590959676e+02,9.484992027282714844e+00,-8.031646609306335449e-01,3.059675097465515137e-01,3.040000000000000000e+02
-8.504306864274083182e+02,-4.454350643486031913e+02,-4.402933224419142562e+02,-3.576850926026056641e+02,-9.421954751171340376e+02,-9.689464447165428282e+02,-6.260159736055159101e+02,-4.813122767578565231e+02,9.484992027282714844e+00,-8.031646609306335449e-01,3.059675097465515137e-01,3.050000000000000000e+02
-8.389085314753151579e+02,-4.362939610545768119e+02,-4.311927981042040869e+02,-3.484313777157052527e+02,-9.342966588499896261e+02,-9.609328624203741356e+02,-6.189127938591809652e+02,-4.692122298064140864e+02,9.484992027282714844e+00,-8.031646609306335449e-01,3.059675097465515137e-01,3.060000000000000000e+02
-8.258758817638431537e+02,-4.233992854365394010e+02,-4.187209804608658033e+02,-3.361026010686651375e+02,-9.237263162162441859e+02,-9.503881203046496466e+02,-6.088707205246475951e+02,-4.557257888655722127e+02,9.484992027282714844e+00,-8.031646609306335449e-01,3.059675097465515137e-01,3.070000000000000000e+02
-8.155440134857751673e+02,-4.109005274890013197e+02,-4.071974303681651008e+02,-3.245977142555618684e+02,-9.132091517392969990e+02,-9.400410136955754297e+02,-5.986952060948086682e+02,-4.446566365353526749e+02,9.484992027282714844e+00,-8.031646609306335449e-01,3.059675097465515137e-01,3.080000000000000000e+02
-8.091691479927376349e+02,-4.016784079900998563e+02,-3.993091586234523334e+02,-3.155435673869226889e+02,-9.042547257399021419e+02,-9.308759868040456240e+02,-5.901771237125003609e+02,-4.373061909405802226e+02,9.484992027282714844e+00,-8.031646609306335449e-01,3.059675097465515137e-01,3.090000000000000000e+02
-8.048218204507670634e+02,-3.955829071154778944e+02,-3.946128707145386443e+02,-3.077011166540949034e+02,-8.965309437438917257e+02,-9.216696312683563974e+02,-5.833637168646177997e+02,-4.321057484341921509e+02,9.484992027282714844e+00,-8.031646609306335449e-01,3.059675097465515137e-01,3.100000000000000000e+02
-7.999132624110596907e+02,-3.905303242559900241e+02,-3.908717082994477323e+02,-2.991389891783499024e+02,-8.888578197344277214e+02,-9.107010352332840739e+02,-5.773040496827750303e+02,-4.267575847391221942e+02,9.484992027282714844e+00,-8.031646609306335449e-01,3.059675097465515137e-01,3.110000000000000000e+02
-7.939282916091298148e+02,-3.852785873236978773e+02,-3.867588356745839064e+02,-2.899526163701705741e+02,-8.807575708783506343e+02,-8.980148601669941399e+02,-5.714127367170246998e+02,-4.207790293746356838e+02,9.484992027282714844e+00,-8.031646609306335449e-01,3.059675097465515137e-01,3.120000000000000000e+02
-7.887233815151055296e+02,-3.810497255469443303e+02,-3.831882503422178843e+02,-2.827488861226578933e+02,-8.730749024564350975e+02,-8.859561638300421009e+02,-5.661417576615588132e+02,-4.159307789532937250e+02,9.484992027282714844e+00,-8.031646609306335449e-01,2.294756323099136353e-01,3.130000000000000000e+02
-7.862353749635174154e+02,-3.803215609522738418e+02,-3.820091977540682251e+02,-2.803463118953029038e+02,-8.671563427644714466e+02,-8.773207859947353882e+02,-5.624127122245379269e+02,-4.141694952773779050e+02,9.484992027282714844e+00,-8.031646609306335449e-01,2.294756323099136353e-01,3.140000000000000000e+02
-7.859964168446540498e+02,-3.839657299153162739e+02,-3.835002848920798328e+02,-2.829224101529615609e+02,-8.634377882845603835e+02,-8.728060024619114756e+02,-5.604679595582504135e+02,-4.152871900538818863e+02,9.484992027282714844e+00,-8.031646609306335449e-01,2.294756323099136353e-01,3.150000000000000000e+02
-7.849599067111940940e+02,-3.895904392500918334e+02,-3.853018891568549407e+02,-2.873847027900425246e+02,-8.607925709543264929e+02,-8.702054578712727562e+02,-5.593098367475947725e+02,-4.166808921329891291e+02,9.484992027282714844e+00,-8.031646609306335449e-01,2.294756323099136353e-01,3.160000000000000000e+02
-7.798034140554512987e+02,-3.927930229375383533e+02,-3.839743656689679483e+02,-2.895601874253886194e+02,-8.572553827072156309e+02,-8.661879155804746233e+02,-5.572961623822998263e+02,-4.154838830033026511e+02,9.484992027282714844e+00,-8.031646609306335449e-01,2.294756323099136353e-01,3.170000000000000000e+02
-7.695234906189609774e+02,-3.902550331056999084e+02,-3.777543540152666992e+02,-2.871396753358114893e+02,-8.514732530502852796e+02,-8.590432652813387904e+02,-5.533463325756972608e+02,-4.109076473119339994e+02,9.484992027282714844e+00,-8.031646609306335449e-01,2.294756323099136353e-01,3.180000000000000000e+02
-7.560572920932363559e+02,-3.819681483802867774e+02,-3.679740547521394092e+02,-2.808173984694283831e+02,-8.436463728226131025e+02,-8.498932219591650892e+02,-5.476688398609867363e+02,-4.045692233390461752e+02,9.484992027282714844e+00,-8.031646609306335449e-01,2.294756323099136353e-01,3.190000000000000000e+02
-7.427327053050696577e+02,-3.708684682857684720e+02,-3.579894373788205826e+02,-2.730259840293413163e+02,-8.352512045100895648e+02,-8.413794937960851712e+02,-5.414211508134997075e+02,-3.987629801958066196e+02,9.484992027282714844e+00,-8.031646609306335449e-01,2.294756323099136353e-01,3.200000000000000000e+02
-7.322476938320855879e+02,-3.605971365298691467e+02,-3.508124187175549196e+02,-2.659262732736067392e+02,-8.279330612612507139e+02,-8.352298406612833332e+02,-5.357470792176756049e+02,-3.946362468608508038e+02,9.484992027282714844e+00,-8.031646609306335449e-01,2.294756323099136353e-01,3.210000000000000000e+02
-7.258228464370826032e+02,-3.535128284587422627e+02,-3.475981212894150758e+02,-2.605763534539559032e+02,-8.225862801330414413e+02,-8.310436250245726342e+02,-5.311558498797433003e+02,-3.920048687902888673e+02,9.484992027282714844e+00,-8.031646609306335449e-01,2.294756323099136353e-01,3.220000000000000000e+02
-7.236222305772189429e+02,-3.503026771486732969e+02,-3.479430373816858264e+02,-2.575082581106150883e+02,-8.192629316302228517e+02,-8.272705713545969957e+02,-5.277259269272302618e+02,-3.905606819635880811e+02,9.484992027282714844e+00,-8.031646609306335449e-01,2.294756323099136353e-01,3.230000000000000000e+02
-7.253359851099712614e+02,-3.507378375098181778e+02,-3.510921239315829894e+02,-2.573848406560870217e+02,-8.176855032672565358e+02,-8.231655807335791906e+02,-5.256892646223182055e+02,-3.907954630670249685e+02,9.484992027282714844e+00,-8.031646609306335449e-01,2.294756323099136353e-01,3.240000000000000000e+02
-7.301733317431319392e+02,-3.542864449003677692e+02,-3.565701152214097647e+02,-2.606550237696017689e+02,-8.176714846344868874e+02,-8.196766668125851538e+02,-5.255859905236266059e+02,-3.935739668065360775e+02,9.484992027282714844e+00,-8.031646609306335449e-01,2.294756323099136353e-01,3.250000000000000000e+02
-7.366658659136244296e+02,-3.600748436457613479e+02,-3.638260106047194427e+02,-2.666703469876891859e+02,-8.191058455294905798e+02,-8.184859225117537562e+02,-5.277627206931053934e+02,-3.990255985267993992e+02,9.484992027282714844e+00,-8.031646609306335449e-01,2.294756323099136353e-01,3.260000000000000000e+02
-7.430686458809618671e+02,-3.668220367783583811e+02,-3.717690909153969301e+02,-2.736095317298375562e+02,-8.217167121130098622e+02,-8.203264574030230278e+02,-5.318208465133650407e+02,-4.061604568870849334e+02,9.484992027282714844e+00,-8.031646609306335449e-01,2.294756323099136353e-01,3.270000000000000000e+02
-7.483395910595756959e+02,-3.733842518046556620e+02,-3.791028596887874187e+02,-2.796815124082977491e+02,-8.250764787806731420e+02,-8.242810934084961900e+02,-5.367321527724235466e+02,-4.136267709363891072e+02,9.484992027282714844e+00,-8.031646609306335449e-01,2.294756323099136353e-01,3.280000000000000000e+02
-7.527053413047285630e+02,-3.795467396012477934e+02,-3.852013179825028715e+02,-2.844756440114736051e+02,-8.288154271190151121e+02,-8.285894244490962137e+02,-5.415690880158321079e+02,-4.206190685805231624e+02,9.484992027282714844e+00,-8.031646609306335449e-01,2.294756323099136353e-01,3.290000000000000000e+02
-7.570168422832543911e+02,-3.860434039975936003e+02,-3.904205734472421909e+02,-2.889371645005606979e+02,-8.326319267507888071e+02,-8.319173396193735925e+02,-5.460347229236514295e+02,-4.268139127429942050e+02,9.484992027282714844e+00,-8.031646609306335449e-01,2.294756323099136353e-01,3.300000000000000000e+02
-7.613603677703163157e+02,-3.934295209735867047e+02,-3.952513611620263418e+02,-2.938181109555699209e+02,-8.359073862963147121e+02,-8.337574750509819523e+02,-5.501591214204969447e+02,-4.315098841994874874e+02,9.484992027282714844e+00,-8.031646609306335449e-01,2.294756323099136353e-01,3.310000000000000000e+02
-7.643072428166527743e+02,-4.007751982025021107e+02,-3.990899139693095208e+02,-2.981449468641432077e+02,-8.373635546405687364e+02,-8.337913754783385230e+02,-5.535146803360147487e+02,-4.332405440828389374e+02,9.484992027282714844e+00,-8.031646609306335449e-01,2.294756323099136353e-01,3.320000000000000000e+02
-7.637008281071017564e+02,-4.056259183346189729e+02,-4.000673649042056468e+02,-2.993884979033411469e+02,-8.354113690700453390e+02,-8.312495847957718524e+02,-5.549423500155389775e+02,-4.306920567785881531e+02,9.484992027282714844e+00,-8.031646609306335449e-01,2.294756323099136353e-01,3.330000000000000000e+02
-7.583831623500831256e+02,-4.055715032067310517e+02,-3.964472704732564807e+02,-2.953943567970244430e+02,-8.292206443536558709e+02,-8.252361203708194353e+02,-5.532945321766331972e+02,-4.242040351151467803e+02,9.446745872497558594e+00,-8.031646609306335449e-01,3.442134261131286621e-01,3.340000000000000000e+02
-7.492774783211300473e+02,-4.001496737285457925e+02,-3.884469282103683554e+02,-2.863535336778152782e+02,-8.196345523951355290e+02,-8.157743671122952946e+02,-5.485433558360250572e+02,-4.162199715908928397e+02,9.446745872497558594e+00,-8.031646609306335449e-01,3.442134261131286621e-01,3.350000000000000000e+02
-7.388022882034470058e+02,-3.913527888006253193e+02,-3.786768721692442909e+02,-2.749918758662909113e+02,-8.089492928853595686e+02,-8.043870578495831296e+02,-5.420953713677563428e+02,-4.098988181468703260e+02,9.446745872497558594e+00,-8.031646609306335449e-01,3.442134261131286621e-01,3.360000000000000000e+02
-7.291280937014061010e+02,-3.822513149176144225e+02,-3.705406969320061421e+02,-2.647990516610790337e+02,-7.995376045833240823e+02,-7.934233222652505901e+02,-5.359002046060006705e+02,-4.069113329088640398e+02,9.446745872497558594e+00,-8.031646609306335449e-01,3.442134261131286621e-01,3.370000000000000000e+02
-7.208492957741289047e+02,-3.749656404242414283e+02,-3.658610830617809029e+02,-2.578802120124631188e+02,-7.924078082743038749e+02,-7.846475257674542263e+02,-5.311608859087177734e+02,-4.063893280163972577e+02,9.446745872497558594e+00,-8.031646609306335449e-01,3.442134261131286621e-01,3.380000000000000000e+02
-7.132424442143520764e+02,-3.697534943236746585e+02,-3.638454352146897008e+02,-2.542038191345355926e+02,-7.869200321364928641e+02,-7.783658239295288013e+02,-5.278363658635207685e+02,-4.060015928902755604e+02,9.446745872497558594e+00,-8.031646609306335449e-01,3.442134261131286621e-01,3.390000000000000000e+02
-7.057630145565844941e+02,-3.658096147267820584e+02,-3.623197384450238019e+02,-2.525823489476736086e+02,-7.818190294297309038e+02,-7.738021830401803527e+02,-5.252536273779921885e+02,-4.041690349548923678e+02,9.446745872497558594e+00,-8.031646609306335449e-01,3.442134261131286621e-01,3.400000000000000000e+02
-6.992038018255691441e+02,-3.627291109029558811e+02,-3.600295740066791836e+02,-2.521612478649254570e+02,-7.765345616312382617e+02,-7.701651744770101686e+02,-5.230178185012932772e+02,-4.013847875426304768e+02,9.446745872497558594e+00,-8.031646609306335449e-01,3.442134261131286621e-01,3.410000000000000000e+02
-6.952482389105603033e+02,-3.610755835254657882e+02,-3.578014155019301370e+02,-2.529523511062853629e+02,-7.715525741580680688e+02,-7.672549868735306973e+02,-5.212477260819169942e+02,-3.994746735134780806e+02,9.446745872497558594e+00,-8.031646609306335449e-01,3.442134261131286621e-01,3.420000000000000000e+02
-6.947311288912021610e+02,-3.615534266366552743e+02,-3.574704147249763082e+02,-2.551282402770428916e+02,-7.676530952077692973e+02,-7.651043294105356836e+02,-5.200579823918146758e+02,-3.996135500512403382e+02,9.446745872497558594e+00,-8.031646609306335449e-01,3.442134261131286621e-01,3.430000000000000000e+02
-6.963075783380609209e+02,-3.637772357042157410e+02,-3.597062078594825607e+02,-2.580903252136607762e+02,-7.649117338291134729e+02,-7.632694165993773368e+02,-5.190689231083518962e+02,-4.010312082432558896e+02,9.446745872497558594e+00,-8.031646609306335449e-01,3.442134261131286621e-01,3.440000000000000000e+02
-6.970553368592704828e+02,-3.660757376182282883e+02,-3.629991971793659786e+02,-2.604660138382367904e+02,-7.624939381422771021e+02,-7.607639456653748766e+02,-5.176134271572576608e+02,-4.016375430593208762e+02,9.446745872497558594e+00,-8.031646609306335449e-01,3.442134261131286621e-01,3.450000000000000000e+02
-6.947878737196663224e+02,-3.667067813665597100e+02,-3.649479525121828942e+02,-2.611439841715066450e+02,-7.594176579023226168e+02,-7.568760467373861047e+02,-5.154408821242227532e+02,-3.999788005208221762e+02,9.446745872497558594e+00,-8.031646609306335449e-01,3.442134261131286621e-01,3.460000000000000000e+02
-6.900754651947013372e+02,-3.653871716707187716e+02,-3.646429986625018955e+02,-2.603097346994166514e+02,-7.554905669818832621e+02,-7.520473122995068707e+02,-5.131055208657080584e+02,-3.966673454060135668e+02,9.446745872497558594e+00,-8.031646609306335449e-01,3.442134261131286621e-01,3.470000000000000000e+02
-6.859292409202473664e+02,-3.636185261840644785e+02,-3.636919745250512506e+02,-2.593606236772809552e+02,-7.514734753608081519e+02,-7.477679517820105275e+02,-5.115404691042449485e+02,-3.939061659675895157e+02,9.446745872497558594e+00,-8.031646609306335449e-01,3.442134261131286621e-01,3.480000000000000000e+02
-6.850884419834421806e+02,-3.633678125482413748e+02,-3.646432397088840389e+02,-2.596289864965981451e+02,-7.482675511514337359e+02,-7.453438690680533227e+02,-5.111784696988238466e+02,-3.934863126221340508e+02,9.446745872497558594e+00,-8.031646609306335449e-01,3.442134261131286621e-01,3.490000000000000000e+02
-6.871622555314384044e+02,-3.652032942855908573e+02,-3.681554358891530683e+02,-2.610158052333097203e+02,-7.458372267743997099e+02,-7.445462607556580679e+02,-5.114386322276307055e+02,-3.950426413968760357e+02,9.446745872497558594e+00,-8.031646609306335449e-01,3.442134261131286621e-01,3.500000000000000000e+02
-6.882717211325598328e+02,-3.675315531922221339e+02,-3.716581783586414645e+02,-2.617948725627817339e+02,-7.428490460781393949e+02,-7.434017022302914484e+02,-5.110300005024286065e+02,-3.961066284961971178e+02,9.446745872497558594e+00,-8.031646609306335449e-01,3.442134261131286621e-01,3.510000000000000000e+02
-6.837956769454483492e+02,-3.676403002222638747e+02,-3.710371848475734851e+02,-2.598485866085645739e+02,-7.374399412351534693e+02,-7.394749860535860080e+02,-5.087745473838373300e+02,-3.939280166548227271e+02,9.446745872497558594e+00,-8.031646609306335449e-01,3.442134261131286621e-01,3.520000000000000000e+02
-6.720399190325858854e+02,-3.636840050526427603e+02,-3.640498327090536463e+02,-2.543152397917760368e+02,-7.285825394895489353e+02,-7.316789003720161872e+02,-5.042605542864585004e+02,-3.875400484910001637e+02,9.446745872497558594e+00,-8.031646609306335449e-01,3.442134261131286621e-01,3.530000000000000000e+02
-6.557038475104204736e+02,-3.559743723096372037e+02,-3.524317557303064632e+02,-2.462652333331632519e+02,-7.169687941276027914e+02,-7.211207799864264416e+02,-4.978874440294016495e+02,-3.783858970742130055e+02,9.446745872497558594e+00,-8.031646609306335449e-01,3.442134261131286621e-01,3.540000000000000000e+02
-6.399101297294092774e+02,-3.466030351264033698e+02,-3.407443480536667835e+02,-2.378695642724033519e+02,-7.046639199565447598e+02,-7.102707179032846625e+02,-4.904244563587542416e+02,-3.691075396480279096e+02,9.446745872497558594e+00,-8.031646609306335449e-01,3.442134261131286621e-01,3.550000000000000000e+02
-6.285285901768609165e+02,-3.378675771022279832e+02,-3.329256375845534421e+02,-2.308143920605634207e+02,-6.937548835756703056e+02,-7.011274093238411069e+02,-4.825313808180371780e+02,-3.616064161358178239e+02,9.446745872497558594e+00,-8.031646609306335449e-01,3.442134261131286621e-01,3.560000000000000000e+02
-6.218698440075902454e+02,-3.308517423304463705e+02,-3.295249915257054454e+02,-2.252862040954795475e+02,-6.850497319310738931e+02,-6.938754166426077745e+02,-4.745818885162843799e+02,-3.559432867720460081e+02,9.446745872497558594e+00,-8.031646609306335449e-01,3.442134261131286621e-01,3.570000000000000000e+02
-6.174191333770409074e+02,-3.251451148913438374e+02,-3.278751317967449381e+02,-2.202587964921877415e+02,-6.778353923625055586e+02,-6.870766736839907480e+02,-4.667824342004637401e+02,-3.508193164235913173e+02,9.446745872497558594e+00,-8.031646609306335449e-01,3.442134261131286621e-01,3.580000000000000000e+02
-6.125526042920438385e+02,-3.196449588205787791e+02,-3.247736712422085930e+02,-2.146685835313921302e+02,-6.708039047555090519e+02,-6.791212942062086313e+02,-4.593578135240662732e+02,-3.450452101642565594e+02,9.446745872497558594e+00,-8.796565532684326172e-01,2.677215635776519775e-01,3.590000000000000000e+02
-6.066622792145949461e+02,-3.135818711932866449e+02,-3.191418635803752295e+02,-2.083826590772222858e+02,-6.632616691021463566e+02,-6.696490376159742937e+02,-4.525870581947212941e+02,-3.386852366889017958e+02,9.446745872497558594e+00,-8.796565532684326172e-01,2.677215635776519775e-01,3.600000000000000000e+02
-6.010340647771597560e+02,-3.069801729685544842e+02,-3.124558509732943890e+02,-2.022094781601228419e+02,-6.555767962538088796e+02,-6.597895400498817935e+02,-4.466727012492053746e+02,-3.329801507104118627e+02,9.446745872497558594e+00,-8.796565532684326172e-01,2.677215635776519775e-01,3.610000000000000000e+02
-5.970400170665258202e+02,-3.004296107121440969e+02,-3.069639694681018796e+02,-1.971165035005810182e+02,-6.486057486560860070e+02,-6.511634174795456147e+02,-4.416063758670270545e+02,-3.292251674736467635e+02,9.446745872497558594e+00,-8.796565532684326172e-01,2.677215635776519775e-01,3.620000000000000000e+02
-5.945494838667129898e+02,-2.945374092196582296e+02,-3.035817436589976523e+02,-1.934192505723095792e+02,-6.427665710771047998e+02,-6.446009470726746713e+02,-4.371815196767493035e+02,-3.275879048738447636e+02,9.446745872497558594e+00,-8.796565532684326172e-01,2.677215635776519775e-01,3.630000000000000000e+02
-5.919442926820357798e+02,-2.894895675295766182e+02,-3.013102594087783359e+02,-1.905723990774105232e+02,-6.376378368270135297e+02,-6.396358274800866184e+02,-4.331307804265463801e+02,-3.268286735939271921e+02,9.446745872497558594e+00,-8.796565532684326172e-01,2.677215635776519775e-01,3.640000000000000000e+02
-5.875062968517623858e+02,-2.849600062491398376e+02,-2.983950668441328276e+02,-1.876126062110574821e+02,-6.323517512891720571e+02,-6.350531641118870994e+02,-4.292335779789822254e+02,-3.251222074409973288e+02,9.446745872497558594e+00,-8.796565532684326172e-01,2.677215635776519775e-01,3.650000000000000000e+02
-5.808293216977600650e+02,-2.803772702458396111e+02,-2.939320344751266703e+02,-1.838116859248001447e+02,-6.263093916943154227e+02,-6.298716289816602512e+02,-4.253070959647734526e+02,-3.213084718180339792e+02,9.446745872497558594e+00,-8.796565532684326172e-01,2.677215635776519775e-01,3.660000000000000000e+02
-5.731405147497914641e+02,-2.754129364890596889e+02,-2.885205527209868706e+02,-1.790740713311979562e+02,-6.195644452704395917e+02,-6.239272555802350553e+02,-4.211679537189154416e+02,-3.156251881184832655e+02,9.446745872497558594e+00,-8.796565532684326172e-01,2.677215635776519775e-01,3.670000000000000000e+02
-5.664789074689160771e+02,-2.704198226563137837e+02,-2.836801599748919216e+02,-1.739468950344665359e+02,-6.126781124555786846e+02,-6.177420165199497433e+02,-4.167214301201252056e+02,-3.094755213519043764e+02,9.446745872497558594e+00,-8.796565532684326172e-01,2.677215635776519775e-01,3.680000000000000000e+02
-5.625103726211044659e+02,-2.664822478511562167e+02,-2.808199109066470101e+02,-1.693827398131855375e+02,-6.063549443444330791e+02,-6.120097684909781037e+02,-4.121790874655850985e+02,-3.045510056015554028e+02,9.446745872497558594e+00,-8.796565532684326172e-01,2.677215635776519775e-01,3.690000000000000000e+02
-5.617909152328538767e+02,-2.649192004131999170e+02,-2.806222827991090298e+02,-1.664270484687837097e+02,-6.012000479899285210e+02,-6.072225669515526079e+02,-4.081792841368187510e+02,-3.020094054541193032e+02,9.446745872497558594e+00,-8.796565532684326172e-01,2.677215635776519775e-01,3.700000000000000000e+02
-5.637412337373443734e+02,-2.664835945332282563e+02,-2.830350339111984113e+02,-1.659039686670624860e+02,-5.976439921901725256e+02,-6.036496109320715959e+02,-4.055811512950176621e+02,-3.021767286818516141e+02,9.446745872497558594e+00,-8.796565532684326172e-01,2.677215635776519775e-01,3.710000000000000000e+02
-5.671215075009458815e+02,-2.708265990058201851e+02,-2.875200851861593492e+02,-1.681361340526157164e+02,-5.958863921686820504e+02,-6.014829477456735276e+02,-4.049812565781165858e+02,-3.047304075369057728e+02,9.446745872497558594e+00,-8.796565532684326172e-01,2.677215635776519775e-01,3.720000000000000000e+02
-5.706371244027216107e+02,-2.766508192736971523e+02,-2.932253840214609681e+02,-1.727703361148608678e+02,-5.957934086224723842e+02,-6.008596442993382425e+02,-4.062912819065909389e+02,-3.090118429751315716e+02,9.446745872497558594e+00,-8.796565532684326172e-01,2.677215635776519775e-01,3.730000000000000000e+02
-5.733632990668572802e+02,-2.824015929258368942e+02,-2.990832343765358701e+02,-1.787751017179667770e+02,-5.968592756036432547e+02,-6.016802815971716427e+02,-4.087004169569131591e+02,-3.142008960968574911e+02,9.446745872497558594e+00,-8.796565532684326172e-01,2.677215635776519775e-01,3.740000000000000000e+02
-5.747842878486553673e+02,-2.868742828352620791e+02,-3.039767464276280862e+02,-1.846273715482651596e+02,-5.983062966811947945e+02,-6.033758164933678927e+02,-4.110220635114501420e+02,-3.193402328365874610e+02,9.446745872497558594e+00,-8.796565532684326172e-01,2.677215635776519775e-01,3.750000000000000000e+02
-5.744554329105535544e+02,-2.892380443117902473e+02,-3.069370036743654282e+02,-1.886258364916305368e+02,-5.992202736903358300e+02,-6.048271369954056809e+02,-4.121254349998764610e+02,-3.233061321165650952e+02,9.446745872497558594e+00,-8.796565532684326172e-01,2.677215635776519775e-01,3.760000000000000000e+02
-5.715959199797307519e+02,-2.886339829475911074e+02,-3.072030106629360944e+02,-1.892601476948322556e+02,-5.985829354709785548e+02,-6.045425349318750250e+02,-4.111901335665629631e+02,-3.248048214411875279e+02,9.446745872497558594e+00,-8.796565532684326172e-01,2.677215635776519775e-01,3.770000000000000000e+02
-5.650983103938563090e+02,-2.840261887316804632e+02,-3.041263675377798563e+02,-1.856105652095541245e+02,-5.952566974549054066e+02,-6.010675174403424990e+02,-4.077597595249885671e+02,-3.224950292694690006e+02,9.446745872497558594e+00,-8.796565532684326172e-01,2.677215635776519775e-01,3.780000000000000000e+02
-5.541706535373504039e+02,-2.747776766626683411e+02,-2.971554941465082038e+02,-1.776860769773048219e+02,-5.881412913660881259e+02,-5.934859673667698416e+02,-4.017313928684422990e+02,-3.153192937899807475e+02,9.446745872497558594e+00,-8.796565532684326172e-01,2.677215635776519775e-01,3.790000000000000000e+02
-5.392134569473090551e+02,-2.616049767045081467e+02,-2.861132668756241628e+02,-1.664990669853822851e+02,-5.766001557846304877e+02,-5.818142906827886236e+02,-3.933531429042880063e+02,-3.030155339449586336e+02,9.446745872497558594e+00,-8.796565532684326172e-01,2.677215635776519775e-01,3.800000000000000000e+02
-5.221324259738203182e+02,-2.469510109905554884e+02,-2.716210609128293072e+02,-1.536943581784683488e+02,-5.609271881234255943e+02,-5.670555263490857669e+02,-3.831570972219528812e+02,-2.865222548154563356e+02,9.446745872497558594e+00,-8.796565532684326172e-01,2.677215635776519775e-01,3.810000000000000000e+02
-5.055655182284939428e+02,-2.341038554348442631e+02,-2.551957432255902631e+02,-1.407992346722923003e+02,-5.424427506740495346e+02,-5.507913155936232670e+02,-3.717625664791851250e+02,-2.678530819494478692e+02,9.446745872497558594e+00,-8.796565532684326172e-01,2.677215635776519775e-01,3.820000000000000000e+02
-4.914014082416709925e+02,-2.254054659206582301e+02,-2.387329469626212131e+02,-1.285183162841856301e+02,-5.230285581102225478e+02,-5.344567139588831424e+02,-3.596332804547357682e+02,-2.493171190259042760e+02,9.446745872497558594e+00,-8.796565532684326172e-01,2.677215635776519775e-01,3.830000000000000000e+02
-4.796995715783949663e+02,-2.207944837415838606e+02,-2.236667499089135163e+02,-1.165939293245264707e+02,-5.043608904778300257e+02,-5.187205889818833384e+02,-3.469716703084416167e+02,-2.325227674509417284e+02,9.446745872497558594e+00,-8.796565532684326172e-01,2.677215635776519775e-01,3.840000000000000000e+02
-4.689189625267731572e+02,-2.178379682568290150e+02,-2.104622290699284122e+02,-1.043766581709942329e+02,-4.873627571229837940e+02,-5.034117608786316396e+02,-3.338463724876046399e+02,-2.179155916350873667e+02,9.446745872497558594e+00,-8.796565532684326172e-01,2.677215635776519775e-01,3.850000000000000000e+02
-4.573137900024994451e+02,-2.133287595873395617e+02,-1.988469731449025630e+02,-9.167870115608661763e+01,-4.722227598819712284e+02,-4.880822966819564499e+02,-3.204638271541341510e+02,-2.052048076978405788e+02,9.523238182067871094e+00,-8.414105772972106934e-01,2.677215635776519775e-01,3.860000000000000000e+02
-4.444001641975163466e+02,-2.053473166746265974e+02,-1.885274525504867142e+02,-7.922647884546154273e+01,-4.588661617903912884e+02,-4.728106825300233140e+02,-3.073801480595473095e+02,-1.942440995781189486e+02,9.523238182067871094e+00,-8.414105772972106934e-01,2.677215635776519775e-01,3.870000000000000000e+02
-4.313538363585759043e+02,-1.943549369043396666e+02,-1.796899256193140673e+02,-6.835050762130811108e+01,-4.473933524333501737e+02,-4.585841278759774013e+02,-2.954712997210722278e+02,-1.855135814250542126e+02,9.523238182067871094e+00,-8.414105772972106934e-01,2.677215635776519775e-01,3.880000000000000000e+02
-4.201252824488134365e+02,-1.826570193542898153e+02,-1.728359471682875892e+02,-6.018726333595651568e+01,-4.380804646709809731e+02,-4.468853205226664613e+02,-2.856140439091270764e+02,-1.797542750185843943e+02,9.523238182067871094e+00,-8.414105772972106934e-01,2.677215635776519775e-01,3.890000000000000000e+02
-4.120978047174626226e+02,-1.728056501877181574e+02,-1.681969878598683863e+02,-5.506161856418390244e+01,-4.309893971171766225e+02,-4.387548811973144893e+02,-2.782277985177520350e+02,-1.771824413816505057e+02,9.523238182067871094e+00,-8.414105772972106934e-01,2.677215635776519775e-01,3.900000000000000000e+02
-4.073201005871889038e+02,-1.661653027442901021e+02,-1.653600643075426433e+02,-5.249052852441076311e+01,-4.256240204250093484e+02,-4.340524098842829517e+02,-2.729749538653702530e+02,-1.770731210772439681e+02,9.523238182067871094e+00,-8.414105772972106934e-01,2.677215635776519775e-01,3.910000000000000000e+02
-4.047037574896303340e+02,-1.625292448515337469e+02,-1.634810430899757421e+02,-5.166426268233453811e+01,-4.210472158340417081e+02,-4.314916546705735527e+02,-2.688896020554700499e+02,-1.780784495298545380e+02,9.523238182067871094e+00,-8.414105772972106934e-01,2.677215635776519775e-01,3.920000000000000000e+02
-4.028127369308122070e+02,-1.607574095585643761e+02,-1.618643901044035829e+02,-5.189558543949692648e+01,-4.164301770085253338e+02,-4.293956506122563042e+02,-2.649372015444187127e+02,-1.789252762909717376e+02,9.523238182067871094e+00,-8.414105772972106934e-01,2.677215635776519775e-01,3.930000000000000000e+02
-4.006029088445379784e+02,-1.597056087868278951e+02,-1.603506938346113202e+02,-5.269217177985154876e+01,-4.115504687918962645e+02,-4.265573861671794020e+02,-2.606338595290235389e+02,-1.788671749161958360e+02,9.523238182067871094e+00,-8.414105772972106934e-01,2.677215635776519775e-01,3.940000000000000000e+02
-3.977564136329732492e+02,-1.587622098969832223e+02,-1.591997258397184396e+02,-5.359071633771225152e+01,-4.067737765519568711e+02,-4.226212621158861111e+02,-2.562288110132635666e+02,-1.776907334278382677e+02,9.523238182067871094e+00,-8.414105772972106934e-01,2.677215635776519775e-01,3.950000000000000000e+02
-3.946264933623008346e+02,-1.578462417388763868e+02,-1.586696063303161282e+02,-5.413609673346519457e+01,-4.025534827534311262e+02,-4.179114281829708943e+02,-2.523070690735478365e+02,-1.755676353269305991e+02,9.523238182067871094e+00,-8.414105772972106934e-01,2.677215635776519775e-01,3.960000000000000000e+02
-3.919233487405210781e+02,-1.571532064529860975e+02,-1.587337132065679270e+02,-5.415105831432384775e+01,-3.989649785237829747e+02,-4.130719201381791663e+02,-2.492054501824300132e+02,-1.730509291915113863e+02,9.523238182067871094e+00,-8.414105772972106934e-01,2.677215635776519775e-01,3.970000000000000000e+02
-3.902155030101030206e+02,-1.569280548930486248e+02,-1.591396734802199262e+02,-5.398667700537311021e+01,-3.957106872269932865e+02,-4.088158970871584188e+02,-2.468050782067205091e+02,-1.710744919457018796e+02,9.523238182067871094e+00,-8.414105772972106934e-01,2.677215635776519775e-01,3.980000000000000000e+02
-3.893876764274377820e+02,-1.572755701324054485e+02,-1.595956959444024506e+02,-5.429464088143902245e+01,-3.924691276675357585e+02,-4.056970505710182806e+02,-2.448259529891668080e+02,-1.705425615382132492e+02,9.523238182067871094e+00,-8.414105772972106934e-01,2.677215635776519775e-01,3.990000000000000000e+02
-3.883507244441079820e+02,-1.578943114906343510e+02,-1.597470053695752767e+02,-5.526638247306533458e+01,-3.890633672418596234e+02,-4.037056462868811195e+02,-2.431555737532346484e+02,-1.714825332753831617e+02,9.523238182067871094e+00,-8.414105772972106934e-01,2.677215635776519775e-01,4.000000000000000000e+02
-3.853221502188591785e+02,-1.578485656357757136e+02,-1.589329775033716032e+02,-5.593832293027810465e+01,-3.851938988758151936e+02,-4.018692806980025125e+02,-2.417156754148290929e+02,-1.724500548221865301e+02,9.523238182067871094e+00,-8.414105772972106934e-01,2.677215635776519775e-01,4.010000000000000000e+02
-3.787079332907437674e+02,-1.557464121648659443e+02,-1.561160455917452055e+02,-5.438220808967287212e+01,-3.801308158240181001e+02,-3.984357894463805678e+02,-2.400015201962187348e+02,-1.710377343252532683e+02,9.523238182067871094e+00,-8.414105772972106934e-01,2.677215635776519775e-01,4.020000000000000000e+02
-3.681655606792095341e+02,-1.505349492465087735e+02,-1.503667312570373724e+02,-4.899822066189312864e+01,-3.729872662377131292e+02,-3.919485869397294664e+02,-2.369894851980527619e+02,-1.655420363998914581e+02,9.523238182067871094e+00,-8.414105772972106934e-01,2.677215635776519775e-01,4.030000000000000000e+02
-3.552175841260783500e+02,-1.425521952821916045e+02,-1.417825914410054793e+02,-4.011455605964050619e+01,-3.636293048838099367e+02,-3.826393673331524496e+02,-2.318489316933898863e+02,-1.566858475959010093e+02,9.523238182067871094e+00,-8.414105772972106934e-01,2.677215635776519775e-01,4.040000000000000000e+02
-3.429475271084860424e+02,-1.339769317440777456e+02,-1.321499267626937808e+02,-3.054861941834292338e+01,-3.534268882216654220e+02,-3.729122149845118201e+02,-2.249710952013681435e+02,-1.478572507191860268e+02,9.523238182067871094e+00,-8.414105772972106934e-01,2.677215635776519775e-01,4.050000000000000000e+02
-3.347606067996480306e+02,-1.280184626687332070e+02,-1.245844052069019199e+02,-2.433577347310426831e+01,-3.449160259597599634e+02,-3.661554476550386426e+02,-2.182289701084903299e+02,-1.432628875707107454e+02,9.523238182067871094e+00,-8.414105772972106934e-01,2.677215635776519775e-01,4.060000000000000000e+02
-3.327288050500620784e+02,-1.271170715187884070e+02,-1.220589998160718324e+02,-2.425643667987083063e+01,-3.403375326644611505e+02,-3.645293491702736901e+02,-2.139243982660480015e+02,-1.451236258733174509e+02,9.523238182067871094e+00,-8.414105772972106934e-01,2.677215635776519775e-01,4.070000000000000000e+02
-3.364107814142785173e+02,-1.313661729597885426e+02,-1.256844856966182533e+02,-2.995331145139243745e+01,-3.401491306150460332e+02,-3.674504557453665257e+02,-2.131470190335298867e+02,-1.520859368386090864e+02,9.523238182067871094e+00,-8.414105772972106934e-01,2.677215635776519775e-01,4.080000000000000000e+02
-3.429550422640226088e+02,-1.384461063814824513e+02,-1.340008094964250631e+02,-3.821484753207704443e+01,-3.427931141103561004e+02,-3.721043335675508388e+02,-2.149903872334059542e+02,-1.602813350321048347e+02,9.523238182067871094e+00,-8.414105772972106934e-01,2.677215635776519775e-01,4.090000000000000000e+02
-3.486730946033503642e+02,-1.452995557282295351e+02,-1.439376439546383608e+02,-4.537322598056334755e+01,-3.459732917843084579e+02,-3.756499006789370014e+02,-2.174045907639267625e+02,-1.663630106287835133e+02,9.523238182067871094e+00,-8.414105772972106934e-01,2.677215635776519775e-01,4.100000000000000000e+02
-3.512709138065960133e+02,-1.503508495855741671e+02,-1.528341903326968350e+02,-4.997827260265688665e+01,-3.483802450075525030e+02,-3.772883525366507911e+02,-2.189687208806103627e+02,-1.700448967941790670e+02,9.523238182067871094e+00,-8.414105772972106934e-01,2.677215635776519775e-01,4.110000000000000000e+02
-3.512190734394349647e+02,-1.544944879454467070e+02,-1.599856323441015320e+02,-5.353531122836545819e+01,-3.503976933911901597e+02,-3.784617789749991061e+02,-2.199835820093292114e+02,-1.739041789361050405e+02,9.523238182067871094e+00,-8.414105772972106934e-01,2.677215635776519775e-01,4.120000000000000000e+02
-3.510896249368269082e+02,-1.599895960185854449e+02,-1.664928946750279692e+02,-5.864616099677357397e+01,-3.532240922136293193e+02,-3.810837039724419810e+02,-2.218941298286840720e+02,-1.805204415955674904e+02,9.523238182067871094e+00,-8.414105772972106934e-01,2.677215635776519775e-01,4.130000000000000000e+02
-3.531903489278274719e+02,-1.681146619394737911e+02,-1.735896392622192934e+02,-6.614747709181403934e+01,-3.572405269896162281e+02,-3.854076421497793490e+02,-2.256029356881279000e+02,-1.894419764258503847e+02,9.523238182067871094e+00,-8.414105772972106934e-01,2.677215635776519775e-01,4.140000000000000000e+02
-3.573404040943623841e+02,-1.775677443763700296e+02,-1.809469622274242511e+02,-7.379632455737345254e+01,-3.610874097029729910e+02,-3.894102891795655523e+02,-2.302633665129537803e+02,-1.968004599460246027e+02,9.523238182067871094e+00,-8.414105772972106934e-01,2.677215635776519775e-01,4.150000000000000000e+02
-3.607433667990712820e+02,-1.850712522182081443e+02,-1.865312368598358717e+02,-7.777990990448142838e+01,-3.623316693531651254e+02,-3.902246922198937682e+02,-2.337097258137548579e+02,-1.981600817871777735e+02,9.523238182067871094e+00,-8.414105772972106934e-01,2.677215635776519775e-01,4.160000000000000000e+02
-3.602580444377855429e+02,-1.878142260983402423e+02,-1.882269144369921605e+02,-7.588032589105409897e+01,-3.592872938658438215e+02,-3.864233708530919102e+02,-2.341984099376441009e+02,-1.922858296911240359e+02,9.484992027282714844e+00,-7.649186849594116211e-01,3.059675097465515137e-01,4.170000000000000000e+02
-3.552165799121422651e+02,-1.857572826526313747e+02,-1.858183270279098451e+02,-6.962279699971674063e+01,-3.525608710701035307e+02,-3.792985447872001714e+02,-2.319406525964568573e+02,-1.825910067830053549e+02,9.484992027282714844e+00,-7.649186849594116211e-01,3.059675097465515137e-01,4.180000000000000000e+02
-3.482934873973197227e+02,-1.818713259082184095e+02,-1.815247396391912389e+02,-6.355371622781706265e+01,-3.450425904818011986e+02,-3.721721593004112947e+02,-2.290834496586362548e+02,-1.749769494245550732e+02,9.484992027282714844e+00,-7.649186849594116211e-01,3.059675097465515137e-01,4.190000000000000000e+02
-3.435573114971662108e+02,-1.800805370104678786e+02,-1.785380539080958897e+02,-6.220686341931872221e+01,-3.402261858977537941e+02,-3.683270921603450461e+02,-2.281443551835900507e+02,-1.738459132885969893e+02,9.484992027282714844e+00,-7.649186849594116211e-01,3.059675097465515137e-01,4.200000000000000000e+02
-3.433346073164138943e+02,-1.825642028860291646e+02,-1.787839286581547640e+02,-6.717865195061426675e+01,-3.400393840614633518e+02,-3.691137515795535364e+02,-2.302132744679067855e+02,-1.795042103418256829e+02,9.484992027282714844e+00,-7.649186849594116211e-01,3.059675097465515137e-01,4.210000000000000000e+02
-3.465908795359589476e+02,-1.885216974668004752e+02,-1.817903889275031588e+02,-7.649268135641034405e+01,-3.437812547959943004e+02,-3.734935367437014975e+02,-2.343858684611905119e+02,-1.887820072996764793e+02,9.484992027282714844e+00,-7.649186849594116211e-01,3.059675097465515137e-01,4.220000000000000000e+02
-3.501553639484902760e+02,-1.952233133979596857e+02,-1.855106958448526484e+02,-8.643497847493034669e+01,-3.489138165588358333e+02,-3.790823362480555261e+02,-2.387763614169577977e+02,-1.978845257587281594e+02,9.484992027282714844e+00,-7.649186849594116211e-01,3.059675097465515137e-01,4.230000000000000000e+02
-3.515348608781391704e+02,-2.002662802597928930e+02,-1.882037680544744944e+02,-9.412271585966959719e+01,-3.529878486630796033e+02,-3.837109843406610707e+02,-2.420966540992124010e+02,-2.048581477003353939e+02,9.484992027282714844e+00,-7.649186849594116211e-01,3.059675097465515137e-01,4.240000000000000000e+02
-3.507029245551989334e+02,-2.031012695431965085e+02,-1.896365066987057162e+02,-9.880782422401324538e+01,-3.551178826781963380e+02,-3.863507766550467295e+02,-2.444057087237847554e+02,-2.098550079352290822e+02,9.484992027282714844e+00,-7.649186849594116211e-01,3.059675097465515137e-01,4.250000000000000000e+02
-3.493534780592335665e+02,-2.047205082604235429e+02,-1.906373161082005936e+02,-1.012721128475943146e+02,-3.558979885473859213e+02,-3.869484900288878180e+02,-2.465007010574172455e+02,-2.135627625185892384e+02,9.484992027282714844e+00,-7.649186849594116211e-01,3.059675097465515137e-01,4.260000000000000000e+02
-3.485628869165758488e+02,-2.060716428322929232e+02,-1.916271215993285750e+02,-1.022902204466608964e+02,-3.560510824271930232e+02,-3.856218517113882172e+02,-2.486879191957691546e+02,-2.156402511602137793e+02,9.484992027282714844e+00,-7.649186849594116211e-01,3.059675097465515137e-01,4.270000000000000000e+02
-3.472423318805726922e+02,-2.067694565678128242e+02,-1.916561633824580895e+02,-1.016615681244218763e+02,-3.551797508277577435e+02,-3.820673643211705439e+02,-2.501546621555830825e+02,-2.146175255303832046e+02,9.484992027282714844e+00,-7.649186849594116211e-01,3.059675097465515137e-01,4.280000000000000000e+02
-3.428798968184694331e+02,-2.052701157860770422e+02,-1.889070966410603205e+02,-9.853842410183523270e+01,-3.518014038866322153e+02,-3.757099567876844048e+02,-2.495025440735671509e+02,-2.091802760834061701e+02,9.484992027282714844e+00,-7.649186849594116211e-01,3.059675097465515137e-01,4.290000000000000000e+02
-3.338582705464341416e+02,-2.002881108229797746e+02,-1.822423689837210077e+02,-9.257266155724630607e+01,-3.446289599470076155e+02,-3.664099312768607888e+02,-2.458981979932291324e+02,-1.995670114414888303e+02,9.484992027282714844e+00,-7.649186849594116211e-01,3.059675097465515137e-01,4.300000000000000000e+02
-3.211703986300511815e+02,-1.921460417963972134e+02,-1.724233566646835243e+02,-8.477684652654892261e+01,-3.339415599132614716e+02,-3.550686892148839888e+02,-2.397928322729337651e+02,-1.878613244336034995e+02,9.484992027282714844e+00,-7.649186849594116211e-01,3.059675097465515137e-01,4.310000000000000000e+02
-3.079651379983736206e+02,-1.828538131494467507e+02,-1.619292356322644082e+02,-7.731529384540357341e+01,-3.218541065341282774e+02,-3.435519130969632897e+02,-2.326537513926423344e+02,-1.769808463989284064e+02,9.484992027282714844e+00,-7.649186849594116211e-01,3.059675097465515137e-01,4.320000000000000000e+02
-2.973637121808487791e+02,-1.748264650253780417e+02,-1.534897240262555442e+02,-7.232680205169992860e+01,-3.112388921476592714e+02,-3.338723303708179628e+02,-2.260292422174093190e+02,-1.691577817728863238e+02,9.484992027282714844e+00,-7.649186849594116211e-01,3.059675097465515137e-01,4.330000000000000000e+02
-2.904604346027156225e+02,-1.692953050959001473e+02,-1.484621212533422749e+02,-7.064824827798133811e+01,-3.041252915211800882e+02,-3.271487916092630712e+02,-2.207223354696607203e+02,-1.649650910115782381e+02,9.484992027282714844e+00,-7.649186849594116211e-01,3.059675097465515137e-01,4.340000000000000000e+02
-2.861007499476913836e+02,-1.656963110963154406e+02,-1.462479914420963496e+02,-7.140976724403788012e+01,-3.007291596646082326e+02,-3.230702897230057715e+02,-2.165981350612787537e+02,-1.634471459274546987e+02,9.484992027282714844e+00,-7.649186849594116211e-01,3.059675097465515137e-01,4.350000000000000000e+02
-2.824004819634478736e+02,-1.625035532474706201e+02,-1.451135448899694893e+02,-7.286963560713354582e+01,-2.997202391479913786e+02,-3.203047575336017871e+02,-2.129958594133436236e+02,-1.631393905245713540e+02,9.484992027282714844e+00,-7.649186849594116211e-01,3.059675097465515137e-01,4.360000000000000000e+02
-2.785406493198149747e+02,-1.587867207480970535e+02,-1.437133403831463738e+02,-7.392062629207987356e+01,-2.994252667380965249e+02,-3.176295414512007937e+02,-2.093700194643490704e+02,-1.632034190252574035e+02,9.484992027282714844e+00,-7.649186849594116211e-01,3.059675097465515137e-01,4.370000000000000000e+02
-2.753383916190593936e+02,-1.551693630057275755e+02,-1.421326265364209576e+02,-7.509791277446333879e+01,-2.990364528489949407e+02,-3.149548219568471268e+02,-2.057519827085461657e+02,-1.638592365641993638e+02,9.370253562927246094e+00,-8.796565532684326172e-01,2.677215635776519775e-01,4.380000000000000000e+02
-2.742785421957805738e+02,-1.533558634126542586e+02,-1.416665732198837304e+02,-7.817431335145266758e+01,-2.989321097658080362e+02,-3.133609585649332985e+02,-2.027754434375972323e+02,-1.658221938000855289e+02,9.370253562927246094e+00,-8.796565532684326172e-01,2.677215635776519775e-01,4.390000000000000000e+02
-2.759441531952443256e+02,-1.545669456746608432e+02,-1.435253185905828559e+02,-8.450631973318621704e+01,-2.998888326286387382e+02,-3.139567247643358314e+02,-2.012103382542859435e+02,-1.692147876186704707e+02,9.370253562927246094e+00,-8.796565532684326172e-01,2.677215635776519775e-01,4.400000000000000000e+02
-2.791426382887003683e+02,-1.581480138946316742e+02,-1.474872220235954501e+02,-9.339726303422281717e+01,-3.018504302659100631e+02,-3.163859011539668700e+02,-2.012542312399450566e+02,-1.728789186197935805e+02,9.370253562927246094e+00,-8.796565532684326172e-01,2.677215635776519775e-01,4.410000000000000000e+02
-2.813423179729284129e+02,-1.615204733530080432e+02,-1.515801435285063690e+02,-1.019001109369385176e+02,-3.033370240164476854e+02,-3.183011123001269880e+02,-2.020909190166667031e+02,-1.747509095463303765e+02,9.370253562927246094e+00,-8.796565532684326172e-01,2.677215635776519775e-01,4.420000000000000000e+02
-2.800500513115841841e+02,-1.616064432436901654e+02,-1.531068064273245000e+02,-1.064192598106709511e+02,-3.021201187484666661e+02,-3.165035485759649418e+02,-2.021415273468210216e+02,-1.731147843808155358e+02,9.370253562927246094e+00,-8.796565532684326172e-01,2.677215635776519775e-01,4.430000000000000000e+02
-2.741688913656591922e+02,-1.566926351129766033e+02,-1.502924507141922277e+02,-1.049861598355261663e+02,-2.967341410558710777e+02,-3.090790453141560192e+02,-1.999308785257856016e+02,-1.677798951881252378e+02,9.370253562927246094e+00,-8.796565532684326172e-01,2.677215635776519775e-01,4.440000000000000000e+02
-2.644883363374326564e+02,-1.473764443224568765e+02,-1.433431576013261974e+02,-9.845576768312605509e+01,-2.876149267097111988e+02,-2.968836967684605952e+02,-1.949425390997330396e+02,-1.602221321557403826e+02,9.370253562927246094e+00,-8.796565532684326172e-01,2.677215635776519775e-01,4.450000000000000000e+02
-2.530957295583384621e+02,-1.359951035796032386e+02,-1.341743194701173252e+02,-8.971381459529840185e+01,-2.769004108752974389e+02,-2.831089897317942814e+02,-1.878001024224565754e+02,-1.525501145098941151e+02,9.370253562927246094e+00,-8.796565532684326172e-01,2.677215635776519775e-01,4.460000000000000000e+02
-2.421585981951849362e+02,-1.250869790847105207e+02,-1.250969298344804201e+02,-8.160826438183653408e+01,-2.670372199665116568e+02,-2.711879787995515017e+02,-1.796968120439312315e+02,-1.461138496188950739e+02,9.370253562927246094e+00,-8.796565532684326172e-01,2.677215635776519775e-01,4.470000000000000000e+02
-2.328791494080677467e+02,-1.160809010505953154e+02,-1.175135151397932987e+02,-7.531182117415346511e+01,-2.593308548710970172e+02,-2.626954105116624305e+02,-1.716358733419506279e+02,-1.408848610286876237e+02,9.370253562927246094e+00,-8.796565532684326172e-01,2.677215635776519775e-01,4.480000000000000000e+02
-2.252413694244401086e+02,-1.090883501962310049e+02,-1.115475500670515885e+02,-7.031462577823117499e+01,-2.535492843117856410e+02,-2.568629977720665920e+02,-1.641193376859657747e+02,-1.360397114955422921e+02,9.370253562927246094e+00,-8.796565532684326172e-01,2.677215635776519775e-01,4.490000000000000000e+02
-2.185690435586358262e+02,-1.036764388228182838e+02,-1.066569081259575569e+02,-6.572698607944516880e+01,-2.486875718170638265e+02,-2.518695467562097292e+02,-1.573672128088571753e+02,-1.310975652138859004e+02,9.370253562927246094e+00,-8.796565532684326172e-01,2.677215635776519775e-01,4.500000000000000000e+02
-2.123280238426565347e+02,-9.972867951207257420e+01,-1.024632873045152337e+02,-6.147108409869224488e+01,-2.440088706312308204e+02,-2.465622452416187116e+02,-1.516005047464677773e+02,-1.264737838344619831e+02,9.370253562927246094e+00,-8.796565532684326172e-01,2.677215635776519775e-01,4.510000000000000000e+02
-2.065042108080810976e+02,-9.756874285629677956e+01,-9.901044193945483585e+01,-5.825096613902633180e+01,-2.394408614804428908e+02,-2.410902573014386689e+02,-1.469847757602510683e+02,-1.229145757709741247e+02,9.370253562927246094e+00,-8.796565532684326172e-01,2.677215635776519775e-01,4.520000000000000000e+02
-2.013591274618770512e+02,-9.729046992559557339e+01,-9.635715913301987712e+01,-5.650785073508313872e+01,-2.351938612537196605e+02,-2.361320294260722221e+02,-1.433401787834091010e+02,-1.204201942789117084e+02,9.370253562927246094e+00,-8.796565532684326172e-01,2.677215635776519775e-01,4.530000000000000000e+02
-1.969546537211851955e+02,-9.802400787802324089e+01,-9.410221675204229541e+01,-5.557928050085604355e+01,-2.312151166478715822e+02,-2.317535241937976025e+02,-1.400648538357802408e+02,-1.178240876374931076e+02,9.370253562927246094e+00,-8.796565532684326172e-01,2.677215635776519775e-01,4.540000000000000000e+02
-1.929909780177249559e+02,-9.797615642445373396e+01,-9.147467180135731724e+01,-5.402029517443270379e+01,-2.271098460065045401e+02,-2.271389612393011248e+02,-1.364862089501280025e+02,-1.136050755840150259e+02,9.370253562927246094e+00,-8.796565532684326172e-01,2.677215635776519775e-01,4.550000000000000000e+02
-1.890881056553205326e+02,-9.543584384536728749e+01,-8.797863430154552589e+01,-5.082723272769192135e+01,-2.225469070568494772e+02,-2.214074926383832462e+02,-1.323495348069193369e+02,-1.072655819300847497e+02,9.370253562927246094e+00,-8.796565532684326172e-01,2.677215635776519775e-01,4.560000000000000000e+02
-1.851162891106611141e+02,-9.006271802253206715e+01,-8.393068511156843670e+01,-4.635831729448858596e+01,-2.176548349617248732e+02,-2.145863931016633614e+02,-1.279640432471844633e+02,-9.994176971457864056e+01,9.370253562927246094e+00,-8.796565532684326172e-01,2.677215635776519775e-01,4.570000000000000000e+02
-1.811477140423910441e+02,-8.340690320678817216e+01,-8.025074535675605603e+01,-4.201816992549174756e+01,-2.129662458926604813e+02,-2.076901926474174616e+02,-1.238519363446948773e+02,-9.356282703520332689e+01,9.370253562927246094e+00,-8.796565532684326172e-01,2.677215635776519775e-01,4.580000000000000000e+02
-1.770590536915638040e+02,-7.810215008132792036e+01,-7.756827540994618175e+01,-3.896798477760347623e+01,-2.089253104531774170e+02,-2.017965190296300761e+02,-1.202132112677904843e+02,-8.923019193523271042e+01,9.370253562927246094e+00,-8.796565532684326172e-01,2.677215635776519775e-01,4.590000000000000000e+02
-1.722808887073744017e+02,-7.618386885496218497e+01,-7.544567882365288369e+01,-3.707488692787467244e+01,-2.054064167563884666e+02,-1.970476956902972461e+02,-1.166721366444971864e+02,-8.630661509579931590e+01,9.370253562927246094e+00,-8.796565532684326172e-01,2.677215635776519775e-01,4.600000000000000000e+02
-1.661190066964559264e+02,-7.771839712877311968e+01,-7.255171461312011161e+01,-3.510116161735737705e+01,-2.017167569951459427e+02,-1.925784686153208440e+02,-1.125210768399601875e+02,-8.310109650717186014e+01,9.370253562927246094e+00,-8.796565532684326172e-01,2.677215635776519775e-01,4.610000000000000000e+02
-1.584718747987044480e+02,-8.076605714965610616e+01,-6.779277458029707759e+01,-3.195742661046540434e+01,-1.971502761900549103e+02,-1.874399069142675671e+02,-1.072660425686408416e+02,-7.852395815763725295e+01,9.370253562927246094e+00,-8.796565532684326172e-01,2.677215635776519775e-01,4.620000000000000000e+02
-1.502650512869790873e+02,-8.271639639882189954e+01,-6.146809148245279175e+01,-2.783089122437615970e+01,-1.916648613133265826e+02,-1.816037789354677443e+02,-1.010696486040111495e+02,-7.313294643477365753e+01,9.484992027282714844e+00,-9.179025292396545410e-01,1.912296712398529053e-01,4.630000000000000000e+02
-1.430940282645240131e+02,-8.201414243285680072e+01,-5.535826656707445181e+01,-2.411985100118505443e+01,-1.860847177125772305e+02,-1.760601626661768933e+02,-9.476645377187935537e+01,-6.857838522712211216e+01,9.484992027282714844e+00,-9.179025292396545410e-01,1.912296712398529053e-01,4.640000000000000000e+02
-1.382663016176115889e+02,-7.903433664946021509e+01,-5.150800034617941492e+01,-2.222052398761678660e+01,-1.815589597999064608e+02,-1.718959177715964870e+02,-8.939901585663983496e+01,-6.599520894629171153e+01,9.484992027282714844e+00,-9.179025292396545410e-01,1.912296712398529053e-01,4.650000000000000000e+02
-1.359807686545882461e+02,-7.556012492347402087e+01,-5.063087510884906806e+01,-2.226881203685996979e+01,-1.786524184152165162e+02,-1.692344947173667151e+02,-8.556323477693865698e+01,-6.489737967583988620e+01,9.484992027282714844e+00,-9.179025292396545410e-01,1.912296712398529053e-01,4.660000000000000000e+02
-1.352628010327311472e+02,-7.337430525717500984e+01,-5.148699487279100140e+01,-2.297165876202427626e+01,-1.768518013444452208e+02,-1.670528823825549125e+02,-8.303795694143525452e+01,-6.362969047976224601e+01,9.484992027282714844e+00,-9.179025292396545410e-01,1.912296712398529053e-01,4.670000000000000000e+02
-1.346555415461968437e+02,-7.307421844571669567e+01,-5.182180543798301642e+01,-2.268548966655481536e+01,-1.749992455001759026e+02,-1.640756694907834117e+02,-8.101894242810635660e+01,-6.093760686999053178e+01,9.484992027282714844e+00,-9.179025292396545410e-01,1.912296712398529053e-01,4.680000000000000000e+02
-1.331092709693244842e+02,-7.392404765290970658e+01,-5.013212779657771989e+01,-2.080667569750028179e+01,-1.723425657920564618e+02,-1.599392121396411994e+02,-7.881769340717778505e+01,-5.716460703494681184e+01,9.484992027282714844e+00,-9.179025292396545410e-01,1.912296712398529053e-01,4.690000000000000000e+02
-1.304825512068704256e+02,-7.469496681587777687e+01,-4.680901110071238236e+01,-1.830075422454763157e+01,-1.692716410989708038e+02,-1.555786457389277757e+02,-7.645627986046156366e+01,-5.399431737165423328e+01,9.484992027282714844e+00,-9.179025292396545410e-01,1.912296712398529053e-01,4.700000000000000000e+02
-1.274885892671854890e+02,-7.475851189395369545e+01,-4.375787786725288697e+01,-1.698210614868173707e+01,-1.670462204129800057e+02,-1.525245156154023789e+02,-7.462962731774211989e+01,-5.305079681095952537e+01,9.484992027282714844e+00,-9.179025292396545410e-01,1.912296712398529053e-01,4.710000000000000000e+02
-1.252930989838047822e+02,-7.461239335854003230e+01,-4.290111280518897274e+01,-1.821412302152822349e+01,-1.667615152058208423e+02,-1.517736478380109020e+02,-7.406402947063293141e+01,-5.469800152407890437e+01,9.484992027282714844e+00,-9.179025292396545410e-01,1.912296712398529053e-01,4.720000000000000000e+02
-1.250264710256715261e+02,-7.548876844374186135e+01,-4.485256783303037764e+01,-2.208259365549093900e+01,-1.685280526316150826e+02,-1.532116902279242368e+02,-7.486454997302973879e+01,-5.808312649055727661e+01,9.484992027282714844e+00,-9.179025292396545410e-01,1.912296712398529053e-01,4.730000000000000000e+02
-1.273173080102204722e+02,-7.834632680241023195e+01,-4.874564004234605363e+01,-2.756177967647306559e+01,-1.715865478252412686e+02,-1.559536293993523941e+02,-7.645920454107056230e+01,-6.218846341441053482e+01,9.484992027282714844e+00,-9.179025292396545410e-01,1.912296712398529053e-01,4.740000000000000000e+02
-1.319065569321717248e+02,-8.295290990985945712e+01,-5.309608198960239633e+01,-3.331507662641905654e+01,-1.750941526494572145e+02,-1.590944087719446998e+02,-7.815548535292191445e+01,-6.670438017230299010e+01,9.484992027282714844e+00,-9.179025292396545410e-01,1.912296712398529053e-01,4.750000000000000000e+02
-1.375546223143098814e+02,-8.774846154458052183e+01,-5.679207241116091609e+01,-3.838892285415792571e+01,-1.786966064722947749e+02,-1.621139050534377475e+02,-7.973473863450817589e+01,-7.185570257516701531e+01,9.484992027282714844e+00,-9.179025292396545410e-01,1.912296712398529053e-01,4.760000000000000000e+02
-1.425296192203275609e+02,-9.072044530045236854e+01,-5.948001451131756312e+01,-4.240452470303296195e+01,-1.823812642634230770e+02,-1.647296721371014883e+02,-8.152466709023644853e+01,-7.750902041852222624e+01,9.484992027282714844e+00,-9.179025292396545410e-01,1.912296712398529053e-01,4.770000000000000000e+02
-1.456505896356189851e+02,-9.083898678687397421e+01,-6.139722024379821619e+01,-4.543926291694216957e+01,-1.859956476909861181e+02,-1.666451878221589027e+02,-8.395770506494869778e+01,-8.268565456979052897e+01,9.484992027282714844e+00,-9.179025292396545410e-01,1.912296712398529053e-01,4.780000000000000000e+02
-1.472452400682636835e+02,-8.905425722169738378e+01,-6.311306406046156781e+01,-4.793185671870006104e+01,-1.891406243407664647e+02,-1.676591499068186977e+02,-8.711307814279325612e+01,-8.611735141238489177e+01,9.484992027282714844e+00,-9.179025292396545410e-01,1.912296712398529053e-01,4.790000000000000000e+02
-1.490945111220678712e+02,-8.791799380955646370e+01,-6.534620348816378055e+01,-5.058379329742513164e+01,-1.915568035860770806e+02,-1.679877947871132733e+02,-9.065572655559543591e+01,-8.726759333140273611e+01,9.484992027282714844e+00,-9.179025292396545410e-01,1.912296712398529053e-01,4.800000000000000000e+02
-1.530239001372189307e+02,-8.979797539163969589e+01,-6.859591441926602329e+01,-5.395833990115988854e+01,-1.933849178360764256e+02,-1.682061798134431285e+02,-9.410307166225260289e+01,-8.665436357397271649e+01,9.484992027282714844e+00,-9.179025292396545410e-01,1.912296712398529053e-01,4.810000000000000000e+02
-1.590204287963994148e+02,-9.484329191090053257e+01,-7.247239791078413873e+01,-5.777513746391092297e+01,-1.947565053873254328e+02,-1.685669052136076687e+02,-9.703558890465802733e+01,-8.504964492375296459e+01,9.484992027282714844e+00,-9.179025292396545410e-01,1.912296712398529053e-01,4.820000000000000000e+02
-1.645325876362179827e+02,-1.003774275141028056e+02,-7.528783326407238974e+01,-6.053247394732399300e+01,-1.950838993876420204e+02,-1.683189477395134475e+02,-9.905717680528422875e+01,-8.248642776680267730e+01,9.484992027282714844e+00,-9.179025292396545410e-01,1.912296712398529053e-01,4.830000000000000000e+02
-1.659699704557615973e+02,-1.025520420336529526e+02,-7.472369048474003250e+01,-6.021195592374864702e+01,-1.930583713091116920e+02,-1.659762671486273575e+02,-9.972179422661113790e+01,-7.838682347000977302e+01,9.484992027282714844e+00,-9.179025292396545410e-01,1.912296712398529053e-01,4.840000000000000000e+02
-1.615823356642619615e+02,-9.927978869850355181e+01,-6.957346401029225547e+01,-5.595300095261380591e+01,-1.877976040256293686e+02,-1.606973751842688216e+02,-9.873494701648598948e+01,-7.293456845593340176e+01,9.484992027282714844e+00,-9.179025292396545410e-01,1.912296712398529053e-01,4.850000000000000000e+02
-1.533882897973379613e+02,-9.215162016308731552e+01,-6.128031951790757148e+01,-4.939645587768287527e+01,-1.802604193366298944e+02,-1.536849637463165550e+02,-9.638017793947580003e+01,-6.820610995664176812e+01,9.484992027282714844e+00,-9.179025292396545410e-01,1.912296712398529053e-01,4.860000000000000000e+02
-1.462601537571327412e+02,-8.558410191924224364e+01,-5.368445288058313736e+01,-4.422649532685073837e+01,-1.734316037509096873e+02,-1.481281755341525468e+02,-9.372684142555601738e+01,-6.744295382531485927e+01,9.484992027282714844e+00,-9.179025292396545410e-01,1.912296712398529053e-01,4.870000000000000000e+02
-1.446051463887003479e+02,-8.363890425537688600e+01,-5.075063815573059856e+01,-4.382473468914785997e+01,-1.707068786216359513e+02,-1.473344417838621609e+02,-9.223639649008310926e+01,-7.262905315855225297e+01,9.484992027282714844e+00,-9.179025292396545410e-01,1.912296712398529053e-01,4.880000000000000000e+02
-1.492942504241542565e+02,-8.701244926354161180e+01,-5.394909706785462333e+01,-4.877375507580694602e+01,-1.736254783408044773e+02,-1.523894850715002747e+02,-9.292184922360260657e+01,-8.248677299412904063e+01,9.484992027282714844e+00,-9.179025292396545410e-01,1.912296712398529053e-01,4.890000000000000000e+02
-1.574378801815826989e+02,-9.272135255853730484e+01,-6.149589116528773047e+01,-5.640543419922543933e+01,-1.808646917031322801e+02,-1.613178931636415427e+02,-9.570597423325722275e+01,-9.299650631732379225e+01,9.446745872497558594e+00,-8.031646609306335449e-01,2.677215635776519775e-01,4.900000000000000000e+02
-1.651265559075947920e+02,-9.677048783607773430e+01,-7.008735624380801710e+01,-6.295507348054061936e+01,-1.893620957113275267e+02,-1.705156105622106111e+02,-9.954288636388770328e+01,-1.002561925871606263e+02,9.446745872497558594e+00,-8.031646609306335449e-01,2.677215635776519775e-01,4.910000000000000000e+02
-1.705878318189284073e+02,-9.747095107286978077e+01,-7.748031849695865958e+01,-6.650738875154479501e+01,-1.965221265796729995e+02,-1.772373606408785918e+02,-1.032262355674616856e+02,-1.031622255537482999e+02,9.446745872497558594e+00,-8.031646609306335449e-01,2.677215635776519775e-01,4.920000000000000000e+02
-1.749151029010678258e+02,-9.650349717151581785e+01,-8.354283344209306961e+01,-6.811470766042634750e+01,-2.015462511362426881e+02,-1.810298493978757506e+02,-1.061907231787762953e+02,-1.034818357183181092e+02,9.446745872497558594e+00,-8.031646609306335449e-01,2.677215635776519775e-01,4.930000000000000000e+02
-1.799469209846496369e+02,-9.689359532345098103e+01,-8.904959774686631135e+01,-7.016786415055725001e+01,-2.049233762971612123e+02,-1.830814760515634134e+02,-1.086355870777598511e+02,-1.034503678330094658e+02,9.446745872497558594e+00,-8.031646609306335449e-01,2.677215635776519775e-01,4.940000000000000000e+02
-1.856243721982659736e+02,-9.988800501756065842e+01,-9.379057245711578616e+01,-7.371085737401131155e+01,-2.069648215169866035e+02,-1.844312258244985969e+02,-1.109477358800345428e+02,-1.034424944992230166e+02,9.446745872497558594e+00,-8.031646609306335449e-01,2.677215635776519775e-01,4.950000000000000000e+02
-1.895213036365852872e+02,-1.036650481123890586e+02,-9.615880616682932214e+01,-7.734269756136839646e+01,-2.070867728217821195e+02,-1.849025881315042170e+02,-1.130646058049667317e+02,-1.020382369080911076e+02,9.446745872497558594e+00,-8.031646609306335449e-01,2.677215635776519775e-01,4.960000000000000000e+02
-1.889756232405579794e+02,-1.050203490677613161e+02,-9.469601554885770156e+01,-7.871975698112788677e+01,-2.045931680170106119e+02,-1.836969670333498925e+02,-1.144469567152268610e+02,-9.821802623370575702e+01,9.446745872497558594e+00,-8.031646609306335449e-01,2.677215635776519775e-01,4.970000000000000000e+02
-1.837038217674454472e+02,-1.023678546096104469e+02,-8.991939121528184842e+01,-7.706421562116668156e+01,-2.000056946936622353e+02,-1.807980517007608796e+02,-1.146730491535595320e+02,-9.318346600977207572e+01,9.446745872497558594e+00,-8.031646609306335449e-01,2.677215635776519775e-01,4.980000000000000000e+02
-1.764135853915072403e+02,-9.726717734857700748e+01,-8.445454584139451981e+01,-7.414173382667422629e+01,-1.953718553316599582e+02,-1.775808772774540785e+02,-1.140105176675929215e+02,-8.980544690494326687e+01,9.446745872497558594e+00,-8.031646609306335449e-01,2.677215635776519775e-01,4.990000000000000000e+02
-1.709716947813476509e+02,-9.317344740326606711e+01,-8.125859096268663961e+01,-7.277901559980540469e+01,-1.930513366277751857e+02,-1.759435791131654696e+02,-1.133381505640129490e+02,-9.026322599635318511e+01,9.446745872497558594e+00,-8.031646609306335449e-01,2.677215635776519775e-01,5.000000000000000000e+02
-1.698972973846593959e+02,-9.269666345291648213e+01,-8.164287198500028353e+01,-7.445303895813924555e+01,-1.940574128496499497e+02,-1.768400362683903495e+02,-1.134758220336398153e+02,-9.428374212581638858e+01,9.446745872497558594e+00,-8.031646609306335449e-01,2.677215635776519775e-01,5.010000000000000000e+02
-1.732098020310922948e+02,-9.582266132045086238e+01,-8.484909364415318578e+01,-7.826703874904188751e+01,-1.974774995074903927e+02,-1.796395734242551043e+02,-1.145954849298964291e+02,-9.962959591348430877e+01,9.446745872497558594e+00,-8.031646609306335449e-01,2.677215635776519775e-01,5.020000000000000000e+02
-1.790396687598260996e+02,-1.003779227604454718e+02,-8.916947837845953018e+01,-8.206274006417265809e+01,-2.013566928203472344e+02,-1.827711305852540136e+02,-1.162513478516357281e+02,-1.040564814948339745e+02,9.446745872497558594e+00,-8.031646609306335449e-01,2.677215635776519775e-01,5.030000000000000000e+02
-1.848662395458966330e+02,-1.038966429501996345e+02,-9.311654554596009348e+01,-8.428164635834173168e+01,-2.040089630636105085e+02,-1.848125818195330794e+02,-1.178695325260366644e+02,-1.065975052008902821e+02,9.446745872497558594e+00,-8.031646609306335449e-01,2.677215635776519775e-01,5.040000000000000000e+02
-1.882580530540930113e+02,-1.050215918739768313e+02,-9.547933150425456006e+01,-8.466187707612687063e+01,-2.045100009844036322e+02,-1.849419298142227035e+02,-1.190596591342871307e+02,-1.070967080699879261e+02,9.446745872497558594e+00,-8.031646609306335449e-01,2.677215635776519775e-01,5.050000000000000000e+02
-1.871411445825320925e+02,-1.034713567886964540e+02,-9.474108184120132137e+01,-8.335551482697280790e+01,-2.022632072394565057e+02,-1.826050713151273612e+02,-1.194206874417313884e+02,-1.050053003608659310e+02,9.446745872497558594e+00,-8.031646609306335449e-01,2.677215635776519775e-01,5.060000000000000000e+02
-1.803197637694844389e+02,-9.922811091340469147e+01,-8.924162453179098975e+01,-7.983908891066357683e+01,-1.966300034980931741e+02,-1.772232074631260730e+02,-1.182251144643826137e+02,-9.921121080451734997e+01,9.446745872497558594e+00,-8.031646609306335449e-01,2.677215635776519775e-01,5.070000000000000000e+02
-1.684034179806690190e+02,-9.217868202731699512e+01,-7.855381722385459398e+01,-7.311567609318785799e+01,-1.874133548703925953e+02,-1.686101773122227314e+02,-1.146079867385449234e+02,-8.932419080994100113e+01,9.446745872497558594e+00,-8.031646609306335449e-01,2.677215635776519775e-01,5.080000000000000000e+02
-1.542794279226541221e+02,-8.264393556984646239e+01,-6.483774277350630655e+01,-6.316327938929896391e+01,-1.757715875030835377e+02,-1.577495664480384221e+02,-1.083356579108353799e+02,-7.699991418119202535e+01,9.446745872497558594e+00,-8.031646609306335449e-01,2.677215635776519775e-01,5.090000000000000000e+02
-1.422100464889217619e+02,-7.207064104405054650e+01,-5.247521068909964015e+01,-5.207052136533047815e+01,-1.643581334468958630e+02,-1.469284436285547599e+02,-1.004520275180116187e+02,-6.566056282679232936e+01,9.446745872497558594e+00,-8.031646609306335449e-01,2.677215635776519775e-01,5.100000000000000000e+02
-1.357701604913297615e+02,-6.290911477695641452e+01,-4.576626328206225480e+01,-4.344961021536516910e+01,-1.561423733104766143e+02,-1.387537409442941225e+02,-9.304098185844941327e+01,-5.857657282813806887e+01,9.446745872497558594e+00,-8.031646609306335449e-01,2.677215635776519775e-01,5.110000000000000000e+02
-1.359824904004981363e+02,-5.751474220021162864e+01,-4.636560952179956985e+01,-4.033835847741693215e+01,-1.527385223248752482e+02,-1.347158515111134420e+02,-8.812772046056988984e+01,-5.692241622932760947e+01,9.446745872497558594e+00,-8.031646609306335449e-01,2.677215635776519775e-01,5.120000000000000000e+02
-1.409671908989180338e+02,-5.685990192592549874e+01,-5.249664747898941641e+01,-4.323270594767336661e+01,-1.536407948761311673e+02,-1.344677845147673452e+02,-8.655302539036529197e+01,-5.941215262448167778e+01,9.446745872497558594e+00,-8.031646609306335449e-01,2.677215635776519775e-01,5.130000000000000000e+02
-1.472103393112488448e+02,-5.998021793975362925e+01,-6.040399972876775792e+01,-4.977752106585523961e+01,-1.568881191416812726e+02,-1.363145732196808240e+02,-8.765806719927240920e+01,-6.354090069586345635e+01,9.446745872497558594e+00,-8.031646609306335449e-01,2.677215635776519775e-01,5.140000000000000000e+02
-1.513620527352647969e+02,-6.443485708980369964e+01,-6.659833579306541651e+01,-5.621707532740344959e+01,-1.603506923304080374e+02,-1.383231887621300302e+02,-8.985235982091035112e+01,-6.709242231129042011e+01,9.446745872497558594e+00,-8.031646609306335449e-01,2.677215635776519775e-01,5.150000000000000000e+02
-1.513914081405760044e+02,-6.737258186159397155e+01,-6.911262484901862990e+01,-5.937856167825805187e+01,-1.624777047836660131e+02,-1.390842643234873321e+02,-9.145644523205783116e+01,-6.872077677427023445e+01,9.446745872497558594e+00,-8.031646609306335449e-01,2.677215635776519775e-01,5.160000000000000000e+02
-1.467759628235976379e+02,-6.659912051352648632e+01,-6.730578028536501733e+01,-5.786246602474739120e+01,-1.622215054814341784e+02,-1.377721365528868773e+02,-9.123663458015289507e+01,-6.766316712261277644e+01,9.446745872497558594e+00,-8.031646609306335449e-01,2.677215635776519775e-01,5.170000000000000000e+02
-1.382010428625596887e+02,-6.129371746062071225e+01,-6.119492149227107802e+01,-5.204928513542654400e+01,-1.588292385542758893e+02,-1.339448800284053505e+02,-8.856477302595112633e+01,-6.350878837968571133e+01,9.446745872497558594e+00,-8.031646609306335449e-01,2.677215635776519775e-01,5.180000000000000000e+02
-1.272559250338192669e+02,-5.226149251304332211e+01,-5.139255011292652853e+01,-4.343776857015893711e+01,-1.521401486268719054e+02,-1.276143956161508868e+02,-8.347232104249542317e+01,-5.653679776968283477e+01,9.446745872497558594e+00,-8.031646609306335449e-01,2.677215635776519775e-01,5.190000000000000000e+02
-1.161062603138357190e+02,-4.165029627219263375e+01,-3.957393063044855808e+01,-3.397907042355598151e+01,-1.431106206906442821e+02,-1.195408195923787389e+02,-7.669652153243623616e+01,-4.814143238474480313e+01,9.446745872497558594e+00,-8.031646609306335449e-01,2.677215635776519775e-01,5.200000000000000000e+02
-1.068744211621035447e+02,-3.212838369694310359e+01,-2.850094863624167374e+01,-2.561835493193416369e+01,-1.337477908759065031e+02,-1.112458946134438520e+02,-6.953702090123260859e+01,-4.051815699875373866e+01,9.408499717712402344e+00,-8.796565532684326172e-01,2.294756323099136353e-01,5.210000000000000000e+02
-1.007991050375512714e+02,-2.576378415545264033e+01,-2.100654624638036694e+01,-1.986787161720803851e+01,-1.261506701302273541e+02,-1.044368709086106719e+02,-6.338222344413907194e+01,-3.550881599410104172e+01,9.408499717712402344e+00,-8.796565532684326172e-01,2.294756323099136353e-01,5.220000000000000000e+02
-9.771423548817142546e+01,-2.313184611782298816e+01,-1.851994753781809777e+01,-1.733354963151646189e+01,-1.213480861729062781e+02,-1.001488488752129342e+02,-5.911031908364793708e+01,-3.349763077549414447e+01,9.408499717712402344e+00,-8.796565532684326172e-01,2.294756323099136353e-01,5.230000000000000000e+02
-9.633406735263815790e+01,-2.317066983329459617e+01,-2.035913672285892062e+01,-1.744128502775947709e+01,-1.189309603861006508e+02,-9.824295683876107432e+01,-5.677058239888037861e+01,-3.332584263557373561e+01,9.408499717712402344e+00,-8.796565532684326172e-01,2.294756323099136353e-01,5.240000000000000000e+02
-9.519511204469154109e+01,-2.389449530279000555e+01,-2.438357918610472552e+01,-1.869014522748284435e+01,-1.177016558157974941e+02,-9.761493083903496881e+01,-5.573691786134850190e+01,-3.328561616412252988e+01,9.408499717712402344e+00,-8.796565532684326172e-01,2.294756323099136353e-01,5.250000000000000000e+02
-9.354933659079460995e+01,-2.356562049902095168e+01,-2.841826552551265195e+01,-1.945663182969860827e+01,-1.166306378201215921e+02,-9.693560091138715507e+01,-5.516077050984949892e+01,-3.231511458884551757e+01,9.408499717712402344e+00,-8.796565532684326172e-01,2.294756323099136353e-01,5.260000000000000000e+02
-9.159492655555959573e+01,-2.164797697412359412e+01,-3.133527393171607400e+01,-1.892360783628510035e+01,-1.153099289964816307e+02,-9.543996834882545954e+01,-5.439941056750649295e+01,-3.048041637395090220e+01,9.408499717712402344e+00,-8.796565532684326172e-01,2.294756323099136353e-01,5.270000000000000000e+02
-9.004052369520968568e+01,-1.900545756407530007e+01,-3.318260477441208423e+01,-1.752224111128953155e+01,-1.137791134882118058e+02,-9.334035325641298186e+01,-5.323235274451326404e+01,-2.859697642269566131e+01,9.408499717712402344e+00,-8.796565532684326172e-01,2.294756323099136353e-01,5.280000000000000000e+02
-8.952162986013718182e+01,-1.726187607049985218e+01,-3.464907109092609971e+01,-1.655700575424430099e+01,-1.122230946737577142e+02,-9.166716555773973596e+01,-5.186267694764592306e+01,-2.754628228383398891e+01,9.408499717712402344e+00,-8.796565532684326172e-01,2.294756323099136353e-01,5.290000000000000000e+02
-9.032939162197908445e+01,-1.770794637274627803e+01,-3.648324419585605938e+01,-1.723520494912690992e+01,-1.109169767146336198e+02,-9.157652064959120253e+01,-5.073531316950447945e+01,-2.783928856785587413e+01,9.408499717712402344e+00,-8.796565532684326172e-01,2.294756323099136353e-01,5.300000000000000000e+02
-9.241824016834289068e+01,-2.039157223884387804e+01,-3.913986087414787107e+01,-1.974790525523872020e+01,-1.102454436768543928e+02,-9.344669553271251061e+01,-5.021451223147596465e+01,-2.947621197105308966e+01,9.408499717712402344e+00,-8.796565532684326172e-01,2.294756323099136353e-01,5.310000000000000000e+02
-9.539305700070508465e+01,-2.395666939904936044e+01,-4.253604647523798121e+01,-2.305088523265931144e+01,-1.104619537589705942e+02,-9.636575679270299588e+01,-5.028016974371803371e+01,-3.191301076121453661e+01,9.408499717712402344e+00,-8.796565532684326172e-01,2.294756323099136353e-01,5.320000000000000000e+02
-9.839649907442344556e+01,-2.640503639258474777e+01,-4.587246403717654175e+01,-2.553735456436311324e+01,-1.112768311572872335e+02,-9.852950321863136196e+01,-5.050074967991804442e+01,-3.414624761924142149e+01,9.408499717712402344e+00,-8.796565532684326172e-01,2.294756323099136353e-01,5.330000000000000000e+02
-1.002190404551333813e+02,-2.637468121473284555e+01,-4.781514234497990401e+01,-2.617153510151979390e+01,-1.118049097814810011e+02,-9.846708701143143116e+01,-5.039932258428234491e+01,-3.514873018017533468e+01,9.408499717712402344e+00,-8.796565532684326172e-01,2.294756323099136353e-01,5.340000000000000000e+02
-9.991695786308673632e+01,-2.410041874231194470e+01,-4.725513674794547114e+01,-2.527521539554209085e+01,-1.111664755994988809e+02,-9.624269603861921496e+01,-4.994431885555695771e+01,-3.460970707712885996e+01,9.408499717712402344e+00,-8.796565532684326172e-01,2.294756323099136353e-01,5.350000000000000000e+02
-9.765928416699534864e+01,-2.133843899200621763e+01,-4.428048331013724237e+01,-2.434971928448794642e+01,-1.093249466749775820e+02,-9.357822602270880452e+01,-4.968446777047392970e+01,-3.339743112770020161e+01,9.408499717712402344e+00,-8.796565532684326172e-01,2.294756323099136353e-01,5.360000000000000000e+02
-9.503469411734886307e+01,-2.022413638650584744e+01,-4.051140718285751063e+01,-2.499618291918636714e+01,-1.073430860929274786e+02,-9.261520022960121423e+01,-5.031858255913084577e+01,-3.311298639268761690e+01,9.408499717712402344e+00,-8.796565532684326172e-01,2.294756323099136353e-01,5.370000000000000000e+02
-9.429554602373127636e+01,-2.182513005778810111e+01,-3.827524809145688778e+01,-2.771854459448263697e+01,-1.066864637256621791e+02,-9.424442790190369124e+01,-5.205366895987754106e+01,-3.488962147686879689e+01,9.408499717712402344e+00,-8.796565532684326172e-01,2.294756323099136353e-01,5.380000000000000000e+02
-9.690249324067053749e+01,-2.542726123925922366e+01,-3.908398187438069726e+01,-3.153966065379745487e+01,-1.081061423105666108e+02,-9.742794601051809877e+01,-5.437436364337099803e+01,-3.844333037935666653e+01,9.408499717712402344e+00,-8.796565532684326172e-01,2.294756323099136353e-01,5.390000000000000000e+02
-1.024434295681076037e+02,-2.907156178369518784e+01,-4.258009979286543967e+01,-3.474780067171013798e+01,-1.110653822332960772e+02,-1.001397938516929571e+02,-5.647022473018114397e+01,-4.230871589808202771e+01,9.408499717712402344e+00,-8.796565532684326172e-01,2.294756323099136353e-01,5.400000000000000000e+02
-1.088097003276857322e+02,-3.092024279174438561e+01,-4.681577772332047971e+01,-3.618285369616341995e+01,-1.141980167147112297e+02,-1.011120348062122503e+02,-5.791756948638067115e+01,-4.508854385748691129e+01,9.408499717712402344e+00,-8.796565532684326172e-01,2.294756323099136353e-01,5.410000000000000000e+02
-1.135308952082204996e+02,-3.043495618016606841e+01,-4.962354409046338333e+01,-3.603099969217851140e+01,-1.163358424752032079e+02,-1.008250090720712251e+02,-5.894958098976712790e+01,-4.651075442320961884e+01,9.446745872497558594e+00,-8.414105772972106934e-01,2.677215635776519775e-01,5.420000000000000000e+02
-1.152356532847225026e+02,-2.855810164996751155e+01,-4.994810363245960616e+01,-3.550808183813205687e+01,-1.171621139014841901e+02,-1.008789197414016598e+02,-6.005475164086328732e+01,-4.727410668916581926e+01,9.446745872497558594e+00,-8.414105772972106934e-01,2.677215635776519775e-01,5.430000000000000000e+02
-1.141806640754630280e+02,-2.688175498742884884e+01,-4.817703203927339928e+01,-3.575500891020919880e+01,-1.170167235611434080e+02,-1.023778035813065799e+02,-6.133180546515541209e+01,-4.794683562610771332e+01,9.446745872497558594e+00,-8.414105772972106934e-01,2.677215635776519775e-01,5.440000000000000000e+02
-1.116427592140462366e+02,-2.650808848673250395e+01,-4.545744258196964438e+01,-3.690521480586949110e+01,-1.162239801086543594e+02,-1.048320058690605947e+02,-6.227312092148713418e+01,-4.819860046512758345e+01,9.446745872497558594e+00,-8.414105772972106934e-01,2.677215635776519775e-01,5.450000000000000000e+02
-1.088565743963808927e+02,-2.740885242793069665e+01,-4.278911608019325286e+01,-3.808694738509939270e+01,-1.147292073508369867e+02,-1.065693332424052642e+02,-6.222522443170419137e+01,-4.725972724531493441e+01,9.446745872497558594e+00,-8.414105772972106934e-01,2.677215635776519775e-01,5.460000000000000000e+02
-1.063697442941706868e+02,-2.862741157361290334e+01,-4.062379591784974764e+01,-3.827431484697444830e+01,-1.124147752526205295e+02,-1.062163627231384453e+02,-6.109754319608600781e+01,-4.508568261184564108e+01,9.446745872497558594e+00,-8.414105772972106934e-01,2.677215635776519775e-01,5.470000000000000000e+02
-1.041226198891381500e+02,-2.904682776695608482e+01,-3.902436187809826151e+01,-3.717985257726468262e+01,-1.096715890472096362e+02,-1.038592890972604437e+02,-5.961668532479507121e+01,-4.284621696861768214e+01,9.446745872497558594e+00,-8.414105772972106934e-01,2.677215635776519775e-01,5.480000000000000000e+02
-1.018982844602614932e+02,-2.812911195641572704e+01,-3.793420047191784761e+01,-3.542308747353263243e+01,-1.074863570214856736e+02,-1.008683988248903916e+02,-5.882762733539584588e+01,-4.202894234465929912e+01,9.446745872497558594e+00,-8.414105772972106934e-01,2.677215635776519775e-01,5.490000000000000000e+02
-9.961102089277846972e+01,-2.616773420090680702e+01,-3.719867614733084338e+01,-3.389992836113606245e+01,-1.067678299039189369e+02,-9.864054605112414720e+01,-5.923925636075728107e+01,-4.295770668993054642e+01,9.446745872497558594e+00,-8.414105772972106934e-01,2.677215635776519775e-01,5.500000000000000000e+02
-9.725808057207632373e+01,-2.399668890097564145e+01,-3.645583928704672871e+01,-3.299678223205273753e+01,-1.074726009882060680e+02,-9.747888015622083913e+01,-6.036468970247278776e+01,-4.426774104067590088e+01,9.446745872497558594e+00,-8.414105772972106934e-01,2.677215635776519775e-01,5.510000000000000000e+02
-9.480368200839893689e+01,-2.245359099866436736e+01,-3.525750633447660221e+01,-3.239123251212731702e+01,-1.084291238439118388e+02,-9.663386175119558175e+01,-6.109231445617569989e+01,-4.404139905445072145e+01,9.446745872497558594e+00,-8.414105772972106934e-01,2.677215635776519775e-01,5.520000000000000000e+02
-9.229569850324514846e+01,-2.198443646429268483e+01,-3.349759333062138467e+01,-3.159134324787055448e+01,-1.081863705587302320e+02,-9.537988518376369029e+01,-6.060361250810638012e+01,-4.166187709300447750e+01,9.446745872497558594e+00,-8.414105772972106934e-01,2.677215635776519775e-01,5.530000000000000000e+02
-9.016631021465491358e+01,-2.261063955898134736e+01,-3.177877126603289071e+01,-3.066911360329049785e+01,-1.062588324146163359e+02,-9.404080750281718792e+01,-5.908274035618433118e+01,-3.866928354784977273e+01,9.446745872497558594e+00,-8.414105772972106934e-01,2.677215635776519775e-01,5.540000000000000000e+02
-8.936442265543064423e+01,-2.418565100817818347e+01,-3.129066613879876968e+01,-3.048329217112495826e+01,-1.037009767235149411e+02,-9.396836543282734056e+01,-5.764671510550033418e+01,-3.778380801348339446e+01,9.446745872497558594e+00,-8.414105772972106934e-01,2.677215635776519775e-01,5.550000000000000000e+02
-9.100513650217999384e+01,-2.665803537132842393e+01,-3.316591464688190172e+01,-3.214955352076094641e+01,-1.024804091022342618e+02,-9.646944776068085048e+01,-5.759771365799861087e+01,-4.088669064382156648e+01,9.446745872497558594e+00,-8.414105772972106934e-01,2.677215635776519775e-01,5.560000000000000000e+02
-9.562695502445330931e+01,-3.006555528667649924e+01,-3.773370871789938974e+01,-3.614764977444065153e+01,-1.041162054220649225e+02,-1.016249715989160904e+02,-5.961196096884850704e+01,-4.759479022087089106e+01,9.446745872497558594e+00,-8.414105772972106934e-01,2.677215635776519775e-01,5.570000000000000000e+02
-1.025616626757364429e+02,-3.424333445944284904e+01,-4.418678898790221865e+01,-4.176463047365086823e+01,-1.086183575732393365e+02,-1.080020415304079506e+02,-6.342320041621496785e+01,-5.546843082861141738e+01,9.446745872497558594e+00,-8.414105772972106934e-01,2.677215635776519775e-01,5.580000000000000000e+02
-1.099457775707196561e+02,-3.852338227539780746e+01,-5.086564642082339560e+01,-4.730463426608594091e+01,-1.144567259348341395e+02,-1.134572012506096144e+02,-6.805648181937976915e+01,-6.153306586166308989e+01,9.446745872497558594e+00,-8.414105772972106934e-01,2.677215635776519775e-01,5.590000000000000000e+02
-1.155045138937521187e+02,-4.178750715773003321e+01,-5.595462240470169490e+01,-5.093010566081147772e+01,-1.194571330757016767e+02,-1.163465224299852707e+02,-7.227245741434489901e+01,-6.391133946341687988e+01,9.446745872497558594e+00,-8.414105772972106934e-01,2.677215635776519775e-01,5.600000000000000000e+02
-1.176830935883872371e+02,-4.298966606901649357e+01,-5.821069296364566981e+01,-5.158931368392904915e+01,-1.219423898610539254e+02,-1.162770193361775455e+02,-7.494955380996361782e+01,-6.254151788975104864e+01,9.446745872497558594e+00,-8.414105772972106934e-01,2.677215635776519775e-01,5.610000000000000000e+02
-1.164389817316550761e+02,-4.185993216229417158e+01,-5.742980143668592063e+01,-4.949142412235551092e+01,-1.214464646071064635e+02,-1.140392572477448994e+02,-7.541495404675697500e+01,-5.880460955084890884e+01,9.446745872497558594e+00,-8.414105772972106934e-01,2.677215635776519775e-01,5.620000000000000000e+02
-1.132086173423695072e+02,-3.926437644943507621e+01,-5.450021736726375821e+01,-4.592209410865007158e+01,-1.187265630530800991e+02,-1.110079271013491962e+02,-7.378766793043723737e+01,-5.459107701654465927e+01,9.446745872497558594e+00,-8.414105772972106934e-01,2.677215635776519775e-01,5.630000000000000000e+02
-1.100674056783309425e+02,-3.686051084699329294e+01,-5.101547846649737039e+01,-4.256149102952349494e+01,-1.151908374624563294e+02,-1.085036780282644031e+02,-7.112363357698268373e+01,-5.143798623953534843e+01,9.446745872497558594e+00,-8.414105772972106934e-01,2.677215635776519775e-01,5.640000000000000000e+02
-1.085667195647911285e+02,-3.615183513887041045e+01,-4.853711888109501160e+01,-4.065998045579272002e+01,-1.120785650707202876e+02,-1.073645265245813789e+02,-6.900758984659478301e+01,-5.005878600966298109e+01,9.446745872497558594e+00,-8.414105772972106934e-01,2.677215635776519775e-01,5.650000000000000000e+02
-1.088776381262114228e+02,-3.748532408864684840e+01,-4.778963327428755292e+01,-4.041349680880648521e+01,-1.098086904083666013e+02,-1.076954758536830923e+02,-6.859545114988941350e+01,-5.023558747816150571e+01,9.446745872497558594e+00,-8.414105772972106934e-01,2.677215635776519775e-01,5.660000000000000000e+02
-1.097039634692746404e+02,-3.966312636021552862e+01,-4.824499614618343912e+01,-4.082091741657131934e+01,-1.078774880617766030e+02,-1.087851729596495716e+02,-6.974184442005389428e+01,-5.098353927186963119e+01,9.408499717712402344e+00,-8.796565532684326172e-01,2.294756323099136353e-01,5.670000000000000000e+02
-1.090793322697718395e+02,-4.054877559703209045e+01,-4.846817857009045838e+01,-4.019403258071179152e+01,-1.054016082050966361e+02,-1.093429622742332867e+02,-7.101959736894059461e+01,-5.099465758690803341e+01,9.408499717712402344e+00,-8.796565532684326172e-01,2.294756323099136353e-01,5.680000000000000000e+02
-1.057142279446179600e+02,-3.846658508182508740e+01,-4.715079887439060258e+01,-3.721981769705507759e+01,-1.019640607458677550e+02,-1.081831424088341009e+02,-7.080158070591096475e+01,-4.934414696318162896e+01,9.408499717712402344e+00,-8.796565532684326172e-01,2.294756323099136353e-01,5.690000000000000000e+02
-1.001384122489835136e+02,-3.358882743940739601e+01,-4.419996972373883182e+01,-3.205577313820094787e+01,-9.813557944072636019e+01,-1.051042842646966164e+02,-6.860645191767252982e+01,-4.619812619415733934e+01,9.408499717712402344e+00,-8.796565532684326172e-01,2.294756323099136353e-01,5.700000000000000000e+02
-9.476631553096012794e+01,-2.829459126467327224e+01,-4.102678954145358148e+01,-2.666177737517364221e+01,-9.522236411005178525e+01,-1.013294943776254513e+02,-6.557753214974763978e+01,-4.299286669551293016e+01,9.408499717712402344e+00,-8.796565532684326172e-01,2.294756323099136353e-01,5.710000000000000000e+02
-9.251370708053855196e+01,-2.594032760272784799e+01,-3.961940836110170494e+01,-2.383198618922369860e+01,-9.436389835157751804e+01,-9.896881361473788274e+01,-6.363333685167162912e+01,-4.167796985870700155e+01,9.408499717712402344e+00,-8.796565532684326172e-01,2.294756323099136353e-01,5.720000000000000000e+02
-9.460654237099060992e+01,-2.854993096559542209e+01,-4.089596813688058319e+01,-2.525941828734539740e+01,-9.561451843657414429e+01,-9.962196887598292960e+01,-6.394211724456545198e+01,-4.326600716203029151e+01,9.408499717712402344e+00,-8.796565532684326172e-01,2.294756323099136353e-01,5.730000000000000000e+02
-9.913482459001443203e+01,-3.496299766928927966e+01,-4.356975779305048491e+01,-2.991679216287229792e+01,-9.765422977690832340e+01,-1.030219881428256485e+02,-6.593172897684235068e+01,-4.666628350146402227e+01,9.408499717712402344e+00,-8.796565532684326172e-01,2.294756323099136353e-01,5.740000000000000000e+02
-1.017595669869824633e+02,-4.103495841261633359e+01,-4.460156260673466022e+01,-3.416425633116432437e+01,-9.834735209540485812e+01,-1.068089858339808416e+02,-6.758011789639022027e+01,-4.890322558896878036e+01,9.408499717712402344e+00,-8.796565532684326172e-01,2.294756323099136353e-01,5.750000000000000000e+02
-9.851729774597060896e+01,-4.217230106164333847e+01,-4.120902378365462937e+01,-3.390089903843272623e+01,-9.586865726156247547e+01,-1.078456994902462611e+02,-6.675139403904177016e+01,-4.693880585040187725e+01,9.408499717712402344e+00,-8.796565532684326172e-01,2.294756323099136353e-01,5.760000000000000000e+02
-8.887050896955770440e+01,-3.660682381365813853e+01,-3.309256820941300248e+01,-2.743150985785268858e+01,-8.981355087470547005e+01,-1.043142291446511081e+02,-6.262321495499600132e+01,-3.997673064412356325e+01,9.408499717712402344e+00,-8.796565532684326172e-01,2.294756323099136353e-01,5.770000000000000000e+02
-7.658427834160011116e+01,-2.691494148141964615e+01,-2.310691702797066682e+01,-1.689469408390050376e+01,-8.166536328085931018e+01,-9.710293471342265548e+01,-5.625838677727551840e+01,-3.045153563431995281e+01,9.408499717712402344e+00,-8.796565532684326172e-01,2.294756323099136353e-01,5.780000000000000000e+02
-6.743648019651755021e+01,-1.838005483286383424e+01,-1.560722845290365512e+01,-6.972836821949385921e+00,-7.421850726521552133e+01,-8.937065843009804667e+01,-4.997912123676178453e+01,-2.267850601416648715e+01,9.408499717712402344e+00,-8.796565532684326172e-01,2.294756323099136353e-01,5.790000000000000000e+02
-6.524740909465799632e+01,-1.524024426165988189e+01,-1.349002795465457893e+01,-1.674912791340830154e+00,-7.007453623159926792e+01,-8.448132695041022089e+01,-4.594381740326753061e+01,-1.994800582151856361e+01,9.408499717712402344e+00,-8.796565532684326172e-01,2.294756323099136353e-01,5.800000000000000000e+02
-6.922372140844890964e+01,-1.768384955109740986e+01,-1.612285175863235054e+01,-1.600078000774374232e+00,-7.002723891825007740e+01,-8.378766915779669944e+01,-4.482730222112513729e+01,-2.221994703072505217e+01,9.408499717712402344e+00,-8.796565532684326172e-01,2.294756323099136353e-01,5.810000000000000000e+02
-7.471233106225827214e+01,-2.194467906279533054e+01,-1.983907895313222980e+01,-3.781316204861468577e+00,-7.248423482946964214e+01,-8.591449777077468752e+01,-4.548238818235404324e+01,-2.625348104431213869e+01,9.408499717712402344e+00,-8.796565532684326172e-01,2.294756323099136353e-01,5.820000000000000000e+02
-7.675783876639980008e+01,-2.334294790884359827e+01,-2.071123087552041397e+01,-4.161616655695979716e+00,-7.453230719318707997e+01,-8.803487049999603187e+01,-4.584885524843593885e+01,-2.811364110802514915e+01,9.408499717712402344e+00,-8.796565532684326172e-01,2.294756323099136353e-01,5.830000000000000000e+02
-7.363695401745280833e+01,-1.974872514422531822e+01,-1.746229638172917475e+01,-6.680678870179690421e-01,-7.400226861845840176e+01,-8.805448151377822796e+01,-4.448161469273327384e+01,-2.605793610748787614e+01,9.408499717712402344e+00,-8.796565532684326172e-01,2.294756323099136353e-01,5.840000000000000000e+02
-6.768612322447734186e+01,-1.277511218242261748e+01,-1.225716934544470860e+01,5.498689099707007699e+00,-7.096466205737124255e+01,-8.597509408065525349e+01,-4.156466851756704273e+01,-2.155525587385909603e+01,9.408499717712402344e+00,-8.796565532684326172e-01,2.294756323099136353e-01,5.850000000000000000e+02
-6.307202698587570922e+01,-6.090992864846612065e+00,-8.839257900692246039e+00,1.113941169789268315e+01,-6.745069991761920392e+01,-8.351297126440840657e+01,-3.864034335097494477e+01,-1.779070934496212431e+01,9.408499717712402344e+00,-8.796565532684326172e-01,2.294756323099136353e-01,5.860000000000000000e+02
-6.259181004614038102e+01,-2.613062414996420557e+00,-9.625861658963913214e+00,1.357904265257093357e+01,-6.567494995608285535e+01,-8.253302549217187334e+01,-3.731637909027631395e+01,-1.709362740845062945e+01,9.408499717712402344e+00,-8.796565532684326172e-01,2.294756323099136353e-01,5.870000000000000000e+02
-6.608172034481140145e+01,-2.903529508393148717e+00,-1.411368959550782165e+01,1.234199807957429584e+01,-6.633282727603182138e+01,-8.371465927340250346e+01,-3.805994939676565991e+01,-1.947476486842242593e+01,9.408499717712402344e+00,-8.796565532684326172e-01,2.294756323099136353e-01,5.880000000000000000e+02
-7.132947371780937829e+01,-5.644488980224195984e+00,-1.970490321563920588e+01,8.902954276989476057e+00,-6.840335928987042280e+01,-8.642106395582959522e+01,-4.005552017052468727e+01,-2.329485708291031187e+01,9.408499717712402344e+00,-8.796565532684326172e-01,2.294756323099136353e-01,5.890000000000000000e+02
