F3,F4,C3,C4,P3,P4,Cz,Pz,Accel_x,Accel_y,Accel_z,Sample
-2.683009370230138302e-11,-6.593836587853729725e-12,-3.046807250939309597e-11,-2.864908310584723949e-11,-2.546585164964199066e-11,-2.000888343900442123e-11,-2.728484105318784714e-11,-6.821210263296961784e-12,9.446745872497558594e+00,-9.179025292396545410e-01,0.000000000000000000e+00,2.270000000000000000e+02
-2.219652395377624998e+01,-7.789321043314203052e+00,-1.031924594753672864e+01,-1.097019565672690078e+01,6.310152538944748812e+00,-3.314705169560511422e+00,7.827488042425102321e+00,-1.750541015949693247e+01,9.446745872497558594e+00,-9.179025292396545410e-01,0.000000000000000000e+00,2.280000000000000000e+02
-3.878164888509218144e+01,-1.704696569426596398e+01,-1.996347727157581176e+01,-2.253604834051884609e+01,1.924362280092282163e+00,-1.235714857598486560e+01,4.387444203043742164e+00,-2.984547361031536639e+01,9.446745872497558594e+00,-9.179025292396545410e-01,0.000000000000000000e+00,2.290000000000000000e+02
-4.850491380223911619e+01,-2.756033368723501553e+01,-2.821799075549370173e+01,-3.469184659409711458e+01,-1.448622997590700834e+01,-2.792470417317781539e+01,-1.183835834592446190e+01,-3.648160389848317209e+01,9.446745872497558594e+00,-9.179025292396545410e-01,0.000000000000000000e+00,2.300000000000000000e+02
-5.474473645973603197e+01,-3.745698257747517346e+01,-3.475677707300928887e+01,-4.673249885746326981e+01,-3.474879582727680827e+01,-4.564049707915182807e+01,-3.231166198724986316e+01,-4.161451037699862354e+01,9.446745872497558594e+00,-9.179025292396545410e-01,0.000000000000000000e+00,2.310000000000000000e+02
-6.181415409001738226e+01,-4.483405918543735424e+01,-4.022041435950632149e+01,-5.768828529902930313e+01,-4.987126237718803168e+01,-6.033135818730715982e+01,-4.726144606820980698e+01,-4.987769823371036182e+01,9.446745872497558594e+00,-9.179025292396545410e-01,0.000000000000000000e+00,2.320000000000000000e+02
-7.127958244705860125e+01,-4.924696053466595913e+01,-4.605797515473750536e+01,-6.681496267183138116e+01,-5.823192565834142442e+01,-7.043375661029040202e+01,-5.425461183911102125e+01,-6.203067044125418761e+01,9.446745872497558594e+00,-9.179025292396545410e-01,0.000000000000000000e+00,2.330000000000000000e+02
-8.174426420117015368e+01,-5.160824021240455295e+01,-5.333009759115248016e+01,-7.370888129689546986e+01,-6.527830461344910873e+01,-7.825511591128633881e+01,-5.831977527967592323e+01,-7.466589734646777288e+01,9.446745872497558594e+00,-9.179025292396545410e-01,0.000000000000000000e+00,2.340000000000000000e+02
-9.158202357723575915e+01,-5.287899213717173552e+01,-6.140988485003435926e+01,-7.813685282481810646e+01,-7.619201366823199351e+01,-8.651018977075273142e+01,-6.485573977688909508e+01,-8.368114431406775111e+01,9.446745872497558594e+00,-9.179025292396545410e-01,0.000000000000000000e+00,2.350000000000000000e+02
-1.011664389626153024e+02,-5.323065400034249706e+01,-6.802479940171087947e+01,-8.007104900984541018e+01,-9.005320252063938824e+01,-9.525709971764081274e+01,-7.372762104573757824e+01,-8.781393184308353739e+01,9.446745872497558594e+00,-7.266727685928344727e-01,0.000000000000000000e+00,2.360000000000000000e+02
-1.121826321444000314e+02,-5.267032765343753908e+01,-7.102673332510130422e+01,-8.015974503178722443e+01,-1.014525694601425130e+02,-1.023979162548621389e+02,-8.056066764185470674e+01,-8.914434882754858336e+01,9.446745872497558594e+00,-7.266727685928344727e-01,0.000000000000000000e+00,2.370000000000000000e+02
-1.251735910418060485e+02,-5.228986296519804000e+01,-7.054590399166545467e+01,-8.017601924547716408e+01,-1.069390623219519512e+02,-1.067533005298910211e+02,-8.277702054412839061e+01,-9.089650965915370762e+01,9.446745872497558594e+00,-7.266727685928344727e-01,0.000000000000000000e+00,2.380000000000000000e+02
-1.383902151065440194e+02,-5.441271342784568787e+01,-6.950518433373963489e+01,-8.266349454212468117e+01,-1.088885724569604463e+02,-1.100452883403668238e+02,-8.312295978514248418e+01,-9.509275819405411312e+01,9.446745872497558594e+00,-7.266727685928344727e-01,0.000000000000000000e+00,2.390000000000000000e+02
-1.493174977437270172e+02,-6.102607382016537940e+01,-7.175028768301081072e+01,-8.956237514354143059e+01,-1.129391429290462838e+02,-1.155775471006973021e+02,-8.695892289971015998e+01,-1.018846560871979818e+02,9.446745872497558594e+00,-7.266727685928344727e-01,0.000000000000000000e+00,2.400000000000000000e+02
-1.571426818605177687e+02,-7.184065941258756993e+01,-7.919834239735246229e+01,-1.006878211531002307e+02,-1.223351996193364357e+02,-1.250896954474123959e+02,-9.672424376208891772e+01,-1.102548361950789513e+02,9.446745872497558594e+00,-7.266727685928344727e-01,0.000000000000000000e+00,2.410000000000000000e+02
-1.634537690171532631e+02,-8.397528255097233796e+01,-9.040958264328037330e+01,-1.134398086198648343e+02,-1.352938200627654624e+02,-1.371021886850544433e+02,-1.096881287123342190e+02,-1.188341996877288693e+02,9.446745872497558594e+00,-7.266727685928344727e-01,0.000000000000000000e+00,2.420000000000000000e+02
-1.704898341181856267e+02,-9.382643920873078969e+01,-1.017967264124495159e+02,-1.243117228896612687e+02,-1.475406868983191089e+02,-1.483371800625122887e+02,-1.209808167791916276e+02,-1.263891963084224699e+02,9.446745872497558594e+00,-7.266727685928344727e-01,0.000000000000000000e+00,2.430000000000000000e+02
-1.788073860421050085e+02,-9.957382602156701523e+01,-1.103489849072866491e+02,-1.311892339572618766e+02,-1.566258891953725652e+02,-1.566407174902233237e+02,-1.282249367680587966e+02,-1.322839757140136498e+02,9.446745872497558594e+00,-7.266727685928344727e-01,0.000000000000000000e+00,2.440000000000000000e+02
-1.867000683946662321e+02,-1.021459696272893325e+02,-1.154844335276593483e+02,-1.346029823297776602e+02,-1.634700043047691906e+02,-1.625513543746124014e+02,-1.329869128101954630e+02,-1.369087793972694271e+02,9.446745872497558594e+00,-7.266727685928344727e-01,0.000000000000000000e+00,2.450000000000000000e+02
-1.917910018577317715e+02,-1.039158599207801217e+02,-1.186074379064457389e+02,-1.369021833303490894e+02,-1.702681520046780861e+02,-1.682798055069715701e+02,-1.382188460797779044e+02,-1.414577145641233074e+02,9.446745872497558594e+00,-7.266727685928344727e-01,0.000000000000000000e+00,2.460000000000000000e+02
-1.931412295467157492e+02,-1.064934595799662702e+02,-1.211474055255953317e+02,-1.401214723827333728e+02,-1.777041249847934523e+02,-1.754040991765946274e+02,-1.449930183924507219e+02,-1.468017699167990031e+02,9.446745872497558594e+00,-7.266727685928344727e-01,0.000000000000000000e+00,2.470000000000000000e+02
-1.920171827275489704e+02,-1.096763779752541268e+02,-1.231605139699054234e+02,-1.444613675475970922e+02,-1.844574898898749780e+02,-1.835251002553854960e+02,-1.518732709817841169e+02,-1.524219823454541256e+02,9.446745872497558594e+00,-7.266727685928344727e-01,0.000000000000000000e+00,2.480000000000000000e+02
-1.908807219343902943e+02,-1.123422507473275118e+02,-1.237949078774640839e+02,-1.486529621223030517e+02,-1.890271793412912302e+02,-1.909158116816647635e+02,-1.570051322188528502e+02,-1.567022508769036904e+02,9.446745872497558594e+00,-7.266727685928344727e-01,0.000000000000000000e+00,2.490000000000000000e+02
-1.916619891750106035e+02,-1.141135041140546491e+02,-1.228810710499592460e+02,-1.516218749180345640e+02,-1.915314889666074123e+02,-1.962572617592727511e+02,-1.602789995112871111e+02,-1.585844885823198638e+02,9.446745872497558594e+00,-7.266727685928344727e-01,0.000000000000000000e+00,2.500000000000000000e+02
-1.946632298460144739e+02,-1.159593521093141817e+02,-1.217543526421113711e+02,-1.536527977526304767e+02,-1.936630344420245819e+02,-1.997665317603164112e+02,-1.633576804578387964e+02,-1.589385484424119568e+02,9.446745872497558594e+00,-7.266727685928344727e-01,0.000000000000000000e+00,2.510000000000000000e+02
-1.986662020601561380e+02,-1.190978592671144725e+02,-1.222838815480849917e+02,-1.558712734922191885e+02,-1.971522685241420731e+02,-2.028415001035764362e+02,-1.678701617945603175e+02,-1.600252655938247699e+02,9.446745872497558594e+00,-7.266727685928344727e-01,0.000000000000000000e+00,2.520000000000000000e+02
-2.019664814920142817e+02,-1.233800186111971016e+02,-1.250548050333695755e+02,-1.586792991564029762e+02,-2.023984781165759159e+02,-2.067374461636263732e+02,-1.737645303881386099e+02,-1.633988756196272334e+02,9.446745872497558594e+00,-7.266727685928344727e-01,0.000000000000000000e+00,2.530000000000000000e+02
-2.036096974990682611e+02,-1.269611777937294619e+02,-1.286844460595098099e+02,-1.609570486290811004e+02,-2.084497586499987847e+02,-2.115761102943279184e+02,-1.793715735371847586e+02,-1.683714752127675638e+02,9.446745872497558594e+00,-7.266727685928344727e-01,0.000000000000000000e+00,2.540000000000000000e+02
-2.040973554822985534e+02,-1.278480399339455289e+02,-1.312031124945629017e+02,-1.611153066974311514e+02,-2.141237810042080127e+02,-2.165621215027613289e+02,-1.829736582667801486e+02,-1.727654713625033764e+02,9.446745872497558594e+00,-7.266727685928344727e-01,0.000000000000000000e+00,2.550000000000000000e+02
-2.051226953967870941e+02,-1.259968358500001386e+02,-1.322859222080196560e+02,-1.591099883547210538e+02,-2.192027724459999263e+02,-2.211101304048283964e+02,-1.844340582038717002e+02,-1.753232269233799343e+02,9.446745872497558594e+00,-7.266727685928344727e-01,0.000000000000000000e+00,2.560000000000000000e+02
-2.084846350095995149e+02,-1.239097222311122550e+02,-1.340563173764512612e+02,-1.573111566122954628e+02,-2.247488275170890120e+02,-2.257405225130887629e+02,-1.855412055356882775e+02,-1.772893705150490860e+02,9.446745872497558594e+00,-7.266727685928344727e-01,0.000000000000000000e+00,2.570000000000000000e+02
-2.149475623186460780e+02,-1.249028946188687996e+02,-1.393781302573188441e+02,-1.590044844675712739e+02,-2.322647505747686409e+02,-2.317657697768754588e+02,-1.887607312167838245e+02,-1.814043688406736692e+02,9.446745872497558594e+00,-7.266727685928344727e-01,0.000000000000000000e+00,2.580000000000000000e+02
-2.239447107985836283e+02,-1.304067649971963192e+02,-1.490185858433587782e+02,-1.655870154240772081e+02,-2.422997629833680548e+02,-2.399480008044165515e+02,-1.953342971227752969e+02,-1.891436523441911959e+02,9.446745872497558594e+00,-7.266727685928344727e-01,0.000000000000000000e+00,2.590000000000000000e+02
-2.344299069316800797e+02,-1.387152454763796641e+02,-1.603997649163870847e+02,-1.750267234951270439e+02,-2.536116475551625626e+02,-2.494069367272186355e+02,-2.042064909312525742e+02,-1.989536330410619485e+02,9.446745872497558594e+00,-7.266727685928344727e-01,0.000000000000000000e+00,2.600000000000000000e+02
-2.461507522714232437e+02,-1.464632322401444071e+02,-1.694018016071922830e+02,-1.832739573005087550e+02,-2.637797898385065309e+02,-2.580254658514149924e+02,-2.127430012320105561e+02,-2.074265202180922643e+02,9.446745872497558594e+00,-7.266727685928344727e-01,0.000000000000000000e+00,2.610000000000000000e+02
-2.600904578404758922e+02,-1.516756155664498920e+02,-1.738962678316288475e+02,-1.876990925757584137e+02,-2.711028125568673204e+02,-2.643028773897708561e+02,-2.188575504749419451e+02,-2.125446003818171903e+02,9.446745872497558594e+00,-7.266727685928344727e-01,0.000000000000000000e+00,2.620000000000000000e+02
-2.774697381001917620e+02,-1.556906529609369727e+02,-1.759083283875247616e+02,-1.896253912059837603e+02,-2.763445522422675822e+02,-2.691026874258923272e+02,-2.228876235439061020e+02,-2.160295306015532333e+02,9.446745872497558594e+00,-7.266727685928344727e-01,0.000000000000000000e+00,2.630000000000000000e+02
-2.980392901069840264e+02,-1.621455581261742509e+02,-1.803058674672902271e+02,-1.935771368532173256e+02,-2.826765507236350459e+02,-2.755461492530462237e+02,-2.275779368461071499e+02,-2.224098991706598554e+02,9.446745872497558594e+00,-7.266727685928344727e-01,0.000000000000000000e+00,2.640000000000000000e+02
-3.192139077558290410e+02,-1.737799998641484081e+02,-1.909040539225211432e+02,-2.036472625100350342e+02,-2.934696045071182198e+02,-2.867678556424111775e+02,-2.359910916181152061e+02,-2.353123816178656398e+02,9.446745872497558594e+00,-7.266727685928344727e-01,0.000000000000000000e+00,2.650000000000000000e+02
-3.370307612803908341e+02,-1.897851729938589074e+02,-2.071841137415171943e+02,-2.199447431824407886e+02,-3.094954823581697383e+02,-3.032075192090742348e+02,-2.489655232741743021e+02,-2.540348643461047686e+02,9.446745872497558594e+00,-7.266727685928344727e-01,0.000000000000000000e+00,2.660000000000000000e+02
-3.483749363078861734e+02,-2.059932662381999080e+02,-2.243774757453938946e+02,-2.380954089917215697e+02,-3.278701198898165785e+02,-3.217337610365239016e+02,-2.642418675478661498e+02,-2.733897920528472696e+02,9.484992027282714844e+00,-7.649186849594116211e-01,3.824593871831893921e-02,2.670000000000000000e+02
-3.527557621902258234e+02,-2.177147939515343182e+02,-2.368035191328981455e+02,-2.521850547583919706e+02,-3.437379588489125126e+02,-3.374448944568948718e+02,-2.779719288516862434e+02,-2.870902578791478845e+02,9.484992027282714844e+00,-7.649186849594116211e-01,3.824593871831893921e-02,2.680000000000000000e+02
-3.522000606985113791e+02,-2.228021881864260081e+02,-2.416464643653494022e+02,-2.586555938193293969e+02,-3.534036652690219853e+02,-3.467653040294367202e+02,-2.873024393294285801e+02,-2.919328686293629289e+02,9.484992027282714844e+00,-7.649186849594116211e-01,3.824593871831893921e-02,2.690000000000000000e+02
-3.494158524880585901e+02,-2.224814233752385348e+02,-2.401891966276575658e+02,-2.580512546870227197e+02,-3.564042712318841950e+02,-3.493923900993595453e+02,-2.918757546676229140e+02,-2.894378981777251738e+02,9.484992027282714844e+00,-7.649186849594116211e-01,3.824593871831893921e-02,2.700000000000000000e+02
-3.458578568200844074e+02,-2.196354468663246280e+02,-2.359063742781459041e+02,-2.536082615562277169e+02,-3.550425616442671526e+02,-3.477398396550565849e+02,-2.932293042074684308e+02,-2.838973283023431122e+02,9.484992027282714844e+00,-7.649186849594116211e-01,3.824593871831893921e-02,2.710000000000000000e+02
-3.413269215526963762e+02,-2.164504385733761183e+02,-2.314916770125021230e+02,-2.484132742820429485e+02,-3.521761063676581216e+02,-3.447145482557725700e+02,-2.930414706122605821e+02,-2.788054749411453486e+02,9.484992027282714844e+00,-7.649186849594116211e-01,3.824593871831893921e-02,2.720000000000000000e+02
-3.352165291200467436e+02,-2.134938422516495962e+02,-2.274196579040240067e+02,-2.436776640170178325e+02,-3.492841269077466677e+02,-3.418318884403252014e+02,-2.919362320114464637e+02,-2.747641625752510208e+02,9.484992027282714844e+00,-7.649186849594116211e-01,3.824593871831893921e-02,2.730000000000000000e+02
-3.279545014470900242e+02,-2.105275545355159466e+02,-2.228554473451561080e+02,-2.391397363973223946e+02,-3.462028109013613175e+02,-3.389921216533057304e+02,-2.896844414511069772e+02,-2.702883371078708024e+02,9.484992027282714844e+00,-7.649186849594116211e-01,3.824593871831893921e-02,2.740000000000000000e+02
-3.211156144144911195e+02,-2.076345414679333885e+02,-2.174981565361779303e+02,-2.344759900206329348e+02,-3.422875845890039272e+02,-3.355865870652710328e+02,-2.862243157119169155e+02,-2.641943983833753009e+02,9.484992027282714844e+00,-7.649186849594116211e-01,3.824593871831893921e-02,2.750000000000000000e+02
-3.160956317810873770e+02,-2.052386054382230895e+02,-2.123190513779829871e+02,-2.299554070868857707e+02,-3.375925067784171461e+02,-3.315329605671227000e+02,-2.822627321173954442e+02,-2.570402508310555731e+02,9.484992027282714844e+00,-7.649186849594116211e-01,3.824593871831893921e-02,2.760000000000000000e+02
-3.127700741513449429e+02,-2.031727856008654953e+02,-2.085769850754199979e+02,-2.258530830237489226e+02,-3.329707713555792452e+02,-3.272959320244249284e+02,-2.788559023911961958e+02,-2.504350532334699437e+02,9.484992027282714844e+00,-7.649186849594116211e-01,3.824593871831893921e-02,2.770000000000000000e+02
-3.096439361382581410e+02,-2.002214098727540659e+02,-2.063693330001331105e+02,-2.217267677791817277e+02,-3.292474313844272729e+02,-3.232349849334459577e+02,-2.765118806775426492e+02,-2.453534384918280011e+02,9.484992027282714844e+00,-7.649186849594116211e-01,3.824593871831893921e-02,2.780000000000000000e+02
-3.054428034531722460e+02,-1.950562914557399381e+02,-2.043639331938500163e+02,-2.167430405797422281e+02,-3.264808519655664441e+02,-3.192786519444100577e+02,-2.747996789914222973e+02,-2.414134881930167467e+02,9.484992027282714844e+00,-7.649186849594116211e-01,3.824593871831893921e-02,2.790000000000000000e+02
-3.004911280718386024e+02,-1.877890590440198935e+02,-2.010337378046724552e+02,-2.108348706528984167e+02,-3.240803923815774397e+02,-3.153660823154796162e+02,-2.728688936906446543e+02,-2.377756574323541372e+02,9.484992027282714844e+00,-7.649186849594116211e-01,3.824593871831893921e-02,2.800000000000000000e+02
-2.963598696618068971e+02,-1.803954461343906246e+02,-1.961443444500698661e+02,-2.052950411308599996e+02,-3.215614011012173705e+02,-3.120446006576387390e+02,-2.703282109210713315e+02,-2.344388791062822293e+02,9.484992027282714844e+00,-7.649186849594116211e-01,3.824593871831893921e-02,2.810000000000000000e+02
-2.940839230431263331e+02,-1.752501311037390792e+02,-1.910072121188800338e+02,-2.018524664595597642e+02,-3.190706087137482427e+02,-3.102986936194054124e+02,-2.675773857769872848e+02,-2.323246784158400260e+02,9.484992027282714844e+00,-7.649186849594116211e-01,3.824593871831893921e-02,2.820000000000000000e+02
-2.929056610975992498e+02,-1.730140574041658397e+02,-1.872858782231683108e+02,-2.009403652444939326e+02,-3.171336904823899658e+02,-3.105275770045552690e+02,-2.652746060387949001e+02,-2.319965586067760341e+02,9.484992027282714844e+00,-7.649186849594116211e-01,3.824593871831893921e-02,2.830000000000000000e+02
-2.910821656159737358e+02,-1.719492523896304874e+02,-1.855448244045355750e+02,-2.009104191089888900e+02,-3.159570291244795044e+02,-3.116704883627612617e+02,-2.635107465169357965e+02,-2.324772795372255132e+02,9.484992027282714844e+00,-7.649186849594116211e-01,3.824593871831893921e-02,2.840000000000000000e+02
-2.880750561380766612e+02,-1.694351436385139209e+02,-1.848855858476151752e+02,-1.991558402780983670e+02,-3.150894370257294668e+02,-3.115736628533620660e+02,-2.615805370573493747e+02,-2.316196598939941396e+02,9.484992027282714844e+00,-7.649186849594116211e-01,3.824593871831893921e-02,2.850000000000000000e+02
-2.858088656254151374e+02,-1.643038205155050377e+02,-1.838791504369200993e+02,-1.942538860385641328e+02,-3.138340764287645470e+02,-3.085783359038136950e+02,-2.586403001178009617e+02,-2.278876516118891686e+02,9.484992027282714844e+00,-7.649186849594116211e-01,3.824593871831893921e-02,2.860000000000000000e+02
-2.873981424780436100e+02,-1.577946333529152980e+02,-1.818007640177997928e+02,-1.872034538472380518e+02,-3.119759162435616417e+02,-3.030387658713041219e+02,-2.546391662033379362e+02,-2.219042433230442839e+02,9.484992027282714844e+00,-7.649186849594116211e-01,3.824593871831893921e-02,2.870000000000000000e+02
-2.942432782950556884e+02,-1.523354842260678197e+02,-1.790452436385223791e+02,-1.806734347584008447e+02,-3.100408496920420021e+02,-2.973549879625286394e+02,-2.506088415957478901e+02,-2.162473740410612209e+02,9.446745872497558594e+00,-7.649186849594116211e-01,0.000000000000000000e+00,2.880000000000000000e+02
-3.042114686100132985e+02,-1.494918074222998143e+02,-1.765378863995576921e+02,-1.770170836247382340e+02,-3.088028877146302875e+02,-2.943412787379954807e+02,-2.479908445827668402e+02,-2.135987639540728651e+02,9.446745872497558594e+00,-7.649186849594116211e-01,0.000000000000000000e+00,2.890000000000000000e+02
-3.128005092302817616e+02,-1.490774852166608468e+02,-1.749041769580747996e+02,-1.768180277788838453e+02,-3.085805396727284347e+02,-2.952359540722270594e+02,-2.475910577383926920e+02,-2.148303374413654865e+02,9.446745872497558594e+00,-7.649186849594116211e-01,0.000000000000000000e+00,2.900000000000000000e+02
-3.164453410844203063e+02,-1.500229972809555932e+02,-1.741990865608531749e+02,-1.790178676187024394e+02,-3.090517431366477012e+02,-2.989601594552626693e+02,-2.490692376504962340e+02,-2.185857672163520533e+02,9.446745872497558594e+00,-7.649186849594116211e-01,0.000000000000000000e+00,2.910000000000000000e+02
-3.150766309602216779e+02,-1.517214344532906409e+02,-1.742235900531289587e+02,-1.820807914889107053e+02,-3.096881591617679987e+02,-3.030990322179895884e+02,-2.513076879911602077e+02,-2.224773855717276660e+02,9.446745872497558594e+00,-7.649186849594116211e-01,0.000000000000000000e+00,2.920000000000000000e+02
-3.117124305770504407e+02,-1.542741864313960605e+02,-1.748377911764842452e+02,-1.848801353152136642e+02,-3.102331148925845241e+02,-3.056277824842071595e+02,-2.532036013115129549e+02,-2.246957006229258411e+02,9.446745872497558594e+00,-7.649186849594116211e-01,0.000000000000000000e+00,2.930000000000000000e+02
-3.095763507572492585e+02,-1.575278947730329548e+02,-1.758581270182461651e+02,-1.866535314333569886e+02,-3.106673448042780592e+02,-3.059428629845372143e+02,-2.541794434599021031e+02,-2.247607175402638688e+02,9.446745872497558594e+00,-7.649186849594116211e-01,0.000000000000000000e+00,2.940000000000000000e+02
-3.093760022979138284e+02,-1.602454027156622089e+02,-1.767636538856833113e+02,-1.865531571466691787e+02,-3.107967837929055577e+02,-3.045931084489947125e+02,-2.541564679968190035e+02,-2.231407522464291162e+02,9.446745872497558594e+00,-7.649186849594116211e-01,0.000000000000000000e+00,2.950000000000000000e+02
-3.090398964065329324e+02,-1.605730270152348851e+02,-1.767269149053269075e+02,-1.837037164036921126e+02,-3.100902766515733902e+02,-3.022963752654077325e+02,-2.532714614377510429e+02,-2.204510434741061999e+02,9.446745872497558594e+00,-7.649186849594116211e-01,0.000000000000000000e+00,2.960000000000000000e+02
-3.058376803382225262e+02,-1.574199500017391244e+02,-1.750928179514635303e+02,-1.778972200680880462e+02,-3.080700927218168772e+02,-2.992570890166575737e+02,-2.516888412783381739e+02,-2.170103000737203729e+02,9.446745872497558594e+00,-7.649186849594116211e-01,0.000000000000000000e+00,2.970000000000000000e+02
-2.987224643473591073e+02,-1.512747305866995191e+02,-1.718326042841093511e+02,-1.701073527124452767e+02,-3.048190210184034754e+02,-2.952614642889450352e+02,-2.495308951015077810e+02,-2.128898114275253874e+02,9.446745872497558594e+00,-7.649186849594116211e-01,0.000000000000000000e+00,2.980000000000000000e+02
-2.888423359410298872e+02,-1.436061848924916262e+02,-1.674264710028917023e+02,-1.620204298681860848e+02,-3.009251422240052989e+02,-2.901853512646803779e+02,-2.467366539781969550e+02,-2.080544158172197626e+02,9.446745872497558594e+00,-7.649186849594116211e-01,0.000000000000000000e+00,2.990000000000000000e+02
-2.780988316690586544e+02,-1.355809000158857884e+02,-1.622535061844903055e+02,-1.548050894977338316e+02,-2.968078080186699026e+02,-2.842894143821734474e+02,-2.428920767370018439e+02,-2.023169251645347515e+02,9.446745872497558594e+00,-7.649186849594116211e-01,0.000000000000000000e+00,3.000000000000000000e+02
-2.674886597469060803e+02,-1.275127601917798756e+02,-1.561833071443240044e+02,-1.482773423341843397e+02,-2.921483008156045003e+02,-2.780809200604219313e+02,-2.373497740733073158e+02,-1.953472393737480104e+02,9.446745872497558594e+00,-7.649186849594116211e-01,0.000000000000000000e+00,3.010000000000000000e+02
-2.569404258574007827e+02,-1.195169325564507119e+02,-1.489301017372307570e+02,-1.413784118836110508e+02,-2.861630692068939652e+02,-2.720299163975898864e+02,-2.297998727300895325e+02,-1.870765723316018523e+02,9.446745872497558594e+00,-7.649186849594116211e-01,0.000000000000000000e+00,3.020000000000000000e+02
-2.466318691880949814e+02,-1.123684845800005689e+02,-1.409090274694915479e+02,-1.336126290841850164e+02,-2.785877012454683381e+02,-2.664871364629574941e+02,-2.209167421853740336e+02,-1.783295880616099964e+02,9.446745872497558594e+00,-7.649186849594116211e-01,0.000000000000000000e+00,3.030000000000000000e+02
-2.381956817257955095e+02,-1.073730251826987967e+02,-1.337073409741893784e+02,-1.260776911363908539e+02,-2.704329653784067204e+02,-2.618344296177698425e+02,-2.124272848116545447e+02,-1.710149222320366107e+02,9.446745872497558594e+00,-7.649186849594116211e-01,0.000000000000000000e+00,3.040000000000000000e+02
-2.343147755175452289e+02,-1.053858564278370409e+02,-1.295517002489123115e+02,-1.210387911441479787e+02,-2.637291222565410749e+02,-2.586277109531458791e+02,-2.063661881091403529e+02,-1.673796483940502355e+02,9.446745872497558594e+00,-7.649186849594116211e-01,0.000000000000000000e+00,3.050000000000000000e+02
-2.368381866938606777e+02,-1.063091965844756999e+02,-1.301041913048413221e+02,-1.203690990845588260e+02,-2.604311545612845862e+02,-2.575333734225248463e+02,-2.040316245618102187e+02,-1.687080979322840335e+02,9.446745872497558594e+00,-7.649186849594116211e-01,0.000000000000000000e+00,3.060000000000000000e+02
-2.451035806787024001e+02,-1.099177896594671893e+02,-1.355664023833588772e+02,-1.242276219071289773e+02,-2.613936304974916993e+02,-2.590800703818014199e+02,-2.054647446514825049e+02,-1.745056726044266497e+02,9.446745872497558594e+00,-7.649186849594116211e-01,0.000000000000000000e+00,3.070000000000000000e+02
-2.561102956526939352e+02,-1.171300977995180403e+02,-1.447260394616838539e+02,-1.310756917136558855e+02,-2.661304877061825209e+02,-2.633796504159150800e+02,-2.097653873518481475e+02,-1.828556454556521089e+02,9.446745872497558594e+00,-7.649186849594116211e-01,0.000000000000000000e+00,3.080000000000000000e+02
-2.664981476389399973e+02,-1.298968247624206356e+02,-1.556499260597960301e+02,-1.388102289293775016e+02,-2.732503269844914939e+02,-2.699299456807432307e+02,-2.157661966857340872e+02,-1.915616783628307758e+02,9.446745872497558594e+00,-7.649186849594116211e-01,0.000000000000000000e+00,3.090000000000000000e+02
-2.745739729341320299e+02,-1.491131191106687197e+02,-1.662335874653550718e+02,-1.458048830332173509e+02,-2.809663056730848893e+02,-2.775458603887673803e+02,-2.223767376611813802e+02,-1.990010231695677874e+02,9.446745872497558594e+00,-7.649186849594116211e-01,0.000000000000000000e+00,3.100000000000000000e+02
-2.806683505400665126e+02,-1.723092537813411980e+02,-1.743220258066590986e+02,-1.510264228313313879e+02,-2.873865168210565457e+02,-2.845119388337965916e+02,-2.284521366004491654e+02,-2.041154628052248938e+02,9.446745872497558594e+00,-7.649186849594116211e-01,0.000000000000000000e+00,3.110000000000000000e+02
-2.857848048473987319e+02,-1.937351653706003844e+02,-1.779199831192543684e+02,-1.536109143927721732e+02,-2.908353020387086190e+02,-2.890881997684474527e+02,-2.326880200084946466e+02,-2.060466910239495633e+02,9.446745872497558594e+00,-7.649186849594116211e-01,0.000000000000000000e+00,3.120000000000000000e+02
-2.901421184334637360e+02,-2.075529303847416429e+02,-1.760748804319858323e+02,-1.529297018729089928e+02,-2.905039547317509232e+02,-2.903227387751452397e+02,-2.340585729691912604e+02,-2.043425014845408612e+02,9.484992027282714844e+00,-8.031646609306335449e-01,-3.824593871831893921e-02,3.130000000000000000e+02
-2.931526993008340014e+02,-2.118438744895816512e+02,-1.700896612186147365e+02,-1.494716074661803304e+02,-2.871719307873417506e+02,-2.887734289298443286e+02,-2.326402402086063432e+02,-1.998608145619786285e+02,9.484992027282714844e+00,-8.031646609306335449e-01,-3.824593871831893921e-02,3.140000000000000000e+02
-2.947606971458680505e+02,-2.100113287163297286e+02,-1.638405351293648380e+02,-1.456103538297394095e+02,-2.833018859156744043e+02,-2.865812688225668126e+02,-2.300716615268379144e+02,-1.953640154492358647e+02,9.484992027282714844e+00,-8.031646609306335449e-01,-3.824593871831893921e-02,3.150000000000000000e+02
-2.965445093682927222e+02,-2.082308335808893389e+02,-1.622697330293637208e+02,-1.449715008334330832e+02,-2.820621843859474893e+02,-2.865998781335056265e+02,-2.290103643731798115e+02,-1.946624002336438934e+02,9.484992027282714844e+00,-8.031646609306335449e-01,-3.824593871831893921e-02,3.160000000000000000e+02
-3.011406049918561507e+02,-2.110361336170991819e+02,-1.686293772626557086e+02,-1.502972600589091883e+02,-2.856938391447828849e+02,-2.909343721548981421e+02,-2.317501805432423794e+02,-2.004353308615230844e+02,9.484992027282714844e+00,-8.031646609306335449e-01,-3.824593871831893921e-02,3.170000000000000000e+02
-3.102268515682762313e+02,-2.186615739619249439e+02,-1.823975910942596670e+02,-1.613414034435655822e+02,-2.942801922671017678e+02,-2.997570006333886568e+02,-2.389145724454789104e+02,-2.122981711453982143e+02,9.484992027282714844e+00,-8.031646609306335449e-01,-3.824593871831893921e-02,3.180000000000000000e+02
-3.228248026274535505e+02,-2.280030662453951606e+02,-1.995266300767898429e+02,-1.746750994073505296e+02,-3.057593957867596259e+02,-3.112013959269294219e+02,-2.491339522284130794e+02,-2.267790402260826852e+02,9.484992027282714844e+00,-8.031646609306335449e-01,-3.824593871831893921e-02,3.190000000000000000e+02
-3.355403541270022174e+02,-2.358217718008062604e+02,-2.149284412718416206e+02,-1.858363922685835519e+02,-3.171494595854885574e+02,-3.224661637607866282e+02,-2.599143497054716363e+02,-2.394164435619151732e+02,9.484992027282714844e+00,-8.031646609306335449e-01,-3.824593871831893921e-02,3.200000000000000000e+02
-3.447023234419818891e+02,-2.411440303343907772e+02,-2.253674225824593123e+02,-1.922375558090727168e+02,-3.261323532942230941e+02,-3.314322171934654762e+02,-2.690673709121389834e+02,-2.474792257022174340e+02,9.484992027282714844e+00,-8.031646609306335449e-01,-3.824593871831893921e-02,3.210000000000000000e+02
-3.487702783035586549e+02,-2.450694488662158221e+02,-2.307510561052170885e+02,-1.945662521943833383e+02,-3.320110023927713314e+02,-3.377376665719391440e+02,-2.757500048353909960e+02,-2.513535664700625603e+02,9.484992027282714844e+00,-8.031646609306335449e-01,-3.824593871831893921e-02,3.220000000000000000e+02
-3.492155245138516193e+02,-2.488515589127045757e+02,-2.332654428491964325e+02,-1.957216236016274138e+02,-3.356070602262727789e+02,-3.426414196725525017e+02,-2.805557343166522060e+02,-2.537609449182301375e+02,9.484992027282714844e+00,-8.031646609306335449e-01,-3.824593871831893921e-02,3.230000000000000000e+02
-3.493255478804924223e+02,-2.524888894553710657e+02,-2.354644210440588949e+02,-1.983645870007687222e+02,-3.383979339006982627e+02,-3.478571277376368585e+02,-2.847886721917741397e+02,-2.576020144871806110e+02,9.484992027282714844e+00,-8.031646609306335449e-01,-3.824593871831893921e-02,3.240000000000000000e+02
-3.519226563276579896e+02,-2.550534690359304761e+02,-2.388394676376987888e+02,-2.031034395604958149e+02,-3.415551337939423320e+02,-3.542257622390671941e+02,-2.895244811156977676e+02,-2.640047514613936528e+02,9.484992027282714844e+00,-8.031646609306335449e-01,-3.824593871831893921e-02,3.250000000000000000e+02
-3.576001427715581258e+02,-2.560277963195882762e+02,-2.435496083898771644e+02,-2.085249029289130931e+02,-3.454201170384485522e+02,-3.611398176171645105e+02,-2.950399592090473107e+02,-2.717716132992097755e+02,9.484992027282714844e+00,-8.031646609306335449e-01,-3.824593871831893921e-02,3.260000000000000000e+02
-3.645683105999456757e+02,-2.560607338644595075e+02,-2.489343147184593761e+02,-2.126413750492341137e+02,-3.495800350148093685e+02,-3.670476797991730109e+02,-3.008255325012033836e+02,-2.783823536713782687e+02,9.484992027282714844e+00,-8.031646609306335449e-01,-3.824593871831893921e-02,3.270000000000000000e+02
-3.701001262745839995e+02,-2.564229391252987398e+02,-2.541262156165607280e+02,-2.143917631751407100e+02,-3.533614397717262250e+02,-3.706095376522588367e+02,-3.060244509063317651e+02,-2.817844331077079687e+02,9.484992027282714844e+00,-8.031646609306335449e-01,-3.824593871831893921e-02,3.280000000000000000e+02
-3.725408413557401559e+02,-2.578759818706849387e+02,-2.584626225480773201e+02,-2.141603761224138793e+02,-3.563890492871789775e+02,-3.716531151605678360e+02,-3.099781879443087291e+02,-2.817868446438370711e+02,9.484992027282714844e+00,-8.031646609306335449e-01,-3.824593871831893921e-02,3.290000000000000000e+02
-3.724384413419791144e+02,-2.601157904957011056e+02,-2.617302435292974678e+02,-2.132385350346987707e+02,-3.588648793182448458e+02,-3.712604072465445029e+02,-3.125902830741553089e+02,-2.801288718666838804e+02,9.484992027282714844e+00,-8.031646609306335449e-01,-3.824593871831893921e-02,3.300000000000000000e+02
-3.719342678492099594e+02,-2.621702739139488472e+02,-2.642423423942639147e+02,-2.128653508921838693e+02,-3.613986079855382627e+02,-3.709685150973489840e+02,-3.143423041125043369e+02,-2.791835151646102986e+02,9.484992027282714844e+00,-8.031646609306335449e-01,-3.824593871831893921e-02,3.310000000000000000e+02
-3.728474679674873755e+02,-2.631871893747046443e+02,-2.665930639160201281e+02,-2.135288342736436107e+02,-3.645028396084266546e+02,-3.717080245496432553e+02,-3.159505868389728676e+02,-2.802495444628266341e+02,9.484992027282714844e+00,-8.031646609306335449e-01,-3.824593871831893921e-02,3.320000000000000000e+02
-3.750510920035507070e+02,-2.628944136272513674e+02,-2.691115139447208549e+02,-2.148501515037329455e+02,-3.681028058568172696e+02,-3.732788065734337692e+02,-3.178629258426744286e+02,-2.827509320357170850e+02,9.484992027282714844e+00,-8.031646609306335449e-01,-3.824593871831893921e-02,3.330000000000000000e+02
-3.766849306596782299e+02,-2.615613707199545388e+02,-2.714390873354421956e+02,-2.160008306358955394e+02,-3.714496263708302877e+02,-3.747300505329529869e+02,-3.199389175757903558e+02,-2.849833021629643781e+02,9.484992027282714844e+00,-8.031646609306335449e-01,-3.824593871831893921e-02,3.340000000000000000e+02
-3.761760035152096862e+02,-2.597626870860457302e+02,-2.727029462339802421e+02,-2.163478127296672255e+02,-3.735482869726635045e+02,-3.752840925391583369e+02,-3.215846808804859052e+02,-2.857181304799888153e+02,9.484992027282714844e+00,-8.031646609306335449e-01,-3.824593871831893921e-02,3.350000000000000000e+02
-3.742534976566058162e+02,-2.581672290856100176e+02,-2.722443978106067561e+02,-2.158875223133029806e+02,-3.737952713610166029e+02,-3.750002657651492086e+02,-3.222775064184035045e+02,-2.852106105845563206e+02,9.484992027282714844e+00,-8.031646609306335449e-01,-3.824593871831893921e-02,3.360000000000000000e+02
-3.738920807109348061e+02,-2.572919787136314653e+02,-2.702790840531395133e+02,-2.151553689963030820e+02,-3.723624820724896836e+02,-3.746325364835927871e+02,-3.220668488185706337e+02,-2.847660850702259268e+02,9.484992027282714844e+00,-8.031646609306335449e-01,-3.824593871831893921e-02,3.370000000000000000e+02
-3.778537629939674503e+02,-2.571689522093997766e+02,-2.678359233163918134e+02,-2.146751417083625313e+02,-3.700573774814682793e+02,-3.748581462300721796e+02,-3.216042343319629708e+02,-2.853960215220996588e+02,9.484992027282714844e+00,-8.031646609306335449e-01,-3.824593871831893921e-02,3.380000000000000000e+02
-3.858596010633962123e+02,-2.571779978296276568e+02,-2.659827115750185840e+02,-2.144404102097486202e+02,-3.678119460794183624e+02,-3.756287692573193340e+02,-3.216408441067824242e+02,-2.869233112834799613e+02,9.484992027282714844e+00,-8.031646609306335449e-01,-3.824593871831893921e-02,3.390000000000000000e+02
-3.941082988566076892e+02,-2.563967405945397218e+02,-2.650708645577656171e+02,-2.139655665878073592e+02,-3.662212250395446631e+02,-3.762821775441686327e+02,-3.224387668463719478e+02,-2.883604195193950090e+02,9.484992027282714844e+00,-8.414105772972106934e-01,-3.824593871831893921e-02,3.400000000000000000e+02
-3.979007028162453139e+02,-2.543679263220519715e+02,-2.646723675253051056e+02,-2.129045282352908259e+02,-3.653874506041491941e+02,-3.762786720439448800e+02,-3.236087054124826636e+02,-2.889971217206592655e+02,9.484992027282714844e+00,-8.414105772972106934e-01,-3.824593871831893921e-02,3.410000000000000000e+02
-3.952054409026375765e+02,-2.516096266319912900e+02,-2.641449215361246843e+02,-2.115883482758519563e+02,-3.650006139177831983e+02,-3.757640212212238566e+02,-3.244636162319930008e+02,-2.889422875808376148e+02,9.484992027282714844e+00,-8.414105772972106934e-01,-3.824593871831893921e-02,3.420000000000000000e+02
-3.880306337973572681e+02,-2.492943952869860595e+02,-2.631931061962025069e+02,-2.108374554864364825e+02,-3.644848750168506513e+02,-3.753523323076315137e+02,-3.245191831823800612e+02,-2.886177878066544054e+02,9.484992027282714844e+00,-8.414105772972106934e-01,-3.824593871831893921e-02,3.430000000000000000e+02
-3.804306757247625228e+02,-2.482839291256677825e+02,-2.619127865264509865e+02,-2.111317171252077856e+02,-3.631810035903199037e+02,-3.753535678330159158e+02,-3.237006765354700519e+02,-2.879407821839608914e+02,9.484992027282714844e+00,-8.414105772972106934e-01,-3.824593871831893921e-02,3.440000000000000000e+02
-3.750532063472714981e+02,-2.483633939845227303e+02,-2.604173835226628171e+02,-2.119486251188364747e+02,-3.606515706212281316e+02,-3.752960944121706461e+02,-3.221815159949958343e+02,-2.862547871915352289e+02,9.484992027282714844e+00,-8.414105772972106934e-01,-3.824593871831893921e-02,3.450000000000000000e+02
-3.714275350980564099e+02,-2.483817264853813924e+02,-2.585823073160793228e+02,-2.120264937400270924e+02,-3.570483961187802606e+02,-3.743207184165902390e+02,-3.201311339241384530e+02,-2.831681703147577309e+02,9.484992027282714844e+00,-8.414105772972106934e-01,-3.824593871831893921e-02,3.460000000000000000e+02
-3.673776980452227008e+02,-2.471821483563589936e+02,-2.562360975317238854e+02,-2.104133930174886302e+02,-3.532221460428622208e+02,-3.720788655557168454e+02,-3.176489367094056888e+02,-2.793303980950764185e+02,9.484992027282714844e+00,-8.414105772972106934e-01,-3.824593871831893921e-02,3.470000000000000000e+02
-3.618729376410989858e+02,-2.444591740461955851e+02,-2.535593380439152043e+02,-2.073188122902590749e+02,-3.503038954314923785e+02,-3.691640418428918906e+02,-3.148722559357030377e+02,-2.761311269545169580e+02,9.484992027282714844e+00,-8.414105772972106934e-01,-3.824593871831893921e-02,3.480000000000000000e+02
-3.563495673519102525e+02,-2.407774561702096605e+02,-2.511676832730839237e+02,-2.039037747603570665e+02,-3.489355534744414626e+02,-3.665409339488076057e+02,-3.120438792724096402e+02,-2.744487347449959316e+02,9.484992027282714844e+00,-8.414105772972106934e-01,-3.824593871831893921e-02,3.490000000000000000e+02
-3.532145587724945699e+02,-2.368230888962721110e+02,-2.496876879002664964e+02,-2.011788433338337541e+02,-3.487645617332144070e+02,-3.645151330753498087e+02,-3.094280756386726807e+02,-2.736850264234662973e+02,9.484992027282714844e+00,-8.414105772972106934e-01,-3.824593871831893921e-02,3.500000000000000000e+02
-3.531681206045946055e+02,-2.326811478005172091e+02,-2.492034328469496813e+02,-1.990922043402302961e+02,-3.486968325175727159e+02,-3.623544691241795590e+02,-3.071815090114322402e+02,-2.721790296006003018e+02,9.484992027282714844e+00,-8.414105772972106934e-01,-3.824593871831893921e-02,3.510000000000000000e+02
-3.541907322921832701e+02,-2.278738183550731264e+02,-2.491240250595078010e+02,-1.967290318989704474e+02,-3.477386171039986493e+02,-3.590623000193008352e+02,-3.053336585896176985e+02,-2.687531350363668707e+02,9.484992027282714844e+00,-8.414105772972106934e-01,-3.824593871831893921e-02,3.520000000000000000e+02
-3.533154649028212475e+02,-2.221260294340220582e+02,-2.486553258926144849e+02,-1.934473374277666835e+02,-3.457150852589038550e+02,-3.546251548418672428e+02,-3.038779897304816586e+02,-2.640153957665413031e+02,9.484992027282714844e+00,-8.414105772972106934e-01,-3.824593871831893921e-02,3.530000000000000000e+02
-3.495007193754317427e+02,-2.161306965097708996e+02,-2.475435668434221839e+02,-1.898745698056666242e+02,-3.433346717782046653e+02,-3.505243800249689343e+02,-3.028797095821541916e+02,-2.602460904992423139e+02,9.484992027282714844e+00,-8.414105772972106934e-01,-3.824593871831893921e-02,3.540000000000000000e+02
-3.448127279425902998e+02,-2.115952483846715211e+02,-2.465011829797625751e+02,-1.878285999836307383e+02,-3.416956205947204808e+02,-3.489558114289875448e+02,-3.025368315779400064e+02,-2.599571172175918150e+02,9.484992027282714844e+00,-8.414105772972106934e-01,-3.824593871831893921e-02,3.550000000000000000e+02
-3.427348453743805408e+02,-2.104375243609803192e+02,-2.469151573478918635e+02,-1.891706861698882562e+02,-3.417081602586212057e+02,-3.513647523142806222e+02,-3.031681685698648607e+02,-2.642683810240115463e+02,9.484992027282714844e+00,-8.414105772972106934e-01,-3.824593871831893921e-02,3.560000000000000000e+02
-3.451525507793934366e+02,-2.136312930986080971e+02,-2.499341113071513405e+02,-1.944821692443262577e+02,-3.437429567522456182e+02,-3.574616765599250812e+02,-3.050867410302460030e+02,-2.722379663037371529e+02,9.484992027282714844e+00,-8.414105772972106934e-01,-3.824593871831893921e-02,3.570000000000000000e+02
-3.507903376223838450e+02,-2.204398754529689768e+02,-2.555032250980259505e+02,-2.025134766063046072e+02,-3.474645308494800702e+02,-3.653848597744790823e+02,-3.083239764216153844e+02,-2.813929628402950129e+02,9.484992027282714844e+00,-8.414105772972106934e-01,-3.824593871831893921e-02,3.580000000000000000e+02
-3.564717250298365911e+02,-2.285386592762625071e+02,-2.620401430760515495e+02,-2.106991170257134058e+02,-3.517716631733883332e+02,-3.727111042234328124e+02,-3.123249067292451855e+02,-2.888825607634484527e+02,9.484992027282714844e+00,-8.414105772972106934e-01,-3.824593871831893921e-02,3.590000000000000000e+02
-3.599294165231626152e+02,-2.350228523742685809e+02,-2.671126064411051289e+02,-2.163429748639205741e+02,-3.550362202118412824e+02,-3.775211796304702148e+02,-3.159378722674014170e+02,-2.925697612775007883e+02,9.484992027282714844e+00,-8.414105772972106934e-01,-3.824593871831893921e-02,3.600000000000000000e+02
-3.615757807364298628e+02,-2.378044517622601859e+02,-2.688511904236434589e+02,-2.178397267748346735e+02,-3.558629215944743009e+02,-3.789986975627207357e+02,-3.179365283986898021e+02,-2.917779675623137337e+02,9.484992027282714844e+00,-8.414105772972106934e-01,-3.824593871831893921e-02,3.610000000000000000e+02
-3.637543735781197825e+02,-2.366480030507096330e+02,-2.672146929854622499e+02,-2.154100180272674265e+02,-3.540579761531853364e+02,-3.775257356964845030e+02,-3.178322542580129948e+02,-2.875895640522832082e+02,9.484992027282714844e+00,-8.414105772972106934e-01,-3.824593871831893921e-02,3.620000000000000000e+02
-3.682848838578804020e+02,-2.332043606183300994e+02,-2.640976361073960561e+02,-2.109795151960752264e+02,-3.509473740111003508e+02,-3.743944362256479508e+02,-3.162928750322685119e+02,-2.824246339700296176e+02,9.484992027282714844e+00,-8.414105772972106934e-01,-3.824593871831893921e-02,3.630000000000000000e+02
-3.745032917252842140e+02,-2.299180990038128698e+02,-2.619658099224532180e+02,-2.070934264228213806e+02,-3.484405576750360751e+02,-3.711393769762577222e+02,-3.146459438927454357e+02,-2.787060111989424058e+02,9.484992027282714844e+00,-8.414105772972106934e-01,-3.824593871831893921e-02,3.640000000000000000e+02
-3.794010970666043363e+02,-2.284142372966470305e+02,-2.618825042258108056e+02,-2.052790611826218878e+02,-3.473659730344636500e+02,-3.686006521203655666e+02,-3.137283166345067684e+02,-2.771187994868985243e+02,9.484992027282714844e+00,-8.414105772972106934e-01,-3.824593871831893921e-02,3.650000000000000000e+02
-3.796570854160787576e+02,-2.284543631287342578e+02,-2.625116487750306078e+02,-2.048947162253008969e+02,-3.465364833448604713e+02,-3.662535567967793213e+02,-3.130659920459411296e+02,-2.758194972448599174e+02,9.484992027282714844e+00,-8.414105772972106934e-01,-3.824593871831893921e-02,3.660000000000000000e+02
-3.739726588053963496e+02,-2.283355000943242885e+02,-2.611505068824387763e+02,-2.035485966917196379e+02,-3.436311409725661861e+02,-3.625333163351356234e+02,-3.112428349315375726e+02,-2.717341453369001556e+02,9.484992027282714844e+00,-8.414105772972106934e-01,-3.824593871831893921e-02,3.670000000000000000e+02
-3.641108145098230580e+02,-2.265782235463398422e+02,-2.562220369704677978e+02,-1.991383210913523953e+02,-3.374047865329175693e+02,-3.562846631544324509e+02,-3.073006405322946648e+02,-2.634606530422913693e+02,9.484992027282714844e+00,-8.414105772972106934e-01,-3.824593871831893921e-02,3.680000000000000000e+02
-3.541352317763589781e+02,-2.236683948662617922e+02,-2.492530142533925073e+02,-1.921206998593565913e+02,-3.293815922152865596e+02,-3.483900236943624122e+02,-3.020230364886178904e+02,-2.535359046147477216e+02,9.484992027282714844e+00,-8.414105772972106934e-01,-3.824593871831893921e-02,3.690000000000000000e+02
-3.484785411491862419e+02,-2.223636842442073487e+02,-2.445084527718568097e+02,-1.860715859598862494e+02,-3.234334225916950345e+02,-3.421156742122595915e+02,-2.979197663003794787e+02,-2.477549342057384933e+02,9.484992027282714844e+00,-8.414105772972106934e-01,-3.824593871831893921e-02,3.700000000000000000e+02
-3.499083484521499372e+02,-2.260313739936582635e+02,-2.462448620190151587e+02,-1.856994756520894043e+02,-3.233624870482797178e+02,-3.414838956873824145e+02,-2.977444304239390931e+02,-2.514415588383727709e+02,9.484992027282714844e+00,-8.031646609306335449e-01,-3.824593871831893921e-02,3.710000000000000000e+02
-3.582702332771422107e+02,-2.360828220981867673e+02,-2.555926705364259988e+02,-1.935779944828732368e+02,-3.303020287941074002e+02,-3.486036068564797006e+02,-3.026010226773810246e+02,-2.653249419511499809e+02,9.484992027282714844e+00,-8.031646609306335449e-01,-3.824593871831893921e-02,3.720000000000000000e+02
-3.705043632099976776e+02,-2.504846567579567420e+02,-2.695585101719647128e+02,-2.081077499387305920e+02,-3.419222664583278402e+02,-3.619566769488126283e+02,-3.110774448639888305e+02,-2.844310635714264208e+02,9.484992027282714844e+00,-8.031646609306335449e-01,-3.824593871831893921e-02,3.730000000000000000e+02
-3.820304155624295390e+02,-2.646849681685573614e+02,-2.829987139759848560e+02,-2.243844618798088391e+02,-3.539735544749318024e+02,-3.770836295362190640e+02,-3.200828839585340120e+02,-3.011478571115865179e+02,9.484992027282714844e+00,-8.031646609306335449e-01,-3.824593871831893921e-02,3.740000000000000000e+02
-3.889661497838188779e+02,-2.744209946455717954e+02,-2.919858699486080695e+02,-2.373074830132308080e+02,-3.628889600884423317e+02,-3.892405444368648659e+02,-3.267773243803515015e+02,-3.101476635813698977e+02,9.484992027282714844e+00,-8.031646609306335449e-01,-3.824593871831893921e-02,3.750000000000000000e+02
-3.900559019979092454e+02,-2.782908355867792807e+02,-2.959118800984267637e+02,-2.444767960505370752e+02,-3.675127888900358357e+02,-3.960115803822553744e+02,-3.301764459658454598e+02,-3.112950816356183168e+02,9.484992027282714844e+00,-8.031646609306335449e-01,-3.824593871831893921e-02,3.760000000000000000e+02
-3.871226593068092825e+02,-2.781245356896615704e+02,-2.968988272096740957e+02,-2.467806140016692211e+02,-3.689383969220241397e+02,-3.979995919641028195e+02,-3.313202607178491235e+02,-3.084869704885232977e+02,9.484992027282714844e+00,-8.031646609306335449e-01,-3.824593871831893921e-02,3.770000000000000000e+02
-3.835962827570248237e+02,-2.769752990936915467e+02,-2.974137416504069051e+02,-2.466346221085238426e+02,-3.689782983325469559e+02,-3.973828709660349432e+02,-3.320221439353117603e+02,-3.058318809870399946e+02,9.484992027282714844e+00,-8.031646609306335449e-01,-3.824593871831893921e-02,3.780000000000000000e+02
-3.819847798962691741e+02,-2.764976335159013274e+02,-2.983073935692120813e+02,-2.457001861509421019e+02,-3.686641114257660092e+02,-3.958114917089994833e+02,-3.332741002233149175e+02,-3.045616905698183245e+02,9.484992027282714844e+00,-8.031646609306335449e-01,-3.824593871831893921e-02,3.790000000000000000e+02
-3.820493222629593220e+02,-2.758643529950018660e+02,-2.987271925526447376e+02,-2.439533267001857553e+02,-3.678099221278856703e+02,-3.933811084426660045e+02,-3.345561509786894021e+02,-3.029423124612967513e+02,9.484992027282714844e+00,-8.031646609306335449e-01,-3.824593871831893921e-02,3.800000000000000000e+02
-3.810737928016557134e+02,-2.729073222964029810e+02,-2.974287089698119644e+02,-2.404207523579888743e+02,-3.655757831332721253e+02,-3.891867810467047093e+02,-3.344466565296038425e+02,-2.985591014502718963e+02,9.484992027282714844e+00,-8.031646609306335449e-01,-3.824593871831893921e-02,3.810000000000000000e+02
-3.760863196502630217e+02,-2.662037495321669667e+02,-2.938645130065617650e+02,-2.344205204446121797e+02,-3.612119719128273800e+02,-3.825374657469710655e+02,-3.318270164485177247e+02,-2.905081202522790136e+02,9.484992027282714844e+00,-8.031646609306335449e-01,-3.824593871831893921e-02,3.820000000000000000e+02
-3.663672836205997783e+02,-2.561828515628255900e+02,-2.881061759133581290e+02,-2.260823562479081374e+02,-3.543447827240817105e+02,-3.736071106682122718e+02,-3.265875264835333383e+02,-2.797341546885666048e+02,9.484992027282714844e+00,-8.031646609306335449e-01,-3.824593871831893921e-02,3.830000000000000000e+02
-3.543449082079557684e+02,-2.444848059851345852e+02,-2.801789571647234425e+02,-2.160216646195284511e+02,-3.448956615446229534e+02,-3.631790489029419859e+02,-3.193722912948333033e+02,-2.678574035547222820e+02,9.484992027282714844e+00,-8.031646609306335449e-01,-3.824593871831893921e-02,3.840000000000000000e+02
-3.442042898939389488e+02,-2.325217933740601666e+02,-2.699913157761219509e+02,-2.049570823199463803e+02,-3.331378169471491901e+02,-3.521048272197825781e+02,-3.108735926413996822e+02,-2.560771659774489990e+02,9.484992027282714844e+00,-8.031646609306335449e-01,-3.824593871831893921e-02,3.850000000000000000e+02
-3.392185414700276169e+02,-2.207771091462538209e+02,-2.581511886824570183e+02,-1.938583727625615438e+02,-3.200561868950553617e+02,-3.411590518235087757e+02,-3.015210413093600437e+02,-2.451252632557761899e+02,9.484992027282714844e+00,-8.031646609306335449e-01,-3.824593871831893921e-02,3.860000000000000000e+02
-3.396897046488456908e+02,-2.093513403117666201e+02,-2.466231215108517745e+02,-1.842583146804742000e+02,-3.075215473090993328e+02,-3.312167838253990340e+02,-2.918068377553011032e+02,-2.357585880897892139e+02,9.484992027282714844e+00,-8.031646609306335449e-01,-3.824593871831893921e-02,3.870000000000000000e+02
-3.428601022091812638e+02,-1.988602526133968240e+02,-2.380578253768795776e+02,-1.779423413243589494e+02,-2.977069298952173995e+02,-3.231695140508066970e+02,-2.826783040647565031e+02,-2.287545877623458637e+02,9.484992027282714844e+00,-8.031646609306335449e-01,-3.824593871831893921e-02,3.880000000000000000e+02
-3.446937994891427479e+02,-1.904705539386117721e+02,-2.339721284659863159e+02,-1.758863927100720730e+02,-2.918793302715897653e+02,-3.173631400693719797e+02,-2.753265608075416822e+02,-2.242250862101257098e+02,9.484992027282714844e+00,-8.031646609306335449e-01,-3.824593871831893921e-02,3.890000000000000000e+02
-3.422067405281002266e+02,-1.849031600314611694e+02,-2.333677277651866007e+02,-1.772969045614239576e+02,-2.895060354593349530e+02,-3.131019139710688250e+02,-2.704211500760709441e+02,-2.211360083236744458e+02,9.484992027282714844e+00,-8.031646609306335449e-01,-3.824593871831893921e-02,3.900000000000000000e+02
-3.348662471538666523e+02,-1.814996440810439253e+02,-2.332558192896133278e+02,-1.798073355064491352e+02,-2.885760679791484336e+02,-3.089430937870351954e+02,-2.675496681837721553e+02,-2.178865127101721555e+02,9.484992027282714844e+00,-8.031646609306335449e-01,-3.824593871831893921e-02,3.910000000000000000e+02
-3.243785696510159369e+02,-1.785068800654698293e+02,-2.308646529711686526e+02,-1.809563928551742720e+02,-2.870321236662763340e+02,-3.037798860161129824e+02,-2.654941241929209355e+02,-2.136449925566680577e+02,9.446745872497558594e+00,-8.414105772972106934e-01,-3.824593871831893921e-02,3.920000000000000000e+02
-3.132821719388616657e+02,-1.744983954165586795e+02,-2.256702357059491533e+02,-1.798603279732673172e+02,-2.841666909969965218e+02,-2.978096017558993935e+02,-2.631321921528749499e+02,-2.091657193401352970e+02,9.446745872497558594e+00,-8.414105772972106934e-01,-3.824593871831893921e-02,3.930000000000000000e+02
-3.034279348406763575e+02,-1.696247090019514303e+02,-2.194927932024777419e+02,-1.777208391189607255e+02,-2.808308648481032606e+02,-2.924282972962648728e+02,-2.601132499503157760e+02,-2.061580117771549112e+02,9.446745872497558594e+00,-8.414105772972106934e-01,-3.824593871831893921e-02,3.940000000000000000e+02
-2.953010068316148136e+02,-1.654492223105602875e+02,-2.146823837284073306e+02,-1.767733113333731580e+02,-2.783938379985870597e+02,-2.890732735531548769e+02,-2.567492593734302773e+02,-2.056910740339068298e+02,9.446745872497558594e+00,-8.414105772972106934e-01,-3.824593871831893921e-02,3.950000000000000000e+02
-2.883743744560043751e+02,-1.634391208321716249e+02,-2.121072522164787415e+02,-1.785674238112788998e+02,-2.774651831708977170e+02,-2.880349332474625044e+02,-2.533839352250902266e+02,-2.071066810303591410e+02,9.446745872497558594e+00,-8.414105772972106934e-01,-3.824593871831893921e-02,3.960000000000000000e+02
-2.819318016991082914e+02,-1.634675081114496606e+02,-2.106865139848420085e+02,-1.829308160084107158e+02,-2.774625034260407119e+02,-2.882627704777321469e+02,-2.499807670240400057e+02,-2.084556075140392295e+02,9.446745872497558594e+00,-8.414105772972106934e-01,-3.824593871831893921e-02,3.970000000000000000e+02
-2.755873961963628744e+02,-1.636888318366815156e+02,-2.086334901044884873e+02,-1.882471977191590895e+02,-2.771964179476678964e+02,-2.882199919408162714e+02,-2.463102874193434673e+02,-2.080127211903943589e+02,9.446745872497558594e+00,-8.414105772972106934e-01,-3.824593871831893921e-02,3.980000000000000000e+02
-2.691800695824157401e+02,-1.618955038401849720e+02,-2.050349689230929471e+02,-1.925795576598158050e+02,-2.757389479980743090e+02,-2.868946078915068938e+02,-2.423712625847388153e+02,-2.054295349432607054e+02,9.446745872497558594e+00,-8.414105772972106934e-01,-3.824593871831893921e-02,3.990000000000000000e+02
-2.624062619284948141e+02,-1.571648225252656630e+02,-2.003272020698581173e+02,-1.946661104580070969e+02,-2.728080730642068374e+02,-2.841061389583030632e+02,-2.384506837580277079e+02,-2.015248231523521554e+02,9.446745872497558594e+00,-8.414105772972106934e-01,-3.824593871831893921e-02,4.000000000000000000e+02
-2.548657002528893827e+02,-1.504473724281957061e+02,-1.955211575753206716e+02,-1.942203907353937211e+02,-2.685783906910749010e+02,-2.800886919618722004e+02,-2.347217463477700221e+02,-1.971250619454355046e+02,9.446745872497558594e+00,-8.414105772972106934e-01,-3.824593871831893921e-02,4.010000000000000000e+02
-2.466939975845136814e+02,-1.437480015067289401e+02,-1.912188987515723966e+02,-1.916976032022963636e+02,-2.633673625892849941e+02,-2.750163905224469545e+02,-2.308852572814316773e+02,-1.922481537291255336e+02,9.446745872497558594e+00,-8.414105772972106934e-01,-3.824593871831893921e-02,4.020000000000000000e+02
-2.391057896485247056e+02,-1.387184315953084592e+02,-1.874195789876291656e+02,-1.880021252509259284e+02,-2.575904219570968507e+02,-2.690227647692449864e+02,-2.263731698975884683e+02,-1.864624596478532794e+02,9.446745872497558594e+00,-8.414105772972106934e-01,-3.824593871831893921e-02,4.030000000000000000e+02
-2.339758456283248051e+02,-1.358050421933684220e+02,-1.841011142370787184e+02,-1.843456029526961402e+02,-2.519147977068294040e+02,-2.625889231904948247e+02,-2.210355309438409677e+02,-1.799764314457446517e+02,9.446745872497558594e+00,-8.414105772972106934e-01,-3.824593871831893921e-02,4.040000000000000000e+02
-2.324133681044959303e+02,-1.344016001200810706e+02,-1.816919561290092133e+02,-1.820422398257057921e+02,-2.472538298448102978e+02,-2.566914230840347955e+02,-2.156298028814273948e+02,-1.741902262115671647e+02,9.446745872497558594e+00,-8.414105772972106934e-01,-3.824593871831893921e-02,4.050000000000000000e+02
-2.335068614929483601e+02,-1.335906404917697046e+02,-1.807862735532343095e+02,-1.820248728765811848e+02,-2.444268378617375674e+02,-2.523702378247351135e+02,-2.115211641101352598e+02,-1.709726491527452481e+02,9.446745872497558594e+00,-8.414105772972106934e-01,-3.824593871831893921e-02,4.060000000000000000e+02
-2.346768955741509899e+02,-1.327616707192683521e+02,-1.813976568951360377e+02,-1.842740704377098382e+02,-2.436860465462655156e+02,-2.500363375688368706e+02,-2.097312674648712800e+02,-1.712068120491391028e+02,9.446745872497558594e+00,-8.414105772972106934e-01,-3.824593871831893921e-02,4.070000000000000000e+02
-2.337921057500110464e+02,-1.317288338379916013e+02,-1.825921028399627630e+02,-1.876579436607497655e+02,-2.444755393510899921e+02,-2.491354294652994668e+02,-2.101097350191025726e+02,-1.738885394015356951e+02,9.446745872497558594e+00,-8.414105772972106934e-01,-3.824593871831893921e-02,4.080000000000000000e+02
-2.313702558620993841e+02,-1.304952087928810442e+02,-1.829607023970586397e+02,-1.904794009940212618e+02,-2.456111099828556235e+02,-2.484583060130682952e+02,-2.113370115531211013e+02,-1.765811344034588046e+02,9.446745872497558594e+00,-8.414105772972106934e-01,-3.824593871831893921e-02,4.090000000000000000e+02
-2.306325513384780379e+02,-1.290473923560846856e+02,-1.815577024651088323e+02,-1.914611433804425360e+02,-2.458037468784234534e+02,-2.468483641251827976e+02,-2.117870215173038559e+02,-1.768926760301546892e+02,9.446745872497558594e+00,-8.414105772972106934e-01,-3.824593871831893921e-02,4.100000000000000000e+02
-2.348952738925149788e+02,-1.273711937488992589e+02,-1.785197019202036017e+02,-1.904840326075193389e+02,-2.442733614839494294e+02,-2.438020511689198884e+02,-2.105655433766478382e+02,-1.738914274275949765e+02,9.446745872497558594e+00,-8.414105772972106934e-01,-3.824593871831893921e-02,4.110000000000000000e+02
-2.443323858727210336e+02,-1.255856867431698447e+02,-1.749106381079384391e+02,-1.885614160098160710e+02,-2.411435626716561273e+02,-2.396443488949598759e+02,-2.079341853507996802e+02,-1.685512961430720225e+02,9.446745872497558594e+00,-8.414105772972106934e-01,-3.824593871831893921e-02,4.120000000000000000e+02
-2.550680815378347006e+02,-1.239977034052902241e+02,-1.720002595990392820e+02,-1.871154166787666782e+02,-2.373830227835064761e+02,-2.353043325986416221e+02,-2.048853554891243220e+02,-1.630796595946637808e+02,9.446745872497558594e+00,-8.414105772972106934e-01,-3.824593871831893921e-02,4.130000000000000000e+02
-2.616950359981021847e+02,-1.229763924313717780e+02,-1.705144310309799494e+02,-1.870982708584515422e+02,-2.342463895171269996e+02,-2.318615795543448712e+02,-2.023214445469052407e+02,-1.596385519565826598e+02,9.446745872497558594e+00,-8.414105772972106934e-01,-3.824593871831893921e-02,4.140000000000000000e+02
-2.611968683856891857e+02,-1.226740445409284348e+02,-1.702466740106426641e+02,-1.884932284818664812e+02,-2.324772489504528039e+02,-2.300064505152695347e+02,-2.005140638565624158e+02,-1.591600704427316941e+02,9.446745872497558594e+00,-8.414105772972106934e-01,-3.824593871831893921e-02,4.150000000000000000e+02
-2.548680551324362114e+02,-1.227530275139301921e+02,-1.701294317354495433e+02,-1.903681473026158528e+02,-2.317704268538279848e+02,-2.295836385987452104e+02,-1.991397786690686189e+02,-1.608355151569351165e+02,9.446745872497558594e+00,-8.414105772972106934e-01,-3.824593871831893921e-02,4.160000000000000000e+02
-2.466256770308124260e+02,-1.223265621110625148e+02,-1.687109435107693116e+02,-1.913170307704333482e+02,-2.309070051160722414e+02,-2.294946021951332114e+02,-1.976630146411773694e+02,-1.625574818880010071e+02,9.446745872497558594e+00,-8.414105772972106934e-01,-1.147378161549568176e-01,4.170000000000000000e+02
-2.394530184715974883e+02,-1.202642758146056963e+02,-1.648939051751572151e+02,-1.900432925697846258e+02,-2.285382575992937291e+02,-2.281701560325627725e+02,-1.956402874315417648e+02,-1.621329015647064580e+02,9.446745872497558594e+00,-8.414105772972106934e-01,-1.147378161549568176e-01,4.180000000000000000e+02
-2.333491589665234187e+02,-1.158096192401955022e+02,-1.586252777959246032e+02,-1.859141036283594985e+02,-2.240945392480796272e+02,-2.244691373119726450e+02,-1.927855045254884772e+02,-1.585792572366025297e+02,9.446745872497558594e+00,-8.414105772972106934e-01,-1.147378161549568176e-01,4.190000000000000000e+02
-2.264788286963997734e+02,-1.091834947832509783e+02,-1.510815672397234266e+02,-1.793415575875756076e+02,-2.181749277976005033e+02,-2.184549009718807611e+02,-1.889801581397359769e+02,-1.526464295663773783e+02,9.446745872497558594e+00,-8.414105772972106934e-01,-1.147378161549568176e-01,4.200000000000000000e+02
-2.179664716972943097e+02,-1.017155880117534252e+02,-1.440702605968244825e+02,-1.717761183212014657e+02,-2.121340053617368540e+02,-2.114440691882673491e+02,-1.843968252490117266e+02,-1.461768315253686978e+02,9.446745872497558594e+00,-8.414105772972106934e-01,-1.147378161549568176e-01,4.210000000000000000e+02
-2.092640996674725784e+02,-9.527070692490195825e+01,-1.389296188700398034e+02,-1.651447781548104103e+02,-2.071734802629439400e+02,-2.051958051312590214e+02,-1.796040825635559486e+02,-1.407858373912922616e+02,9.446745872497558594e+00,-8.414105772972106934e-01,-1.147378161549568176e-01,4.220000000000000000e+02
-2.027405118490128189e+02,-9.124975156616432059e+01,-1.357489680162479999e+02,-1.609113822488944834e+02,-2.036219968791560859e+02,-2.008159345744627444e+02,-1.753775821469223501e+02,-1.369297955603914261e+02,9.446745872497558594e+00,-8.414105772972106934e-01,-1.147378161549568176e-01,4.230000000000000000e+02
-1.991754394582487748e+02,-8.983068068974102971e+01,-1.335873396923425389e+02,-1.593319995453506408e+02,-2.009377529102760036e+02,-1.982127314336903510e+02,-1.722234191067868778e+02,-1.340884478591704010e+02,9.446745872497558594e+00,-8.414105772972106934e-01,-1.147378161549568176e-01,4.240000000000000000e+02
-1.969442980736381514e+02,-8.996351745522389365e+01,-1.314808092196715279e+02,-1.594397883280054202e+02,-1.983756174479276524e+02,-1.964524367708283989e+02,-1.700011852826248742e+02,-1.316926670959859393e+02,9.446745872497558594e+00,-8.414105772972106934e-01,-1.147378161549568176e-01,4.250000000000000000e+02
-1.937773596773764666e+02,-9.007066044533456761e+01,-1.292746814267165973e+02,-1.597763455790600347e+02,-1.957098760660303469e+02,-1.945911565724522916e+02,-1.680395232141529505e+02,-1.297666905733715339e+02,9.446745872497558594e+00,-8.414105772972106934e-01,-1.147378161549568176e-01,4.260000000000000000e+02
-1.891552398534644226e+02,-8.892515993318994560e+01,-1.275104778333457034e+02,-1.593015968420195350e+02,-1.933898253688159912e+02,-1.922384028767896780e+02,-1.656852190087336112e+02,-1.286694219049049934e+02,9.446745872497558594e+00,-8.414105772972106934e-01,-1.147378161549568176e-01,4.270000000000000000e+02
-1.847010508158954281e+02,-8.616393575962297291e+01,-1.265748013820705182e+02,-1.577939270704289356e+02,-1.920329912927854821e+02,-1.894974558816618355e+02,-1.627882120618728550e+02,-1.283534549832500034e+02,9.446745872497558594e+00,-8.414105772972106934e-01,-1.147378161549568176e-01,4.280000000000000000e+02
-1.821540338759522228e+02,-8.226948225211867793e+01,-1.260975852234942067e+02,-1.555409518220276368e+02,-1.917773830175065086e+02,-1.865819845078253820e+02,-1.596982460935873860e+02,-1.281096041207081271e+02,9.446745872497558594e+00,-8.414105772972106934e-01,-1.147378161549568176e-01,4.290000000000000000e+02
-1.812300389917080565e+02,-7.823510681582632742e+01,-1.253200308131629299e+02,-1.527708166210142053e+02,-1.921361261253475732e+02,-1.836369775948460301e+02,-1.568708567215883249e+02,-1.271993289246536278e+02,9.446745872497558594e+00,-8.414105772972106934e-01,-1.147378161549568176e-01,4.300000000000000000e+02
-1.798976141358555196e+02,-7.516762640169605447e+01,-1.240555172446909182e+02,-1.494313374233194054e+02,-1.924762843944215547e+02,-1.808997197816097469e+02,-1.545502642425449267e+02,-1.257278448594856854e+02,9.446745872497558594e+00,-8.414105772972106934e-01,-1.147378161549568176e-01,4.310000000000000000e+02
-1.770368999397244352e+02,-7.390387473822761422e+01,-1.231459481781280374e+02,-1.454892366524645695e+02,-1.926121170342385085e+02,-1.788467486188926614e+02,-1.528165701510465624e+02,-1.247428734287391308e+02,9.446745872497558594e+00,-8.414105772972106934e-01,-1.147378161549568176e-01,4.320000000000000000e+02
-1.747197885372956989e+02,-7.467676017225750229e+01,-1.237909744629773741e+02,-1.413457354212129076e+02,-1.928900448975073232e+02,-1.779676501602436929e+02,-1.517951104764911179e+02,-1.253030453174203558e+02,9.446745872497558594e+00,-8.414105772972106934e-01,-1.147378161549568176e-01,4.330000000000000000e+02
-1.773592900304690829e+02,-7.698070018746096821e+01,-1.263471665699846653e+02,-1.378321201275080057e+02,-1.936913109144579721e+02,-1.782987521470904539e+02,-1.516451973823093340e+02,-1.273630922236175138e+02,9.446745872497558594e+00,-8.414105772972106934e-01,-1.147378161549568176e-01,4.340000000000000000e+02
-1.879671729438641705e+02,-7.984551112118077754e+01,-1.298278468539388086e+02,-1.357093968238086745e+02,-1.949112862031433906e+02,-1.792388079377310532e+02,-1.522933159923070434e+02,-1.295923606758585720e+02,9.446745872497558594e+00,-8.414105772972106934e-01,-1.147378161549568176e-01,4.350000000000000000e+02
-2.047701523806729256e+02,-8.246263800337146677e+01,-1.326531235997420026e+02,-1.351197231442737348e+02,-1.959731359093852916e+02,-1.799339110071850882e+02,-1.532643607656953009e+02,-1.303762749265749790e+02,9.446745872497558594e+00,-8.414105772972106934e-01,-1.147378161549568176e-01,4.360000000000000000e+02
-2.214743715316553789e+02,-8.473058103020207454e+01,-1.339484630834699601e+02,-1.355137861444485452e+02,-1.963591902533419216e+02,-1.799398138275812471e+02,-1.539279237904622732e+02,-1.291512995632467664e+02,9.446745872497558594e+00,-8.414105772972106934e-01,-1.147378161549568176e-01,4.370000000000000000e+02
-2.313374257642267366e+02,-8.723153579203278696e+01,-1.341489479051147100e+02,-1.361307919905347035e+02,-1.961040733010213444e+02,-1.795590012478498920e+02,-1.540110500916439378e+02,-1.269240037399852099e+02,9.446745872497558594e+00,-8.414105772972106934e-01,-1.147378161549568176e-01,4.380000000000000000e+02
-2.317774869531613149e+02,-9.058244491120228759e+01,-1.343876063363914000e+02,-1.365696773783580511e+02,-1.957538546972084532e+02,-1.795442771398895729e+02,-1.538608446349587666e+02,-1.255648817125329515e+02,9.446745872497558594e+00,-8.414105772972106934e-01,-1.147378161549568176e-01,4.390000000000000000e+02
-2.257191109297675666e+02,-9.466984012056536812e+01,-1.353550530602833533e+02,-1.369079690436619785e+02,-1.958883431697174728e+02,-1.804558412085386863e+02,-1.541433918707789417e+02,-1.264950613338839958e+02,9.446745872497558594e+00,-8.414105772972106934e-01,-1.147378161549568176e-01,4.400000000000000000e+02
-2.187275980116205574e+02,-9.842524082618018610e+01,-1.367441943788105618e+02,-1.372739365228535462e+02,-1.967055425188982554e+02,-1.822063126897580787e+02,-1.552150673722687770e+02,-1.297687506026786650e+02,9.446745872497558594e+00,-8.414105772972106934e-01,-1.147378161549568176e-01,4.410000000000000000e+02
-2.145526784749656599e+02,-1.003328603924500158e+02,-1.376667761777048327e+02,-1.372891348047551219e+02,-1.979754061266530698e+02,-1.840560701695062562e+02,-1.567097695678951368e+02,-1.340680306981569174e+02,9.446745872497558594e+00,-8.414105772972106934e-01,-1.147378161549568176e-01,4.420000000000000000e+02
-2.128092391793393290e+02,-9.925894758505910431e+01,-1.374369733557700783e+02,-1.359342836629685962e+02,-1.992249924118439139e+02,-1.849252869106005619e+02,-1.576740032035540935e+02,-1.374080976431855561e+02,9.446745872497558594e+00,-8.414105772972106934e-01,-1.147378161549568176e-01,4.430000000000000000e+02
-2.103794224924106402e+02,-9.499042034568492454e+01,-1.358947045740528665e+02,-1.320204748147958753e+02,-1.998563173235627346e+02,-1.837744948690519777e+02,-1.571015844306716644e+02,-1.379965278996153302e+02,9.446745872497558594e+00,-8.414105772972106934e-01,-7.649187743663787842e-02,4.440000000000000000e+02
-2.047848756346816117e+02,-8.819930334745924938e+01,-1.331133750587466693e+02,-1.249407012779029174e+02,-1.991672816339016663e+02,-1.799676794608531054e+02,-1.544516892943781841e+02,-1.348507805224091953e+02,9.446745872497558594e+00,-8.414105772972106934e-01,-7.649187743663787842e-02,4.450000000000000000e+02
-1.963277635735339572e+02,-8.005291005392791703e+01,-1.290556546217160303e+02,-1.151963966407471389e+02,-1.965087177891409738e+02,-1.736191390362546372e+02,-1.498539552345098400e+02,-1.281039717832959468e+02,9.446745872497558594e+00,-8.414105772972106934e-01,-7.649187743663787842e-02,4.460000000000000000e+02
-1.873522922409786133e+02,-7.183206630882415311e+01,-1.236700190885144366e+02,-1.043608207242410799e+02,-1.916536493100213647e+02,-1.657486319678248492e+02,-1.439967260375940441e+02,-1.189952196158633342e+02,9.446745872497558594e+00,-8.414105772972106934e-01,-7.649187743663787842e-02,4.470000000000000000e+02
-1.798193757925298542e+02,-6.470390998288314677e+01,-1.172830043261869832e+02,-9.450432848633602134e+01,-1.850931322230139813e+02,-1.579730950552491322e+02,-1.378525873134119593e+02,-1.094968166576445583e+02,9.446745872497558594e+00,-8.414105772972106934e-01,-7.649187743663787842e-02,4.480000000000000000e+02
-1.737573208312910538e+02,-5.953984733280054797e+01,-1.107280443630327227e+02,-8.736663870505412888e+01,-1.778999480250886336e+02,-1.517405953338486597e+02,-1.323663311586396958e+02,-1.016039917615039485e+02,9.446745872497558594e+00,-8.414105772972106934e-01,-7.649187743663787842e-02,4.490000000000000000e+02
-1.679527867162021266e+02,-5.670001559427782922e+01,-1.049540418935794150e+02,-8.366400435841467242e+01,-1.712001768509164776e+02,-1.476019612356412836e+02,-1.281921609072494448e+02,-9.656410643814160721e+01,9.446745872497558594e+00,-8.414105772972106934e-01,-7.649187743663787842e-02,4.500000000000000000e+02
-1.618378726343953531e+02,-5.591871950770752164e+01,-1.004796486198945331e+02,-8.284089949878011794e+01,-1.656914745090559791e+02,-1.451216251744644978e+02,-1.255405635880481441e+02,-9.448810715639388036e+01,9.446745872497558594e+00,-8.414105772972106934e-01,-7.649187743663787842e-02,4.510000000000000000e+02
-1.563981069639305588e+02,-5.647272791740152798e+01,-9.725613627941129380e+01,-8.340397298293760286e+01,-1.615856278040282632e+02,-1.435084912168654228e+02,-1.241849180494818938e+02,-9.459405237687406043e+01,9.446745872497558594e+00,-8.414105772972106934e-01,-7.649187743663787842e-02,4.520000000000000000e+02
-1.531262214285420669e+02,-5.759302658230052430e+01,-9.503987531652069265e+01,-8.373985102242613721e+01,-1.588967170644677935e+02,-1.423782960887695026e+02,-1.236287817993195404e+02,-9.587230598059386466e+01,9.446745872497558594e+00,-8.414105772972106934e-01,-7.649187743663787842e-02,4.530000000000000000e+02
-1.522053595578242948e+02,-5.881000145541855773e+01,-9.379532386227651841e+01,-8.299665097453100771e+01,-1.576666908457987120e+02,-1.419280863378035065e+02,-1.233444437973794265e+02,-9.763552197270223587e+01,9.446745872497558594e+00,-8.414105772972106934e-01,-7.649187743663787842e-02,4.540000000000000000e+02
-1.519863266353941071e+02,-5.994703188076465494e+01,-9.363700217113000690e+01,-8.145289078861412690e+01,-1.578781451528807338e+02,-1.424037718402919381e+02,-1.229694432190062798e+02,-9.956967382773473219e+01,9.446745872497558594e+00,-8.414105772972106934e-01,-7.649187743663787842e-02,4.550000000000000000e+02
-1.504789218717876338e+02,-6.081106230382374633e+01,-9.438440335569725903e+01,-8.007575453617141648e+01,-1.592102713852425495e+02,-1.434749301453716726e+02,-1.223720713061416063e+02,-1.014017614138408589e+02,9.446745872497558594e+00,-8.414105772972106934e-01,-7.649187743663787842e-02,4.560000000000000000e+02
-1.474284318134266414e+02,-6.093434979611629387e+01,-9.526989711120359061e+01,-7.955434602678417377e+01,-1.609619849745531610e+02,-1.442064510051736761e+02,-1.215596587582685970e+02,-1.026434591836605250e+02,9.446745872497558594e+00,-8.414105772972106934e-01,-7.649187743663787842e-02,4.570000000000000000e+02
-1.448305872416422062e+02,-5.971940273656332465e+01,-9.523658534248488650e+01,-7.958829381973191630e+01,-1.622792694250613295e+02,-1.436988282785139290e+02,-1.205153961831056222e+02,-1.027528854155750651e+02,9.446745872497558594e+00,-8.414105772972106934e-01,-7.649187743663787842e-02,4.580000000000000000e+02
-1.452026123076318527e+02,-5.695580316119094277e+01,-9.367240024460238601e+01,-7.908141310987332417e+01,-1.625162629318176641e+02,-1.417819546227376577e+02,-1.191160708483077997e+02,-1.015876559471926157e+02,9.446745872497558594e+00,-8.414105772972106934e-01,-7.649187743663787842e-02,4.590000000000000000e+02
-1.491726343583347898e+02,-5.325844361743054378e+01,-9.094651506955847253e+01,-7.711037172117244154e+01,-1.614884980767883462e+02,-1.390889435937963299e+02,-1.172415936541724477e+02,-9.963926760673075478e+01,9.446745872497558594e+00,-8.414105772972106934e-01,-7.649187743663787842e-02,4.600000000000000000e+02
-1.546693950906812915e+02,-4.995553771261347720e+01,-8.823927743688159353e+01,-7.378813819366484950e+01,-1.595080897864688723e+02,-1.364469830613470549e+02,-1.150002357721059525e+02,-9.771868526943308098e+01,9.446745872497558594e+00,-8.414105772972106934e-01,-7.649187743663787842e-02,4.610000000000000000e+02
-1.584597594590982226e+02,-4.838004590005323280e+01,-8.674799182126548658e+01,-7.019189188906773325e+01,-1.572144581822435612e+02,-1.341626329296711901e+02,-1.128142088133729430e+02,-9.630595429520326434e+01,9.446745872497558594e+00,-8.414105772972106934e-01,-7.649187743663787842e-02,4.620000000000000000e+02
-1.585884842027533068e+02,-4.905603327944965031e+01,-8.689418660329556587e+01,-6.742850882445554817e+01,-1.552733036512272520e+02,-1.318756998343696978e+02,-1.111940581747987835e+02,-9.518790077135167849e+01,9.446745872497558594e+00,-8.414105772972106934e-01,-7.649187743663787842e-02,4.630000000000000000e+02
-1.555595076800113929e+02,-5.140432937425072168e+01,-8.812844557445919236e+01,-6.575963730091916659e+01,-1.540534287878551822e+02,-1.291227550547625924e+02,-1.103397409202736981e+02,-9.378757851312479943e+01,9.446745872497558594e+00,-8.414105772972106934e-01,-7.649187743663787842e-02,4.640000000000000000e+02
-1.514683295770146287e+02,-5.423153052505085725e+01,-8.944118441020737009e+01,-6.467249244131028263e+01,-1.534767802400208438e+02,-1.261010258627836720e+02,-1.099725778237118448e+02,-9.194006134187452517e+01,9.446745872497558594e+00,-8.414105772972106934e-01,-7.649187743663787842e-02,4.650000000000000000e+02
-1.482060989557194262e+02,-5.661061499500311811e+01,-9.013539887528349936e+01,-6.379842324935066245e+01,-1.531804723178536278e+02,-1.239011713721183696e+02,-1.096397349220060278e+02,-9.036619041027302046e+01,9.446745872497558594e+00,-8.414105772972106934e-01,-7.649187743663787842e-02,4.660000000000000000e+02
-1.464053055877220686e+02,-5.843176915732249199e+01,-9.025181557497762697e+01,-6.363012826478768602e+01,-1.528800494687020546e+02,-1.238758104234393613e+02,-1.092358744859736817e+02,-9.027158874406768518e+01,9.446745872497558594e+00,-8.414105772972106934e-01,-7.649187743663787842e-02,4.670000000000000000e+02
-1.456515007118496214e+02,-6.018983082847353216e+01,-9.032323620097463390e+01,-6.511875162674039075e+01,-1.525796340553838490e+02,-1.265244259189748846e+02,-1.091720640656080832e+02,-9.226082031989858478e+01,9.446745872497558594e+00,-8.414105772972106934e-01,-7.649187743663787842e-02,4.680000000000000000e+02
-1.451374446209729285e+02,-6.224094481554976710e+01,-9.068076136060244608e+01,-6.840889943543550089e+01,-1.523722710016240853e+02,-1.307491326756232866e+02,-1.099102252033712830e+02,-9.546304293966318255e+01,9.446745872497558594e+00,-8.414105772972106934e-01,-7.649187743663787842e-02,4.690000000000000000e+02
-1.438875394464627107e+02,-6.422667905984974368e+01,-9.090766384417952395e+01,-7.199846512953740785e+01,-1.520155370271345419e+02,-1.341809733109180343e+02,-1.112618389493568429e+02,-9.773365154076645922e+01,9.446745872497558594e+00,-8.414105772972106934e-01,-7.649187743663787842e-02,4.700000000000000000e+02
-1.407175328646674188e+02,-6.520370317430814566e+01,-8.994482194488045934e+01,-7.335290719912029545e+01,-1.507847990546247274e+02,-1.344982590647653069e+02,-1.121812799753747640e+02,-9.696708699951932431e+01,9.446745872497558594e+00,-8.414105772972106934e-01,-7.649187743663787842e-02,4.710000000000000000e+02
-1.347079787460643274e+02,-6.436586807827529810e+01,-8.684954103651625701e+01,-7.063878151064864142e+01,-1.478905143009283165e+02,-1.308395851082875652e+02,-1.113798990441086971e+02,-9.259105786657414683e+01,9.446745872497558594e+00,-8.414105772972106934e-01,-7.649187743663787842e-02,4.720000000000000000e+02
-1.262042062781763434e+02,-6.167200189516188402e+01,-8.161225414984346571e+01,-6.405640122683462323e+01,-1.431376480414030539e+02,-1.242325839329798782e+02,-1.082731984640049632e+02,-8.601180345479951939e+01,9.446745872497558594e+00,-8.414105772972106934e-01,-7.649187743663787842e-02,4.730000000000000000e+02
-1.172349808231091401e+02,-5.777795985724503680e+01,-7.531154684820899092e+01,-5.551751749908225975e+01,-1.371782680257692846e+02,-1.166828957070399611e+02,-1.034009391307115493e+02,-7.956166895585261045e+01,9.446745872497558594e+00,-8.414105772972106934e-01,-7.649187743663787842e-02,4.740000000000000000e+02
-1.103422950009687611e+02,-5.335258201744642292e+01,-6.940343826200501098e+01,-4.697713486820623530e+01,-1.310605874832901918e+02,-1.096789105615405333e+02,-9.794721785258366253e+01,-7.475226649614876351e+01,9.484992027282714844e+00,-8.796565532684326172e-01,-7.649187743663787842e-02,4.750000000000000000e+02
-1.064199017873505682e+02,-4.846915599322721846e+01,-6.467482561560245813e+01,-3.900173915956270321e+01,-1.254548413603815789e+02,-1.033567133969906990e+02,-9.282132569573559522e+01,-7.126773975958076335e+01,9.484992027282714844e+00,-8.796565532684326172e-01,-7.649187743663787842e-02,4.760000000000000000e+02
-1.036312904801191053e+02,-4.269747234227122590e+01,-6.069679067904939984e+01,-3.086498174570124320e+01,-1.202250618492487320e+02,-9.693652538089804693e+01,-8.810049656751220937e+01,-6.748068642638452275e+01,9.484992027282714844e+00,-8.796565532684326172e-01,-7.649187743663787842e-02,4.770000000000000000e+02
-9.887447409076969507e+01,-3.582590805742103157e+01,-5.622358053414836832e+01,-2.191299703936272181e+01,-1.146706066192728031e+02,-8.986685070956400523e+01,-8.321903954741355847e+01,-6.194631998311501775e+01,9.484992027282714844e+00,-8.796565532684326172e-01,-7.649187743663787842e-02,4.780000000000000000e+02
-9.077762911689819703e+01,-2.848027137346093696e+01,-5.019375391615426452e+01,-1.269427220868271888e+01,-1.081425145476114267e+02,-8.251271040078245278e+01,-7.759435604985901591e+01,-5.451499498451596537e+01,9.484992027282714844e+00,-8.796565532684326172e-01,-7.649187743663787842e-02,4.790000000000000000e+02
-8.141005315561415046e+01,-2.195054822473804279e+01,-4.250149885556334084e+01,-4.670885281165510605e+00,-1.004759902826749567e+02,-7.575304155253047611e+01,-7.109062387718995524e+01,-4.613341533355537649e+01,9.484992027282714844e+00,-8.796565532684326172e-01,-7.649187743663787842e-02,4.800000000000000000e+02
-7.486196528494713220e+01,-1.728762346965925190e+01,-3.399876214244682160e+01,1.144928875013761171e+00,-9.199339771317750092e+01,-6.999064831054010938e+01,-6.402580706631079011e+01,-3.774448842904382673e+01,9.484992027282714844e+00,-8.796565532684326172e-01,-7.649187743663787842e-02,4.810000000000000000e+02
-7.379852128114384868e+01,-1.446878699550455849e+01,-2.590303395165074107e+01,5.163781884753007034e+00,-8.327902710264265806e+01,-6.467275202077735230e+01,-5.690154335890360926e+01,-2.955329155218612414e+01,9.484992027282714844e+00,-8.796565532684326172e-01,-7.649187743663787842e-02,4.820000000000000000e+02
-7.707942014865454894e+01,-1.239037895277255075e+01,-1.918109277991538875e+01,8.799863594004705192e+00,-7.500448086522260382e+01,-5.884478347669687537e+01,-5.017607751020887008e+01,-2.138683216703566359e+01,9.484992027282714844e+00,-8.796565532684326172e-01,-7.649187743663787842e-02,4.830000000000000000e+02
-8.059931540835464148e+01,-9.707812965983748654e+00,-1.431370629573314091e+01,1.312475025986248056e+01,-6.785057631384825072e+01,-5.217298890209576712e+01,-4.420955018622862553e+01,-1.362767705429473608e+01,9.484992027282714844e+00,-8.796565532684326172e-01,-7.649187743663787842e-02,4.840000000000000000e+02
-8.051536427653559258e+01,-5.804157820025295678e+00,-1.135911785623375181e+01,1.797518156189539695e+01,-6.237646732352413892e+01,-4.538918513973681002e+01,-3.928881878903985125e+01,-7.528008478101014589e+00,9.484992027282714844e+00,-8.796565532684326172e-01,-7.649187743663787842e-02,4.850000000000000000e+02
-7.592869629051847369e+01,-1.121659876668104516e+00,-1.001828763132652966e+01,2.233112112314768183e+01,-5.877009804750605326e+01,-3.971010674949570785e+01,-3.561268541371600804e+01,-4.390437082670587188e+00,9.484992027282714844e+00,-8.796565532684326172e-01,-7.649187743663787842e-02,4.860000000000000000e+02
-6.887968866363303277e+01,3.279204229935089643e+00,-9.643383592778718594e+00,2.541131293755506704e+01,-5.667042057128310262e+01,-3.582994453125616019e+01,-3.324750837814758597e+01,-4.392217239898627668e+00,9.484992027282714844e+00,-8.796565532684326172e-01,-7.649187743663787842e-02,4.870000000000000000e+02
-6.218764616134467360e+01,6.412856174545595422e+00,-9.424804078285774267e+00,2.723238813310285877e+01,-5.531748762151778465e+01,-3.348550769085727552e+01,-3.213048114449270543e+01,-6.314612677737613922e+00,9.484992027282714844e+00,-8.796565532684326172e-01,-7.649187743663787842e-02,4.880000000000000000e+02
-5.740313474125491666e+01,7.747205603404381691e+00,-8.857485705481167315e+00,2.809086526517126003e+01,-5.401553591439392221e+01,-3.195473012451884642e+01,-3.212048262010512190e+01,-8.522521992322594997e+00,9.484992027282714844e+00,-8.796565532684326172e-01,-7.649187743663787842e-02,4.890000000000000000e+02
-5.445907751834181454e+01,7.190205724417637612e+00,-8.159976188979499057e+00,2.771673546766965046e+01,-5.257284659241270219e+01,-3.090871063540566865e+01,-3.302859919167622138e+01,-1.023188901598155098e+01,9.484992027282714844e+00,-8.796565532684326172e-01,-7.649187743663787842e-02,4.900000000000000000e+02
-5.263038998341892238e+01,5.013134433683262614e+00,-8.111036537860513818e+00,2.525595411519577738e+01,-5.131917413728751853e+01,-3.070288863859320827e+01,-3.456240807697668060e+01,-1.178064820663757928e+01,9.484992027282714844e+00,-8.796565532684326172e-01,-7.649187743663787842e-02,4.910000000000000000e+02
-5.136108783561110158e+01,1.921169787833122200e+00,-9.232881918372868313e+00,2.029395212905819790e+01,-5.065406059319980159e+01,-3.181561994479511668e+01,-3.622337353570401319e+01,-1.368911359990022447e+01,9.484992027282714844e+00,-8.796565532684326172e-01,-7.649187743663787842e-02,4.920000000000000000e+02
-5.021412254393749208e+01,-9.322887642295256683e-01,-1.097608887828687330e+01,1.388366461010457442e+01,-5.050536383369592386e+01,-3.403322782324096352e+01,-3.728772576901337743e+01,-1.558412311532936201e+01,9.484992027282714844e+00,-8.796565532684326172e-01,-7.649187743663787842e-02,4.930000000000000000e+02
-4.850735044570024002e+01,-2.312157877291951991e+00,-1.177117195889479717e+01,8.362739741402492655e+00,-5.018990193270474265e+01,-3.622901301167951260e+01,-3.699512418455401530e+01,-1.618509139578941358e+01,9.484992027282714844e+00,-8.796565532684326172e-01,-7.649187743663787842e-02,4.940000000000000000e+02
-4.549880208050637975e+01,-1.605343127046012341e+00,-1.014867218184474496e+01,5.858514504566414871e+00,-4.886890154499167238e+01,-3.702693264369429471e+01,-3.493426663962316070e+01,-1.444575216472014745e+01,9.484992027282714844e+00,-8.796565532684326172e-01,-7.649187743663787842e-02,4.950000000000000000e+02
-4.108502047158867754e+01,6.650789327984227839e-01,-6.085590897878091710e+00,6.702162208278309663e+00,-4.625788948078456997e+01,-3.582037458803199570e+01,-3.140675584956818511e+01,-1.073796505275004165e+01,9.484992027282714844e+00,-8.031646609306335449e-01,-3.824593871831893921e-02,4.960000000000000000e+02
-3.617592362344146295e+01,3.045029856028321547e+00,-1.355355387945337498e+00,9.165357401222536282e+00,-4.298382507730707403e+01,-3.328612602795180919e+01,-2.744556060519028051e+01,-6.882968623754777582e+00,9.484992027282714844e+00,-8.031646609306335449e-01,-3.824593871831893921e-02,4.970000000000000000e+02
-3.218704810245583303e+01,4.066195702306970361e+00,1.620895929361381604e+00,1.081900330292876333e+01,-4.022032963533752081e+01,-3.092952995855648624e+01,-2.432111672396899849e+01,-4.892457226362637357e+00,9.484992027282714844e+00,-8.031646609306335449e-01,-3.824593871831893921e-02,4.980000000000000000e+02
-3.003064396367432209e+01,3.256617022010487972e+00,1.626519459506766907e+00,1.042892550693784415e+01,-3.882097557706947555e+01,-2.996595991140793558e+01,-2.274778114124978856e+01,-5.431838999234059884e+00,9.484992027282714844e+00,-8.031646609306335449e-01,-3.824593871831893921e-02,4.990000000000000000e+02
-2.951790826558766412e+01,1.482106727998626639e+00,-3.101921708724262317e-01,8.855907700184843634e+00,-3.864545390494595267e+01,-3.037989330981463354e+01,-2.235117826816554043e+01,-7.261214560300402354e+00,9.484992027282714844e+00,-8.031646609306335449e-01,-3.824593871831893921e-02,5.000000000000000000e+02
-2.965595367569210339e+01,3.402149456966867547e-01,-1.630264134563162770e+00,8.268495509624756323e+00,-3.865493281790281799e+01,-3.089491992607406701e+01,-2.189094794386187459e+01,-8.104838272509994113e+00,9.484992027282714844e+00,-8.031646609306335449e-01,-3.824593871831893921e-02,5.010000000000000000e+02
-2.947653174238337215e+01,9.993906248403874315e-01,-2.363357977739610760e-01,1.033583383815096113e+01,-3.772116003318973299e+01,-2.992694633431096918e+01,-2.018438047896302123e+01,-6.296934652641255070e+00,9.484992027282714844e+00,-8.031646609306335449e-01,-3.824593871831893921e-02,5.020000000000000000e+02
-2.867072205170745747e+01,3.267582198966664464e+00,3.789952193524186441e+00,1.481884127089040248e+01,-3.550182995149947374e+01,-2.685123038270614870e+01,-1.706615538064011162e+01,-2.001686563169869260e+00,9.484992027282714844e+00,-8.031646609306335449e-01,-3.824593871831893921e-02,5.030000000000000000e+02
-2.767965551892751819e+01,5.539577345697665578e+00,8.124090248001834880e+00,1.961597722414541067e+01,-3.268191021807263041e+01,-2.263030673259618197e+01,-1.360240939497145973e+01,2.854679548091212382e+00,9.484992027282714844e+00,-8.031646609306335449e-01,-3.824593871831893921e-02,5.040000000000000000e+02
-2.740219915759939795e+01,5.713101451718472390e+00,9.849205275835799966e+00,2.218142539642477118e+01,-3.044105119808341442e+01,-1.928027198976872114e+01,-1.136267987163040516e+01,5.870959573209006521e+00,9.484992027282714844e+00,-8.031646609306335449e-01,-3.824593871831893921e-02,5.050000000000000000e+02
-2.876045656609190360e+01,2.535147073292208120e+00,7.526307477794546230e+00,2.121519047718149409e+01,-2.963307014030135633e+01,-1.852082251732747409e+01,-1.131804619938338874e+01,5.748584753154688087e+00,9.484992027282714844e+00,-8.031646609306335449e-01,-3.824593871831893921e-02,5.060000000000000000e+02
-3.215796705780695675e+01,-3.485663797016997023e+00,2.102614256997412667e+00,1.737725116667940028e+01,-3.032342394070772684e+01,-2.061847943239820324e+01,-1.323868103522949013e+01,3.028454302272564291e+00,9.484992027282714844e+00,-8.031646609306335449e-01,-3.824593871831893921e-02,5.070000000000000000e+02
-3.692289019035706588e+01,-1.028650640498679536e+01,-3.941440443777707969e+00,1.256204175457625638e+01,-3.195308283407592853e+01,-2.431803767405750705e+01,-1.601819305036605101e+01,-5.241182784398290551e-01,9.484992027282714844e+00,-8.031646609306335449e-01,-3.824593871831893921e-02,5.080000000000000000e+02
-4.117303525301946365e+01,-1.552505383699494956e+01,-8.367835158865801759e+00,8.436325918284310887e+00,-3.383396542996766243e+01,-2.785299070128982635e+01,-1.855424913888646188e+01,-3.290094278542682105e+00,9.484992027282714844e+00,-8.031646609306335449e-01,-3.824593871831893921e-02,5.090000000000000000e+02
-4.256343766024416198e+01,-1.803134263347207877e+01,-1.038467417900987755e+01,5.504684152611403647e+00,-3.547536953005393912e+01,-3.011953711835252534e+01,-2.040231317929720944e+01,-4.714828425717868754e+00,9.484992027282714844e+00,-8.031646609306335449e-01,-3.824593871831893921e-02,5.100000000000000000e+02
-3.975837475924552677e+01,-1.831390384272677352e+01,-1.044433346331079804e+01,3.428263715096605324e+00,-3.651100143113981744e+01,-3.102041034364523853e+01,-2.170576515484520996e+01,-5.043098409205711619e+00,9.484992027282714844e+00,-8.031646609306335449e-01,-3.824593871831893921e-02,5.110000000000000000e+02
-3.365975396445526258e+01,-1.772410355292103645e+01,-9.135612949597572197e+00,2.121683210645358031e+00,-3.646191972077235732e+01,-3.083659530218480427e+01,-2.260417204404879499e+01,-4.328479426510668304e+00,9.484992027282714844e+00,-8.031646609306335449e-01,-3.824593871831893921e-02,5.120000000000000000e+02
-2.731109228871588357e+01,-1.705503837765832031e+01,-6.449147271885976807e+00,2.381386206667770011e+00,-3.476066161021174139e+01,-2.946599139855317162e+01,-2.278608773121791842e+01,-1.934468650109550936e+00,9.484992027282714844e+00,-8.031646609306335449e-01,-3.824593871831893921e-02,5.130000000000000000e+02
-2.429888755483545992e+01,-1.593560305647935138e+01,-2.211446836522810599e+00,5.220539531044153136e+00,-3.120404797639145045e+01,-2.648734409819618918e+01,-2.168632272953306028e+01,2.735864555810252341e+00,9.484992027282714844e+00,-8.031646609306335449e-01,-3.824593871831893921e-02,5.140000000000000000e+02
-2.669049626299113243e+01,-1.368642286052687496e+01,2.799301101818059578e+00,1.041031377344182829e+01,-2.653534743947045627e+01,-2.208821112530603159e+01,-1.920964960318701742e+01,8.885395904886564722e+00,9.484992027282714844e+00,-8.031646609306335449e-01,-3.824593871831893921e-02,5.150000000000000000e+02
-3.399987017242099796e+01,-1.085288540604648233e+01,6.354382481991990517e+00,1.568296536534930397e+01,-2.256842514721859061e+01,-1.784559825358780927e+01,-1.631903404157480963e+01,1.381722083086583552e+01,9.484992027282714844e+00,-8.031646609306335449e-01,-3.824593871831893921e-02,5.160000000000000000e+02
-4.383050279106259950e+01,-9.795079043330076729e+00,5.706636218146798001e+00,1.764065251107234644e+01,-2.150645382076265832e+01,-1.630632996514032129e+01,-1.485550371242004530e+01,1.414932715316734857e+01,9.484992027282714844e+00,-8.031646609306335449e-01,-3.824593871831893921e-02,5.170000000000000000e+02
-5.350411821549636215e+01,-1.341294281745459216e+01,-5.739278504515823442e-01,1.393365225047409695e+01,-2.472202909847362662e+01,-1.940622982229967874e+01,-1.655246937751064706e+01,8.069094537064756878e+00,9.484992027282714844e+00,-8.031646609306335449e-01,-3.824593871831893921e-02,5.180000000000000000e+02
-6.134790218595321676e+01,-2.279528988772284492e+01,-1.131529262311278217e+01,5.046349440221661098e+00,-3.177857747220605233e+01,-2.693889394258121683e+01,-2.188283338248038490e+01,-3.115501119703822042e+00,9.484992027282714844e+00,-8.031646609306335449e-01,-3.824593871831893921e-02,5.190000000000000000e+02
-6.682019667797317197e+01,-3.573357455756496392e+01,-2.309231505175671373e+01,-5.741935588709225158e+00,-4.040968441997983973e+01,-3.637203599195447623e+01,-2.956664495954350969e+01,-1.539761442636967104e+01,9.484992027282714844e+00,-8.031646609306335449e-01,-3.824593871831893921e-02,5.200000000000000000e+02
-6.977557354074303930e+01,-4.752241342947274916e+01,-3.200579498496199449e+01,-1.421257851629388824e+01,-4.756146117002822393e+01,-4.423325812573034455e+01,-3.712781607402916961e+01,-2.421613251790137156e+01,9.523238182067871094e+00,-8.414105772972106934e-01,0.000000000000000000e+00,5.210000000000000000e+02
-6.981719488578460187e+01,-5.365068093115513648e+01,-3.561897034181379240e+01,-1.749433013461953124e+01,-5.086298318357739845e+01,-4.801243955439531419e+01,-4.214009222500226315e+01,-2.681253026986576060e+01,9.523238182067871094e+00,-8.414105772972106934e-01,0.000000000000000000e+00,5.220000000000000000e+02
-6.639522266423989549e+01,-5.243975605601670509e+01,-3.382825480940005036e+01,-1.524681227996120469e+01,-4.963425874234428647e+01,-4.723046760646673192e+01,-4.334707673630123281e+01,-2.330887898377568490e+01,9.523238182067871094e+00,-8.414105772972106934e-01,0.000000000000000000e+00,5.230000000000000000e+02
-5.951672091579882817e+01,-4.576122365051861607e+01,-2.840071914473321613e+01,-9.259642963614055589e+00,-4.493211334521606659e+01,-4.316667611693083018e+01,-4.102453214688466687e+01,-1.610605186507109465e+01,9.523238182067871094e+00,-8.414105772972106934e-01,0.000000000000000000e+00,5.240000000000000000e+02
-5.034019142881925291e+01,-3.752083135804656422e+01,-2.181526166578294124e+01,-2.152872179161022359e+00,-3.879867369727344339e+01,-3.780496162182657827e+01,-3.655485962354441654e+01,-8.325025875043593260e+00,9.523238182067871094e+00,-8.414105772972106934e-01,0.000000000000000000e+00,5.250000000000000000e+02
-4.101669501002902507e+01,-3.121699737331982760e+01,-1.620415863801747491e+01,3.804502965841265905e+00,-3.326203675353690414e+01,-3.290013399138479144e+01,-3.164783938400455554e+01,-2.365633346474055543e+00,9.523238182067871094e+00,-8.414105772972106934e-01,0.000000000000000000e+00,5.260000000000000000e+02
-3.376655252419902808e+01,-2.832402117318014234e+01,-1.278340535896188612e+01,7.253193781872369073e+00,-2.960675533433754936e+01,-2.959765429733351993e+01,-2.769573283034605993e+01,7.441083543177455795e-01,9.523238182067871094e+00,-8.414105772972106934e-01,0.000000000000000000e+00,5.270000000000000000e+02
-2.978447699741172983e+01,-2.831208310586282551e+01,-1.173768798018249981e+01,7.809929377719413424e+00,-2.813466188306597360e+01,-2.843505944897697191e+01,-2.547551170366841689e+01,1.183431380964293567e+00,9.523238182067871094e+00,-8.414105772972106934e-01,0.000000000000000000e+00,5.280000000000000000e+02
-2.871452831296744534e+01,-2.981542670438642517e+01,-1.244948112229985782e+01,5.922755647571875670e+00,-2.838126078759501070e+01,-2.941080858289251410e+01,-2.513857111461061322e+01,-2.749922528151955703e-01,9.523238182067871094e+00,-8.414105772972106934e-01,0.000000000000000000e+00,5.290000000000000000e+02
-2.908278148353042525e+01,-3.181487635214608645e+01,-1.399278497716272796e+01,2.599004256607258867e+00,-2.960236178355057746e+01,-3.205559830209699612e+01,-2.635608781229234410e+01,-2.862652855949590958e+00,9.523238182067871094e+00,-8.414105772972106934e-01,0.000000000000000000e+00,5.300000000000000000e+02
-2.946948050367632277e+01,-3.402775825215906025e+01,-1.568947010372085060e+01,-1.014282990520086969e+00,-3.122485570792196086e+01,-3.559033183046608428e+01,-2.852508377754293178e+01,-6.066557997176687422e+00,9.523238182067871094e+00,-8.414105772972106934e-01,0.000000000000000000e+00,5.310000000000000000e+02
-2.966459840957236338e+01,-3.654019250382651762e+01,-1.739634411299221028e+01,-4.092508960317672972e+00,-3.299351797721010371e+01,-3.917514678750012536e+01,-3.099386697692511916e+01,-9.512235552881747935e+00,9.523238182067871094e+00,-8.414105772972106934e-01,0.000000000000000000e+00,5.320000000000000000e+02
-3.094129174770682766e+01,-3.928548924352020322e+01,-1.932097959785664898e+01,-6.397744534046751141e+00,-3.478133380849430978e+01,-4.212893328231484702e+01,-3.326708004664078544e+01,-1.276481657058184283e+01,9.523238182067871094e+00,-8.414105772972106934e-01,0.000000000000000000e+00,5.330000000000000000e+02
-3.511368374714174934e+01,-4.193462207624611437e+01,-2.159315972561375929e+01,-8.209578355808844208e+00,-3.636317979198906869e+01,-4.405941761149097147e+01,-3.514864028854026401e+01,-1.539359549495702595e+01,9.523238182067871094e+00,-8.414105772972106934e-01,0.000000000000000000e+00,5.340000000000000000e+02
-4.294385681993367143e+01,-4.422607195422892801e+01,-2.406010227972501525e+01,-1.000353695885473826e+01,-3.748757367906591753e+01,-4.495298195481746006e+01,-3.678551493736267730e+01,-1.730808622197673685e+01,9.523238182067871094e+00,-8.414105772972106934e-01,0.000000000000000000e+00,5.350000000000000000e+02
-5.309932356259082553e+01,-4.627002814002287323e+01,-2.650688112959528553e+01,-1.209212834151480820e+01,-3.821199862444746032e+01,-4.521806022394594038e+01,-3.856718517669469293e+01,-1.897601509846867884e+01,9.523238182067871094e+00,-8.414105772972106934e-01,0.000000000000000000e+00,5.360000000000000000e+02
-6.258114503904789672e+01,-4.837554238703182818e+01,-2.896740322673190349e+01,-1.439301234267031759e+01,-3.905263254843794130e+01,-4.553356267804292656e+01,-4.085426094512240525e+01,-2.111570763687495855e+01,9.523238182067871094e+00,-8.414105772972106934e-01,0.000000000000000000e+00,5.370000000000000000e+02
-6.844555307979726422e+01,-5.046079817213433216e+01,-3.162633207480280362e+01,-1.638054721633307054e+01,-4.057623242522322471e+01,-4.640592627691057714e+01,-4.362464788053057418e+01,-2.395919138279691651e+01,9.523238182067871094e+00,-8.414105772972106934e-01,0.000000000000000000e+00,5.380000000000000000e+02
-6.957845597992809417e+01,-5.166466819302206659e+01,-3.431736752293340942e+01,-1.727378279073036538e+01,-4.270186428745500962e+01,-4.769697030900215395e+01,-4.629473440090487202e+01,-2.676867116365338006e+01,9.523238182067871094e+00,-8.414105772972106934e-01,0.000000000000000000e+00,5.390000000000000000e+02
-6.713669098450691308e+01,-5.073900070536990370e+01,-3.620419733484732205e+01,-1.647557307840747853e+01,-4.447313275827309553e+01,-4.861630050831536209e+01,-4.795240890556988234e+01,-2.820840708945911501e+01,9.523238182067871094e+00,-8.414105772972106934e-01,0.000000000000000000e+00,5.400000000000000000e+02
-6.337546976473458926e+01,-4.711072719368496564e+01,-3.620709569464588640e+01,-1.407078867859240745e+01,-4.472979866658852188e+01,-4.835242627841626017e+01,-4.794317684801626456e+01,-2.741051488587004314e+01,9.523238182067871094e+00,-8.414105772972106934e-01,0.000000000000000000e+00,5.410000000000000000e+02
-5.997827225743867530e+01,-4.175696464903830929e+01,-3.400336928500564682e+01,-1.101156642748060221e+01,-4.318739218479049669e+01,-4.686510769952201372e+01,-4.640030311422970044e+01,-2.483943202941190975e+01,9.523238182067871094e+00,-8.414105772972106934e-01,0.000000000000000000e+00,5.420000000000000000e+02
-5.734737681078559035e+01,-3.697279371629406342e+01,-3.067609751892723580e+01,-8.700066033750772476e+00,-4.085755393488943810e+01,-4.505744741541911935e+01,-4.425302930854650185e+01,-2.210420560569082227e+01,9.523238182067871094e+00,-8.414105772972106934e-01,0.000000000000000000e+00,5.430000000000000000e+02
-5.528816588791505637e+01,-3.498714731500774633e+01,-2.824512761314963427e+01,-8.160123090955266889e+00,-3.928629486059253395e+01,-4.407850125377490258e+01,-4.266585304769341747e+01,-2.080668574078163147e+01,9.523238182067871094e+00,-8.414105772972106934e-01,0.000000000000000000e+00,5.440000000000000000e+02
-5.410657231656932709e+01,-3.647934030964586327e+01,-2.833096229745933670e+01,-9.455866390440633040e+00,-3.929592626236626529e+01,-4.442005097101582578e+01,-4.237892013447253703e+01,-2.146481873439415722e+01,9.523238182067871094e+00,-8.414105772972106934e-01,0.000000000000000000e+00,5.450000000000000000e+02
-5.475353695353260264e+01,-4.023948019349563765e+01,-3.105896704464339564e+01,-1.189168463012288157e+01,-4.045476318466444354e+01,-4.572684994684914273e+01,-4.346907323865616490e+01,-2.346654058262674880e+01,9.523238182067871094e+00,-8.414105772972106934e-01,0.000000000000000000e+00,5.460000000000000000e+02
-5.772717155171949344e+01,-4.424924562066007638e+01,-3.513184153481324756e+01,-1.480347870765172047e+01,-4.176779211480697995e+01,-4.749424163670391863e+01,-4.560296209411444579e+01,-2.597960767141921679e+01,9.523238182067871094e+00,-8.414105772972106934e-01,0.000000000000000000e+00,5.470000000000000000e+02
-6.191023743887126329e+01,-4.719423559098913756e+01,-3.891822416848845023e+01,-1.812317129532584659e+01,-4.280642046910452336e+01,-4.982214112019937602e+01,-4.838224861204071203e+01,-2.879148811038248823e+01,9.446745872497558594e+00,-8.414105772972106934e-01,-7.649187743663787842e-02,5.480000000000000000e+02
-6.483618814124793062e+01,-4.911047786076437660e+01,-4.154166642434711321e+01,-2.211419891683090100e+01,-4.407326332323691531e+01,-5.330855483629602531e+01,-5.140956026814910729e+01,-3.222696538276659339e+01,9.446745872497558594e+00,-8.414105772972106934e-01,-7.649187743663787842e-02,5.490000000000000000e+02
-6.454464408636749795e+01,-5.074507833712891625e+01,-4.306749039073383756e+01,-2.654557137713618431e+01,-4.624422494795226157e+01,-5.811715547852372765e+01,-5.413399130819379934e+01,-3.631665834287559846e+01,9.446745872497558594e+00,-8.414105772972106934e-01,-7.649187743663787842e-02,5.500000000000000000e+02
-6.151510119557042344e+01,-5.246380866147478628e+01,-4.385589715464857363e+01,-3.027083977965503436e+01,-4.915825224975696983e+01,-6.325753354324433531e+01,-5.584930763226111594e+01,-4.024709047198757617e+01,9.446745872497558594e+00,-8.414105772972106934e-01,-7.649187743663787842e-02,5.510000000000000000e+02
-5.881068087635594566e+01,-5.388408180006626935e+01,-4.394046353363728485e+01,-3.187270965666948541e+01,-5.170254406178037243e+01,-6.701887335627361608e+01,-5.603303144546407566e+01,-4.284152066538263171e+01,9.446745872497558594e+00,-8.414105772972106934e-01,-7.649187743663787842e-02,5.520000000000000000e+02
-5.999775667888161479e+01,-5.454693257337567047e+01,-4.311435821306031357e+01,-3.092903508324889117e+01,-5.278315718314570404e+01,-6.831679012703989429e+01,-5.476600650747059262e+01,-4.367106327467672600e+01,9.446745872497558594e+00,-8.414105772972106934e-01,-7.649187743663787842e-02,5.530000000000000000e+02
-6.638848215527832508e+01,-5.477089625714506838e+01,-4.152793962942450889e+01,-2.867136975512858044e+01,-5.241636349330838129e+01,-6.767651141580790863e+01,-5.279723057100090955e+01,-4.361811757726218275e+01,9.446745872497558594e+00,-8.414105772972106934e-01,-7.649187743663787842e-02,5.540000000000000000e+02
-7.582194430956542419e+01,-5.561478251907783488e+01,-3.999539925853605382e+01,-2.722651952428122968e+01,-5.182976902323662216e+01,-6.684173694471246563e+01,-5.113732880512452539e+01,-4.418808189093897454e+01,9.446745872497558594e+00,-8.414105772972106934e-01,-7.649187743663787842e-02,5.550000000000000000e+02
-8.394979479063658800e+01,-5.782434202886247476e+01,-3.948549304647895042e+01,-2.793475067706367554e+01,-5.240519956721436756e+01,-6.729484837488507765e+01,-5.048361503736668965e+01,-4.611089530548997573e+01,9.446745872497558594e+00,-8.414105772972106934e-01,-7.649187743663787842e-02,5.560000000000000000e+02
-8.698186720835064989e+01,-6.076257954351808621e+01,-4.015754639666374715e+01,-3.017742024078188479e+01,-5.439688865587049804e+01,-6.902307272252983239e+01,-5.088141273815199384e+01,-4.853595056207586822e+01,9.446745872497558594e+00,-8.414105772972106934e-01,-7.649187743663787842e-02,5.570000000000000000e+02
-8.382201513701738804e+01,-6.250475354056516153e+01,-4.090691906526399180e+01,-3.179967230633610598e+01,-5.656416095890836004e+01,-7.062664276058603718e+01,-5.177935184461239260e+01,-4.962501812006121327e+01,9.446745872497558594e+00,-8.414105772972106934e-01,-7.649187743663787842e-02,5.580000000000000000e+02
-7.623506889796044561e+01,-6.124907058510120805e+01,-4.003682016742641281e+01,-3.083730661352637981e+01,-5.703739818483609270e+01,-7.059697362034512480e+01,-5.235910991422406369e+01,-4.804622873816879292e+01,9.446745872497558594e+00,-8.414105772972106934e-01,-7.649187743663787842e-02,5.590000000000000000e+02
-6.732967284432425004e+01,-5.690899405118580034e+01,-3.664244840862102137e+01,-2.708122371120816751e+01,-5.470040907998009061e+01,-6.855780891307767888e+01,-5.194753637042867922e+01,-4.404843009559408529e+01,9.446745872497558594e+00,-8.414105772972106934e-01,-7.649187743663787842e-02,5.600000000000000000e+02
-5.973226296453503892e+01,-5.145318558791177566e+01,-3.152179751003768615e+01,-2.215911584415380275e+01,-4.996870367374867783e+01,-6.539945388798696513e+01,-5.033068860277126078e+01,-3.919860302301913180e+01,9.446745872497558594e+00,-8.414105772972106934e-01,-7.649187743663787842e-02,5.610000000000000000e+02
-5.461424334513867507e+01,-4.757016135651429067e+01,-2.673951065962319262e+01,-1.812844138633226976e+01,-4.439702629100247577e+01,-6.234466419680757099e+01,-4.781893848602248909e+01,-3.510930110290746597e+01,9.446745872497558594e+00,-8.414105772972106934e-01,-7.649187743663787842e-02,5.620000000000000000e+02
-5.178248906332146362e+01,-4.669246261267653608e+01,-2.411499284932688170e+01,-1.586353866975969140e+01,-3.950629932259835186e+01,-5.993638510550226783e+01,-4.499141873298685823e+01,-3.234204976738601545e+01,9.446745872497558594e+00,-8.414105772972106934e-01,-7.649187743663787842e-02,5.630000000000000000e+02
-5.036380841916707141e+01,-4.803307899452238416e+01,-2.390675571985684655e+01,-1.464542109199692277e+01,-3.582378683413116960e+01,-5.788373133163258899e+01,-4.227873727449969010e+01,-3.041601335743962409e+01,9.446745872497558594e+00,-8.414105772972106934e-01,-7.649187743663787842e-02,5.640000000000000000e+02
-4.953899591277240688e+01,-4.945680497735406789e+01,-2.487386967262227699e+01,-1.324698567935092797e+01,-3.292638066584640910e+01,-5.580736742893986957e+01,-3.977079225032866816e+01,-2.881096509692270047e+01,9.446745872497558594e+00,-8.414105772972106934e-01,-7.649187743663787842e-02,5.650000000000000000e+02
-4.900388863685748220e+01,-4.941893642976265255e+01,-2.563076395470943680e+01,-1.142635615486869938e+01,-3.034393295971312909e+01,-5.403116856491942599e+01,-3.747433560951503750e+01,-2.790616658725684829e+01,9.446745872497558594e+00,-8.414105772972106934e-01,-7.649187743663787842e-02,5.660000000000000000e+02
-4.900570150957355509e+01,-4.824581047047536231e+01,-2.596566261183579627e+01,-1.035422355305581732e+01,-2.836625601427931542e+01,-5.352942011340746831e+01,-3.573547788032101380e+01,-2.883059139884608157e+01,9.446745872497558594e+00,-8.414105772972106934e-01,-7.649187743663787842e-02,5.670000000000000000e+02
-4.995347267409033520e+01,-4.764497386602124607e+01,-2.683944623268416763e+01,-1.152857227200547641e+01,-2.790007751285065751e+01,-5.500316538261358801e+01,-3.524368376948586956e+01,-3.225587802090649348e+01,9.446745872497558594e+00,-8.414105772972106934e-01,-7.649187743663787842e-02,5.680000000000000000e+02
-5.185257229023682157e+01,-4.896249444276099894e+01,-2.909809448293617606e+01,-1.517991825193439581e+01,-2.946559386139233538e+01,-5.797090560706510587e+01,-3.639657540232747124e+01,-3.723699931170904165e+01,9.446745872497558594e+00,-8.414105772972106934e-01,-7.649187743663787842e-02,5.690000000000000000e+02
-5.408147306224600470e+01,-5.188156350938811556e+01,-3.229407695147801860e+01,-1.973875893970216566e+01,-3.237031991556523280e+01,-6.086010546993202297e+01,-3.861119040623270848e+01,-4.136635735447362094e+01,9.446745872497558594e+00,-8.414105772972106934e-01,-7.649187743663787842e-02,5.700000000000000000e+02
-5.590896834374780155e+01,-5.485703035352707957e+01,-3.499749966638410115e+01,-2.304756657073994575e+01,-3.506605385647617368e+01,-6.222655374007717910e+01,-4.049028194346828968e+01,-4.249184893515302974e+01,9.446745872497558594e+00,-8.414105772972106934e-01,-7.649187743663787842e-02,5.710000000000000000e+02
-5.747171469560817059e+01,-5.689246220685345179e+01,-3.646421690241095348e+01,-2.438288509991070896e+01,-3.656016492049366207e+01,-6.212814841889394302e+01,-4.102321535569717526e+01,-4.076704575090298022e+01,9.446745872497558594e+00,-8.414105772972106934e-01,-7.649187743663787842e-02,5.720000000000000000e+02
-6.022848040772623790e+01,-5.886699308410425147e+01,-3.796658717552782036e+01,-2.545692735807369900e+01,-3.757527569949434110e+01,-6.238057216991910536e+01,-4.082652712626986613e+01,-3.916881377036770573e+01,9.446745872497558594e+00,-8.414105772972106934e-01,-7.649187743663787842e-02,5.730000000000000000e+02
-6.609915848861146515e+01,-6.294330629028445401e+01,-4.218456434452036774e+01,-2.933374478931000340e+01,-4.020973023891656339e+01,-6.529468848133183201e+01,-4.207984977066007559e+01,-4.165709059480377618e+01,9.446745872497558594e+00,-8.414105772972106934e-01,-7.649187743663787842e-02,5.740000000000000000e+02
-7.567849193747406389e+01,-7.044334533496066797e+01,-5.086270329455601313e+01,-3.801749060398651636e+01,-4.620182258091153926e+01,-7.184421780764387222e+01,-4.688964932730050350e+01,-5.014908016731988027e+01,9.446745872497558594e+00,-8.414105772972106934e-01,-7.649187743663787842e-02,5.750000000000000000e+02
-8.703067621579975821e+01,-8.018718089651201808e+01,-6.278497269208673970e+01,-5.070029476380659617e+01,-5.528610387492790323e+01,-8.080091376275322546e+01,-5.536943773946404690e+01,-6.275168735046281654e+01,9.446745872497558594e+00,-8.414105772972106934e-01,-7.649187743663787842e-02,5.760000000000000000e+02
-9.636170554963882751e+01,-8.900275862121316095e+01,-7.405402840365240991e+01,-6.414886446769378381e+01,-6.512719647792982869e+01,-8.957455338624095020e+01,-6.517404911692028691e+01,-7.486238828579371329e+01,9.446745872497558594e+00,-8.414105772972106934e-01,-7.649187743663787842e-02,5.770000000000000000e+02
-1.003409630158594155e+02,-9.407626953360477273e+01,-8.063787440962823894e+01,-7.487301386439139605e+01,-7.288467583323654253e+01,-9.599927445303728746e+01,-7.300059346636044211e+01,-8.232731101899844361e+01,9.446745872497558594e+00,-8.414105772972106934e-01,-7.649187743663787842e-02,5.780000000000000000e+02
-9.828906343000744528e+01,-9.500413528454510015e+01,-8.106922308984303527e+01,-8.122973162570087879e+01,-7.701991546041790571e+01,-9.950920767288334901e+01,-7.679743478032287385e+01,-8.404405307096385513e+01,9.408499717712402344e+00,-8.031646609306335449e-01,-7.649187743663787842e-02,5.790000000000000000e+02
-9.240111462396180286e+01,-9.365609946348558879e+01,-7.704860491800081945e+01,-8.382901635678808816e+01,-7.785474442504164472e+01,-1.007952346590172965e+02,-7.682491619866414112e+01,-8.190828113756651874e+01,9.408499717712402344e+00,-8.031646609306335449e-01,-7.649187743663787842e-02,5.800000000000000000e+02
-8.589477707496280345e+01,-9.208323315073175763e+01,-7.165553074665695021e+01,-8.424164305036083533e+01,-7.666540970010464662e+01,-1.005015116565336939e+02,-7.483126460294624849e+01,-7.845363183694280451e+01,9.408499717712402344e+00,-8.031646609306335449e-01,-7.649187743663787842e-02,5.810000000000000000e+02
-8.078677112707555352e+01,-9.059787306795487893e+01,-6.696211571696403553e+01,-8.345647018735871825e+01,-7.440987208062324498e+01,-9.837899149561417289e+01,-7.232585847955306235e+01,-7.459592421944489615e+01,9.408499717712402344e+00,-8.031646609306335449e-01,-7.649187743663787842e-02,5.820000000000000000e+02
-7.714815916807674512e+01,-8.790746851092535508e+01,-6.311871259661165823e+01,-8.149237586387152987e+01,-7.130104050840782293e+01,-9.374500624557913397e+01,-6.958573827007239743e+01,-6.954977406399757456e+01,9.408499717712402344e+00,-8.031646609306335449e-01,-7.649187743663787842e-02,5.830000000000000000e+02
-7.413555417759380362e+01,-8.303031841113261180e+01,-5.933189035339910333e+01,-7.823703984609346662e+01,-6.739266062621936726e+01,-8.672020689454984677e+01,-6.611416217924670491e+01,-6.267272461344782641e+01,9.408499717712402344e+00,-8.031646609306335449e-01,-7.649187743663787842e-02,5.840000000000000000e+02
-7.139630901508553507e+01,-7.688346728289661769e+01,-5.534602236574392009e+01,-7.436665191081374360e+01,-6.329180534037368488e+01,-7.889071200401485839e+01,-6.181039706827141345e+01,-5.505652689989074133e+01,9.408499717712402344e+00,-8.031646609306335449e-01,-7.649187743663787842e-02,5.850000000000000000e+02
-6.931108445120753458e+01,-7.180020735092784889e+01,-5.185292247376310115e+01,-7.126774360375475226e+01,-6.010208979809067387e+01,-7.258994271561823552e+01,-5.753802116042788839e+01,-4.909280614326598879e+01,9.408499717712402344e+00,-8.031646609306335449e-01,-7.649187743663787842e-02,5.860000000000000000e+02
-6.801374680289063690e+01,-6.939695497273442015e+01,-4.963232107927797188e+01,-7.003874371509846242e+01,-5.861880876929717488e+01,-6.933863937891874230e+01,-5.454606432924083492e+01,-4.646446942624334042e+01,9.408499717712402344e+00,-8.031646609306335449e-01,-7.649187743663787842e-02,5.870000000000000000e+02
-6.656067949589760246e+01,-6.896046855913209583e+01,-4.857263733392574068e+01,-7.061050710508880002e+01,-5.861832427064837248e+01,-6.881560049665677070e+01,-5.339076155066322826e+01,-4.666976995568256825e+01,9.408499717712402344e+00,-8.031646609306335449e-01,-7.649187743663787842e-02,5.880000000000000000e+02
-6.347055926310713403e+01,-6.804005007072782973e+01,-4.769679114335303893e+01,-7.185905497359817673e+01,-5.899868548435370030e+01,-6.926050400090207404e+01,-5.344036782818875508e+01,-4.758830638208382879e+01,9.408499717712402344e+00,-8.031646609306335449e-01,-7.649187743663787842e-02,5.890000000000000000e+02
-5.828952336642214505e+01,-6.471065550653747778e+01,-4.612123003962005896e+01,-7.256628607646325690e+01,-5.869329344006291649e+01,-6.892136686429512338e+01,-5.339985156024522439e+01,-4.745939888813427388e+01,9.408499717712402344e+00,-8.031646609306335449e-01,-7.649187743663787842e-02,5.900000000000000000e+02
-5.255669752290305041e+01,-5.932834109549366985e+01,-4.390953798864029523e+01,-7.232757259966638230e+01,-5.754976447796980210e+01,-6.729641332364553818e+01,-5.232440745926214731e+01,-4.629459152563322277e+01,9.408499717712402344e+00,-8.031646609306335449e-01,-7.649187743663787842e-02,5.910000000000000000e+02
-4.896625462075007817e+01,-5.416354373915828546e+01,-4.199301481776092260e+01,-7.168321587359878322e+01,-5.640851047515025130e+01,-6.521752109841509082e+01,-5.022111309199499374e+01,-4.546930489001806563e+01,9.408499717712402344e+00,-8.031646609306335449e-01,-7.649187743663787842e-02,5.920000000000000000e+02
-4.926705179528744338e+01,-5.138630749863796154e+01,-4.132706895478986553e+01,-7.151731761584596825e+01,-5.634451675211494148e+01,-6.387715078257133428e+01,-4.783263545463159971e+01,-4.608239214471905143e+01,9.408499717712402344e+00,-8.031646609306335449e-01,-7.649187743663787842e-02,5.930000000000000000e+02
-5.277791163919209794e+01,-5.137940196960107642e+01,-4.213046421286526311e+01,-7.232945854996069102e+01,-5.773930968333115743e+01,-6.373178751756859128e+01,-4.594278118734473537e+01,-4.775716181737516308e+01,9.408499717712402344e+00,-8.031646609306335449e-01,-7.649187743663787842e-02,5.940000000000000000e+02
-5.690333593708965054e+01,-5.281967860327722519e+01,-4.379664007883729937e+01,-7.393159456548255548e+01,-5.993261588767381909e+01,-6.416298485024708498e+01,-4.484300662637360801e+01,-4.892037656268803403e+01,9.408499717712402344e+00,-8.031646609306335449e-01,-7.649187743663787842e-02,5.950000000000000000e+02
-5.920169851904756797e+01,-5.414951582578032685e+01,-4.537133360605730559e+01,-7.567083587755405460e+01,-6.169136813709883427e+01,-6.404240117627523432e+01,-4.429639579180548026e+01,-4.814037047883721243e+01,9.408499717712402344e+00,-8.031646609306335449e-01,-7.649187743663787842e-02,5.960000000000000000e+02
-5.915447788739766111e+01,-5.486491383843394942e+01,-4.613315872868952283e+01,-7.693826306567552820e+01,-6.210287643669107638e+01,-6.267068127480342810e+01,-4.386104997162692598e+01,-4.531425714372016955e+01,9.408499717712402344e+00,-8.031646609306335449e-01,-7.649187743663787842e-02,5.970000000000000000e+02
-5.813323132347068167e+01,-5.552127799502568450e+01,-4.596038038799997594e+01,-7.764887363930210995e+01,-6.124690374469173548e+01,-6.039849902359856060e+01,-4.324479928141772689e+01,-4.185457695863260597e+01,9.408499717712402344e+00,-8.031646609306335449e-01,-7.649187743663787842e-02,5.980000000000000000e+02
-5.780396655934237060e+01,-5.675888257006181448e+01,-4.541666604949750763e+01,-7.840356261547549366e+01,-6.020757079094255459e+01,-5.853579413796978770e+01,-4.248170251025476318e+01,-3.989029488597043382e+01,9.408499717712402344e+00,-8.031646609306335449e-01,-7.649187743663787842e-02,5.990000000000000000e+02
-5.861123753873653186e+01,-5.849284343897443250e+01,-4.553080815192333830e+01,-8.016233883846234676e+01,-6.044501088064134819e+01,-5.861642808697433793e+01,-4.190955509073864960e+01,-4.105779390429961495e+01,9.408499717712402344e+00,-8.414105772972106934e-01,-3.824593871831893921e-02,6.000000000000000000e+02
-5.969619189304648899e+01,-5.998001107443224100e+01,-4.724583789622738550e+01,-8.352846598233099940e+01,-6.291771621864609187e+01,-6.142966440018608409e+01,-4.198003112250808044e+01,-4.552887392852608173e+01,9.408499717712402344e+00,-8.414105772972106934e-01,-3.824593871831893921e-02,6.010000000000000000e+02
-6.008211672734432796e+01,-6.048593681275679046e+01,-5.074828956237251987e+01,-8.811764576359746570e+01,-6.748047576621502230e+01,-6.638621568840062537e+01,-4.296030425483331783e+01,-5.178103072591329692e+01,9.408499717712402344e+00,-8.414105772972106934e-01,-3.824593871831893921e-02,6.020000000000000000e+02
-5.978924715916946298e+01,-5.983339322439314856e+01,-5.522279354622514802e+01,-9.265344213061143819e+01,-7.295469160805623687e+01,-7.171883261448419944e+01,-4.471889594415915781e+01,-5.739025085332468734e+01,9.408499717712402344e+00,-8.414105772972106934e-01,-3.824593871831893921e-02,6.030000000000000000e+02
-5.979848181673332874e+01,-5.848676778600020043e+01,-5.942387611784397450e+01,-9.595999918468805845e+01,-7.788099679327751801e+01,-7.557347665089764632e+01,-4.683785413525401964e+01,-6.058699902051012032e+01,9.408499717712402344e+00,-8.414105772972106934e-01,-3.824593871831893921e-02,6.040000000000000000e+02
-6.110590048367885174e+01,-5.737161010677345985e+01,-6.275430080092883145e+01,-9.819148332947770541e+01,-8.151623070983623620e+01,-7.739740509890179965e+01,-4.909192723902378930e+01,-6.163397151756362291e+01,9.408499717712402344e+00,-8.414105772972106934e-01,-3.824593871831893921e-02,6.050000000000000000e+02
-6.399033874955966894e+01,-5.767461397255829070e+01,-6.590886137786219479e+01,-1.011904178137956478e+02,-8.437185855111056298e+01,-7.859304813944618218e+01,-5.191140390166765428e+01,-6.289895986909868952e+01,9.408499717712402344e+00,-8.414105772972106934e-01,-3.824593871831893921e-02,6.060000000000000000e+02
-6.816029028809134616e+01,-6.052124604803202601e+01,-7.036072153298846388e+01,-1.074019730445434107e+02,-8.784483061720857222e+01,-8.174324836625783064e+01,-5.628370428810376325e+01,-6.730611179928382626e+01,9.408499717712402344e+00,-8.414105772972106934e-01,-3.824593871831893921e-02,6.070000000000000000e+02
-7.332894315701742016e+01,-6.637686871424102719e+01,-7.702763300187689310e+01,-1.180018520553458075e+02,-9.317813866880533169e+01,-8.878534153778309701e+01,-6.298971704630457680e+01,-7.619748240414446627e+01,9.408499717712402344e+00,-8.414105772972106934e-01,-3.824593871831893921e-02,6.080000000000000000e+02
-7.929002053250042081e+01,-7.444885672052032533e+01,-8.533850704307769774e+01,-1.317132621011296578e+02,-1.005652815893336083e+02,-9.948867538788181264e+01,-7.177034331210234086e+01,-8.830984401259593142e+01,9.408499717712402344e+00,-8.414105772972106934e-01,-3.824593871831893921e-02,6.090000000000000000e+02
-8.536505234363539785e+01,-8.272352515837337705e+01,-9.363513422366122541e+01,-1.453650338412899146e+02,-1.091432781055118539e+02,-1.115156167981203907e+02,-8.124613195197889581e+01,-1.007395670277110185e+02,9.408499717712402344e+00,-8.414105772972106934e-01,-3.824593871831893921e-02,6.100000000000000000e+02
-9.016741747732885415e+01,-8.893601021849508470e+01,-1.005651293404425815e+02,-1.558169919569681952e+02,-1.178194896991972200e+02,-1.220669595094368560e+02,-8.978023230751205119e+01,-1.110470791468778771e+02,9.408499717712402344e+00,-8.414105772972106934e-01,-3.824593871831893921e-02,6.110000000000000000e+02
-9.254212787602955359e+01,-9.191468616654447032e+01,-1.061078555051608419e+02,-1.617524223813579738e+02,-1.260964911031660449e+02,-1.297410605804325314e+02,-9.654342912309948588e+01,-1.186745987889553362e+02,9.408499717712402344e+00,-8.414105772972106934e-01,-3.824593871831893921e-02,6.120000000000000000e+02
-9.313255938007750956e+01,-9.219973971271838309e+01,-1.112130368470807298e+02,-1.639818278170023405e+02,-1.340733432829765661e+02,-1.350154642692577909e+02,-1.017882524003107392e+02,-1.245139329965695651e+02,9.408499717712402344e+00,-8.414105772972106934e-01,-3.824593871831893921e-02,6.130000000000000000e+02
