F3,F4,C3,C4,P3,P4,Cz,Pz,Accel_x,Accel_y,Accel_z,Sample
-2.273736754432320595e-11,-7.844391802791506052e-12,-2.501110429875552654e-11,-1.591615728102624416e-11,-2.910383045673370361e-11,-2.637534635141491890e-11,-2.819433575496077538e-11,-1.546140993013978004e-11,9.446745872497558594e+00,-8.031646609306335449e-01,0.000000000000000000e+00,2.010000000000000000e+02
-5.464533450884573540e+00,-8.991592731303057917e+00,-1.346929371995020119e+01,-7.474365251280232769e+00,-3.847700203718795819e+01,-2.653059835249769094e+01,-3.120482070213893167e+01,-1.927518413177949697e+00,9.446745872497558594e+00,-8.031646609306335449e-01,0.000000000000000000e+00,2.020000000000000000e+02
-1.234104828049567004e+01,-1.510658831329101304e+01,-2.401808022226168760e+01,-1.501675973150531718e+01,-6.387861889720988984e+01,-4.763752350305730943e+01,-5.072888215835882875e+01,-1.107540274589018736e+01,9.446745872497558594e+00,-8.031646609306335449e-01,0.000000000000000000e+00,2.030000000000000000e+02
-2.055773989940598767e+01,-1.806297513316894765e+01,-3.039152634531046715e+01,-2.235973762423327571e+01,-7.312471557465323713e+01,-6.168890966365324857e+01,-5.644926721868068853e+01,-2.690632902700190243e+01,9.446745872497558594e+00,-8.031646609306335449e-01,0.000000000000000000e+00,2.040000000000000000e+02
-2.884945615854803691e+01,-2.055023921700194478e+01,-3.352206185497198021e+01,-2.906444395335211084e+01,-7.390936350603260507e+01,-7.115985895707126474e+01,-5.640764260358810134e+01,-4.143867047700632611e+01,9.446745872497558594e+00,-8.031646609306335449e-01,0.000000000000000000e+00,2.050000000000000000e+02
-3.649925778112810804e+01,-2.611071283933029008e+01,-3.568651543570831564e+01,-3.504940988277166980e+01,-7.634969027632268990e+01,-7.958037101462650753e+01,-6.053434116294920386e+01,-4.723261274978949587e+01,9.446745872497558594e+00,-8.031646609306335449e-01,0.000000000000000000e+00,2.060000000000000000e+02
-4.445368767021091116e+01,-3.635513468155761529e+01,-3.907873647488622737e+01,-4.085672664269759480e+01,-8.430428663912789489e+01,-8.848539471225194575e+01,-7.205799857240981510e+01,-4.478132709724468441e+01,9.446745872497558594e+00,-8.031646609306335449e-01,0.000000000000000000e+00,2.070000000000000000e+02
-5.441213176048358946e+01,-4.978809495855682599e+01,-4.481191472254795372e+01,-4.725111871953686205e+01,-9.439605243624373543e+01,-9.724510389925580967e+01,-8.652571950280162127e+01,-4.194498690938189611e+01,9.523238182067871094e+00,-7.649186849594116211e-01,3.824593871831893921e-02,2.080000000000000000e+02
-6.679999358707527790e+01,-6.301586295584991149e+01,-5.278433952615068847e+01,-5.446648196565502076e+01,-1.020874766072975035e+02,-1.052401651726568161e+02,-9.795817192483173130e+01,-4.643278626138544496e+01,9.523238182067871094e+00,-7.649186849594116211e-01,3.824593871831893921e-02,2.090000000000000000e+02
-7.987801896982955441e+01,-7.318168030339063534e+01,-6.213754033323357362e+01,-6.187755831443337229e+01,-1.072932675414331243e+02,-1.134309481888412847e+02,-1.048676782758357149e+02,-5.912216341735984315e+01,9.523238182067871094e+00,-7.649186849594116211e-01,3.824593871831893921e-02,2.100000000000000000e+02
-9.108189059917458508e+01,-7.972428913916485271e+01,-7.182280994450911749e+01,-6.850256226105648238e+01,-1.138428266221949343e+02,-1.235048196099355664e+02,-1.103811278866551220e+02,-7.443409342935001405e+01,9.523238182067871094e+00,-7.649186849594116211e-01,3.824593871831893921e-02,2.110000000000000000e+02
-9.932981391730936593e+01,-8.435779565288396498e+01,-8.105019070437629125e+01,-7.392046067956016486e+01,-1.245557821523270832e+02,-1.358295852557289436e+02,-1.177624301426731108e+02,-8.647043185855636693e+01,9.523238182067871094e+00,-7.649186849594116211e-01,3.824593871831893921e-02,2.120000000000000000e+02
-1.060415176648025408e+02,-8.962451590149271397e+01,-8.963379400293615618e+01,-7.875009882482254397e+01,-1.381189232982233079e+02,-1.487991921595044005e+02,-1.270663211119936022e+02,-9.430562143998304236e+01,9.523238182067871094e+00,-7.649186849594116211e-01,3.824593871831893921e-02,2.130000000000000000e+02
-1.139510118332909769e+02,-9.724214475977737493e+01,-9.816048692741787818e+01,-8.424538401112613428e+01,-1.510400245155619814e+02,-1.604359296925408671e+02,-1.362366671039671928e+02,-1.016988174849989264e+02,9.523238182067871094e+00,-7.649186849594116211e-01,3.824593871831893921e-02,2.140000000000000000e+02
-1.249636127427334031e+02,-1.073148846193874988e+02,-1.077521178355668781e+02,-9.138593714459057082e+01,-1.618820390463056356e+02,-1.704850326006144314e+02,-1.444453193947038017e+02,-1.126131929075245353e+02,9.523238182067871094e+00,-7.649186849594116211e-01,3.824593871831893921e-02,2.150000000000000000e+02
-1.390183555710927976e+02,-1.187017737360203000e+02,-1.193506282533289777e+02,-1.002672736824329149e+02,-1.727831537930987906e+02,-1.807277193408681342e+02,-1.533579800996285485e+02,-1.275738920448502540e+02,9.523238182067871094e+00,-7.649186849594116211e-01,3.824593871831893921e-02,2.160000000000000000e+02
-1.546779869995148147e+02,-1.300595003847579392e+02,-1.329143975632687216e+02,-1.102516888007219222e+02,-1.868298540767686973e+02,-1.932636778442297327e+02,-1.650784797775168045e+02,-1.439919058811701689e+02,9.523238182067871094e+00,-7.649186849594116211e-01,3.824593871831893921e-02,2.170000000000000000e+02
-1.705078473046751242e+02,-1.407511469311148176e+02,-1.471879519828385128e+02,-1.206246860664875840e+02,-2.045404052903022603e+02,-2.086521211337230852e+02,-1.795407990028170389e+02,-1.591443324230244798e+02,9.523238182067871094e+00,-7.649186849594116211e-01,3.824593871831893921e-02,2.180000000000000000e+02
-1.858713618942242647e+02,-1.510481418440932657e+02,-1.603588132726831645e+02,-1.311238276928247615e+02,-2.232661588946334632e+02,-2.257175577135240019e+02,-1.944308646852859965e+02,-1.723695644284021000e+02,9.523238182067871094e+00,-7.649186849594116211e-01,3.824593871831893921e-02,2.190000000000000000e+02
-2.006984504350234602e+02,-1.615960653100361242e+02,-1.711775146962263534e+02,-1.419063106399607932e+02,-2.397539016654909574e+02,-2.428748316617611636e+02,-2.075098723123337550e+02,-1.846800312926839069e+02,9.523238182067871094e+00,-7.649186849594116211e-01,3.824593871831893921e-02,2.200000000000000000e+02
-2.148562287482973261e+02,-1.726223923904537969e+02,-1.796674183030950189e+02,-1.530536759122096555e+02,-2.528415173464336476e+02,-2.593188134940769487e+02,-2.185588348829942333e+02,-1.968699700454699268e+02,9.523238182067871094e+00,-7.649186849594116211e-01,3.824593871831893921e-02,2.210000000000000000e+02
-2.278817957252281303e+02,-1.835305207369522122e+02,-1.868427937857632060e+02,-1.640774040170192620e+02,-2.636550318803947448e+02,-2.749006384080403222e+02,-2.289408615724737501e+02,-2.082500659512202219e+02,9.523238182067871094e+00,-7.649186849594116211e-01,3.824593871831893921e-02,2.220000000000000000e+02
-2.391983028664167250e+02,-1.931852019821623685e+02,-1.937019105354561361e+02,-1.738381521481392156e+02,-2.736814090457851307e+02,-2.891663629562481219e+02,-2.396132346160834459e+02,-2.169704910507966815e+02,9.523238182067871094e+00,-7.649186849594116211e-01,3.824593871831893921e-02,2.230000000000000000e+02
-2.484335360434176891e+02,-2.006356111995396532e+02,-2.004021128020067408e+02,-1.809761645800808765e+02,-2.831045130643792618e+02,-3.009278331519899439e+02,-2.499239367187333301e+02,-2.213413298102618683e+02,9.523238182067871094e+00,-7.649186849594116211e-01,3.824593871831893921e-02,2.240000000000000000e+02
-2.555296711351766135e+02,-2.057066592179254485e+02,-2.063241405975741145e+02,-1.846414166847005163e+02,-2.909591581916838550e+02,-3.090027473941740936e+02,-2.583170595660171784e+02,-2.210396497445040040e+02,9.523238182067871094e+00,-7.649186849594116211e-01,3.824593871831893921e-02,2.250000000000000000e+02
-2.606856702921193119e+02,-2.090323788350881955e+02,-2.108637875952008471e+02,-1.850757070864851812e+02,-2.964698295564703585e+02,-3.133642710854928737e+02,-2.639103655425533361e+02,-2.174699741803769939e+02,9.523238182067871094e+00,-7.649186849594116211e-01,3.824593871831893921e-02,2.260000000000000000e+02
-2.642922303596185429e+02,-2.115468508442690450e+02,-2.141148595995186952e+02,-1.836147157033494750e+02,-2.999305706035438561e+02,-3.154569837230683333e+02,-2.672364691592588315e+02,-2.131321573917566639e+02,9.523238182067871094e+00,-7.649186849594116211e-01,3.824593871831893921e-02,2.270000000000000000e+02
-2.668653963296410438e+02,-2.138197732619503313e+02,-2.167592469900764627e+02,-1.819779286018404036e+02,-3.023594699186264734e+02,-3.172752048426159490e+02,-2.696134239334019185e+02,-2.103110946456495185e+02,9.523238182067871094e+00,-7.649186849594116211e-01,3.824593871831893921e-02,2.280000000000000000e+02
-2.688917254799548573e+02,-2.156538256554178474e+02,-2.193091243240432959e+02,-1.812126490759580975e+02,-3.045658871087321131e+02,-3.200028291675876062e+02,-2.720163490755144267e+02,-2.098454608717077008e+02,9.523238182067871094e+00,-7.649186849594116211e-01,3.824593871831893921e-02,2.290000000000000000e+02
-2.706208014782025657e+02,-2.161813452602568759e+02,-2.215285359730501114e+02,-1.810463685721758793e+02,-3.066843329675366476e+02,-3.233873797343094338e+02,-2.745413683208994371e+02,-2.108999874068599638e+02,9.523238182067871094e+00,-7.649186849594116211e-01,3.824593871831893921e-02,2.300000000000000000e+02
-2.719992882023730090e+02,-2.144412135275517812e+02,-2.226908599183375372e+02,-1.802303979128164428e+02,-3.085213730399027554e+02,-3.263111697525864656e+02,-2.767239954043034231e+02,-2.120297112982041199e+02,9.523238182067871094e+00,-7.649186849594116211e-01,3.824593871831893921e-02,2.310000000000000000e+02
-2.728800218611952459e+02,-2.101655710671273027e+02,-2.224813645045096564e+02,-1.777244411903157015e+02,-3.102058466392950322e+02,-3.279971471130425016e+02,-2.782099314809829593e+02,-2.127018447599937190e+02,9.523238182067871094e+00,-7.649186849594116211e-01,3.824593871831893921e-02,2.320000000000000000e+02
-2.733848760643777496e+02,-2.043289021498707712e+02,-2.216539351071492092e+02,-1.738119766665045063e+02,-3.124533369262589986e+02,-3.288251829815276324e+02,-2.792023790318662577e+02,-2.138716914222225114e+02,9.523238182067871094e+00,-7.649186849594116211e-01,3.824593871831893921e-02,2.330000000000000000e+02
-2.741077547946681534e+02,-1.990161127752209609e+02,-2.217212612370772149e+02,-1.701676809508858241e+02,-3.161768020559279648e+02,-3.301166798884114542e+02,-2.804425496807316449e+02,-2.169922952404908756e+02,9.523238182067871094e+00,-7.649186849594116211e-01,3.824593871831893921e-02,2.340000000000000000e+02
-2.759432770737644205e+02,-1.965237703551468371e+02,-2.238611398389712122e+02,-1.687452762884129243e+02,-3.217706927109215940e+02,-3.331365950965719094e+02,-2.828080334166793364e+02,-2.224087426784574291e+02,9.523238182067871094e+00,-7.649186849594116211e-01,3.824593871831893921e-02,2.350000000000000000e+02
-2.796588912687579978e+02,-1.982022998421032867e+02,-2.280185316995573430e+02,-1.704321848601805414e+02,-3.287195865139019588e+02,-3.382044625955650190e+02,-2.868114199683291190e+02,-2.288452543440660065e+02,9.523238182067871094e+00,-7.649186849594116211e-01,3.824593871831893921e-02,2.360000000000000000e+02
-2.855465305368586542e+02,-2.038682535977142720e+02,-2.330356287073786916e+02,-1.746564650421021270e+02,-3.359419493457053250e+02,-3.446518587076539006e+02,-2.923486303184831741e+02,-2.346277740314019411e+02,9.523238182067871094e+00,-7.649186849594116211e-01,3.824593871831893921e-02,2.370000000000000000e+02
-2.933940958522682649e+02,-2.122519837371564222e+02,-2.376814756517360365e+02,-1.802467040426113272e+02,-3.426511833160020615e+02,-3.515972992599563440e+02,-2.989079918409875063e+02,-2.394057928319334678e+02,9.523238182067871094e+00,-7.649186849594116211e-01,3.824593871831893921e-02,2.380000000000000000e+02
-3.026997684806290181e+02,-2.220411129125133698e+02,-2.416111737557303059e+02,-1.866235843508891321e+02,-3.489687718280224544e+02,-3.587699886773189064e+02,-3.060562938414541350e+02,-2.444910823864881877e+02,9.446745872497558594e+00,-8.031646609306335449e-01,0.000000000000000000e+00,2.390000000000000000e+02
-3.128373871728445010e+02,-2.325236815865972062e+02,-2.453699589474667846e+02,-1.940636919111755105e+02,-3.556051247990203592e+02,-3.665693252224450589e+02,-3.136795843444388083e+02,-2.512933940684731624e+02,9.446745872497558594e+00,-8.031646609306335449e-01,0.000000000000000000e+00,2.400000000000000000e+02
-3.230127738694227446e+02,-2.432573258997911125e+02,-2.495097317379734250e+02,-2.027410333909181190e+02,-3.627941490249718299e+02,-3.753095389051454731e+02,-3.216655302746535199e+02,-2.593833323925221066e+02,9.446745872497558594e+00,-8.031646609306335449e-01,0.000000000000000000e+00,2.410000000000000000e+02
-3.321875069160660132e+02,-2.532477115489784296e+02,-2.537453118210164575e+02,-2.115804130366061599e+02,-3.695323025287329983e+02,-3.844335672275424258e+02,-3.293515959157334692e+02,-2.662809063152753879e+02,9.446745872497558594e+00,-8.031646609306335449e-01,0.000000000000000000e+00,2.420000000000000000e+02
-3.392895283970156015e+02,-2.607480793818532447e+02,-2.570294074706971514e+02,-2.182805143006944490e+02,-3.740748352201985654e+02,-3.925532944588894679e+02,-3.354782975756047563e+02,-2.694293971164329378e+02,9.446745872497558594e+00,-8.031646609306335449e-01,0.000000000000000000e+00,2.430000000000000000e+02
-3.437859259429123995e+02,-2.642425111413821810e+02,-2.585261803789858277e+02,-2.207726307911423191e+02,-3.754721976589712540e+02,-3.983876486023277721e+02,-3.389789358467082820e+02,-2.685926268264890950e+02,9.446745872497558594e+00,-8.031646609306335449e-01,0.000000000000000000e+00,2.440000000000000000e+02
-3.462663582592313105e+02,-2.638920855717184963e+02,-2.585888786355023967e+02,-2.189400248438955714e+02,-3.747661348325027575e+02,-4.017875606089151006e+02,-3.400145262992332391e+02,-2.663949098211155615e+02,9.446745872497558594e+00,-8.031646609306335449e-01,0.000000000000000000e+00,2.450000000000000000e+02
-3.484510035761975359e+02,-2.619724771217349257e+02,-2.588078188404738285e+02,-2.150114268325546618e+02,-3.745507455064794158e+02,-4.038967952589509878e+02,-3.401801669734345523e+02,-2.664182546279307644e+02,9.446745872497558594e+00,-8.031646609306335449e-01,0.000000000000000000e+00,2.460000000000000000e+02
-3.523241301789330464e+02,-2.615423895868148065e+02,-2.609925691567029844e+02,-2.121343568246363702e+02,-3.771144614453564827e+02,-4.062950250596227306e+02,-3.415156069608319740e+02,-2.704944787623360298e+02,9.446745872497558594e+00,-8.031646609306335449e-01,0.000000000000000000e+00,2.470000000000000000e+02
-3.588183445630866117e+02,-2.642399316468020629e+02,-2.658744951900794149e+02,-2.122488456449029854e+02,-3.827896330736211894e+02,-4.099090550697148956e+02,-3.451207713123485519e+02,-2.775090116746732747e+02,9.446745872497558594e+00,-8.031646609306335449e-01,0.000000000000000000e+00,2.480000000000000000e+02
-3.670212202532477477e+02,-2.690706741765151264e+02,-2.725449532880611514e+02,-2.149783577563259769e+02,-3.899306188073032899e+02,-4.145779693464405682e+02,-3.505419505641680189e+02,-2.845832015954947565e+02,9.446745872497558594e+00,-8.031646609306335449e-01,0.000000000000000000e+00,2.490000000000000000e+02
-3.746313937144375359e+02,-2.733145323334939576e+02,-2.790202637307984332e+02,-2.183246530951123532e+02,-3.963840392244896975e+02,-4.194680620643928251e+02,-3.563390482972140489e+02,-2.893814131548367641e+02,9.446745872497558594e+00,-8.031646609306335449e-01,0.000000000000000000e+00,2.500000000000000000e+02
-3.794287913630785170e+02,-2.748135775687576370e+02,-2.834329978904906966e+02,-2.204072716907915037e+02,-4.009920495542785375e+02,-4.237972634151894908e+02,-3.611738464342365660e+02,-2.914674594054058616e+02,9.446745872497558594e+00,-8.031646609306335449e-01,0.000000000000000000e+00,2.510000000000000000e+02
-3.806570731945828356e+02,-2.736658641024732788e+02,-2.849454472923100639e+02,-2.207554456273201140e+02,-4.038650092005027545e+02,-4.272386474941272354e+02,-3.644688874160424348e+02,-2.917714749131171175e+02,9.446745872497558594e+00,-8.031646609306335449e-01,0.000000000000000000e+00,2.520000000000000000e+02
-3.792968258379275994e+02,-2.719103356330128918e+02,-2.838402689300673956e+02,-2.202814238814078180e+02,-4.055119008589661007e+02,-4.298595342516678102e+02,-3.662971175833881716e+02,-2.911130072478533748e+02,9.446745872497558594e+00,-8.031646609306335449e-01,0.000000000000000000e+00,2.530000000000000000e+02
-3.771655356309449871e+02,-2.716394928142372578e+02,-2.809726441726111261e+02,-2.202876734870488917e+02,-4.059848623787606812e+02,-4.318950931394083455e+02,-3.669453075397868815e+02,-2.894522668187403269e+02,9.446745872497558594e+00,-8.031646609306335449e-01,0.000000000000000000e+00,2.540000000000000000e+02
-3.757373239027435829e+02,-2.733515249662849556e+02,-2.772246583072103476e+02,-2.215080368526552093e+02,-4.049494681841215424e+02,-4.336258044798225910e+02,-3.667081980334401123e+02,-2.865467323587972714e+02,9.446745872497558594e+00,-8.031646609306335449e-01,0.000000000000000000e+00,2.550000000000000000e+02
-3.756283425014712520e+02,-2.759310647793098497e+02,-2.734119597876128864e+02,-2.238317736108529061e+02,-4.024880761968533989e+02,-4.353422207010451075e+02,-3.659827996500462177e+02,-2.830986581422268955e+02,9.446745872497558594e+00,-8.031646609306335449e-01,0.000000000000000000e+00,2.560000000000000000e+02
-3.768885665684831565e+02,-2.779869726757377748e+02,-2.705061964632475338e+02,-2.265849807781735308e+02,-3.996821367000773080e+02,-4.372544792074791076e+02,-3.653248480900624600e+02,-2.809223409790304231e+02,9.446745872497558594e+00,-8.031646609306335449e-01,0.000000000000000000e+00,2.570000000000000000e+02
-3.794577395516596425e+02,-2.790280077171782978e+02,-2.696497015070963243e+02,-2.288705203517507698e+02,-3.982752874037569200e+02,-4.393327276294592139e+02,-3.652156613732254300e+02,-2.817235998651235604e+02,9.446745872497558594e+00,-8.031646609306335449e-01,0.000000000000000000e+00,2.580000000000000000e+02
-3.831667385212315367e+02,-2.793400054794615812e+02,-2.716726176578104059e+02,-2.297367910177299564e+02,-3.996440292982092615e+02,-4.412498064588169200e+02,-3.657265193359867226e+02,-2.856241803769810303e+02,9.446745872497558594e+00,-8.031646609306335449e-01,0.000000000000000000e+00,2.590000000000000000e+02
-3.873742503995094921e+02,-2.789167527542448397e+02,-2.764083294929166641e+02,-2.283449846540760291e+02,-4.038979212092242506e+02,-4.425318550513363789e+02,-3.664631021386278462e+02,-2.909176834775207681e+02,9.484992027282714844e+00,-8.031646609306335449e-01,0.000000000000000000e+00,2.600000000000000000e+02
-3.908773879543654175e+02,-2.768185803013905115e+02,-2.824728007384192097e+02,-2.243321228094287108e+02,-4.097715921774727121e+02,-4.427966004976460681e+02,-3.669123495500409717e+02,-2.953696131120441351e+02,9.484992027282714844e+00,-8.031646609306335449e-01,0.000000000000000000e+00,2.610000000000000000e+02
-3.924574086296403266e+02,-2.718224461152086633e+02,-2.878714001586195081e+02,-2.182105792154728761e+02,-4.153355695129305332e+02,-4.418791538644541106e+02,-3.669080903294620839e+02,-2.978509086841124827e+02,9.484992027282714844e+00,-8.031646609306335449e-01,0.000000000000000000e+00,2.620000000000000000e+02
-3.916324868351389341e+02,-2.637538212342777797e+02,-2.910195708734033815e+02,-2.113774123544111490e+02,-4.189416630459413682e+02,-4.397790314704081993e+02,-3.667587075919182098e+02,-2.987570023969108206e+02,9.484992027282714844e+00,-8.031646609306335449e-01,0.000000000000000000e+00,2.630000000000000000e+02
-3.888244527948202176e+02,-2.540757443982181201e+02,-2.913183547450178139e+02,-2.055322496955506608e+02,-4.197391104379846638e+02,-4.365515338501482461e+02,-3.668588675274172033e+02,-2.988645313613345138e+02,9.484992027282714844e+00,-8.031646609306335449e-01,0.000000000000000000e+00,2.640000000000000000e+02
-3.847205419810798048e+02,-2.450300625160719221e+02,-2.888560758371385759e+02,-2.018164357193374485e+02,-4.175257234696994146e+02,-4.322828599557325902e+02,-3.670833845181031734e+02,-2.978708943111191729e+02,9.484992027282714844e+00,-8.031646609306335449e-01,0.000000000000000000e+00,2.650000000000000000e+02
-3.795179608571779681e+02,-2.380994751645496592e+02,-2.837113713857904713e+02,-2.002623021810687192e+02,-4.122909295427059533e+02,-4.271510803907438003e+02,-3.665273027638473309e+02,-2.942189227773878315e+02,9.484992027282714844e+00,-8.031646609306335449e-01,0.000000000000000000e+00,2.660000000000000000e+02
-3.729498524469222502e+02,-2.332583669569551148e+02,-2.757696705426114931e+02,-1.999405376796963196e+02,-4.040730356388004338e+02,-4.214893692038127710e+02,-3.639696321728980593e+02,-2.865696717204161246e+02,9.484992027282714844e+00,-8.031646609306335449e-01,0.000000000000000000e+00,2.670000000000000000e+02
-3.651726502677099120e+02,-2.296281476380260358e+02,-2.654079869350205740e+02,-1.996501364514874695e+02,-3.933908680283217336e+02,-4.157690117386596285e+02,-3.588360436776751499e+02,-2.756163439313663162e+02,9.484992027282714844e+00,-8.031646609306335449e-01,0.000000000000000000e+00,2.680000000000000000e+02
-3.575592669120890719e+02,-2.267036871685822348e+02,-2.543267377130386251e+02,-1.986212589497235967e+02,-3.818152606730860157e+02,-4.105199744708703520e+02,-3.519240641661247082e+02,-2.644468325988123070e+02,9.484992027282714844e+00,-8.031646609306335449e-01,0.000000000000000000e+00,2.690000000000000000e+02
-3.523645120173167697e+02,-2.248028084450024551e+02,-2.454074159303935403e+02,-1.967789579563242910e+02,-3.718891690358100277e+02,-4.062155351414159554e+02,-3.451887536215919567e+02,-2.568648769870574142e+02,9.484992027282714844e+00,-8.031646609306335449e-01,0.000000000000000000e+00,2.700000000000000000e+02
-3.513113201129349363e+02,-2.243302367886301738e+02,-2.413021494672785536e+02,-1.945074355058266065e+02,-3.660707041791733900e+02,-4.031313630499442411e+02,-3.405854057658284546e+02,-2.549039153867715584e+02,9.484992027282714844e+00,-8.031646609306335449e-01,0.000000000000000000e+00,2.710000000000000000e+02
-3.542936821037486084e+02,-2.247944301267596074e+02,-2.427557089708259070e+02,-1.922018652708172226e+02,-3.653455136383249737e+02,-4.012209863540846300e+02,-3.388100118739767481e+02,-2.575377346327406940e+02,9.484992027282714844e+00,-8.031646609306335449e-01,0.000000000000000000e+00,2.720000000000000000e+02
-3.594245876774373301e+02,-2.248187450624290591e+02,-2.481060564872966836e+02,-1.899917482291689623e+02,-3.686374887263204982e+02,-4.001032578987006332e+02,-3.389552669907964741e+02,-2.616443616889786767e+02,9.484992027282714844e+00,-8.031646609306335449e-01,0.000000000000000000e+00,2.730000000000000000e+02
-3.644416383819940393e+02,-2.233138995920116372e+02,-2.544592120897001450e+02,-1.878421455974454375e+02,-3.735949395999710987e+02,-3.992670455391453288e+02,-3.393832122484736260e+02,-2.644302944123350017e+02,9.484992027282714844e+00,-8.031646609306335449e-01,0.000000000000000000e+00,2.740000000000000000e+02
-3.681867381858090766e+02,-2.206669009220391899e+02,-2.595264172174813098e+02,-1.859043462843343377e+02,-3.781131227679365452e+02,-3.984134224236171917e+02,-3.390551877375417007e+02,-2.653043074131422827e+02,9.484992027282714844e+00,-8.031646609306335449e-01,0.000000000000000000e+00,2.750000000000000000e+02
-3.708353948497086776e+02,-2.186674152913722935e+02,-2.625589010206631428e+02,-1.847588087816677671e+02,-3.812919397539990314e+02,-3.976538459091589743e+02,-3.381624646547577413e+02,-2.656840067491264108e+02,9.484992027282714844e+00,-8.031646609306335449e-01,0.000000000000000000e+00,2.760000000000000000e+02
-3.728400523394348056e+02,-2.190915790712435012e+02,-2.637777088422728866e+02,-1.852343760334725857e+02,-3.831433641061795470e+02,-3.973526224330800005e+02,-3.375894411345607864e+02,-2.670389279613092413e+02,9.484992027282714844e+00,-8.031646609306335449e-01,0.000000000000000000e+00,2.770000000000000000e+02
-3.738617432146180590e+02,-2.222031633131041701e+02,-2.631898950718892252e+02,-1.878158433716256752e+02,-3.836153474510679189e+02,-3.977007619424423410e+02,-3.378091298240720448e+02,-2.690198618445424472e+02,9.484992027282714844e+00,-8.031646609306335449e-01,0.000000000000000000e+00,2.780000000000000000e+02
-3.729153674529094928e+02,-2.265339417567475948e+02,-2.602093098538564959e+02,-1.920605629147587479e+02,-3.821366859895769608e+02,-3.984029384288726874e+02,-3.382884994344515235e+02,-2.694604243802386918e+02,9.484992027282714844e+00,-8.031646609306335449e-01,0.000000000000000000e+00,2.790000000000000000e+02
-3.695963702505229662e+02,-2.300787398244361270e+02,-2.544842315264135664e+02,-1.965452504442519626e+02,-3.782113873901346892e+02,-3.987916141497559579e+02,-3.379113095781866605e+02,-2.663199867008274282e+02,9.484992027282714844e+00,-8.031646609306335449e-01,0.000000000000000000e+00,2.800000000000000000e+02
-3.649894512007077765e+02,-2.317105371649879828e+02,-2.469124991732217893e+02,-1.994961338425044914e+02,-3.723571149762813093e+02,-3.982847022917834465e+02,-3.359325981416909599e+02,-2.597777366818626774e+02,9.484992027282714844e+00,-8.031646609306335449e-01,0.000000000000000000e+00,2.810000000000000000e+02
-3.610796315453095531e+02,-2.315041281437312932e+02,-2.395175650637336275e+02,-1.996681597917457793e+02,-3.662204329136936849e+02,-3.967401526836055154e+02,-3.325505298258695461e+02,-2.524268144808471277e+02,9.484992027282714844e+00,-8.031646609306335449e-01,0.000000000000000000e+00,2.820000000000000000e+02
-3.590585611102291068e+02,-2.298123746809109491e+02,-2.340355240176579912e+02,-1.967831229616734561e+02,-3.615063683725997521e+02,-3.943327040339486302e+02,-3.286148875215199041e+02,-2.472296170554371599e+02,9.484992027282714844e+00,-8.031646609306335449e-01,0.000000000000000000e+00,2.830000000000000000e+02
-3.581848327992956911e+02,-2.262165753235321120e+02,-2.305220767676935054e+02,-1.912276489089556435e+02,-3.586395217806144728e+02,-3.910850528811427012e+02,-3.248377300164569306e+02,-2.450333834166441989e+02,9.484992027282714844e+00,-8.031646609306335449e-01,0.000000000000000000e+00,2.840000000000000000e+02
-3.564318931072994019e+02,-2.195760696715288987e+02,-2.274394605663798075e+02,-1.834322973855974510e+02,-3.564769298546276559e+02,-3.865894055273557797e+02,-3.212731849819604122e+02,-2.439750244199078679e+02,9.484992027282714844e+00,-8.031646609306335449e-01,0.000000000000000000e+00,2.850000000000000000e+02
-3.523648914942882584e+02,-2.092414012816554987e+02,-2.232554983741352430e+02,-1.736242697209246444e+02,-3.534303575836619302e+02,-3.803097884629391956e+02,-3.174697007381841445e+02,-2.413382994229101541e+02,9.484992027282714844e+00,-8.031646609306335449e-01,0.000000000000000000e+00,2.860000000000000000e+02
-3.464011230411405222e+02,-1.962301630347883474e+02,-2.180156461281910367e+02,-1.621910229495509270e+02,-3.489905948164522442e+02,-3.722438509907593129e+02,-3.130345943607641175e+02,-2.360532348919320498e+02,9.484992027282714844e+00,-8.031646609306335449e-01,0.000000000000000000e+00,2.870000000000000000e+02
-3.402032866159247533e+02,-1.830761026907834150e+02,-2.132739043365236284e+02,-1.501523383445473883e+02,-3.441769673614479075e+02,-3.632536705122896024e+02,-3.080021323476246380e+02,-2.294099079078979457e+02,9.484992027282714844e+00,-8.031646609306335449e-01,0.000000000000000000e+00,2.880000000000000000e+02
-3.348688902258660391e+02,-1.722805162292232808e+02,-2.103704064395474802e+02,-1.390279312446784843e+02,-3.404072344080165067e+02,-3.546054092938238682e+02,-3.026719255814090275e+02,-2.233387948689038183e+02,9.484992027282714844e+00,-8.031646609306335449e-01,0.000000000000000000e+00,2.890000000000000000e+02
-3.298768516851827712e+02,-1.646703205039326292e+02,-2.087863121994053586e+02,-1.300372837435108124e+02,-3.378249390296637102e+02,-3.470583135522197722e+02,-2.971513433704358249e+02,-2.181151238527240821e+02,9.484992027282714844e+00,-8.031646609306335449e-01,0.000000000000000000e+00,2.900000000000000000e+02
-3.239812784400411374e+02,-1.591702104527090853e+02,-2.063836663451315871e+02,-1.233962223596022056e+02,-3.347581732501739111e+02,-3.404049717989929604e+02,-2.911629185403283486e+02,-2.119804439651460370e+02,9.484992027282714844e+00,-8.031646609306335449e-01,0.000000000000000000e+00,2.910000000000000000e+02
-3.171837217315724047e+02,-1.542455398213517128e+02,-2.015501981802471505e+02,-1.185137425053679578e+02,-3.290452239395993956e+02,-3.340277751203146295e+02,-2.844426708958754944e+02,-2.032200884602654014e+02,9.484992027282714844e+00,-8.031646609306335449e-01,0.000000000000000000e+00,2.920000000000000000e+02
-3.116511518494535835e+02,-1.496832114967306779e+02,-1.952839764765369637e+02,-1.149797465260527360e+02,-3.201810778009900105e+02,-3.279967099895130218e+02,-2.773999085203662958e+02,-1.926274520094187039e+02,9.484992027282714844e+00,-8.031646609306335449e-01,0.000000000000000000e+00,2.930000000000000000e+02
-3.103630017657698659e+02,-1.470171984792689273e+02,-1.910563639767576660e+02,-1.132979273358012193e+02,-3.102996858472685062e+02,-3.235394757628483262e+02,-2.713196596074233184e+02,-1.836909698377945688e+02,9.484992027282714844e+00,-8.031646609306335449e-01,0.000000000000000000e+00,2.940000000000000000e+02
-3.145139870595880893e+02,-1.481277378648330796e+02,-1.922271661000313259e+02,-1.144324305174102108e+02,-3.028988160269003629e+02,-3.221848151634322335e+02,-2.676892406515427183e+02,-1.799909721494904318e+02,9.484992027282714844e+00,-8.031646609306335449e-01,0.000000000000000000e+00,2.950000000000000000e+02
-3.220430602910363973e+02,-1.532513631176544209e+02,-1.991091517018234924e+02,-1.184478695728978721e+02,-3.002079970112466754e+02,-3.241956011586912609e+02,-2.670444130684231823e+02,-1.820743153402071925e+02,9.484992027282714844e+00,-8.031646609306335449e-01,0.000000000000000000e+00,2.960000000000000000e+02
-3.287392708529933998e+02,-1.602403500513742358e+02,-2.082801338441987298e+02,-1.236107071497701781e+02,-3.014244181431454308e+02,-3.277768500825981732e+02,-2.683322702856997921e+02,-1.867231715263560545e+02,9.484992027282714844e+00,-8.031646609306335449e-01,0.000000000000000000e+00,2.970000000000000000e+02
-3.311070034584123505e+02,-1.658073360175548032e+02,-2.149013941868657582e+02,-1.271008696009229055e+02,-3.033771766957399336e+02,-3.300089183464359621e+02,-2.694756093220106550e+02,-1.894082240917842626e+02,9.484992027282714844e+00,-8.031646609306335449e-01,0.000000000000000000e+00,2.980000000000000000e+02
-3.286611349572050358e+02,-1.677227813400362493e+02,-2.161958912043299392e+02,-1.269908472387704848e+02,-3.030660334106661367e+02,-3.289005986753896877e+02,-2.687901868336488178e+02,-1.878078235914089191e+02,9.484992027282714844e+00,-8.031646609306335449e-01,0.000000000000000000e+00,2.990000000000000000e+02
-3.238970779754126852e+02,-1.661331145798949365e+02,-2.132519100238078806e+02,-1.238228900095611067e+02,-2.998809190614247200e+02,-3.248520460686087858e+02,-2.660945458099268990e+02,-1.833758858247704779e+02,9.484992027282714844e+00,-8.031646609306335449e-01,0.000000000000000000e+00,3.000000000000000000e+02
-3.201858205814266398e+02,-1.630039801429868476e+02,-2.097975451759204191e+02,-1.203177728770006354e+02,-2.956915642747304673e+02,-3.202762206032714971e+02,-2.626016625721176752e+02,-1.797965363373937180e+02,9.484992027282714844e+00,-8.031646609306335449e-01,0.000000000000000000e+00,3.010000000000000000e+02
-3.194101926303709433e+02,-1.603615249622407077e+02,-2.091442518165782189e+02,-1.193533245852048594e+02,-2.929810108597180260e+02,-3.177465324393585320e+02,-2.597881347632850293e+02,-1.798950419093198718e+02,9.484992027282714844e+00,-8.031646609306335449e-01,0.000000000000000000e+00,3.020000000000000000e+02
-3.210698588865902252e+02,-1.589265050123571825e+02,-2.118936070794862019e+02,-1.218845486743921924e+02,-2.928410415107210270e+02,-3.182657769902717746e+02,-2.583126790845773257e+02,-1.837015499343856675e+02,9.484992027282714844e+00,-8.031646609306335449e-01,0.000000000000000000e+00,3.030000000000000000e+02
-3.231823076969649264e+02,-1.581351900469717577e+02,-2.160946437124674446e+02,-1.264768714524775532e+02,-2.944977549463980608e+02,-3.209704881217433581e+02,-2.578731183326501082e+02,-1.890044682461005436e+02,9.484992027282714844e+00,-8.031646609306335449e-01,0.000000000000000000e+00,3.040000000000000000e+02
-3.239748864260009213e+02,-1.571979254104099084e+02,-2.193263386929261003e+02,-1.306739341543715796e+02,-2.964138126217395097e+02,-3.242056570136337541e+02,-2.578896609385303691e+02,-1.934656275335578357e+02,9.484992027282714844e+00,-8.031646609306335449e-01,0.000000000000000000e+00,3.050000000000000000e+02
-3.230455598531094665e+02,-1.560440068950262003e+02,-2.206969744203560708e+02,-1.328963932216887542e+02,-2.976496311865743110e+02,-3.268059386707952854e+02,-2.581649832906517759e+02,-1.962627606345714639e+02,9.484992027282714844e+00,-8.031646609306335449e-01,0.000000000000000000e+00,3.060000000000000000e+02
-3.213571778762906774e+02,-1.553519909717786334e+02,-2.211726586091406830e+02,-1.333346048154318169e+02,-2.982895068487418371e+02,-3.285493455898432558e+02,-2.588995858718860745e+02,-1.980879963420310048e+02,9.484992027282714844e+00,-8.031646609306335449e-01,0.000000000000000000e+00,3.070000000000000000e+02
-3.203594974930667263e+02,-1.558593770057691472e+02,-2.223485766522407800e+02,-1.333949498467908938e+02,-2.989205015872101399e+02,-3.297465735598171364e+02,-2.602362759428403933e+02,-2.000123519505401077e+02,9.484992027282714844e+00,-8.031646609306335449e-01,0.000000000000000000e+00,3.080000000000000000e+02
-3.210090475089563711e+02,-1.577382001338610564e+02,-2.250390200093397368e+02,-1.344923300108284536e+02,-3.000071749842093141e+02,-3.306536710282045988e+02,-2.619598008527964339e+02,-2.025058392630626827e+02,9.484992027282714844e+00,-8.031646609306335449e-01,0.000000000000000000e+00,3.090000000000000000e+02
-3.233182826815094586e+02,-1.605431572925821229e+02,-2.288942355992782609e+02,-1.372420838809975976e+02,-3.017708990509192972e+02,-3.312550748218834542e+02,-2.636563207564154254e+02,-2.053330224752414210e+02,9.484992027282714844e+00,-8.031646609306335449e-01,0.000000000000000000e+00,3.100000000000000000e+02
-3.265801037426336393e+02,-1.635650381405100688e+02,-2.330746663246809476e+02,-1.414428237945181763e+02,-3.043942111659336547e+02,-3.313955234887700954e+02,-2.650491186776769723e+02,-2.080281375108747284e+02,9.484992027282714844e+00,-8.031646609306335449e-01,0.000000000000000000e+00,3.110000000000000000e+02
-3.299526793970224503e+02,-1.661304866393620330e+02,-2.370821839222415974e+02,-1.464766889989222136e+02,-3.080446927043566347e+02,-3.309491757134028376e+02,-2.661004406681796581e+02,-2.102634073091606979e+02,9.446745872497558594e+00,-8.414105772972106934e-01,-3.824593871831893921e-02,3.120000000000000000e+02
-3.329328202642257679e+02,-1.676637818289305812e+02,-2.409678088040384694e+02,-1.516393100855537739e+02,-3.126153513981348624e+02,-3.298960977224000430e+02,-2.668555067480590992e+02,-2.118880176347167890e+02,9.446745872497558594e+00,-8.414105772972106934e-01,-3.824593871831893921e-02,3.130000000000000000e+02
-3.353986102417177335e+02,-1.677277286256512525e+02,-2.449185092433267528e+02,-1.563062480509031786e+02,-3.175556377870404390e+02,-3.283998666525308181e+02,-2.673411044490085260e+02,-2.128935816748797833e+02,9.446745872497558594e+00,-8.414105772972106934e-01,-3.824593871831893921e-02,3.140000000000000000e+02
-3.372917629096157270e+02,-1.662437913563367147e+02,-2.488095874491112340e+02,-1.601107563835454926e+02,-3.220841673547366781e+02,-3.268988581638153619e+02,-2.676717452915024182e+02,-2.135113301823128040e+02,9.446745872497558594e+00,-8.414105772972106934e-01,-3.824593871831893921e-02,3.150000000000000000e+02
-3.383140643837991206e+02,-1.637430071393773972e+02,-2.521547491233112055e+02,-1.631691464885420544e+02,-3.255854371995476413e+02,-3.260232327030046235e+02,-2.681243786316018145e+02,-2.142391834494561067e+02,9.446745872497558594e+00,-8.414105772972106934e-01,-3.824593871831893921e-02,3.160000000000000000e+02
-3.379875190932692135e+02,-1.612876612558009413e+02,-2.543659414289801362e+02,-1.661218450604117720e+02,-3.277925186197685434e+02,-3.262366401199694792e+02,-2.689072916330054568e+02,-2.155182951709621193e+02,9.446745872497558594e+00,-8.414105772972106934e-01,-3.824593871831893921e-02,3.170000000000000000e+02
-3.360732330892843152e+02,-1.599446670447361214e+02,-2.550009387315242293e+02,-1.698077224598276587e+02,-3.286673880237445928e+02,-3.274592564612339629e+02,-2.697690849116189611e+02,-2.172639100703786426e+02,9.446745872497558594e+00,-8.414105772972106934e-01,-3.824593871831893921e-02,3.180000000000000000e+02
-3.329780668758020283e+02,-1.601705753794051361e+02,-2.538762876763483973e+02,-1.747621582185911109e+02,-3.283019215795079049e+02,-3.291086405208914698e+02,-2.699630146852467760e+02,-2.188351311508392882e+02,9.446745872497558594e+00,-8.414105772972106934e-01,-3.824593871831893921e-02,3.190000000000000000e+02
-3.297362047529719007e+02,-1.616203366082015691e+02,-2.511817244641946445e+02,-1.809333143732241069e+02,-3.270670692475293890e+02,-3.306129659642578531e+02,-2.688235270454682109e+02,-2.196721288623409691e+02,9.446745872497558594e+00,-8.414105772972106934e-01,-3.824593871831893921e-02,3.200000000000000000e+02
-3.274870395698996504e+02,-1.635227765054887641e+02,-2.476454331761173080e+02,-1.877880058440285609e+02,-3.257679085808291575e+02,-3.318854214868123336e+02,-2.665249806042000955e+02,-2.199921091478909716e+02,9.446745872497558594e+00,-8.414105772972106934e-01,-3.824593871831893921e-02,3.210000000000000000e+02
-3.268216905948440285e+02,-1.652513197335651967e+02,-2.445229669053773023e+02,-1.945974997414965628e+02,-3.253765121537304026e+02,-3.332072673538322647e+02,-2.642468537616240383e+02,-2.206719354206680919e+02,9.446745872497558594e+00,-8.414105772972106934e-01,-3.824593871831893921e-02,3.220000000000000000e+02
-3.275002673370183857e+02,-1.665523648384914566e+02,-2.431466843493313945e+02,-2.005860818473089466e+02,-3.263316360964312821e+02,-3.345604871467349994e+02,-2.633999977508603365e+02,-2.222365086686031077e+02,9.446745872497558594e+00,-8.414105772972106934e-01,-3.824593871831893921e-02,3.230000000000000000e+02
-3.287342249082353760e+02,-1.672919976342383848e+02,-2.441726423826361270e+02,-2.049273857112870871e+02,-3.280312033397037226e+02,-3.351324891268041597e+02,-2.644779941508959382e+02,-2.239595429642120052e+02,9.446745872497558594e+00,-8.414105772972106934e-01,-3.824593871831893921e-02,3.240000000000000000e+02
-3.297750780452320782e+02,-1.671054846491035448e+02,-2.470998823164572968e+02,-2.068810814718061408e+02,-3.291764209657735023e+02,-3.336721083145328635e+02,-2.665402440660296861e+02,-2.242090798787736503e+02,9.446745872497558594e+00,-8.414105772972106934e-01,-3.824593871831893921e-02,3.250000000000000000e+02
-3.302957388008023827e+02,-1.654268355819622229e+02,-2.505239853553836724e+02,-2.062264981541835027e+02,-3.288458462638253081e+02,-3.295486406378390711e+02,-2.678289148167995108e+02,-2.219452026450132394e+02,9.446745872497558594e+00,-8.414105772972106934e-01,-3.824593871831893921e-02,3.260000000000000000e+02
-3.302568820686763615e+02,-1.619413285325969696e+02,-2.529667135889462770e+02,-2.036831283636422540e+02,-3.273535729737453721e+02,-3.235612683200208721e+02,-2.670297732586549273e+02,-2.179354707623094782e+02,9.446745872497558594e+00,-8.414105772972106934e-01,-3.824593871831893921e-02,3.270000000000000000e+02
-3.294419745364464234e+02,-1.570121683816972507e+02,-2.535792805867242805e+02,-2.007928692509827329e+02,-3.259659347903113371e+02,-3.176546267603736169e+02,-2.641082513755321770e+02,-2.143353581719264298e+02,9.446745872497558594e+00,-8.414105772972106934e-01,-3.824593871831893921e-02,3.280000000000000000e+02
-3.271574392815582542e+02,-1.516022253951011578e+02,-2.521567052046069648e+02,-1.991120496464437792e+02,-3.255772994803951974e+02,-3.136648840559248015e+02,-2.600593093129633644e+02,-2.128361739930248859e+02,9.446745872497558594e+00,-8.414105772972106934e-01,-3.824593871831893921e-02,3.290000000000000000e+02
-3.224428001147865643e+02,-1.466678859291430967e+02,-2.486009683365105616e+02,-1.992195489916188080e+02,-3.255074834022124151e+02,-3.121010908589630617e+02,-2.558823685193660822e+02,-2.130818934669435976e+02,9.446745872497558594e+00,-8.414105772972106934e-01,-3.824593871831893921e-02,3.300000000000000000e+02
-3.146918677289445441e+02,-1.425133297559988819e+02,-2.425474119700689926e+02,-2.003390040385999669e+02,-3.236354261582847585e+02,-3.119293649954034890e+02,-2.517548249125584334e+02,-2.128894369412257674e+02,9.446745872497558594e+00,-8.414105772972106934e-01,-3.824593871831893921e-02,3.310000000000000000e+02
-3.042211148827094576e+02,-1.386711240226696020e+02,-2.336863435363966914e+02,-2.009184116841772720e+02,-3.179602238379077335e+02,-3.114377506631032020e+02,-2.471296587342872044e+02,-2.100857493494375490e+02,9.446745872497558594e+00,-8.414105772972106934e-01,-3.824593871831893921e-02,3.320000000000000000e+02
-2.923512316480749860e+02,-1.343956575878564195e+02,-2.225201811735063302e+02,-1.996906449307907678e+02,-3.083356943850604921e+02,-3.093474775473619047e+02,-2.415552248375311137e+02,-2.042212701089496250e+02,9.446745872497558594e+00,-8.414105772972106934e-01,-3.824593871831893921e-02,3.330000000000000000e+02
-2.809345335291598076e+02,-1.292973665175719589e+02,-2.107360500115981949e+02,-1.963474610389331474e+02,-2.968666477025313952e+02,-3.052744071077157741e+02,-2.353373360417191407e+02,-1.966191528541393723e+02,9.446745872497558594e+00,-8.414105772972106934e-01,-3.824593871831893921e-02,3.340000000000000000e+02
-2.716238615061985797e+02,-1.235517940298348663e+02,-2.006189895488557795e+02,-1.913708314131013708e+02,-2.865615728574327932e+02,-2.993833898653659844e+02,-2.293622655084196822e+02,-1.889081011438267410e+02,9.446745872497558594e+00,-8.414105772972106934e-01,-3.824593871831893921e-02,3.350000000000000000e+02
-2.652793356281737829e+02,-1.175610210662204054e+02,-1.938010578853745756e+02,-1.853547621225143303e+02,-2.793432450634328461e+02,-2.918386875356319479e+02,-2.242650525619233122e+02,-1.816159947261417074e+02,9.446745872497558594e+00,-8.414105772972106934e-01,-3.824593871831893921e-02,3.360000000000000000e+02
-2.617540511851545375e+02,-1.114757708525516477e+02,-1.903013375125260609e+02,-1.785542119210670080e+02,-2.750459443293001414e+02,-2.827151642615957599e+02,-2.197998242683237322e+02,-1.741494853428103511e+02,9.446745872497558594e+00,-8.414105772972106934e-01,-3.824593871831893921e-02,3.370000000000000000e+02
-2.600553771811597699e+02,-1.050893532181775072e+02,-1.886119282792089393e+02,-1.710611707412488727e+02,-2.720718272300368881e+02,-2.723973650611610537e+02,-2.150593005460939366e+02,-1.659562019274500813e+02,9.446745872497558594e+00,-8.414105772972106934e-01,-3.824593871831893921e-02,3.380000000000000000e+02
-2.587583380441411123e+02,-9.822502707394949084e+01,-1.867466035321358504e+02,-1.633106262930957087e+02,-2.689061572583590305e+02,-2.618971797772882155e+02,-2.093390653690541967e+02,-1.574995125021457625e+02,9.446745872497558594e+00,-8.414105772972106934e-01,-3.824593871831893921e-02,3.390000000000000000e+02
-2.565439360932522845e+02,-9.120732078439934298e+01,-1.834261639360246932e+02,-1.562479310129189116e+02,-2.650590380929932053e+02,-2.525494732449012645e+02,-2.027938725119487344e+02,-1.499921369873935646e+02,9.446745872497558594e+00,-8.414105772972106934e-01,-3.824593871831893921e-02,3.400000000000000000e+02
-2.526915515400669960e+02,-8.491119486573597896e+01,-1.785787845219424526e+02,-1.508421584798380763e+02,-2.607890152232475884e+02,-2.452048813007813806e+02,-1.962780727871881936e+02,-1.442267560917462106e+02,9.446745872497558594e+00,-8.414105772972106934e-01,-3.824593871831893921e-02,3.410000000000000000e+02
-2.472954200574263268e+02,-8.027605240598148839e+01,-1.729681597469423195e+02,-1.473305481880736352e+02,-2.562567174031390778e+02,-2.396247452564584819e+02,-1.905922395321831573e+02,-1.397882536695281033e+02,9.446745872497558594e+00,-8.414105772972106934e-01,-3.824593871831893921e-02,3.420000000000000000e+02
-2.410629452588831327e+02,-7.766318578775360493e+01,-1.674334995314073922e+02,-1.449422285024764960e+02,-2.511957940612759330e+02,-2.347030153199264078e+02,-1.859007078739521148e+02,-1.355447174229103098e+02,9.484992027282714844e+00,-8.796565532684326172e-01,0.000000000000000000e+00,3.430000000000000000e+02
-2.348177418391364881e+02,-7.657880298200805669e+01,-1.623973061021372359e+02,-1.424888784954991934e+02,-2.454505033228749653e+02,-2.294419836441142024e+02,-1.818434875229066847e+02,-1.309923129429991491e+02,9.484992027282714844e+00,-8.796565532684326172e-01,0.000000000000000000e+00,3.440000000000000000e+02
-2.290926389483093999e+02,-7.598410104130107356e+01,-1.579313492796225091e+02,-1.394175090959428189e+02,-2.396610377201961910e+02,-2.239104914485483278e+02,-1.781162447900985626e+02,-1.271437642227139122e+02,9.484992027282714844e+00,-8.796565532684326172e-01,0.000000000000000000e+00,3.450000000000000000e+02
-2.241181329127749677e+02,-7.491379504388760324e+01,-1.541354171771326946e+02,-1.363864457281489422e+02,-2.351598736509077980e+02,-2.193367281960383934e+02,-1.748444941242250934e+02,-1.259770751374778683e+02,9.484992027282714844e+00,-8.796565532684326172e-01,0.000000000000000000e+00,3.460000000000000000e+02
-2.201027114095473962e+02,-7.289286122875543583e+01,-1.513385834246806780e+02,-1.347282852886991122e+02,-2.329883800282399307e+02,-2.171616520619593302e+02,-1.723749217398928977e+02,-1.287199713478907483e+02,9.484992027282714844e+00,-8.796565532684326172e-01,0.000000000000000000e+00,3.470000000000000000e+02
-2.173788908467449232e+02,-6.989146070884564210e+01,-1.498539050451760204e+02,-1.351256774467682362e+02,-2.329003228075318930e+02,-2.177341681134173541e+02,-1.707403864733987575e+02,-1.343566297046966156e+02,9.484992027282714844e+00,-8.796565532684326172e-01,0.000000000000000000e+00,3.480000000000000000e+02
-2.161081041806354506e+02,-6.600159643580391844e+01,-1.494906707629347693e+02,-1.366247744329029388e+02,-2.332900840920971177e+02,-2.196741297052815298e+02,-1.693689688314168507e+02,-1.396795886040285950e+02,9.484992027282714844e+00,-8.796565532684326172e-01,0.000000000000000000e+00,3.490000000000000000e+02
-2.157814844882475427e+02,-6.125363760336284713e+01,-1.493136576196267242e+02,-1.369757925960436751e+02,-2.321323980298468541e+02,-2.204657497389506489e+02,-1.673286520326660138e+02,-1.410341682502099729e+02,9.484992027282714844e+00,-8.796565532684326172e-01,0.000000000000000000e+00,3.500000000000000000e+02
-2.151509474478793891e+02,-5.578249235160433273e+01,-1.479921118208300186e+02,-1.342121501553131111e+02,-2.281642014005999499e+02,-2.179193216645455777e+02,-1.639003000308107403e+02,-1.365603253698775461e+02,9.484992027282714844e+00,-8.796565532684326172e-01,0.000000000000000000e+00,3.510000000000000000e+02
-2.129368463756227356e+02,-5.012376127118426439e+01,-1.445950123481585479e+02,-1.282403352937783438e+02,-2.214755854182957364e+02,-2.114883294680408881e+02,-1.590385396520423456e+02,-1.273294410120586235e+02,9.484992027282714844e+00,-8.796565532684326172e-01,0.000000000000000000e+00,3.520000000000000000e+02
-2.088734741930439895e+02,-4.521493968213573567e+01,-1.392490294536501096e+02,-1.210727595531524798e+02,-2.132808581653724787e+02,-2.025370302965765177e+02,-1.534221983545063495e+02,-1.166334978669850670e+02,9.484992027282714844e+00,-8.796565532684326172e-01,0.000000000000000000e+00,3.530000000000000000e+02
-2.041445184619154816e+02,-4.193070619393540710e+01,-1.331422265958301523e+02,-1.154360041796641667e+02,-2.052708830938428264e+02,-1.934390482325476341e+02,-1.481238264929969546e+02,-1.080679328607072875e+02,9.484992027282714844e+00,-8.796565532684326172e-01,0.000000000000000000e+00,3.540000000000000000e+02
-2.006438346480356358e+02,-4.047726546541051107e+01,-1.278619317530717581e+02,-1.128846470434928051e+02,-1.990177053602911883e+02,-1.862306171648981490e+02,-1.441336843083741996e+02,-1.038323824507000381e+02,9.484992027282714844e+00,-8.796565532684326172e-01,0.000000000000000000e+00,3.550000000000000000e+02
-1.995717285683354021e+02,-4.021559923551251359e+01,-1.245956232227200644e+02,-1.129922354589937754e+02,-1.956125967604148173e+02,-1.817802566466342569e+02,-1.420005249482755971e+02,-1.042496358492012405e+02,9.484992027282714844e+00,-8.796565532684326172e-01,0.000000000000000000e+00,3.560000000000000000e+02
-2.005956024914302134e+02,-4.018698154075823936e+01,-1.237819904974089695e+02,-1.142335003401041149e+02,-1.954929325284547303e+02,-1.799256979981506674e+02,-1.417575838904313059e+02,-1.083861918271222748e+02,9.484992027282714844e+00,-8.796565532684326172e-01,0.000000000000000000e+00,3.570000000000000000e+02
-2.023843355879680530e+02,-3.999155520991772050e+01,-1.253000708412884023e+02,-1.156461392654135807e+02,-1.984012427753239081e+02,-1.802141294292712246e+02,-1.431113507517612788e+02,-1.149111172642819838e+02,9.484992027282714844e+00,-8.796565532684326172e-01,0.000000000000000000e+00,3.580000000000000000e+02
-2.040268440405246793e+02,-4.029132960936877339e+01,-1.287681185531148458e+02,-1.176884046950174252e+02,-2.034883122895344059e+02,-1.824459960310523456e+02,-1.456847419700147839e+02,-1.224846053426680328e+02,9.484992027282714844e+00,-8.796565532684326172e-01,0.000000000000000000e+00,3.590000000000000000e+02
-2.059342297624178855e+02,-4.244283082586571254e+01,-1.335353523009042647e+02,-1.215377081772481915e+02,-2.095600773192171573e+02,-1.865672944757051255e+02,-1.490819404718456553e+02,-1.297364456796594823e+02,9.484992027282714844e+00,-8.796565532684326172e-01,0.000000000000000000e+00,3.600000000000000000e+02
-2.092793088554820997e+02,-4.747386905188142237e+01,-1.384713136829357154e+02,-1.275827408141190062e+02,-2.153870998705037891e+02,-1.921803756901373390e+02,-1.527608554135797476e+02,-1.353518069755828037e+02,9.484992027282714844e+00,-8.796565532684326172e-01,0.000000000000000000e+00,3.610000000000000000e+02
-2.144946947640991084e+02,-5.519478990624995163e+01,-1.420746663389613786e+02,-1.346073791277434566e+02,-2.199961508437195334e+02,-1.983144016707758510e+02,-1.559691934136319560e+02,-1.385010118212543375e+02,9.484992027282714844e+00,-8.796565532684326172e-01,0.000000000000000000e+00,3.620000000000000000e+02
-2.203795884136177392e+02,-6.414603149220022260e+01,-1.431933724512623485e+02,-1.404739219290859751e+02,-2.228918989983960728e+02,-2.037959859581011415e+02,-1.579867314824000459e+02,-1.393004542076886310e+02,9.484992027282714844e+00,-8.796565532684326172e-01,0.000000000000000000e+00,3.630000000000000000e+02
-2.248500289305768547e+02,-7.244696639512667957e+01,-1.419215697836929166e+02,-1.436953360202405747e+02,-2.241527212108433105e+02,-2.079117097910987013e+02,-1.585869442982354940e+02,-1.387797505106530025e+02,9.484992027282714844e+00,-7.266727685928344727e-01,0.000000000000000000e+00,3.640000000000000000e+02
-2.267142544876647889e+02,-7.889917324637491447e+01,-1.398126721121454921e+02,-1.444826657309091615e+02,-2.243189674899881538e+02,-2.107219411043454329e+02,-1.582967568846593167e+02,-1.382506870704165749e+02,9.484992027282714844e+00,-7.266727685928344727e-01,0.000000000000000000e+00,3.650000000000000000e+02
-2.267301947234168438e+02,-8.351305017863569446e+01,-1.389758106194785796e+02,-1.443835599148428628e+02,-2.240781433292828524e+02,-2.127252083620278427e+02,-1.581304232851437064e+02,-1.385278741032112748e+02,9.484992027282714844e+00,-7.266727685928344727e-01,0.000000000000000000e+00,3.660000000000000000e+02
-2.268351907635249063e+02,-8.709839844401111009e+01,-1.406270475717218460e+02,-1.449091476530612681e+02,-2.239349195564572028e+02,-2.142108320146273854e+02,-1.589540507159631488e+02,-1.395714591038739627e+02,9.484992027282714844e+00,-7.266727685928344727e-01,0.000000000000000000e+00,3.670000000000000000e+02
-2.282410560960101975e+02,-9.029825279256121462e+01,-1.442513331027791992e+02,-1.463439900707479637e+02,-2.241012836599959428e+02,-2.149123614149801824e+02,-1.609830260110895779e+02,-1.407328370484395919e+02,9.484992027282714844e+00,-7.266727685928344727e-01,0.000000000000000000e+00,3.680000000000000000e+02
-2.302483360513051593e+02,-9.286716705762705715e+01,-1.480592002043592856e+02,-1.476436425168515143e+02,-2.246462712944221494e+02,-2.142504708890942311e+02,-1.637625938239166317e+02,-1.413100121887152909e+02,9.484992027282714844e+00,-7.266727685928344727e-01,0.000000000000000000e+00,3.690000000000000000e+02
-2.309620788984998399e+02,-9.380389856114243230e+01,-1.503063028200180042e+02,-1.473389969680224567e+02,-2.256635411979416403e+02,-2.118922226434484628e+02,-1.665000971535716872e+02,-1.409691475455663294e+02,9.484992027282714844e+00,-7.266727685928344727e-01,0.000000000000000000e+00,3.700000000000000000e+02
-2.292098766126927103e+02,-9.227636129311019886e+01,-1.503605414535707041e+02,-1.446612487026128520e+02,-2.272073656907029999e+02,-2.081405703228734865e+02,-1.683883208704676235e+02,-1.398435568334862182e+02,9.484992027282714844e+00,-7.266727685928344727e-01,0.000000000000000000e+00,3.710000000000000000e+02
-2.257678409538366395e+02,-8.862082960282779709e+01,-1.487522898654918890e+02,-1.401386957092427110e+02,-2.290593106222495408e+02,-2.039132366170254045e+02,-1.687819603572138476e+02,-1.384049259071524602e+02,9.484992027282714844e+00,-7.266727685928344727e-01,0.000000000000000000e+00,3.720000000000000000e+02
-2.227338955539411245e+02,-8.456042870636321140e+01,-1.464296263154096778e+02,-1.354263825350586785e+02,-2.306506772631723834e+02,-2.004233900897984313e+02,-1.673861806704753690e+02,-1.372681250598988072e+02,9.484992027282714844e+00,-7.266727685928344727e-01,0.000000000000000000e+00,3.730000000000000000e+02
-2.217303462267523173e+02,-8.235332499182291599e+01,-1.440680304896914095e+02,-1.325826432653736902e+02,-2.313567544357981660e+02,-1.987972717138272856e+02,-1.645637714717440758e+02,-1.369830879948025313e+02,9.484992027282714844e+00,-7.266727685928344727e-01,0.000000000000000000e+00,3.740000000000000000e+02
-2.226873650479788012e+02,-8.341452161865601056e+01,-1.419947942520993820e+02,-1.331482911683087877e+02,-2.309527603608736399e+02,-1.997195988673493048e+02,-1.614888390474634434e+02,-1.378197675306630572e+02,9.484992027282714844e+00,-7.266727685928344727e-01,0.000000000000000000e+00,3.750000000000000000e+02
-2.242398056901570271e+02,-8.741562902919744715e+01,-1.405181454106359524e+02,-1.373702302839333242e+02,-2.297807782738118476e+02,-2.031189154886944834e+02,-1.597444378329796564e+02,-1.395936632493597926e+02,9.484992027282714844e+00,-7.266727685928344727e-01,0.000000000000000000e+00,3.760000000000000000e+02
-2.250943558638493869e+02,-9.254639933424545006e+01,-1.400524097179948058e+02,-1.439208442042253182e+02,-2.284311795892217560e+02,-2.080356217974986066e+02,-1.604002599875757369e+02,-1.416595434092425876e+02,9.484992027282714844e+00,-7.266727685928344727e-01,0.000000000000000000e+00,3.770000000000000000e+02
-2.249070022168120886e+02,-9.673361196435780585e+01,-1.407873857359336398e+02,-1.503801743522855077e+02,-2.272369358708308482e+02,-2.128902139057522618e+02,-1.632176231623009244e+02,-1.431690362776837446e+02,9.484992027282714844e+00,-7.266727685928344727e-01,0.000000000000000000e+00,3.780000000000000000e+02
-2.239633592192933520e+02,-9.887712056133898386e+01,-1.422723947654203585e+02,-1.543728719646472882e+02,-2.260729530739090478e+02,-2.161511217721065350e+02,-1.667041501799894831e+02,-1.434716328103904743e+02,9.484992027282714844e+00,-7.266727685928344727e-01,0.000000000000000000e+00,3.790000000000000000e+02
-2.223327680985594270e+02,-9.921516659756599665e+01,-1.434549898619571877e+02,-1.547543796123770790e+02,-2.246126322314376011e+02,-2.170252810643694374e+02,-1.690640124903873129e+02,-1.424041950355522204e+02,9.484992027282714844e+00,-7.266727685928344727e-01,0.000000000000000000e+00,3.800000000000000000e+02
-2.196095822220762557e+02,-9.871044786389140313e+01,-1.432635026037334001e+02,-1.520576601012852507e+02,-2.227284618814960595e+02,-2.156543657128474933e+02,-1.693094807674594904e+02,-1.402650556922394571e+02,9.484992027282714844e+00,-7.266727685928344727e-01,0.000000000000000000e+00,3.810000000000000000e+02
-2.155126984344334460e+02,-9.813796271293733753e+01,-1.412604338982309855e+02,-1.478756879237206476e+02,-2.206207861175907965e+02,-2.126704603848875195e+02,-1.676755365417502617e+02,-1.375102178939487203e+02,9.484992027282714844e+00,-7.266727685928344727e-01,0.000000000000000000e+00,3.820000000000000000e+02
-2.105511508770904356e+02,-9.766512181586023189e+01,-1.378299495564415338e+02,-1.436663250422814144e+02,-2.185849713579548279e+02,-2.085398195519169349e+02,-1.651135907569735082e+02,-1.344677460246266492e+02,9.484992027282714844e+00,-7.266727685928344727e-01,0.000000000000000000e+00,3.830000000000000000e+02
-2.058939143160639560e+02,-9.712342780925843044e+01,-1.338230038483943645e+02,-1.399258968415661002e+02,-2.167180093503945955e+02,-2.033222987703977651e+02,-1.624282249614168450e+02,-1.313159900951733334e+02,9.484992027282714844e+00,-7.266727685928344727e-01,0.000000000000000000e+00,3.840000000000000000e+02
-2.025100954616518720e+02,-9.647515826429366825e+01,-1.300233042303932507e+02,-1.363114316705298279e+02,-2.148816869300762846e+02,-1.970421696060780050e+02,-1.598128401422691240e+02,-1.282851769769383736e+02,9.484992027282714844e+00,-7.266727685928344727e-01,0.000000000000000000e+00,3.850000000000000000e+02
-2.004513813447853181e+02,-9.588438927675730383e+01,-1.268271394148822537e+02,-1.324160739694414133e+02,-2.129220441725817636e+02,-1.902184771701520276e+02,-1.570496738679591999e+02,-1.257646617260073754e+02,9.484992027282714844e+00,-7.266727685928344727e-01,0.000000000000000000e+00,3.860000000000000000e+02
-1.989806903777321168e+02,-9.534665966344198296e+01,-1.242380738230950783e+02,-1.283736678105360625e+02,-2.108715826531836228e+02,-1.839182470773616842e+02,-1.540371580037644890e+02,-1.240741597282619750e+02,9.484992027282714844e+00,-7.266727685928344727e-01,0.000000000000000000e+00,3.870000000000000000e+02
-1.973461040808518874e+02,-9.437990698070106532e+01,-1.220127827353604744e+02,-1.247433781714858014e+02,-2.088930217342374362e+02,-1.791682775043746005e+02,-1.510934854307661226e+02,-1.230634294502027615e+02,9.484992027282714844e+00,-7.266727685928344727e-01,0.000000000000000000e+00,3.880000000000000000e+02
-1.953910566689985444e+02,-9.228720189717847688e+01,-1.198402639826572340e+02,-1.219282859444447240e+02,-2.070392016955152030e+02,-1.762456383793089572e+02,-1.487908218949094135e+02,-1.220101287150033613e+02,9.484992027282714844e+00,-8.796565532684326172e-01,0.000000000000000000e+00,3.890000000000000000e+02
-1.934880478093951979e+02,-8.888823075342696711e+01,-1.175700858045835275e+02,-1.198452759522513134e+02,-2.051125910056691737e+02,-1.745482819252561058e+02,-1.475091710689709998e+02,-1.200947993940467313e+02,9.484992027282714844e+00,-8.796565532684326172e-01,0.000000000000000000e+00,3.900000000000000000e+02
-1.920421179054901586e+02,-8.504950273017101381e+01,-1.154550240769768834e+02,-1.182398038116190264e+02,-2.028252025806409620e+02,-1.732277181454767288e+02,-1.471178326267745433e+02,-1.171541685011659411e+02,9.484992027282714844e+00,-8.796565532684326172e-01,0.000000000000000000e+00,3.910000000000000000e+02
-1.911560572961565185e+02,-8.242674948731831819e+01,-1.141928371656977106e+02,-1.172727797946289456e+02,-2.001511677999471885e+02,-1.720260871056048018e+02,-1.470566327485837519e+02,-1.139955397214405366e+02,9.484992027282714844e+00,-8.796565532684326172e-01,0.000000000000000000e+00,3.920000000000000000e+02
-1.907438076210556801e+02,-8.252227452471629476e+01,-1.145708435167249490e+02,-1.176644498148864386e+02,-1.975322649503946195e+02,-1.715302949557315060e+02,-1.467437291309170178e+02,-1.118847992308534458e+02,9.484992027282714844e+00,-8.796565532684326172e-01,0.000000000000000000e+00,3.930000000000000000e+02
-1.908317528008707313e+02,-8.579141709678975758e+01,-1.168575026186505283e+02,-1.201303274045314993e+02,-1.956931900370479980e+02,-1.725891730746689063e+02,-1.459941093711679514e+02,-1.115976747239698170e+02,9.484992027282714844e+00,-8.796565532684326172e-01,0.000000000000000000e+00,3.940000000000000000e+02
-1.916258394470909252e+02,-9.148769754313548219e+01,-1.204227964371266353e+02,-1.246100357574413238e+02,-1.951557757920029417e+02,-1.754304744320863847e+02,-1.451324549630517140e+02,-1.129026789924695322e+02,9.484992027282714844e+00,-8.796565532684326172e-01,0.000000000000000000e+00,3.950000000000000000e+02
-1.932532426941833137e+02,-9.827937211650606741e+01,-1.239849807344073724e+02,-1.300649816936979732e+02,-1.958466849711273881e+02,-1.792919325158452466e+02,-1.447452433714838662e+02,-1.149438770220717743e+02,9.484992027282714844e+00,-8.796565532684326172e-01,0.000000000000000000e+00,3.960000000000000000e+02
-1.954636831784996502e+02,-1.050105654440128546e+02,-1.263654287501944964e+02,-1.350853434346781796e+02,-1.971594079490764670e+02,-1.829029699013083246e+02,-1.453073586713624081e+02,-1.171163993397286731e+02,9.484992027282714844e+00,-8.796565532684326172e-01,0.000000000000000000e+00,3.970000000000000000e+02
-1.975944955764726956e+02,-1.109515014949566876e+02,-1.271490519809040052e+02,-1.387366878338816605e+02,-1.984188488084828350e+02,-1.853500164755678270e+02,-1.469614903257029255e+02,-1.195421098481128865e+02,9.484992027282714844e+00,-8.796565532684326172e-01,0.000000000000000000e+00,3.980000000000000000e+02
-1.988367696689217610e+02,-1.154995723144618864e+02,-1.267173738685776243e+02,-1.408434869288997788e+02,-1.993123929271475845e+02,-1.865238403473747439e+02,-1.495392804418925152e+02,-1.226729076507199352e+02,9.484992027282714844e+00,-8.796565532684326172e-01,0.000000000000000000e+00,3.990000000000000000e+02
-1.986071239329563696e+02,-1.179147882074527161e+02,-1.257143460897434579e+02,-1.415388126488843454e+02,-1.998985114285435429e+02,-1.868292902720268103e+02,-1.526816631260612667e+02,-1.264943599644381038e+02,9.484992027282714844e+00,-8.796565532684326172e-01,0.000000000000000000e+00,4.000000000000000000e+02
-1.967986041352196480e+02,-1.176048988467069876e+02,-1.244990138016137280e+02,-1.406932999336294188e+02,-2.002596701362365366e+02,-1.865847040912954071e+02,-1.558959948026827078e+02,-1.302074170395701458e+02,9.484992027282714844e+00,-8.796565532684326172e-01,0.000000000000000000e+00,4.010000000000000000e+02
-1.938200842977985303e+02,-1.148034266765398570e+02,-1.230599242838841292e+02,-1.379589989585925878e+02,-2.002599440957089882e+02,-1.858006539198170231e+02,-1.585801359239865178e+02,-1.327517818569265273e+02,9.484992027282714844e+00,-8.796565532684326172e-01,0.000000000000000000e+00,4.020000000000000000e+02
-1.904607965589641481e+02,-1.109115874086005533e+02,-1.213372275203580557e+02,-1.334569634501308428e+02,-1.997153309565360360e+02,-1.845256299176014636e+02,-1.601403144505384262e+02,-1.336497281743028225e+02,9.484992027282714844e+00,-8.796565532684326172e-01,0.000000000000000000e+00,4.030000000000000000e+02
-1.876434516294409605e+02,-1.079397183906952478e+02,-1.194949678843399852e+02,-1.283249258749000319e+02,-1.987678312576936150e+02,-1.832471953168937944e+02,-1.602205161063243395e+02,-1.333102264544974105e+02,9.484992027282714844e+00,-8.796565532684326172e-01,0.000000000000000000e+00,4.040000000000000000e+02
-1.861194898755351232e+02,-1.073032774519247710e+02,-1.178320214819625562e+02,-1.243397990529795152e+02,-1.979321268707642503e+02,-1.827374044319972199e+02,-1.588639998389803623e+02,-1.325071577038205533e+02,9.484992027282714844e+00,-8.796565532684326172e-01,0.000000000000000000e+00,4.050000000000000000e+02
-1.861732904975986003e+02,-1.089150006499413621e+02,-1.164731965586511251e+02,-1.227085533959034365e+02,-1.976021234893335077e+02,-1.833611654378696585e+02,-1.564330037203526445e+02,-1.315729427325835559e+02,9.484992027282714844e+00,-8.796565532684326172e-01,0.000000000000000000e+00,4.060000000000000000e+02
-1.874347332390170777e+02,-1.113175462336022292e+02,-1.152081138922849277e+02,-1.230264645594052126e+02,-1.974655767274168738e+02,-1.845337605997265200e+02,-1.533519609251427482e+02,-1.300855175636417016e+02,9.484992027282714844e+00,-8.796565532684326172e-01,0.000000000000000000e+00,4.070000000000000000e+02
-1.889046723858311907e+02,-1.127058465661156106e+02,-1.136369367886481996e+02,-1.234015696383946761e+02,-1.964895987271058857e+02,-1.849511806138898464e+02,-1.499130196845228511e+02,-1.273053421075840106e+02,9.484992027282714844e+00,-8.796565532684326172e-01,0.000000000000000000e+00,4.080000000000000000e+02
-1.892536834570931887e+02,-1.119550525550744169e+02,-1.114314278895340067e+02,-1.217457542931661010e+02,-1.936336530739263253e+02,-1.834679470671305808e+02,-1.462956820019851421e+02,-1.228826910833140573e+02,9.484992027282714844e+00,-8.796565532684326172e-01,0.000000000000000000e+00,4.090000000000000000e+02
-1.873545223693647586e+02,-1.088889418429672560e+02,-1.084469444025869507e+02,-1.171606909788069970e+02,-1.886927803690957717e+02,-1.798239664071884363e+02,-1.426787510854442189e+02,-1.171657206909143270e+02,9.484992027282714844e+00,-8.796565532684326172e-01,0.000000000000000000e+00,4.100000000000000000e+02
-1.828399176728564726e+02,-1.038235871941067217e+02,-1.046662507154860577e+02,-1.102638870797403570e+02,-1.825022525380989009e+02,-1.745688821071219081e+02,-1.392164426861615993e+02,-1.109088695198088317e+02,9.484992027282714844e+00,-8.796565532684326172e-01,0.000000000000000000e+00,4.110000000000000000e+02
-1.763352084296120665e+02,-9.706969454408397269e+01,-1.001614590082992891e+02,-1.022751253884688367e+02,-1.763386856623392305e+02,-1.683537167601994042e+02,-1.358577886996702091e+02,-1.047391919210145943e+02,9.484992027282714844e+00,-8.796565532684326172e-01,0.000000000000000000e+00,4.120000000000000000e+02
-1.691093729171634550e+02,-8.891755304281548433e+01,-9.514349019071528346e+01,-9.380639715864890604e+01,-1.710674010330794772e+02,-1.613631227622638562e+02,-1.322202420130536211e+02,-9.888759018641985676e+01,9.484992027282714844e+00,-8.796565532684326172e-01,0.000000000000000000e+00,4.130000000000000000e+02
-1.622540924221267460e+02,-7.993263193668445865e+01,-8.991955666740341258e+01,-8.451463624014684228e+01,-1.667190859556933447e+02,-1.534445516860009775e+02,-1.277270375364762458e+02,-9.331387595181013239e+01,9.484992027282714844e+00,-8.796565532684326172e-01,0.000000000000000000e+00,4.140000000000000000e+02
-1.559363919276117940e+02,-7.100817355773045847e+01,-8.459302432682534345e+01,-7.389279471599115823e+01,-1.626665467497764439e+02,-1.447053944917506669e+02,-1.219396834666640643e+02,-8.795242164200180923e+01,9.484992027282714844e+00,-8.796565532684326172e-01,0.000000000000000000e+00,4.150000000000000000e+02
-1.493384187015691396e+02,-6.297375380521827992e+01,-7.870163809031964774e+01,-6.236633428263917267e+01,-1.580477318542550620e+02,-1.358683079896009076e+02,-1.148169420062786230e+02,-8.275671891570937078e+01,9.446745872497558594e+00,-7.266727685928344727e-01,0.000000000000000000e+00,4.160000000000000000e+02
-1.414070048690132353e+02,-5.613997735687951263e+01,-7.125597087027540510e+01,-5.155971587271778844e+01,-1.520694395100399561e+02,-1.279623723508834701e+02,-1.067245036655431250e+02,-7.750961278221302564e+01,9.446745872497558594e+00,-7.266727685928344727e-01,0.000000000000000000e+00,4.170000000000000000e+02
-1.318398720462291749e+02,-5.028341666189487569e+01,-6.140721154294647022e+01,-4.338254527460446752e+01,-1.441619009891696805e+02,-1.216349701315696166e+02,-9.826284676444379329e+01,-7.170313705723788189e+01,9.446745872497558594e+00,-7.266727685928344727e-01,0.000000000000000000e+00,4.180000000000000000e+02
-1.214807713123060466e+02,-4.509589260069952843e+01,-4.935968488315165814e+01,-3.869582912995713286e+01,-1.341689960846854319e+02,-1.167459379057129354e+02,-9.009909524279055404e+01,-6.477151837083897590e+01,9.446745872497558594e+00,-7.266727685928344727e-01,0.000000000000000000e+00,4.190000000000000000e+02
-1.118217805492951129e+02,-4.061227270346000751e+01,-3.678369451143203150e+01,-3.671661028650134995e+01,-1.226179671118870829e+02,-1.126094600459582580e+02,-8.286813860642610052e+01,-5.664086214403960184e+01,9.446745872497558594e+00,-7.266727685928344727e-01,0.000000000000000000e+00,4.200000000000000000e+02
-1.040997121305961173e+02,-3.719518131691927465e+01,-2.627435610358293161e+01,-3.566872426097313564e+01,-1.108453803806582982e+02,-1.086361238930228410e+02,-7.708184000297660532e+01,-4.818520605945741409e+01,9.446745872497558594e+00,-7.266727685928344727e-01,0.000000000000000000e+00,4.210000000000000000e+02
-9.876482572627128320e+01,-3.518041737208483255e+01,-2.012431705597714426e+01,-3.411164198220535582e+01,-1.007336627094844062e+02,-1.048140462828516775e+02,-7.301459306973811181e+01,-4.111813052705747396e+01,9.446745872497558594e+00,-7.266727685928344727e-01,0.000000000000000000e+00,4.220000000000000000e+02
-9.564775640225036568e+01,-3.460909306300095523e+01,-1.919326203798004826e+01,-3.182434188563627231e+01,-9.403763978141910229e+01,-1.016457968830916343e+02,-7.061120331119309412e+01,-3.719453417678869300e+01,9.446745872497558594e+00,-7.266727685928344727e-01,0.000000000000000000e+00,4.230000000000000000e+02
-9.441846975153816857e+01,-3.524609587123291021e+01,-2.254798900988862442e+01,-2.955563357061657825e+01,-9.158866238014388728e+01,-9.962133114980383652e+01,-6.949996536626827037e+01,-3.712055183027837302e+01,9.446745872497558594e+00,-7.266727685928344727e-01,0.000000000000000000e+00,4.240000000000000000e+02
-9.472591842701365294e+01,-3.669197449246451015e+01,-2.800205503665688411e+01,-2.797859021179817773e+01,-9.279699607957763874e+01,-9.866085936997660610e+01,-6.911923659140370546e+01,-3.992066255949703191e+01,9.446745872497558594e+00,-7.266727685928344727e-01,0.000000000000000000e+00,4.250000000000000000e+02
-9.594309469534653090e+01,-3.834382352192812959e+01,-3.318567880092928135e+01,-2.687370138651112939e+01,-9.579333103569297236e+01,-9.798758350764092029e+01,-6.888673405086638013e+01,-4.332670212662833364e+01,9.446745872497558594e+00,-7.266727685928344727e-01,0.000000000000000000e+00,4.260000000000000000e+02
-9.705306843176322218e+01,-3.931240661190372521e+01,-3.660356172843626155e+01,-2.530305839546088009e+01,-9.828861883020590540e+01,-9.659168980289041428e+01,-6.837136129103555504e+01,-4.507278939605180312e+01,9.446745872497558594e+00,-7.266727685928344727e-01,0.000000000000000000e+00,4.270000000000000000e+02
-9.710590581474536975e+01,-3.862466726538201556e+01,-3.817540389907003373e+01,-2.257072208160980153e+01,-9.877151714081765022e+01,-9.397680040538261892e+01,-6.742448147138929926e+01,-4.425334200177917410e+01,9.446745872497558594e+00,-7.266727685928344727e-01,0.000000000000000000e+00,4.280000000000000000e+02
-9.593379303682365844e+01,-3.575170150553049098e+01,-3.896710618316660657e+01,-1.899957927786977052e+01,-9.729371945375351061e+01,-9.058563955924046240e+01,-6.618761553355238902e+01,-4.172972994567453497e+01,9.446745872497558594e+00,-7.266727685928344727e-01,0.000000000000000000e+00,4.290000000000000000e+02
-9.431955173761730293e+01,-3.101412988716884911e+01,-4.021272598301084145e+01,-1.572570286563825448e+01,-9.519834074946629698e+01,-8.747141486115697262e+01,-6.488854953807208403e+01,-3.922983407347601315e+01,9.446745872497558594e+00,-7.266727685928344727e-01,0.000000000000000000e+00,4.300000000000000000e+02
-9.325340746736242181e+01,-2.541197768376673594e+01,-4.222195300030716680e+01,-1.368077209583236709e+01,-9.389039053187457284e+01,-8.541293095606579300e+01,-6.351318629465640697e+01,-3.784980121684111509e+01,9.446745872497558594e+00,-7.266727685928344727e-01,0.000000000000000000e+00,4.310000000000000000e+02
-9.293666562484645510e+01,-2.002330778551799995e+01,-4.403147692014022141e+01,-1.278977118189436624e+01,-9.363494017616926612e+01,-8.426715178455833666e+01,-6.168105859437196159e+01,-3.725765255636724760e+01,9.446745872497558594e+00,-7.266727685928344727e-01,0.000000000000000000e+00,4.320000000000000000e+02
-9.265384632100722229e+01,-1.562574428331481613e+01,-4.425658094452251134e+01,-1.227545570906033845e+01,-9.347828954962324133e+01,-8.326573541396419387e+01,-5.899704794446347478e+01,-3.635523439957546543e+01,9.446745872497558594e+00,-7.266727685928344727e-01,0.000000000000000000e+00,4.330000000000000000e+02
-9.184546126922327858e+01,-1.294606604541843353e+01,-4.261247925473594478e+01,-1.185394879815407876e+01,-9.244453715596364418e+01,-8.210329857461783831e+01,-5.572225614813783068e+01,-3.483527407128281084e+01,9.446745872497558594e+00,-7.266727685928344727e-01,0.000000000000000000e+00,4.340000000000000000e+02
-9.136908146937980746e+01,-1.310026846591699723e+01,-4.083082951864366805e+01,-1.262023617943418685e+01,-9.092409586703570312e+01,-8.179684460478210895e+01,-5.315676636210309880e+01,-3.417242023943481399e+01,9.446745872497558594e+00,-7.266727685928344727e-01,0.000000000000000000e+00,4.350000000000000000e+02
-9.350316179215246848e+01,-1.739272222945851354e+01,-4.200335136327908003e+01,-1.656293776866209555e+01,-9.087640017437684037e+01,-8.432599172904770057e+01,-5.320372279523826364e+01,-3.696998749891895386e+01,9.446745872497558594e+00,-7.266727685928344727e-01,0.000000000000000000e+00,4.360000000000000000e+02
-1.003552428865489219e+02,-2.629681192932179101e+01,-4.865276735703491795e+01,-2.492344124465671484e+01,-9.453374986182780049e+01,-9.115691622579925024e+01,-5.727062252084692773e+01,-4.505995779894806219e+01,9.446745872497558594e+00,-7.266727685928344727e-01,0.000000000000000000e+00,4.370000000000000000e+02
-1.119808137523145888e+02,-3.852478774911531900e+01,-6.098846349962445856e+01,-3.684573805529169022e+01,-1.027084382430946334e+02,-1.018975811797827191e+02,-6.531293364263524381e+01,-5.798000850652147165e+01,9.446745872497558594e+00,-7.266727685928344727e-01,0.000000000000000000e+00,4.380000000000000000e+02
-1.259893253498764807e+02,-5.134872478388069794e+01,-7.672445238341674667e+01,-4.966062412124517778e+01,-1.141959986665822271e+02,-1.143568986371219580e+02,-7.580865747421080414e+01,-7.318538890082083981e+01,9.446745872497558594e+00,-7.266727685928344727e-01,0.000000000000000000e+00,4.390000000000000000e+02
-1.391106745897491237e+02,-6.224835260781765101e+01,-9.253267127463936959e+01,-6.069967786264112419e+01,-1.267158410613822070e+02,-1.260286438378821003e+02,-8.668742855627760946e+01,-8.778903748468860613e+01,9.446745872497558594e+00,-7.266727685928344727e-01,0.000000000000000000e+00,4.400000000000000000e+02
-1.493295866137112853e+02,-7.054466077521573197e+01,-1.058795637122568678e+02,-6.907900134533485925e+01,-1.384104602217894353e+02,-1.356986326725118488e+02,-9.646140738122539915e+01,-1.002540095971397704e+02,9.446745872497558594e+00,-7.266727685928344727e-01,0.000000000000000000e+00,4.410000000000000000e+02
-1.566933367093090510e+02,-7.748363647661119558e+01,-1.158846534832428006e+02,-7.587080525226610916e+01,-1.485585116686413585e+02,-1.437776397640750474e+02,-1.047275955076067930e+02,-1.106207315930658979e+02,9.446745872497558594e+00,-7.266727685928344727e-01,0.000000000000000000e+00,4.420000000000000000e+02
-1.622718338387229551e+02,-8.462575463650921392e+01,-1.229026311079223888e+02,-8.259238272201412201e+01,-1.571029219481376913e+02,-1.512016984939202757e+02,-1.118250714758530648e+02,-1.193606924852299471e+02,9.446745872497558594e+00,-7.266727685928344727e-01,0.000000000000000000e+00,4.430000000000000000e+02
-1.665426011456313518e+02,-9.205949335547711598e+01,-1.276130614539367798e+02,-8.951694064639002590e+01,-1.637928807463049452e+02,-1.580961260321678310e+02,-1.181298115763474925e+02,-1.262111616546087589e+02,9.446745872497558594e+00,-7.266727685928344727e-01,0.000000000000000000e+00,4.440000000000000000e+02
-1.688820094208780347e+02,-9.817110129799687002e+01,-1.305097376879687090e+02,-9.539587351632440004e+01,-1.679404932017625924e+02,-1.635114890317292975e+02,-1.236147951218376875e+02,-1.301591325946848201e+02,9.446745872497558594e+00,-7.266727685928344727e-01,0.000000000000000000e+00,4.450000000000000000e+02
-1.685282649210072350e+02,-1.011824878887596810e+02,-1.319518446911088176e+02,-9.874348934930094401e+01,-1.689921435616893177e+02,-1.663908558423549948e+02,-1.279320657198184108e+02,-1.304481404899287327e+02,9.446745872497558594e+00,-7.266727685928344727e-01,0.000000000000000000e+00,4.460000000000000000e+02
-1.657953399971647741e+02,-1.009459706035272575e+02,-1.323180241204977392e+02,-9.933496138964915190e+01,-1.672339308030063876e+02,-1.667227285913545529e+02,-1.308099379865425362e+02,-1.274936259934473810e+02,9.523238182067871094e+00,-8.031646609306335449e-01,0.000000000000000000e+00,4.470000000000000000e+02
-1.621692674924815947e+02,-9.924817058588246255e+01,-1.319395275276181110e+02,-9.844855613143624851e+01,-1.638781366978575988e+02,-1.657267969534411804e+02,-1.323640727883077943e+02,-1.228808401386659170e+02,9.523238182067871094e+00,-8.031646609306335449e-01,0.000000000000000000e+00,4.480000000000000000e+02
-1.592215478648731732e+02,-9.833769590847145992e+01,-1.309908711628941091e+02,-9.768638298463122283e+01,-1.604615152011979262e+02,-1.649186979952305592e+02,-1.330818905545040707e+02,-1.186118269375321006e+02,9.523238182067871094e+00,-8.031646609306335449e-01,0.000000000000000000e+00,4.490000000000000000e+02
-1.575439066266252439e+02,-9.908957045832505628e+01,-1.296343780221642419e+02,-9.760462078282284892e+01,-1.580971591733934929e+02,-1.649639473320478373e+02,-1.335272450510781255e+02,-1.163428210820676441e+02,9.523238182067871094e+00,-8.031646609306335449e-01,0.000000000000000000e+00,4.500000000000000000e+02
-1.567560999907095720e+02,-1.004887359813048988e+02,-1.282886358351745457e+02,-9.746574005445211242e+01,-1.571120250739381845e+02,-1.653416731417685241e+02,-1.340153379550779391e+02,-1.169833840698190670e+02,9.523238182067871094e+00,-8.031646609306335449e-01,0.000000000000000000e+00,4.510000000000000000e+02
-1.563577222191659075e+02,-1.007794684524394029e+02,-1.275617393452655506e+02,-9.624273257099787315e+01,-1.571481368900708731e+02,-1.650298647893796442e+02,-1.345243790120334779e+02,-1.204665910698766993e+02,9.523238182067871094e+00,-8.031646609306335449e-01,0.000000000000000000e+00,4.520000000000000000e+02
-1.563354219012103385e+02,-9.909992399803923036e+01,-1.277378052254879321e+02,-9.383155966053959673e+01,-1.574776803205452325e+02,-1.635338046038330049e+02,-1.349126606422391887e+02,-1.255976807769668540e+02,9.523238182067871094e+00,-8.031646609306335449e-01,0.000000000000000000e+00,4.530000000000000000e+02
-1.568738470587597931e+02,-9.613531314142608153e+01,-1.283536944754030173e+02,-9.134068861902653680e+01,-1.573490089664564948e+02,-1.613852435745934599e+02,-1.352595597162285230e+02,-1.303078992534938152e+02,9.523238182067871094e+00,-8.031646609306335449e-01,0.000000000000000000e+00,4.540000000000000000e+02
-1.576738535202172216e+02,-9.338172582438642166e+01,-1.285107193001899759e+02,-9.026905061195395774e+01,-1.563346601994219327e+02,-1.597656977939311673e+02,-1.359883196272362511e+02,-1.326443184816906751e+02,9.523238182067871094e+00,-8.031646609306335449e-01,0.000000000000000000e+00,4.550000000000000000e+02
-1.578696608406953601e+02,-9.187912212052924588e+01,-1.278280425147576125e+02,-9.136942006634069458e+01,-1.546365534249753182e+02,-1.596296368032012651e+02,-1.375929111591121909e+02,-1.320725633630821676e+02,9.523238182067871094e+00,-8.031646609306335449e-01,0.000000000000000000e+00,4.560000000000000000e+02
-1.568109583467486345e+02,-9.157095600186221418e+01,-1.271055712585908850e+02,-9.413244520417447347e+01,-1.531321925350594029e+02,-1.610218888177482768e+02,-1.401688444053311287e+02,-1.299574461273818997e+02,9.523238182067871094e+00,-8.031646609306335449e-01,0.000000000000000000e+00,4.570000000000000000e+02
-1.549292670038190636e+02,-9.170057081998311332e+01,-1.278692446044121880e+02,-9.720018530469201323e+01,-1.529533075494666718e+02,-1.630694261798887510e+02,-1.431682257360050698e+02,-1.285621334793738697e+02,9.523238182067871094e+00,-8.031646609306335449e-01,0.000000000000000000e+00,4.580000000000000000e+02
-1.537048038481019603e+02,-9.169364105828168476e+01,-1.310550866349840362e+02,-9.928278041657790709e+01,-1.547601176242167185e+02,-1.646172681398791156e+02,-1.456417314900809288e+02,-1.292630780587553545e+02,9.523238182067871094e+00,-8.031646609306335449e-01,0.000000000000000000e+00,4.590000000000000000e+02
-1.546270277973379734e+02,-9.167449021423664135e+01,-1.360400848372790961e+02,-9.988467904352785354e+01,-1.582231826214119792e+02,-1.650196180756327067e+02,-1.467895683839069534e+02,-1.315320334942454110e+02,9.523238182067871094e+00,-8.031646609306335449e-01,0.000000000000000000e+00,4.600000000000000000e+02
-1.580162895712114732e+02,-9.222634459776557492e+01,-1.409650380390709188e+02,-9.940272039532112558e+01,-1.621465421553465376e+02,-1.644926343499855648e+02,-1.463718507456908355e+02,-1.335710706699402408e+02,9.523238182067871094e+00,-8.031646609306335449e-01,0.000000000000000000e+00,4.610000000000000000e+02
-1.626905815679384659e+02,-9.370667732658901627e+01,-1.440700001990076089e+02,-9.863708695624961820e+01,-1.651760701637765578e+02,-1.637816762565848876e+02,-1.447165982627859648e+02,-1.339298905362305732e+02,9.523238182067871094e+00,-8.031646609306335449e-01,0.000000000000000000e+00,4.620000000000000000e+02
-1.667137484748717497e+02,-9.576367720030734176e+01,-1.448297914205774077e+02,-9.815048613758506235e+01,-1.665474437590273737e+02,-1.634612117297606346e+02,-1.424470554913621072e+02,-1.326199938530188547e+02,9.523238182067871094e+00,-8.031646609306335449e-01,0.000000000000000000e+00,4.630000000000000000e+02
-1.686114823277364394e+02,-9.751619752076180703e+01,-1.439917780248899817e+02,-9.800172216539215242e+01,-1.663583583138386075e+02,-1.635397271793918890e+02,-1.402629019151199827e+02,-1.309090777607658538e+02,9.523238182067871094e+00,-8.031646609306335449e-01,0.000000000000000000e+00,4.640000000000000000e+02
-1.682033222259988179e+02,-9.831139722166031447e+01,-1.427504453485425984e+02,-9.806777276459183668e+01,-1.653051372175045799e+02,-1.637673891087786160e+02,-1.389085492757092197e+02,-1.302961750862286863e+02,9.523238182067871094e+00,-8.031646609306335449e-01,0.000000000000000000e+00,4.650000000000000000e+02
-1.665881432873399035e+02,-9.846209660582860579e+01,-1.419791259897803002e+02,-9.862363756123221492e+01,-1.642329072358447775e+02,-1.643310317112568555e+02,-1.391360153523523877e+02,-1.316890706495811401e+02,9.523238182067871094e+00,-8.031646609306335449e-01,0.000000000000000000e+00,4.660000000000000000e+02
-1.653933396466688919e+02,-9.928472350249629130e+01,-1.420863197670563522e+02,-1.005190095268928872e+02,-1.638363720700549493e+02,-1.661353111649480070e+02,-1.414516364316529007e+02,-1.352003001107190130e+02,9.523238182067871094e+00,-8.031646609306335449e-01,0.000000000000000000e+00,4.670000000000000000e+02
-1.657982785327866395e+02,-1.022443017252593620e+02,-1.432390956287916879e+02,-1.045749340419853297e+02,-1.645093386278578009e+02,-1.701657173050343772e+02,-1.457267079147676441e+02,-1.402369077432501854e+02,9.408499717712402344e+00,-8.414105772972106934e-01,0.000000000000000000e+00,4.680000000000000000e+02
-1.679236130220601808e+02,-1.077604648114042902e+02,-1.454256373585719757e+02,-1.105941773546387026e+02,-1.661930994971994551e+02,-1.763530484769007671e+02,-1.510306481098258473e+02,-1.455816255355283602e+02,9.408499717712402344e+00,-8.414105772972106934e-01,0.000000000000000000e+00,4.690000000000000000e+02
-1.709491852619185011e+02,-1.146471495503894573e+02,-1.483061223249260365e+02,-1.169508945338682224e+02,-1.682526925258237043e+02,-1.830263618952099023e+02,-1.559445183478735544e+02,-1.496759442324187148e+02,9.408499717712402344e+00,-8.414105772972106934e-01,0.000000000000000000e+00,4.700000000000000000e+02
-1.738538941087109606e+02,-1.207553428381490619e+02,-1.512560547894452156e+02,-1.213733675286140397e+02,-1.696468301569816504e+02,-1.876842979662314974e+02,-1.592236369347332356e+02,-1.513578916463906694e+02,9.408499717712402344e+00,-8.414105772972106934e-01,0.000000000000000000e+00,4.710000000000000000e+02
-1.761681087409918973e+02,-1.243900082754120291e+02,-1.537611642766388513e+02,-1.224313268545539586e+02,-1.695041914976744692e+02,-1.886150858812833349e+02,-1.603551060038420246e+02,-1.506402095757648567e+02,9.408499717712402344e+00,-8.414105772972106934e-01,0.000000000000000000e+00,4.720000000000000000e+02
-1.780754148989806254e+02,-1.253430694717468583e+02,-1.557255713359789979e+02,-1.204497934561660486e+02,-1.677118472489415808e+02,-1.859986035042111325e+02,-1.596045331180835092e+02,-1.486725958150450424e+02,9.408499717712402344e+00,-8.414105772972106934e-01,0.000000000000000000e+00,4.730000000000000000e+02
-1.797598526320419978e+02,-1.246682458292734736e+02,-1.571892479743782474e+02,-1.169898485654869091e+02,-1.649232576114269477e+02,-1.815095622605016388e+02,-1.575634139730158267e+02,-1.466411467609268584e+02,9.408499717712402344e+00,-8.414105772972106934e-01,0.000000000000000000e+00,4.740000000000000000e+02
-1.806411757455976499e+02,-1.234397347751501854e+02,-1.576448568011572320e+02,-1.133511077460087790e+02,-1.618542127871347134e+02,-1.767953612508122205e+02,-1.545928763664614962e+02,-1.445479939746545597e+02,9.408499717712402344e+00,-8.414105772972106934e-01,0.000000000000000000e+00,4.750000000000000000e+02
-1.793401249946443841e+02,-1.216529189109005387e+02,-1.558179835332482526e+02,-1.094946771302209072e+02,-1.584915033377049554e+02,-1.722440671391776164e+02,-1.506026191038885145e+02,-1.411622849050482955e+02,9.408499717712402344e+00,-8.414105772972106934e-01,0.000000000000000000e+00,4.760000000000000000e+02
-1.745743302037355420e+02,-1.182615187821179177e+02,-1.504923515306970216e+02,-1.043862006349446574e+02,-1.540770705434283627e+02,-1.671318259069919350e+02,-1.453108561148004583e+02,-1.353601566666865779e+02,9.408499717712402344e+00,-8.414105772972106934e-01,0.000000000000000000e+00,4.770000000000000000e+02
-1.662571547869444544e+02,-1.122455281088213042e+02,-1.418222925891543014e+02,-9.734373741451256024e+01,-1.479910708734339551e+02,-1.608484774186584332e+02,-1.387275905200201009e+02,-1.275784100204118658e+02,9.408499717712402344e+00,-8.414105772972106934e-01,0.000000000000000000e+00,4.780000000000000000e+02
-1.557948205694863475e+02,-1.036648642921614538e+02,-1.318223880261541581e+02,-8.899586180744762487e+01,-1.406857357898642249e+02,-1.538647117943482954e+02,-1.314496658249856296e+02,-1.198494027812302534e+02,9.408499717712402344e+00,-8.414105772972106934e-01,0.000000000000000000e+00,4.790000000000000000e+02
-1.452935701057771212e+02,-9.376236688691645327e+01,-1.233170918198884749e+02,-8.090026894145540837e+01,-1.336595193394616103e+02,-1.474571877372584936e+02,-1.245217827321016557e+02,-1.142813855234362848e+02,9.408499717712402344e+00,-8.414105772972106934e-01,0.000000000000000000e+00,4.800000000000000000e+02
-1.363544103680198987e+02,-8.413059385695629544e+01,-1.180774728167916692e+02,-7.424625315938089898e+01,-1.283741500290540216e+02,-1.425441143454842745e+02,-1.189496636136000234e+02,-1.114252396708907895e+02,9.408499717712402344e+00,-8.414105772972106934e-01,0.000000000000000000e+00,4.810000000000000000e+02
-1.294281769436708487e+02,-7.578421591379034794e+01,-1.157238243586701287e+02,-6.895272007702061501e+01,-1.251034388016793173e+02,-1.388808891555142964e+02,-1.152010474197029453e+02,-1.100376176195103426e+02,9.408499717712402344e+00,-8.414105772972106934e-01,0.000000000000000000e+00,4.820000000000000000e+02
-1.240892359719875913e+02,-6.891633936411153627e+01,-1.142989733494025586e+02,-6.400472410156676517e+01,-1.227745533383521916e+02,-1.354189521800485636e+02,-1.129911258098712210e+02,-1.083215848658123832e+02,9.408499717712402344e+00,-8.414105772972106934e-01,0.000000000000000000e+00,4.830000000000000000e+02
-1.197195963695181291e+02,-6.333553470990874956e+01,-1.118891153452286744e+02,-5.860091409202121326e+01,-1.198683458955213865e+02,-1.313875247233141863e+02,-1.114352407987453546e+02,-1.053004930071508909e+02,9.408499717712402344e+00,-8.414105772972106934e-01,0.000000000000000000e+00,4.840000000000000000e+02
-1.158743385623437518e+02,-5.895065741024620820e+01,-1.078094805168310018e+02,-5.291763349287444385e+01,-1.154380672018324674e+02,-1.269356881904166130e+02,-1.094403704845574765e+02,-1.010539466671251887e+02,9.408499717712402344e+00,-8.414105772972106934e-01,0.000000000000000000e+00,4.850000000000000000e+02
-1.121335907493010637e+02,-5.580411773831827560e+01,-1.024856117863119209e+02,-4.780778281217732228e+01,-1.093521612100630023e+02,-1.227398456000201605e+02,-1.061578602079578104e+02,-9.590467572795928675e+01,9.408499717712402344e+00,-8.414105772972106934e-01,0.000000000000000000e+00,4.860000000000000000e+02
-1.078842515350899163e+02,-5.374517353162494970e+01,-9.650264670631878516e+01,-4.386593448772430293e+01,-1.018256675575789103e+02,-1.191143230984080787e+02,-1.013416185588106089e+02,-8.969795092493828292e+01,9.408499717712402344e+00,-8.414105772972106934e-01,0.000000000000000000e+00,4.870000000000000000e+02
-1.025318699893687437e+02,-5.220173641568105438e+01,-8.999354506430822198e+01,-4.086972951761219974e+01,-9.304407228909519745e+01,-1.156441504716130737e+02,-9.546799124548422810e+01,-8.206554994621356514e+01,9.408499717712402344e+00,-8.414105772972106934e-01,0.000000000000000000e+00,4.880000000000000000e+02
-9.607724257342013630e+01,-5.035216787051049891e+01,-8.296959490877276266e+01,-3.811064238361092293e+01,-8.340889518573180794e+01,-1.117268566430657870e+02,-8.952997946864581991e+01,-7.334154864442177768e+01,9.408499717712402344e+00,-8.414105772972106934e-01,0.000000000000000000e+00,4.890000000000000000e+02
-8.951579938549241433e+01,-4.757778467304927972e+01,-7.608414569671896288e+01,-3.518205174266847735e+01,-7.403670801683068703e+01,-1.074019017889211227e+02,-8.456480684976861539e+01,-6.504725873413815407e+01,9.408499717712402344e+00,-8.414105772972106934e-01,0.000000000000000000e+00,4.900000000000000000e+02
-8.456630081759658424e+01,-4.384630931489019190e+01,-7.085787240371092821e+01,-3.238246691735932359e+01,-6.671466204417185963e+01,-1.035510280213886745e+02,-8.118131701949846502e+01,-5.928342178274306207e+01,9.408499717712402344e+00,-8.414105772972106934e-01,0.000000000000000000e+00,4.910000000000000000e+02
-8.276329802739644492e+01,-3.977917701271358908e+01,-6.896033223724140271e+01,-3.036019802814257673e+01,-6.305372404670004016e+01,-1.012268577948138955e+02,-7.939844896653903561e+01,-5.744187613738660048e+01,9.408499717712402344e+00,-8.414105772972106934e-01,0.000000000000000000e+00,4.920000000000000000e+02
-8.449187968088278922e+01,-3.638362407699580103e+01,-7.108269408528360600e+01,-2.940287623984522725e+01,-6.345520171792952624e+01,-1.007454976142453233e+02,-7.885007857970697387e+01,-5.927140724678338302e+01,9.523238182067871094e+00,-7.649186849594116211e-01,-3.824593871831893921e-02,4.930000000000000000e+02
-8.859885526907851272e+01,-3.456987668115453971e+01,-7.631373925160835370e+01,-2.908060041946094998e+01,-6.676571832098329651e+01,-1.013585468168199668e+02,-7.908831986708537443e+01,-6.296537348737518869e+01,9.523238182067871094e+00,-7.649186849594116211e-01,-3.824593871831893921e-02,4.940000000000000000e+02
-9.286322242309705643e+01,-3.464597211564773716e+01,-8.251694108083893298e+01,-2.857754802458146060e+01,-7.091030803186549747e+01,-1.017362532121217100e+02,-7.968463198514132273e+01,-6.613907977209794353e+01,9.523238182067871094e+00,-7.649186849594116211e-01,-3.824593871831893921e-02,4.950000000000000000e+02
-9.511337541571458587e+01,-3.608519219690873570e+01,-8.745402083343640243e+01,-2.740118293256540483e+01,-7.401033170060054545e+01,-1.008169795331594969e+02,-8.015555842529192887e+01,-6.703219172553099270e+01,9.523238182067871094e+00,-7.649186849594116211e-01,-3.824593871831893921e-02,4.960000000000000000e+02
-9.440657841881568402e+01,-3.781694375833791355e+01,-8.992967431880970253e+01,-2.586961317667442017e+01,-7.523457550414855177e+01,-9.841368106265201732e+01,-8.002605090192912485e+01,-6.529504738636410366e+01,9.523238182067871094e+00,-7.649186849594116211e-01,-3.824593871831893921e-02,4.970000000000000000e+02
-9.160199657418490915e+01,-3.897712981116939090e+01,-9.028442660946734577e+01,-2.501493370382343073e+01,-7.495585325404169907e+01,-9.527415677772728486e+01,-7.917746458236433682e+01,-6.205764115412171122e+01,9.523238182067871094e+00,-7.649186849594116211e-01,-3.824593871831893921e-02,4.980000000000000000e+02
-8.891049800302027961e+01,-3.962114047581800946e+01,-8.998845701327968527e+01,-2.599338470665861678e+01,-7.427862093916701269e+01,-9.266623679734721009e+01,-7.816359941823270674e+01,-5.927413953657037382e+01,9.523238182067871094e+00,-7.649186849594116211e-01,-3.824593871831893921e-02,4.990000000000000000e+02
-8.856579890821831214e+01,-4.074310104438322355e+01,-9.059740217234116244e+01,-2.939055842494167337e+01,-7.426753880980982103e+01,-9.172125911903117412e+01,-7.797657703519530514e+01,-5.859083455832160325e+01,9.523238182067871094e+00,-7.649186849594116211e-01,-3.824593871831893921e-02,5.000000000000000000e+02
-9.134706485390961461e+01,-4.339433547389324985e+01,-9.268604202082894972e+01,-3.481202892152236927e+01,-7.526408752557563275e+01,-9.279969849506710489e+01,-7.921031116255062443e+01,-6.027829289998362583e+01,9.523238182067871094e+00,-7.649186849594116211e-01,-3.824593871831893921e-02,5.010000000000000000e+02
-9.590839189191353853e+01,-4.750391649314656206e+01,-9.541838084828759747e+01,-4.096433800192335184e+01,-7.664895521259336419e+01,-9.518765982780041668e+01,-8.129476601905253119e+01,-6.292448194461121602e+01,9.523238182067871094e+00,-7.649186849594116211e-01,-3.824593871831893921e-02,5.020000000000000000e+02
-9.945281779150025159e+01,-5.142272994517446705e+01,-9.705914668380160037e+01,-4.618257432643815719e+01,-7.722444215370728671e+01,-9.737351556451653778e+01,-8.260949775102540116e+01,-6.426642293758527558e+01,9.523238182067871094e+00,-7.649186849594116211e-01,-3.824593871831893921e-02,5.030000000000000000e+02
-9.938442387912118647e+01,-5.275121619887062252e+01,-9.611221674881380750e+01,-4.914892481766514720e+01,-7.603340953430301852e+01,-9.785277176486943063e+01,-8.156342763282736996e+01,-6.271738255307241161e+01,9.523238182067871094e+00,-7.649186849594116211e-01,-3.824593871831893921e-02,5.040000000000000000e+02
-9.484492107947176009e+01,-4.994172059071860303e+01,-9.230002451838845445e+01,-4.944188467165565726e+01,-7.304620922880076250e+01,-9.597395594120598616e+01,-7.777766065670266471e+01,-5.848056568257902654e+01,9.523238182067871094e+00,-7.649186849594116211e-01,-3.824593871831893921e-02,5.050000000000000000e+02
-8.711235144723173107e+01,-4.343752624037216492e+01,-8.670731654453788906e+01,-4.763585329136594737e+01,-6.918039822508217185e+01,-9.223204272793032032e+01,-7.234323447755582492e+01,-5.333901083364298756e+01,9.523238182067871094e+00,-7.649186849594116211e-01,-3.824593871831893921e-02,5.060000000000000000e+02
-7.867529531600666814e+01,-3.541384657375067491e+01,-8.105468241789367312e+01,-4.491845318317700730e+01,-6.564362710790805977e+01,-8.780521842428288437e+01,-6.694976562561600986e+01,-4.925524937094064626e+01,9.523238182067871094e+00,-7.649186849594116211e-01,-3.824593871831893921e-02,5.070000000000000000e+02
-7.173023715733438621e+01,-2.830998006227082442e+01,-7.669150323486837806e+01,-4.246362396203517164e+01,-6.315050747111354212e+01,-8.371619210202084105e+01,-6.267083779888662320e+01,-4.693185169663934175e+01,9.523238182067871094e+00,-7.649186849594116211e-01,-3.824593871831893921e-02,5.080000000000000000e+02
-6.711860714023100627e+01,-2.330380640979910822e+01,-7.399566626005616854e+01,-4.092022091027524766e+01,-6.162456009393554268e+01,-8.028856308408558107e+01,-5.941790430919627397e+01,-4.551059820152454449e+01,9.523238182067871094e+00,-7.649186849594116211e-01,-3.824593871831893921e-02,5.090000000000000000e+02
-6.424579762496114199e+01,-1.986617004013425003e+01,-7.244690346227389455e+01,-4.025806293500090760e+01,-6.050920384351275061e+01,-7.725379650401987419e+01,-5.636424518967942277e+01,-4.356986692127156857e+01,9.523238182067871094e+00,-7.649186849594116211e-01,-3.824593871831893921e-02,5.100000000000000000e+02
-6.179133912335987588e+01,-1.661148832286664856e+01,-7.112671323540484991e+01,-3.998118016258058560e+01,-5.928864425735764598e+01,-7.427478728975256672e+01,-5.280617986462175395e+01,-4.042842092515502372e+01,9.523238182067871094e+00,-7.649186849594116211e-01,-3.824593871831893921e-02,5.110000000000000000e+02
-5.861391780523240413e+01,-1.261836569509546280e+01,-6.924078220342289569e+01,-3.952448819157461912e+01,-5.775890243604044372e+01,-7.134237173860128678e+01,-4.871317514800830395e+01,-3.659400183878074131e+01,9.523238182067871094e+00,-7.649186849594116211e-01,-3.824593871831893921e-02,5.120000000000000000e+02
-5.438275865795958453e+01,-8.138511473001528884e+00,-6.647768899644142948e+01,-3.861949169478430122e+01,-5.596053072354334290e+01,-6.872520973063228666e+01,-4.466611731325428991e+01,-3.312947284050551389e+01,9.523238182067871094e+00,-7.649186849594116211e-01,-3.824593871831893921e-02,5.130000000000000000e+02
-4.974381723056558258e+01,-4.241413560512228287e+00,-6.318101292271626335e+01,-3.745925173492719296e+01,-5.402447895881687145e+01,-6.662277370778519980e+01,-4.141402902933486985e+01,-3.070367413753183428e+01,9.523238182067871094e+00,-7.649186849594116211e-01,-3.824593871831893921e-02,5.140000000000000000e+02
-4.599302506507092403e+01,-1.841142933985338459e+00,-6.024839099219548189e+01,-3.657756104374584538e+01,-5.213032566359470366e+01,-6.490372131828962665e+01,-3.940776345680660597e+01,-2.921914478234748458e+01,9.523238182067871094e+00,-7.649186849594116211e-01,-3.824593871831893921e-02,5.150000000000000000e+02
-4.433620052618084628e+01,-9.797084572688845583e-01,-5.864488009434535343e+01,-3.649159546468376902e+01,-5.052390898085150184e+01,-6.316457802922059273e+01,-3.853666145134093313e+01,-2.815474027185246086e+01,9.523238182067871094e+00,-7.649186849594116211e-01,-3.824593871831893921e-02,5.160000000000000000e+02
-4.506533685324143335e+01,-9.232930150295715066e-01,-5.868800780445144483e+01,-3.730725102252813485e+01,-4.944180243625532967e+01,-6.103120778994616558e+01,-3.815901230029476210e+01,-2.704543970172358058e+01,9.523238182067871094e+00,-7.649186849594116211e-01,-3.824593871831893921e-02,5.170000000000000000e+02
-4.723472824698228578e+01,-8.977905717609928615e-01,-5.964971929612738677e+01,-3.858591226614635161e+01,-4.894577804521168218e+01,-5.844145053112424648e+01,-3.744407682992959963e+01,-2.561535901302727325e+01,9.523238182067871094e+00,-7.649186849594116211e-01,-3.824593871831893921e-02,5.180000000000000000e+02
-4.925740350047021821e+01,-7.744222456025227075e-01,-6.021376996215212785e+01,-3.965278810921472541e+01,-4.887094546244452431e+01,-5.571373040496382600e+01,-3.592104211330934049e+01,-2.368615376609614032e+01,9.523238182067871094e+00,-7.649186849594116211e-01,-3.824593871831893921e-02,5.190000000000000000e+02
-5.013686969104401214e+01,-1.125338472753469432e+00,-5.963244005631258915e+01,-4.016937725133834647e+01,-4.901752286533792358e+01,-5.337934855973526282e+01,-3.389775128128167125e+01,-2.128044725663585268e+01,9.523238182067871094e+00,-8.031646609306335449e-01,-7.649187743663787842e-02,5.200000000000000000e+02
-5.033996926063900901e+01,-2.630219303453259272e+00,-5.862174749009636798e+01,-4.050843116775786257e+01,-4.943992162456743245e+01,-5.190844098226216374e+01,-3.236593235899226784e+01,-1.894761861379265611e+01,9.523238182067871094e+00,-8.031646609306335449e-01,-7.649187743663787842e-02,5.210000000000000000e+02
-5.144534022632024062e+01,-5.383455006247686470e+00,-5.904630429086955701e+01,-4.157029360125693529e+01,-5.054484897656948306e+01,-5.151622672010716997e+01,-3.236267482379116700e+01,-1.783271058867649117e+01,9.523238182067871094e+00,-8.031646609306335449e-01,-7.649187743663787842e-02,5.220000000000000000e+02
-5.474810215220441023e+01,-8.741309810227903654e+00,-6.245555447942842875e+01,-4.414897907994782145e+01,-5.286032730412125602e+01,-5.216749748577785795e+01,-3.425599106003573979e+01,-1.912851590530544854e+01,9.523238182067871094e+00,-8.031646609306335449e-01,-7.649187743663787842e-02,5.230000000000000000e+02
-6.005668677464609573e+01,-1.188272761199095839e+01,-6.869663834486254927e+01,-4.839293666951516570e+01,-5.666127230646179669e+01,-5.378609828856360764e+01,-3.757573173505898012e+01,-2.326175102994011468e+01,9.523238182067871094e+00,-8.031646609306335449e-01,-7.649187743663787842e-02,5.240000000000000000e+02
-6.588416445017628575e+01,-1.463793765711409378e+01,-7.595820750994107584e+01,-5.386817016533723290e+01,-6.179360114427436201e+01,-5.653164520820018879e+01,-4.156742001992552105e+01,-2.963787728372972197e+01,9.523238182067871094e+00,-8.031646609306335449e-01,-7.649187743663787842e-02,5.250000000000000000e+02
-7.094095040718730161e+01,-1.786405002489732396e+01,-8.235335973775272578e+01,-6.016514876456722050e+01,-6.787627085599478960e+01,-6.090974918115125547e+01,-4.598428813100053958e+01,-3.729943185853835530e+01,9.523238182067871094e+00,-8.031646609306335449e-01,-7.649187743663787842e-02,5.260000000000000000e+02
-7.550261328952819895e+01,-2.298441159278206669e+01,-8.763701553037162739e+01,-6.743396814843663378e+01,-7.470528932841034475e+01,-6.755326079153292085e+01,-5.138446832170939160e+01,-4.586961247743056447e+01,9.523238182067871094e+00,-8.031646609306335449e-01,-7.649187743663787842e-02,5.270000000000000000e+02
-8.121770899953344269e+01,-3.096969747158573227e+01,-9.338307706058139956e+01,-7.623242827236754238e+01,-8.243565124726956128e+01,-7.671766187988032470e+01,-5.860158849524123070e+01,-5.573672710033997646e+01,9.523238182067871094e+00,-8.031646609306335449e-01,-7.649187743663787842e-02,5.280000000000000000e+02
-8.939061504663368396e+01,-4.147782639815841321e+01,-1.013216229676295370e+02,-8.671073723695872104e+01,-9.128071137823189929e+01,-8.779967804865191283e+01,-6.779852272587504558e+01,-6.716565835840583532e+01,9.523238182067871094e+00,-8.031646609306335449e-01,-7.649187743663787842e-02,5.290000000000000000e+02
-9.933362622311733503e+01,-5.277260049091125893e+01,-1.113251289153336074e+02,-9.786089848489109499e+01,-1.009314771252275023e+02,-9.926878302164823253e+01,-7.791325425925788295e+01,-7.920716565294105749e+01,9.523238182067871094e+00,-8.031646609306335449e-01,-7.649187743663787842e-02,5.300000000000000000e+02
-1.084098960090368564e+02,-6.249516474954225487e+01,-1.209459870943564965e+02,-1.076118599511842149e+02,-1.102310831891700218e+02,-1.091650617544155466e+02,-8.701154465411855199e+01,-8.960797439872476389e+01,9.523238182067871094e+00,-8.031646609306335449e-01,-7.649187743663787842e-02,5.310000000000000000e+02
-1.138334345587418284e+02,-6.876585545276384437e+01,-1.270285576298124397e+02,-1.138584588473136137e+02,-1.175254007352377812e+02,-1.159303483541452806e+02,-9.333281306659591792e+01,-9.603417986438034859e+01,9.523238182067871094e+00,-8.031646609306335449e-01,-7.649187743663787842e-02,5.320000000000000000e+02
-1.146294463118119893e+02,-7.091145270350716601e+01,-1.279939386768942313e+02,-1.156742398436476833e+02,-1.215178290799185561e+02,-1.190394032716767470e+02,-9.623952519808517536e+01,-9.761446720261437804e+01,9.523238182067871094e+00,-8.031646609306335449e-01,-7.649187743663787842e-02,5.330000000000000000e+02
-1.120127948340882540e+02,-6.944713551940208163e+01,-1.247893643014435838e+02,-1.137667117336159208e+02,-1.219707753757475075e+02,-1.190178826158598895e+02,-9.637412295214471669e+01,-9.543646442822773679e+01,9.523238182067871094e+00,-8.031646609306335449e-01,-7.649187743663787842e-02,5.340000000000000000e+02
-1.079547088418912608e+02,-6.547104451144764425e+01,-1.197613757843414533e+02,-1.098346232064827745e+02,-1.196647947290548473e+02,-1.168792191177681161e+02,-9.496744101231979585e+01,-9.156136442960132626e+01,9.523238182067871094e+00,-8.031646609306335449e-01,-7.649187743663787842e-02,5.350000000000000000e+02
-1.033837425982510467e+02,-5.996141233341040788e+01,-1.146276664084116419e+02,-1.053661017703952893e+02,-1.156766512561216587e+02,-1.134403663643797699e+02,-9.290482168760809145e+01,-8.744358656039594280e+01,9.523238182067871094e+00,-8.031646609306335449e-01,-7.649187743663787842e-02,5.360000000000000000e+02
-9.771686865618676165e+01,-5.344490421956811588e+01,-1.094406995906811062e+02,-1.008347279029812853e+02,-1.106769613115839093e+02,-1.090359627927145993e+02,-9.030201969695735897e+01,-8.312343519576006656e+01,9.523238182067871094e+00,-8.031646609306335449e-01,-7.649187743663787842e-02,5.370000000000000000e+02
-9.005810841046604764e+01,-4.617698287837220050e+01,-1.033497533562040189e+02,-9.585943442054531261e+01,-1.048860351223793259e+02,-1.037582272772169745e+02,-8.682579184800943040e+01,-7.778711062843376567e+01,9.523238182067871094e+00,-8.031646609306335449e-01,-7.649187743663787842e-02,5.380000000000000000e+02
-8.083005875055232536e+01,-3.861360362318441730e+01,-9.623264926799674868e+01,-9.010044297871127128e+01,-9.864566764430765033e+01,-9.790930280354587012e+01,-8.235504849287372053e+01,-7.107597551763046795e+01,9.523238182067871094e+00,-8.031646609306335449e-01,-7.649187743663787842e-02,5.390000000000000000e+02
-7.222907081284392916e+01,-3.174966779954183949e+01,-8.951898629822153453e+01,-8.410681242106329591e+01,-9.291950633824490069e+01,-9.222601546154055541e+01,-7.734620241624725168e+01,-6.393707380596060830e+01,9.523238182067871094e+00,-8.031646609306335449e-01,-7.649187743663787842e-02,5.400000000000000000e+02
-6.700070342818617064e+01,-2.697377935422809969e+01,-8.539358771539900772e+01,-7.938375108790387458e+01,-8.909012347997031611e+01,-8.767643742851942079e+01,-7.263852167771437962e+01,-5.825809045772166428e+01,9.523238182067871094e+00,-8.031646609306335449e-01,-7.649187743663787842e-02,5.410000000000000000e+02
-6.654470919434515963e+01,-2.543179142561257322e+01,-8.512382850265566958e+01,-7.756378552124579073e+01,-8.813174587621597311e+01,-8.500894048098962230e+01,-6.898087077223863162e+01,-5.559526398958678328e+01,9.523238182067871094e+00,-8.031646609306335449e-01,-7.649187743663787842e-02,5.420000000000000000e+02
-6.990965613949447288e+01,-2.728035272275269563e+01,-8.800840696838622534e+01,-7.924484551289287992e+01,-8.987984776860594138e+01,-8.437932786948658759e+01,-6.672779168833585572e+01,-5.604025289604578575e+01,9.523238182067871094e+00,-8.031646609306335449e-01,-7.649187743663787842e-02,5.430000000000000000e+02
-7.445270390482710354e+01,-3.138396522364359953e+01,-9.181307882769669959e+01,-8.334788913284592127e+01,-9.304389163348787406e+01,-8.525550761894282914e+01,-6.585702421320365829e+01,-5.811045149237725127e+01,9.523238182067871094e+00,-8.031646609306335449e-01,-7.649187743663787842e-02,5.440000000000000000e+02
-7.756963901680137496e+01,-3.576912809455757269e+01,-9.423493717163091787e+01,-8.752283282043572399e+01,-9.594399354625147680e+01,-8.660194909013171127e+01,-6.608940696651279723e+01,-5.972623552444201778e+01,9.523238182067871094e+00,-8.031646609306335449e-01,-7.649187743663787842e-02,5.450000000000000000e+02
-7.814478056763437053e+01,-3.861688318215396976e+01,-9.417686121502720198e+01,-8.940894414962076553e+01,-9.737971786057823920e+01,-8.725114622220371530e+01,-6.690610513520005043e+01,-5.951377407961626886e+01,9.523238182067871094e+00,-8.031646609306335449e-01,-7.649187743663787842e-02,5.460000000000000000e+02
-7.672872843614277372e+01,-3.914512415356693964e+01,-9.194550170836282632e+01,-8.791697583351106005e+01,-9.702268649115012522e+01,-8.633976443801657297e+01,-6.754655879128404194e+01,-5.745094307534236577e+01,9.523238182067871094e+00,-8.031646609306335449e-01,-7.649187743663787842e-02,5.470000000000000000e+02
-7.452835461272843531e+01,-3.778134867305220723e+01,-8.847079051454238652e+01,-8.364173751826456282e+01,-9.517542940728708345e+01,-8.363147137365740491e+01,-6.720268461547493644e+01,-5.444415184831268562e+01,9.523238182067871094e+00,-8.031646609306335449e-01,-7.649187743663787842e-02,5.480000000000000000e+02
-7.219587313605916279e+01,-3.556178717256921118e+01,-8.436607376692245452e+01,-7.815174206990104722e+01,-9.222456618533396977e+01,-7.952745194973613252e+01,-6.540516213834234804e+01,-5.127918284510633384e+01,9.523238182067871094e+00,-8.031646609306335449e-01,-7.649187743663787842e-02,5.490000000000000000e+02
-6.940638632906848215e+01,-3.325942356425912294e+01,-7.957772084609860030e+01,-7.276030959974013967e+01,-8.824808421674060810e+01,-7.470973047317966120e+01,-6.228140115961650736e+01,-4.787403570554943144e+01,9.523238182067871094e+00,-8.031646609306335449e-01,-7.649187743663787842e-02,5.500000000000000000e+02
-6.542658712255433784e+01,-3.088074515476955639e+01,-7.375634165365227091e+01,-6.776984035511486582e+01,-8.304883680410694069e+01,-6.966143713105338975e+01,-5.841970748978746997e+01,-4.345889163940046274e+01,9.523238182067871094e+00,-7.649186849594116211e-01,0.000000000000000000e+00,5.510000000000000000e+02
-6.002702999860866839e+01,-2.782077145655284767e+01,-6.689208978536225914e+01,-6.272576984538955003e+01,-7.656691840608164057e+01,-6.447183902818687784e+01,-5.445888850678238668e+01,-3.749672470522909862e+01,9.523238182067871094e+00,-7.649186849594116211e-01,0.000000000000000000e+00,5.520000000000000000e+02
-5.390592650276721542e+01,-2.345989435288515779e+01,-5.965243068379095348e+01,-5.732906330007517681e+01,-6.932909147079772083e+01,-5.910786106223167735e+01,-5.079291059789102292e+01,-3.053519107669853838e+01,9.523238182067871094e+00,-7.649186849594116211e-01,0.000000000000000000e+00,5.530000000000000000e+02
-4.830519563521374948e+01,-1.776155632099835202e+01,-5.317358517359934922e+01,-5.210896815076648636e+01,-6.251038210959995922e+01,-5.387711115723323019e+01,-4.761801396084956650e+01,-2.421986053448472376e+01,9.523238182067871094e+00,-7.649186849594116211e-01,0.000000000000000000e+00,5.540000000000000000e+02
-4.422441591158076335e+01,-1.153376569031888721e+01,-4.847586485973624804e+01,-4.823359979950146226e+01,-5.741529995026394317e+01,-4.955270995457067329e+01,-4.512254663294879720e+01,-2.037895125054092205e+01,9.523238182067871094e+00,-7.649186849594116211e-01,0.000000000000000000e+00,5.550000000000000000e+02
-4.190211435055152833e+01,-6.239141086868357888e+00,-4.589629627267640899e+01,-4.662668031607518060e+01,-5.466029730555419519e+01,-4.691818580088875024e+01,-4.347695207437573117e+01,-1.980960426906676730e+01,9.523238182067871094e+00,-7.649186849594116211e-01,0.000000000000000000e+00,5.560000000000000000e+02
-4.087802621017817728e+01,-3.388192481082342056e+00,-4.487282867636440642e+01,-4.716335794343740417e+01,-5.369729241065397218e+01,-4.608495583711555810e+01,-4.257549744979223760e+01,-2.163966395774787088e+01,9.523238182067871094e+00,-7.649186849594116211e-01,0.000000000000000000e+00,5.570000000000000000e+02
-4.041481810911136563e+01,-3.711236232596093032e+00,-4.418646467108283105e+01,-4.861408472302537120e+01,-5.314800381098575599e+01,-4.623733681199337298e+01,-4.184300843183518737e+01,-2.377447875031793956e+01,9.523238182067871094e+00,-7.649186849594116211e-01,0.000000000000000000e+00,5.580000000000000000e+02
-3.987936545971297164e+01,-6.531732803198565307e+00,-4.255108005152760597e+01,-4.936070685826234694e+01,-5.178058348072590888e+01,-4.612624059498375573e+01,-4.044841919216014503e+01,-2.418725888148492231e+01,9.523238182067871094e+00,-7.649186849594116211e-01,0.000000000000000000e+00,5.590000000000000000e+02
-3.893250168354734342e+01,-9.887842186957641388e+00,-3.931133656026668177e+01,-4.834699842976988293e+01,-4.938238721195375547e+01,-4.495211888554331381e+01,-3.786545307700362173e+01,-2.223281345882969617e+01,9.523238182067871094e+00,-7.649186849594116211e-01,0.000000000000000000e+00,5.600000000000000000e+02
-3.764477335907304223e+01,-1.162964404100125648e+01,-3.492535913679512305e+01,-4.565471947406149411e+01,-4.685096994924424507e+01,-4.291294951620875509e+01,-3.435718974725205044e+01,-1.909798264044638927e+01,9.523238182067871094e+00,-7.649186849594116211e-01,0.000000000000000000e+00,5.610000000000000000e+02
-3.663379725581853563e+01,-1.095429028208809541e+01,-3.092421198850479414e+01,-4.243718942365194380e+01,-4.548968460977630457e+01,-4.100404533978871768e+01,-3.098881503677148430e+01,-1.702887056948839017e+01,9.523238182067871094e+00,-7.649186849594116211e-01,0.000000000000000000e+00,5.620000000000000000e+02
-3.705635506072667340e+01,-9.235625848459676490e+00,-2.923507695706030063e+01,-4.032637533417710074e+01,-4.612759238802755135e+01,-4.029836231747685815e+01,-2.912909073701666784e+01,-1.782486111053731292e+01,9.523238182067871094e+00,-7.649186849594116211e-01,0.000000000000000000e+00,5.630000000000000000e+02
-4.019595856663454470e+01,-9.287378232121682231e+00,-3.113750475155029562e+01,-4.063962029083540983e+01,-4.873677081280948187e+01,-4.131869589903544693e+01,-2.975381205817757291e+01,-2.166046365199690626e+01,9.523238182067871094e+00,-7.649186849594116211e-01,0.000000000000000000e+00,5.640000000000000000e+02
-4.668553408150546602e+01,-1.338620727442139469e+01,-3.645200693291189964e+01,-4.374836900572609011e+01,-5.267384469711214479e+01,-4.391141891884944926e+01,-3.292981992262321000e+01,-2.709192437756246363e+01,9.523238182067871094e+00,-7.649186849594116211e-01,0.000000000000000000e+00,5.650000000000000000e+02
-5.584262785903410986e+01,-2.151870385325037205e+01,-4.352966601971274940e+01,-4.890420925646321848e+01,-5.715968348710521241e+01,-4.753535863408978912e+01,-3.774562647636048496e+01,-3.219020556525629218e+01,9.523238182067871094e+00,-7.649186849594116211e-01,0.000000000000000000e+00,5.660000000000000000e+02
-6.567272997405416390e+01,-3.127007341753369474e+01,-5.008427417074381083e+01,-5.460634782298257051e+01,-6.155173968750386848e+01,-5.155934988112858264e+01,-4.271575439546359121e+01,-3.581170774678957969e+01,9.523238182067871094e+00,-7.649186849594116211e-01,0.000000000000000000e+00,5.670000000000000000e+02
-7.368033831190496130e+01,-3.946093182071581396e+01,-5.429340893235348631e+01,-5.929699821731264819e+01,-6.529776832308743906e+01,-5.528848529788047017e+01,-4.644034929091503727e+01,-3.794875367194345017e+01,9.523238182067871094e+00,-7.649186849594116211e-01,0.000000000000000000e+00,5.680000000000000000e+02
-7.804824164805540931e+01,-4.419364317930421748e+01,-5.542813111304531049e+01,-6.196272227663666854e+01,-6.780219684588882956e+01,-5.784961763942192192e+01,-4.816246475473599276e+01,-3.899974915460825287e+01,9.523238182067871094e+00,-7.649186849594116211e-01,0.000000000000000000e+00,5.690000000000000000e+02
-7.846944989069834264e+01,-4.571855493597740860e+01,-5.372016764351428719e+01,-6.232113973843934218e+01,-6.844977655113507353e+01,-5.828389213923037460e+01,-4.790588716578349704e+01,-3.883814338280080847e+01,9.523238182067871094e+00,-7.649186849594116211e-01,0.000000000000000000e+00,5.700000000000000000e+02
-7.616895108307471673e+01,-4.566611254949793874e+01,-4.986169372490621754e+01,-6.063140437453239429e+01,-6.685530961477888923e+01,-5.601397890852604178e+01,-4.618623855615987850e+01,-3.674884290323461755e+01,9.523238182067871094e+00,-7.649186849594116211e-01,0.000000000000000000e+00,5.710000000000000000e+02
-7.319334885056196072e+01,-4.560832411842829970e+01,-4.475007557695062133e+01,-5.748584479350756737e+01,-6.321682457111273834e+01,-5.144149522101179173e+01,-4.364184320926506189e+01,-3.242210857676946034e+01,9.523238182067871094e+00,-8.414105772972106934e-01,0.000000000000000000e+00,5.720000000000000000e+02
-7.143739199945048313e+01,-4.626214976755545649e+01,-3.960975981435149151e+01,-5.383189714603668108e+01,-5.852846191605931381e+01,-4.614440301463400829e+01,-4.093156540870404569e+01,-2.704689799332845723e+01,9.523238182067871094e+00,-8.414105772972106934e-01,0.000000000000000000e+00,5.730000000000000000e+02
-7.190890768083590956e+01,-4.774530131922165310e+01,-3.602012541997282824e+01,-5.104599283748757443e+01,-5.442341875060992606e+01,-4.231799613267139648e+01,-3.888248507172829704e+01,-2.326287331829917093e+01,9.523238182067871094e+00,-8.414105772972106934e-01,0.000000000000000000e+00,5.740000000000000000e+02
-7.448989206127407670e+01,-5.018750842662666400e+01,-3.536169150340901979e+01,-5.063571688080628519e+01,-5.256742285830296169e+01,-4.165684199558018008e+01,-3.849793077659705887e+01,-2.367256044468376786e+01,9.523238182067871094e+00,-8.414105772972106934e-01,0.000000000000000000e+00,5.750000000000000000e+02
-7.818325278732118022e+01,-5.382525110051165029e+01,-3.787084853178384947e+01,-5.345392464787346398e+01,-5.383753167241411575e+01,-4.438790710077591939e+01,-4.052954205308924429e+01,-2.896092023890378186e+01,9.523238182067871094e+00,-8.414105772972106934e-01,0.000000000000000000e+00,5.760000000000000000e+02
-8.167698367126467929e+01,-5.850065112961374325e+01,-4.216580672100826632e+01,-5.890810718768989318e+01,-5.779143984655456734e+01,-4.916164396590284014e+01,-4.483606339735706570e+01,-3.714226558759219188e+01,9.523238182067871094e+00,-8.414105772972106934e-01,0.000000000000000000e+00,5.770000000000000000e+02
-8.397224055073638738e+01,-6.325837283452347037e+01,-4.593793147913493158e+01,-6.492739633532073640e+01,-6.286242516242418787e+01,-5.391236280098928546e+01,-5.013423751127083960e+01,-4.465229369866210618e+01,9.523238182067871094e+00,-8.414105772972106934e-01,0.000000000000000000e+00,5.780000000000000000e+02
-8.479380442536967166e+01,-6.668068617270182585e+01,-4.748713458913516661e+01,-6.899515882793002675e+01,-6.725479826693481300e+01,-5.707292771298489242e+01,-5.454196958533430006e+01,-4.854716947336783051e+01,9.523238182067871094e+00,-8.414105772972106934e-01,0.000000000000000000e+00,5.790000000000000000e+02
-8.458363287905376637e+01,-6.780331258554861051e+01,-4.689106309825729113e+01,-6.965036253546713851e+01,-6.994366734910909145e+01,-5.828435371174964530e+01,-5.661656961173503078e+01,-4.820232307121659687e+01,9.523238182067871094e+00,-8.414105772972106934e-01,0.000000000000000000e+00,5.800000000000000000e+02
-8.409955926999282383e+01,-6.681502025588770266e+01,-4.577384246242218069e+01,-6.736805228450793948e+01,-7.107248150874511339e+01,-5.819443451451479632e+01,-5.612501067238554242e+01,-4.532694483385057538e+01,9.523238182067871094e+00,-8.414105772972106934e-01,0.000000000000000000e+00,5.810000000000000000e+02
-8.389787150115080294e+01,-6.494107153739923888e+01,-4.583943213986094634e+01,-6.414995979043123953e+01,-7.151489764015059336e+01,-5.768787111856727279e+01,-5.401209414775803452e+01,-4.245344323119206820e+01,9.523238182067871094e+00,-8.414105772972106934e-01,0.000000000000000000e+00,5.820000000000000000e+02
-8.408148695690942986e+01,-6.365513212438918345e+01,-4.745833966196551046e+01,-6.216471754587837495e+01,-7.203797190129625960e+01,-5.727669594106191653e+01,-5.170111563110913266e+01,-4.120708450906204234e+01,9.523238182067871094e+00,-8.414105772972106934e-01,0.000000000000000000e+00,5.830000000000000000e+02
-8.449140420327967149e+01,-6.391174335452524247e+01,-4.953759718967558001e+01,-6.249832137318844616e+01,-7.278664942907016666e+01,-5.708619424743119453e+01,-5.034228429917129688e+01,-4.166052903612580849e+01,9.523238182067871094e+00,-8.414105772972106934e-01,0.000000000000000000e+00,5.840000000000000000e+02
-8.512510279202433594e+01,-6.592389987770184234e+01,-5.070999402780944365e+01,-6.486548902587128396e+01,-7.343941266675756196e+01,-5.722603504196194990e+01,-5.048417712521404610e+01,-4.303814729784608062e+01,9.523238182067871094e+00,-8.414105772972106934e-01,0.000000000000000000e+00,5.850000000000000000e+02
-8.634480126991729776e+01,-6.941649408238890828e+01,-5.068707485828781500e+01,-6.827314282775660104e+01,-7.379040886675647926e+01,-5.802438820219140325e+01,-5.218203683272804483e+01,-4.489127500092945411e+01,9.523238182067871094e+00,-8.414105772972106934e-01,0.000000000000000000e+00,5.860000000000000000e+02
-8.863806478122569388e+01,-7.392042705251242296e+01,-5.053662891954081715e+01,-7.189320778198271000e+01,-7.417307395395073399e+01,-5.984019070213253144e+01,-5.523235572458725073e+01,-4.757452355213899864e+01,9.523238182067871094e+00,-8.414105772972106934e-01,0.000000000000000000e+00,5.870000000000000000e+02
