F3,F4,C3,C4,P3,P4,Cz,Pz,Accel_x,Accel_y,Accel_z,Sample
-5.729816621169447899e-11,-7.548806024715304375e-11,-3.274180926382541656e-11,-5.820766091346740723e-11,-6.912159733474254608e-11,-9.458744898438453674e-11,-5.456968210637569427e-11,-4.274625098332762718e-11,9.446745872497558594e+00,-9.561483860015869141e-01,-1.529837548732757568e-01,2.250000000000000000e+02
-4.316124103197125805e+01,-3.647171840553346556e+01,-1.901214320444341865e+01,-3.789045959262875840e+01,-5.304997138378894306e+01,-5.336504258685999957e+01,-1.705747113320558128e+01,-2.802425104805843148e+01,9.446745872497558594e+00,-9.561483860015869141e-01,-1.529837548732757568e-01,2.260000000000000000e+02
-8.518872357254895178e+01,-7.171297704618700664e+01,-3.884349449401361198e+01,-6.714125158627393830e+01,-9.660274798290265608e+01,-9.747203029856609646e+01,-3.487079002388600202e+01,-5.139695167353147554e+01,9.446745872497558594e+00,-9.561483860015869141e-01,-1.529837548732757568e-01,2.270000000000000000e+02
-1.256880021705283070e+02,-1.052180324749069769e+02,-5.963128794934800680e+01,-8.620180250437260838e+01,-1.294841020829608169e+02,-1.307728071111505415e+02,-5.383347863447761483e+01,-6.945012573739131767e+01,9.446745872497558594e+00,-9.561483860015869141e-01,-1.529837548732757568e-01,2.280000000000000000e+02
-1.649029411623669148e+02,-1.376471172711990221e+02,-8.058607367563399748e+01,-1.010396894453806453e+02,-1.589811460984956284e+02,-1.597312796959504340e+02,-7.382731944609440689e+01,-8.562230877599631640e+01,9.523238182067871094e+00,-9.179025292396545410e-01,-1.529837548732757568e-01,2.290000000000000000e+02
-2.029204114438916804e+02,-1.706383713915820408e+02,-1.003576344388611687e+02,-1.189706561390958086e+02,-1.930599708371155430e+02,-1.919137830225645303e+02,-9.432745154851090774e+01,-1.038201801003206128e+02,9.523238182067871094e+00,-9.179025292396545410e-01,-1.529837548732757568e-01,2.300000000000000000e+02
-2.391631470305419498e+02,-2.058724947229466125e+02,-1.178058843179405812e+02,-1.422853459451253002e+02,-2.327979045141473762e+02,-2.291382342246561166e+02,-1.146555227232338439e+02,-1.248205590152956574e+02,9.523238182067871094e+00,-9.179025292396545410e-01,-1.529837548732757568e-01,2.310000000000000000e+02
-2.728399371355726544e+02,-2.438432505578357450e+02,-1.327071446046129495e+02,-1.675838590418898093e+02,-2.723564080127107445e+02,-2.671909722721266007e+02,-1.342269669116640216e+02,-1.461498096009145229e+02,9.523238182067871094e+00,-9.179025292396545410e-01,-1.529837548732757568e-01,2.320000000000000000e+02
-3.039072029550343359e+02,-2.832538824627517897e+02,-1.459771126666228156e+02,-1.904527028743759729e+02,-3.056843661389539193e+02,-3.013699425066424737e+02,-1.527452996386573432e+02,-1.651059607207835143e+02,9.523238182067871094e+00,-9.179025292396545410e-01,-1.529837548732757568e-01,2.330000000000000000e+02
-3.334815643354204440e+02,-3.216435226824469282e+02,-1.592826425994653619e+02,-2.099927144901375868e+02,-3.325822496497758038e+02,-3.314285152645006747e+02,-1.703484148514316985e+02,-1.815497654786076964e+02,9.523238182067871094e+00,-9.179025292396545410e-01,-1.529837548732757568e-01,2.340000000000000000e+02
-3.631937328381909538e+02,-3.568752233479817733e+02,-1.742357391167824971e+02,-2.287894918620513636e+02,-3.582843363963665979e+02,-3.610554803229442768e+02,-1.876050553600643980e+02,-1.977721319421289081e+02,9.523238182067871094e+00,-9.179025292396545410e-01,-1.529837548732757568e-01,2.350000000000000000e+02
-3.940785197130207962e+02,-3.883646757354908914e+02,-1.915897897205932168e+02,-2.492873188172397931e+02,-3.878954007475776962e+02,-3.933562279804500577e+02,-2.052417474088006202e+02,-2.160177498511602607e+02,9.523238182067871094e+00,-9.179025292396545410e-01,-1.529837548732757568e-01,2.360000000000000000e+02
-4.260569326810136772e+02,-4.171551899786027207e+02,-2.108572071845665050e+02,-2.710424848321144964e+02,-4.218544868153248899e+02,-4.276869896784264711e+02,-2.236676755204971414e+02,-2.364310000626664987e+02,9.523238182067871094e+00,-9.179025292396545410e-01,-1.529837548732757568e-01,2.370000000000000000e+02
-4.583834779069011347e+02,-4.449541641444093329e+02,-2.305540460742804498e+02,-2.916067582798441435e+02,-4.565321912468880328e+02,-4.609056437091549014e+02,-2.426146041033189249e+02,-2.572763947655303127e+02,9.523238182067871094e+00,-9.179025292396545410e-01,-1.529837548732757568e-01,2.380000000000000000e+02
-4.904364619587213383e+02,-4.730555166484491565e+02,-2.489541390994363610e+02,-3.094761265418919720e+02,-4.883265102443219803e+02,-4.909807098933233647e+02,-2.612302212846589100e+02,-2.767347418469353215e+02,9.523238182067871094e+00,-9.179025292396545410e-01,-1.529837548732757568e-01,2.390000000000000000e+02
-5.219924301855471640e+02,-5.019106737289766897e+02,-2.649501920236389196e+02,-3.256023303904994464e+02,-5.166181587301362015e+02,-5.187869255901987344e+02,-2.786286376137768457e+02,-2.942612975724987336e+02,9.523238182067871094e+00,-9.179025292396545410e-01,-1.529837548732757568e-01,2.400000000000000000e+02
-5.528527706296054021e+02,-5.313226511422690237e+02,-2.785499199705509454e+02,-3.420698483772621330e+02,-5.431473731187488738e+02,-5.465448355075059226e+02,-2.944760557172903646e+02,-3.104321875242940223e+02,9.523238182067871094e+00,-9.179025292396545410e-01,-1.529837548732757568e-01,2.410000000000000000e+02
-5.824897703631113473e+02,-5.607435633159566351e+02,-2.907482431365142475e+02,-3.597749546093345998e+02,-5.694834225602326114e+02,-5.751527754517373978e+02,-3.091255132923970450e+02,-3.259295408989182761e+02,9.523238182067871094e+00,-9.179025292396545410e-01,-1.529837548732757568e-01,2.420000000000000000e+02
-6.103092974035498628e+02,-5.893686249199636222e+02,-3.028955704590443929e+02,-3.776770000660480946e+02,-5.956454138893923300e+02,-6.033898335733447311e+02,-3.232148621782707778e+02,-3.408991854608539143e+02,9.523238182067871094e+00,-9.179025292396545410e-01,-1.529837548732757568e-01,2.430000000000000000e+02
-6.362995553540731635e+02,-6.162347289642821124e+02,-3.159709324345521964e+02,-3.941159338053430474e+02,-6.208675887200788566e+02,-6.294467289712683851e+02,-3.371588698780888080e+02,-3.551288797005508968e+02,9.523238182067871094e+00,-9.179025292396545410e-01,-1.529837548732757568e-01,2.440000000000000000e+02
-6.612876550953387778e+02,-6.406608257941979900e+02,-3.301958510790427681e+02,-4.085107760202799909e+02,-6.450184884216469072e+02,-6.527889354901726620e+02,-3.510450538897457591e+02,-3.685668629116698867e+02,9.523238182067871094e+00,-9.179025292396545410e-01,-1.529837548732757568e-01,2.450000000000000000e+02
-6.863842725388785766e+02,-6.629002090536114338e+02,-3.451581500122456418e+02,-4.217386829671368105e+02,-6.689482956080237273e+02,-6.744949965222331230e+02,-3.649700905211275312e+02,-3.815927922858263628e+02,9.523238182067871094e+00,-9.179025292396545410e-01,-1.529837548732757568e-01,2.460000000000000000e+02
-7.121016357142880224e+02,-6.843902624068005025e+02,-3.602427317353713079e+02,-4.351897711430201525e+02,-6.936781667909172029e+02,-6.961913802555627626e+02,-3.793433610764923287e+02,-3.949290714212866078e+02,9.523238182067871094e+00,-9.179025292396545410e-01,-1.529837548732757568e-01,2.470000000000000000e+02
-7.380392048635603715e+02,-7.071511738432300263e+02,-3.749979964164904231e+02,-4.497266732445732487e+02,-7.195585983796472647e+02,-7.189719228185240354e+02,-3.946924644906357571e+02,-4.093728443214076833e+02,9.523238182067871094e+00,-9.179025292396545410e-01,-1.529837548732757568e-01,2.480000000000000000e+02
-7.634456939957572104e+02,-7.325982706572467578e+02,-3.892126203405532578e+02,-4.654384407974976057e+02,-7.461615289047012993e+02,-7.431428768889863932e+02,-4.110810508658532854e+02,-4.254420430363625201e+02,9.523238182067871094e+00,-9.179025292396545410e-01,-1.529837548732757568e-01,2.490000000000000000e+02
-7.880272236146383875e+02,-7.605893342265990213e+02,-4.027694155873059572e+02,-4.819976739487019586e+02,-7.726483776285422209e+02,-7.684634274274139898e+02,-4.277622347814485693e+02,-4.429891836534507092e+02,9.523238182067871094e+00,-9.179025292396545410e-01,-1.529837548732757568e-01,2.500000000000000000e+02
-8.121227788705300554e+02,-7.894154844652803149e+02,-4.155196355543557729e+02,-4.989693940595379900e+02,-7.980694647073423766e+02,-7.942787614389981172e+02,-4.435643741042849797e+02,-4.610231479045532978e+02,9.523238182067871094e+00,-9.179025292396545410e-01,-1.529837548732757568e-01,2.510000000000000000e+02
-8.360730684456257222e+02,-8.167494424294195596e+02,-4.273232643127694246e+02,-5.158392756996809112e+02,-8.215492328720383739e+02,-8.195628431325540078e+02,-4.577705213102763082e+02,-4.780530937276462282e+02,9.523238182067871094e+00,-9.179025292396545410e-01,-1.529837548732757568e-01,2.520000000000000000e+02
-8.595135919198246484e+02,-8.408982792240844901e+02,-4.381748528522266497e+02,-5.320065099463463412e+02,-8.426040644892091223e+02,-8.432538955267855272e+02,-4.706810522231226059e+02,-4.928736053814900515e+02,9.523238182067871094e+00,-9.179025292396545410e-01,-1.529837548732757568e-01,2.530000000000000000e+02
-8.814630999774531119e+02,-8.615666833617628981e+02,-4.482490779285340068e+02,-5.469374893413396421e+02,-8.615288279463411527e+02,-8.648514406083859285e+02,-4.832787519932835494e+02,-5.052326507581537953e+02,9.484992027282714844e+00,-9.561483860015869141e-01,-1.912296712398529053e-01,2.540000000000000000e+02
-9.012332767408074687e+02,-8.797478089846913463e+02,-4.578230121329002031e+02,-5.603641578237538852e+02,-8.794156955976186509e+02,-8.847237630691843151e+02,-4.962721950153572834e+02,-5.158357199864567519e+02,9.484992027282714844e+00,-9.561483860015869141e-01,-1.912296712398529053e-01,2.550000000000000000e+02
-9.192622047148938691e+02,-8.969326062312338763e+02,-4.671818542814926332e+02,-5.723332883259472510e+02,-8.975894366482807527e+02,-9.037499091699546625e+02,-5.094084189485083698e+02,-5.257251342857080090e+02,9.484992027282714844e+00,-9.561483860015869141e-01,-1.912296712398529053e-01,2.560000000000000000e+02
-9.369765817650886675e+02,-9.141967041481884735e+02,-4.766046851757532750e+02,-5.831329888105210557e+02,-9.168396578029596640e+02,-9.226287804531666552e+02,-5.216829059126584980e+02,-5.356412287314133209e+02,9.484992027282714844e+00,-9.561483860015869141e-01,-1.912296712398529053e-01,2.570000000000000000e+02
-9.557105886781496338e+02,-9.317357792982952560e+02,-4.863643753449919132e+02,-5.932310019375572665e+02,-9.370546776512619545e+02,-9.415094061740337565e+02,-5.322069092226997782e+02,-5.458524825681506627e+02,9.484992027282714844e+00,-9.561483860015869141e-01,-1.912296712398529053e-01,2.580000000000000000e+02
-9.756542973297650860e+02,-9.490906537276705421e+02,-4.966124858608995964e+02,-6.032129938045673043e+02,-9.574521403764774732e+02,-9.601695023061411121e+02,-5.409110368128831396e+02,-5.563447907434256194e+02,9.484992027282714844e+00,-9.561483860015869141e-01,-1.912296712398529053e-01,2.590000000000000000e+02
-9.957914911483217111e+02,-9.658334420277292338e+02,-5.071695761881337603e+02,-6.135928553160465526e+02,-9.770666995145375040e+02,-9.783671196768236769e+02,-5.485152026182049667e+02,-5.669432380674370506e+02,9.484992027282714844e+00,-9.561483860015869141e-01,-1.912296712398529053e-01,2.600000000000000000e+02
-1.014850144965523668e+03,-9.821671010814484362e+02,-5.174740338303558929e+02,-6.245312871103606085e+02,-9.951168700691005142e+02,-9.959574698958094814e+02,-5.559792771684110448e+02,-5.772505542928238356e+02,9.484992027282714844e+00,-9.561483860015869141e-01,-1.912296712398529053e-01,2.610000000000000000e+02
-1.032374574521831164e+03,-9.989275386797366991e+02,-5.268791714905391927e+02,-6.357390683787552916e+02,-1.011206890186428609e+03,-1.012819789848195796e+03,-5.640553031905315038e+02,-5.867161020934381668e+02,9.484992027282714844e+00,-9.561483860015869141e-01,-1.912296712398529053e-01,2.620000000000000000e+02
-1.048974863739299963e+03,-1.016926126689298599e+03,-5.351271907965037826e+02,-6.467392543508558447e+02,-1.025470172918010576e+03,-1.028892873641471851e+03,-5.732149490948904713e+02,-5.950465739914207006e+02,9.484992027282714844e+00,-9.561483860015869141e-01,-1.912296712398529053e-01,2.630000000000000000e+02
-1.065630817309870054e+03,-1.036140687175544826e+03,-5.425510078645370413e+02,-6.572707978337020904e+02,-1.038583326247972764e+03,-1.044355289508615897e+03,-5.836717132819799190e+02,-6.026216758551163366e+02,9.484992027282714844e+00,-9.561483860015869141e-01,-1.912296712398529053e-01,2.640000000000000000e+02
-1.082764644610708729e+03,-1.055454024004450730e+03,-5.497406648810733714e+02,-6.674029506042861613e+02,-1.051457280013587479e+03,-1.059622569480981838e+03,-5.951554231880045336e+02,-6.103306016615752014e+02,9.484992027282714844e+00,-9.561483860015869141e-01,-1.912296712398529053e-01,2.650000000000000000e+02
-1.099874955415714794e+03,-1.073258793706710549e+03,-5.569236140128773513e+02,-6.772226337209876874e+02,-1.064666608148107571e+03,-1.074953762996901787e+03,-6.066118066940116478e+02,-6.187644237232630076e+02,9.484992027282714844e+00,-9.561483860015869141e-01,-1.912296712398529053e-01,2.660000000000000000e+02
-1.115916010815642039e+03,-1.088527191086859148e+03,-5.636798086218091157e+02,-6.864808043467155585e+02,-1.078091582145544180e+03,-1.090011786476168709e+03,-6.164054267919559607e+02,-6.275040533645951655e+02,9.484992027282714844e+00,-9.561483860015869141e-01,-1.912296712398529053e-01,2.670000000000000000e+02
-1.129983023832606250e+03,-1.101498530241111439e+03,-5.693494940976988801e+02,-6.946882451362835127e+02,-1.091196793000936850e+03,-1.103950179706033850e+03,-6.232502987050597767e+02,-6.353351368586327226e+02,9.484992027282714844e+00,-9.561483860015869141e-01,-1.912296712398529053e-01,2.680000000000000000e+02
-1.141759296771283061e+03,-1.113418623452179872e+03,-5.737954323201015541e+02,-7.016401703208330218e+02,-1.103724615691677172e+03,-1.116107611539960089e+03,-6.272517908024783537e+02,-6.413338551632800772e+02,9.484992027282714844e+00,-9.561483860015869141e-01,-1.912296712398529053e-01,2.690000000000000000e+02
-1.151548117204289611e+03,-1.125563463988928106e+03,-5.777586507984738091e+02,-7.077923718573219958e+02,-1.116050905544249872e+03,-1.126673470954764525e+03,-6.300913662079201458e+02,-6.457960345747910651e+02,9.484992027282714844e+00,-9.561483860015869141e-01,-1.912296712398529053e-01,2.700000000000000000e+02
-1.160088647589109314e+03,-1.138390023563786144e+03,-5.824104385050604833e+02,-7.140276994424020813e+02,-1.128783328867939417e+03,-1.136650414304246624e+03,-6.340281397423309500e+02,-6.500644593776423790e+02,9.484992027282714844e+00,-9.561483860015869141e-01,-1.912296712398529053e-01,2.710000000000000000e+02
-1.168385030000682036e+03,-1.151512671766075528e+03,-5.885145460986223043e+02,-7.210234354419053489e+02,-1.142054375859386255e+03,-1.147140556391288555e+03,-6.404901878577006755e+02,-6.554185096212513599e+02,9.484992027282714844e+00,-9.561483860015869141e-01,-1.912296712398529053e-01,2.720000000000000000e+02
-1.177548759222779154e+03,-1.164443005601073310e+03,-5.960048900690048868e+02,-7.288520792051212993e+02,-1.155326344068845628e+03,-1.158626356112387839e+03,-6.494332145348716949e+02,-6.621294906898756381e+02,9.484992027282714844e+00,-9.561483860015869141e-01,-1.912296712398529053e-01,2.730000000000000000e+02
-1.188537893100837664e+03,-1.177331495322173851e+03,-6.043464151965426936e+02,-7.371835624977084080e+02,-1.167972108099692377e+03,-1.170865818127856073e+03,-6.598760682218094189e+02,-6.695844855449131501e+02,9.484992027282714844e+00,-9.561483860015869141e-01,-1.912296712398529053e-01,2.740000000000000000e+02
-1.201795203094716726e+03,-1.190951023857222481e+03,-6.132097262438437610e+02,-7.458084294828067868e+02,-1.180017519225819797e+03,-1.183367255756001214e+03,-6.708858684295564672e+02,-6.772393428204286465e+02,9.484992027282714844e+00,-9.561483860015869141e-01,-1.912296712398529053e-01,2.750000000000000000e+02
-1.216960513435707071e+03,-1.205880414652823674e+03,-6.226522616769252636e+02,-7.548588656084648392e+02,-1.192176948266547697e+03,-1.195877965788645270e+03,-6.819658083465351410e+02,-6.852857591715369381e+02,9.484992027282714844e+00,-9.561483860015869141e-01,-1.912296712398529053e-01,2.760000000000000000e+02
-1.232869648360267092e+03,-1.221628091361926181e+03,-6.325537363499552157e+02,-7.644501553148447783e+02,-1.205025999521515132e+03,-1.208411091898336053e+03,-6.926012940796631483e+02,-6.942612852539132291e+02,9.484992027282714844e+00,-9.561483860015869141e-01,-1.912296712398529053e-01,2.770000000000000000e+02
-1.247905282611026450e+03,-1.236537551997943410e+03,-6.419435284352571216e+02,-7.741118471778349885e+02,-1.218105043647483853e+03,-1.220881183620739648e+03,-7.017325411953461298e+02,-7.039906660279511925e+02,9.484992027282714844e+00,-9.561483860015869141e-01,-1.912296712398529053e-01,2.780000000000000000e+02
-1.260558304410570599e+03,-1.248669441716710026e+03,-6.490977182127426204e+02,-7.826509322517040346e+02,-1.229906101632900118e+03,-1.232800299830103540e+03,-7.079974760659570165e+02,-7.130155950408493482e+02,9.484992027282714844e+00,-9.561483860015869141e-01,-1.912296712398529053e-01,2.790000000000000000e+02
-1.269961832918719665e+03,-1.257005516232889931e+03,-6.525562420723854302e+02,-7.887063721538361278e+02,-1.238867664927682199e+03,-1.243372109464393361e+03,-7.106693007364651749e+02,-7.192479755721715264e+02,9.484992027282714844e+00,-9.561483860015869141e-01,-1.912296712398529053e-01,2.800000000000000000e+02
-1.276185216290026347e+03,-1.262055662660604867e+03,-6.522471123651112066e+02,-7.916192430334203891e+02,-1.244519225137659305e+03,-1.251922477011521551e+03,-7.103690526671621228e+02,-7.213986838782343511e+02,9.523238182067871094e+00,-9.561483860015869141e-01,-1.912296712398529053e-01,2.810000000000000000e+02
-1.280147115262371244e+03,-1.265487908913426054e+03,-6.497106141617337016e+02,-7.919488401790931675e+02,-1.247776867463776398e+03,-1.258317654972397577e+03,-7.088047339137360723e+02,-7.199763525092162126e+02,9.523238182067871094e+00,-9.561483860015869141e-01,-1.912296712398529053e-01,2.820000000000000000e+02
-1.283168758070343301e+03,-1.269152509050026538e+03,-6.472022329531523610e+02,-7.912413716936071069e+02,-1.250191459227471569e+03,-1.263073583161884471e+03,-7.077570923300449977e+02,-7.170230466234602318e+02,9.523238182067871094e+00,-9.561483860015869141e-01,-1.912296712398529053e-01,2.830000000000000000e+02
-1.286387225897450207e+03,-1.274216645307615863e+03,-6.464185194528340617e+02,-7.912137713007027742e+02,-1.252895080266472178e+03,-1.267105734116873919e+03,-7.082167733149422020e+02,-7.148328479006531779e+02,9.523238182067871094e+00,-9.561483860015869141e-01,-1.912296712398529053e-01,2.840000000000000000e+02
-1.290360078130916463e+03,-1.280875901973212649e+03,-6.478335128533003626e+02,-7.929138500735571142e+02,-1.256169547530282216e+03,-1.271287918412358522e+03,-7.102993187306387881e+02,-7.146884198168340845e+02,9.523238182067871094e+00,-9.561483860015869141e-01,-1.912296712398529053e-01,2.850000000000000000e+02
-1.295093515646662127e+03,-1.288588984680830890e+03,-6.509808059986471562e+02,-7.963683546239813040e+02,-1.259850962743323180e+03,-1.276076662696140829e+03,-7.137066844651426436e+02,-7.165054604872084383e+02,9.523238182067871094e+00,-9.561483860015869141e-01,-1.912296712398529053e-01,2.860000000000000000e+02
-1.300391659220402744e+03,-1.296508995696441616e+03,-6.551928289865691113e+02,-8.008330671244830228e+02,-1.263957819843790276e+03,-1.281389312995990167e+03,-7.180816124214220508e+02,-7.194357788541424270e+02,9.523238182067871094e+00,-9.561483860015869141e-01,-1.912296712398529053e-01,2.870000000000000000e+02
-1.306177176047164266e+03,-1.303875393365563468e+03,-6.601209180774579863e+02,-8.053828478066841399e+02,-1.268834170043113318e+03,-1.286788276203178839e+03,-7.230011698655824830e+02,-7.227857557185177484e+02,9.523238182067871094e+00,-9.561483860015869141e-01,-1.912296712398529053e-01,2.880000000000000000e+02
-1.312496778884855075e+03,-1.310289987506981106e+03,-6.657603778174045601e+02,-8.094176869760358386e+02,-1.274725578967089859e+03,-1.291834424612007297e+03,-7.279102932419381204e+02,-7.265150771285315159e+02,9.523238182067871094e+00,-9.561483860015869141e-01,-1.912296712398529053e-01,2.890000000000000000e+02
-1.319251692388494575e+03,-1.315827465453999594e+03,-6.721820706099201743e+02,-8.128282825442929607e+02,-1.281343526545239683e+03,-1.296365159608023305e+03,-7.323159933491746187e+02,-7.310407290162440859e+02,9.523238182067871094e+00,-9.561483860015869141e-01,-1.912296712398529053e-01,2.900000000000000000e+02
-1.325975000125162069e+03,-1.320891782042336217e+03,-6.792642972503442707e+02,-8.158540346643412704e+02,-1.287962145741256791e+03,-1.300519017238012111e+03,-7.360624477511687473e+02,-7.366248071508535986e+02,9.523238182067871094e+00,-9.561483860015869141e-01,-1.912296712398529053e-01,2.910000000000000000e+02
-1.331935050472582589e+03,-1.325837745669567084e+03,-6.865309639864717610e+02,-8.188206390182754149e+02,-1.293958418906365978e+03,-1.304524892017617503e+03,-7.392581458194938477e+02,-7.428772934157834698e+02,9.523238182067871094e+00,-9.561483860015869141e-01,-1.912296712398529053e-01,2.920000000000000000e+02
-1.336512242908866938e+03,-1.330604832070018119e+03,-6.931315054307913215e+02,-8.219231019312244371e+02,-1.299209234988078606e+03,-1.308457449112757331e+03,-7.418268319261227361e+02,-7.487992018121731235e+02,9.523238182067871094e+00,-9.561483860015869141e-01,-1.912296712398529053e-01,2.930000000000000000e+02
-1.339512480829220976e+03,-1.334695760708430043e+03,-6.980628204558089465e+02,-8.250954414196380640e+02,-1.303928872132424658e+03,-1.312159799112859673e+03,-7.432325266499800591e+02,-7.533916948197359034e+02,9.523238182067871094e+00,-9.561483860015869141e-01,-1.912296712398529053e-01,2.940000000000000000e+02
-1.341169978511743693e+03,-1.337586788095255997e+03,-7.006996103245481891e+02,-8.279834775153524333e+02,-1.308183763830289990e+03,-1.315378299165498447e+03,-7.428833335716718693e+02,-7.564414141544579024e+02,9.523238182067871094e+00,-9.561483860015869141e-01,-1.912296712398529053e-01,2.950000000000000000e+02
-1.341921563222015493e+03,-1.339236051415441352e+03,-7.013682508147577437e+02,-8.300796756719860241e+02,-1.311699648151892688e+03,-1.317983811709530983e+03,-7.409576385468112676e+02,-7.588817906803501501e+02,9.523238182067871094e+00,-9.561483860015869141e-01,-1.912296712398529053e-01,2.960000000000000000e+02
-1.342222470065544940e+03,-1.340227617110754636e+03,-7.014378899337731355e+02,-8.310234135825071462e+02,-1.314223236786739335e+03,-1.320080303883511760e+03,-7.387565324423555921e+02,-7.623434960882974565e+02,9.523238182067871094e+00,-9.561483860015869141e-01,-1.912296712398529053e-01,2.970000000000000000e+02
-1.342552844141111336e+03,-1.341401706569184171e+03,-7.026361895261386508e+02,-8.309169138324100459e+02,-1.316024384657949440e+03,-1.321915179983061080e+03,-7.380051696773155072e+02,-7.680962082507887771e+02,9.523238182067871094e+00,-9.561483860015869141e-01,-1.912296712398529053e-01,2.980000000000000000e+02
-1.343483696050219351e+03,-1.343292793997528634e+03,-7.059662490624745033e+02,-8.303800111451405428e+02,-1.317888052504492180e+03,-1.323669347928003390e+03,-7.395870676894843427e+02,-7.761215318319676726e+02,9.523238182067871094e+00,-9.561483860015869141e-01,-1.912296712398529053e-01,2.990000000000000000e+02
-1.345570459132932456e+03,-1.345855726414044511e+03,-7.110902302149264642e+02,-8.302025755924199757e+02,-1.320491443683325770e+03,-1.325315520028681249e+03,-7.428710403081603317e+02,-7.850804509143910082e+02,9.523238182067871094e+00,-9.561483860015869141e-01,-1.912296712398529053e-01,3.000000000000000000e+02
-1.349046141918066496e+03,-1.348652416951088981e+03,-7.167210019241575765e+02,-8.307976574226033790e+02,-1.323774720411686758e+03,-1.326682893303015135e+03,-7.462880879426327283e+02,-7.932629419319960107e+02,9.523238182067871094e+00,-9.561483860015869141e-01,-1.912296712398529053e-01,3.010000000000000000e+02
-1.353563180963391005e+03,-1.351242651645735577e+03,-7.216433621584155844e+02,-8.318892485997251924e+02,-1.326955492105902977e+03,-1.327665791532236426e+03,-7.486000886634460585e+02,-7.997556700188943068e+02,9.523238182067871094e+00,-9.561483860015869141e-01,-1.912296712398529053e-01,3.020000000000000000e+02
-1.358255193709889227e+03,-1.353399086914690542e+03,-7.254052320970913570e+02,-8.327158433582177395e+02,-1.329167344914362502e+03,-1.328362725494198685e+03,-7.496649054155632257e+02,-8.048536190796372694e+02,9.523238182067871094e+00,-9.561483860015869141e-01,-1.912296712398529053e-01,3.030000000000000000e+02
-1.362128757376727663e+03,-1.355048978554422092e+03,-7.281019202371567189e+02,-8.325925915863618911e+02,-1.330049949294495491e+03,-1.328977492404100303e+03,-7.501001178048920792e+02,-8.094099472496970975e+02,9.523238182067871094e+00,-9.561483860015869141e-01,-1.912296712398529053e-01,3.040000000000000000e+02
-1.364507575851605679e+03,-1.356155947531004813e+03,-7.296594630689786527e+02,-8.313735008258238395e+02,-1.329723717897977167e+03,-1.329555371554793965e+03,-7.503832644101452161e+02,-8.138070400238402726e+02,9.523238182067871094e+00,-9.561483860015869141e-01,-1.912296712398529053e-01,3.050000000000000000e+02
-1.365224824017449009e+03,-1.356752872817853586e+03,-7.295492547077018344e+02,-8.294813725931307999e+02,-1.328336459675958395e+03,-1.329839904277672986e+03,-7.503970864458666483e+02,-8.175738261519414891e+02,9.523238182067871094e+00,-9.561483860015869141e-01,-1.912296712398529053e-01,3.060000000000000000e+02
-1.364489318747507468e+03,-1.357064112438463781e+03,-7.273627852515480754e+02,-8.275558407167112591e+02,-1.325853469355791276e+03,-1.329456405109286834e+03,-7.498010614262666422e+02,-8.199922144991373898e+02,9.523238182067871094e+00,-9.561483860015869141e-01,-1.912296712398529053e-01,3.070000000000000000e+02
-1.362630641846187700e+03,-1.357467657510189611e+03,-7.236757198385665788e+02,-8.260508837087816119e+02,-1.322421899635082809e+03,-1.328303643937629658e+03,-7.486514020438171428e+02,-8.210298975770358538e+02,9.523238182067871094e+00,-9.561483860015869141e-01,-1.912296712398529053e-01,3.080000000000000000e+02
-1.359994034553851861e+03,-1.358206413883683808e+03,-7.202104648217170961e+02,-8.250595006863434264e+02,-1.318866245129466506e+03,-1.326785092157296958e+03,-7.475121264424116134e+02,-8.216197014528813725e+02,9.523238182067871094e+00,-9.561483860015869141e-01,-1.912296712398529053e-01,3.090000000000000000e+02
-1.357039802256170105e+03,-1.359088832741059150e+03,-7.189335877093240015e+02,-8.243809882978971473e+02,-1.316592230431921507e+03,-1.325611646086595783e+03,-7.469726851982034077e+02,-8.229932021246238492e+02,9.523238182067871094e+00,-9.561483860015869141e-01,-1.912296712398529053e-01,3.100000000000000000e+02
-1.354448140179886650e+03,-1.359518961011606734e+03,-7.207540009717936300e+02,-8.236908955912163037e+02,-1.316758027637164105e+03,-1.325309078070983333e+03,-7.471649847917444731e+02,-8.257366151098970022e+02,9.523238182067871094e+00,-9.561483860015869141e-01,-1.912296712398529053e-01,3.110000000000000000e+02
-1.352990123085287451e+03,-1.358926559366644824e+03,-7.249056252388450048e+02,-8.227007853672387228e+02,-1.319380198271266863e+03,-1.325840774729923396e+03,-7.478099870445764736e+02,-8.294700743811665689e+02,9.523238182067871094e+00,-1.032640218734741211e+00,-1.529837548732757568e-01,3.120000000000000000e+02
-1.353129637740886210e+03,-1.357253619149525548e+03,-7.294935644860407820e+02,-8.212801255338599731e+02,-1.323200853528319385e+03,-1.326647876872991674e+03,-7.486256391344022632e+02,-8.333599150000766258e+02,9.523238182067871094e+00,-1.032640218734741211e+00,-1.529837548732757568e-01,3.130000000000000000e+02
-1.354624918183338877e+03,-1.355041587514922185e+03,-7.326888606212365858e+02,-8.195129874678960959e+02,-1.326464963311002748e+03,-1.327022049401099139e+03,-7.495079882494076173e+02,-8.368313222340459561e+02,9.523238182067871094e+00,-1.032640218734741211e+00,-1.529837548732757568e-01,3.140000000000000000e+02
-1.356490567062818400e+03,-1.352990668156720631e+03,-7.336252045162538025e+02,-8.176246673615725058e+02,-1.327946142309072457e+03,-1.326475673882447609e+03,-7.502562674849804125e+02,-8.397533819502950792e+02,9.523238182067871094e+00,-1.032640218734741211e+00,-1.529837548732757568e-01,3.150000000000000000e+02
-1.357454139574722376e+03,-1.351359201524190439e+03,-7.324821412643572103e+02,-8.157907927434698649e+02,-1.327430107312044356e+03,-1.324877378759816111e+03,-7.502692051569664500e+02,-8.420544156784915231e+02,9.523238182067871094e+00,-1.032640218734741211e+00,-1.529837548732757568e-01,3.160000000000000000e+02
-1.356656133673649038e+03,-1.349778591189619647e+03,-7.299921155749668742e+02,-8.139851581860510805e+02,-1.325458314908751618e+03,-1.322386713214261135e+03,-7.488048895204121891e+02,-8.433896282025045821e+02,9.523238182067871094e+00,-1.032640218734741211e+00,-1.529837548732757568e-01,3.170000000000000000e+02
-1.354101218868842352e+03,-1.347669210502481292e+03,-7.269214808637226497e+02,-8.120273428436876202e+02,-1.322748861505644527e+03,-1.319338689330196530e+03,-7.457204431044010562e+02,-8.433570531206582928e+02,9.523238182067871094e+00,-1.032640218734741211e+00,-1.529837548732757568e-01,3.180000000000000000e+02
-1.350519676840525790e+03,-1.344853522789895578e+03,-7.238192119407241307e+02,-8.098008229261738506e+02,-1.319790234892057015e+03,-1.316123476465403883e+03,-7.418939301873779186e+02,-8.420335944271230346e+02,9.523238182067871094e+00,-1.032640218734741211e+00,-1.529837548732757568e-01,3.190000000000000000e+02
-1.346756403960221178e+03,-1.341751583811904766e+03,-7.209716033674845903e+02,-8.074250312282803179e+02,-1.316769099193636293e+03,-1.313032836701475162e+03,-7.387069478072653510e+02,-8.401776805206882273e+02,9.523238182067871094e+00,-1.032640218734741211e+00,-1.529837548732757568e-01,3.200000000000000000e+02
-1.343195438912566942e+03,-1.338935480078187993e+03,-7.184114350153308806e+02,-8.051873529059065504e+02,-1.313669817598391319e+03,-1.310119187619211061e+03,-7.369187559976990087e+02,-8.387665311185558039e+02,9.523238182067871094e+00,-1.032640218734741211e+00,-1.529837548732757568e-01,3.210000000000000000e+02
-1.339686395791871291e+03,-1.336483629147282954e+03,-7.159836413076847066e+02,-8.032808071098970686e+02,-1.310372931255122467e+03,-1.307192825804809218e+03,-7.359877765571072814e+02,-8.382607650571399063e+02,9.523238182067871094e+00,-1.032640218734741211e+00,-1.529837548732757568e-01,3.220000000000000000e+02
-1.335990435873990918e+03,-1.333834542743597694e+03,-7.135300249229742349e+02,-8.016110828903309766e+02,-1.306756958128274619e+03,-1.304017418644375084e+03,-7.345788895983764633e+02,-8.382991691711913518e+02,9.523238182067871094e+00,-1.032640218734741211e+00,-1.529837548732757568e-01,3.230000000000000000e+02
-1.332268296680013464e+03,-1.330348647777401766e+03,-7.110895138896858043e+02,-7.998765518147054081e+02,-1.302824343979381865e+03,-1.300546670049626755e+03,-7.318329083718676884e+02,-8.380730199418119355e+02,9.523238182067871094e+00,-1.032640218734741211e+00,-1.529837548732757568e-01,3.240000000000000000e+02
-1.329105880596705219e+03,-1.326049610524104310e+03,-7.088987369433344838e+02,-7.978551009848363265e+02,-1.298775930129487051e+03,-1.296959404801661549e+03,-7.281837868820213089e+02,-8.369682533305815468e+02,9.523238182067871094e+00,-1.032640218734741211e+00,-1.529837548732757568e-01,3.250000000000000000e+02
-1.327020416454397946e+03,-1.321750240179970206e+03,-7.071368362250867676e+02,-7.956171940767806063e+02,-1.294937052830367747e+03,-1.293450011586545315e+03,-7.249166432994271645e+02,-8.348925496800638939e+02,9.523238182067871094e+00,-1.032640218734741211e+00,-1.529837548732757568e-01,3.260000000000000000e+02
-1.325895769016024815e+03,-1.318324298546978980e+03,-7.056687032960691113e+02,-7.934494708025490581e+02,-1.291561443304169643e+03,-1.289997459318631627e+03,-7.229062905420748848e+02,-8.321295502763119885e+02,9.523238182067871094e+00,-1.032640218734741211e+00,-1.529837548732757568e-01,3.270000000000000000e+02
-1.324885978992826040e+03,-1.315774783733641925e+03,-7.041098033122844981e+02,-7.915512089668998215e+02,-1.288688175456426507e+03,-1.286363751982293252e+03,-7.217999073542755468e+02,-8.290528483546199823e+02,9.523238182067871094e+00,-1.032640218734741211e+00,-1.529837548732757568e-01,3.280000000000000000e+02
-1.322919692383302618e+03,-1.313041063394150569e+03,-7.022152299552972181e+02,-7.897763800715246134e+02,-1.286181502095084625e+03,-1.282312322100374104e+03,-7.204566348132402709e+02,-8.260355384849365237e+02,9.523238182067871094e+00,-1.032640218734741211e+00,-1.529837548732757568e-01,3.290000000000000000e+02
-1.319409841451423063e+03,-1.308822200036458526e+03,-7.001876614530890492e+02,-7.876551681100374935e+02,-1.283879485116811793e+03,-1.277792990304405521e+03,-7.181566723072214700e+02,-8.234985361908134109e+02,9.523238182067871094e+00,-1.032640218734741211e+00,-1.529837548732757568e-01,3.300000000000000000e+02
-1.314587888449705815e+03,-1.302715610517901496e+03,-6.985102936816249439e+02,-7.846880566185348016e+02,-1.281668720175139242e+03,-1.272910481293390148e+03,-7.153172290577463173e+02,-8.218035272766046546e+02,9.523238182067871094e+00,-1.032640218734741211e+00,-1.529837548732757568e-01,3.310000000000000000e+02
-1.309200456966050751e+03,-1.295631704234597919e+03,-6.973721758024570363e+02,-7.806852804312350145e+02,-1.279389613708633078e+03,-1.267765071856827035e+03,-7.129723558289932726e+02,-8.209206993453010455e+02,9.523238182067871094e+00,-1.032640218734741211e+00,-1.529837548732757568e-01,3.320000000000000000e+02
-1.303846981291613474e+03,-1.289106372704045498e+03,-6.962304327815345459e+02,-7.759052014833574731e+02,-1.276684401628803698e+03,-1.262396176118897984e+03,-7.115568086993134784e+02,-8.202131987445982304e+02,9.484992027282714844e+00,-9.561483860015869141e-01,-2.677215635776519775e-01,3.330000000000000000e+02
-1.298523213811072310e+03,-1.284137333148147718e+03,-6.940194799161475885e+02,-7.709091462248650259e+02,-1.272995301077454315e+03,-1.256888368007862027e+03,-7.102769443969498298e+02,-8.187032113587886215e+02,9.484992027282714844e+00,-9.561483860015869141e-01,-2.677215635776519775e-01,3.340000000000000000e+02
-1.292748313609285788e+03,-1.280549961358486144e+03,-6.899548882356907598e+02,-7.662648532496376674e+02,-1.267814502827060551e+03,-1.251460092016186991e+03,-7.077870880568017355e+02,-8.157435071747554503e+02,9.484992027282714844e+00,-9.561483860015869141e-01,-2.677215635776519775e-01,3.350000000000000000e+02
-1.286162508103258688e+03,-1.277350204155105985e+03,-6.843028662933356827e+02,-7.623152267221207694e+02,-1.261064775179178241e+03,-1.246368311191659814e+03,-7.035777366270137918e+02,-8.115521700285523821e+02,9.484992027282714844e+00,-9.561483860015869141e-01,-2.677215635776519775e-01,3.360000000000000000e+02
-1.279109914256151569e+03,-1.273617856847118901e+03,-6.784498030210901334e+02,-7.591229466679288862e+02,-1.253328205648743051e+03,-1.241700877998198848e+03,-6.987250255809022974e+02,-8.070984898859616123e+02,9.484992027282714844e+00,-9.561483860015869141e-01,-2.677215635776519775e-01,3.370000000000000000e+02
-1.272697658072848299e+03,-1.269122478959460068e+03,-6.741447251492247688e+02,-7.565435655856564381e+02,-1.245701412068922082e+03,-1.237301954001152126e+03,-6.952184192833258294e+02,-8.034082223070342934e+02,9.484992027282714844e+00,-9.561483860015869141e-01,-2.677215635776519775e-01,3.380000000000000000e+02
-1.268191734635675402e+03,-1.264250057376824543e+03,-6.724296742715406481e+02,-7.543070996146091147e+02,-1.239286521961609651e+03,-1.232940974393412944e+03,-6.944090557415195235e+02,-8.008658766563792142e+02,9.484992027282714844e+00,-9.561483860015869141e-01,-2.677215635776519775e-01,3.390000000000000000e+02
-1.266126221795836955e+03,-1.259481312267878366e+03,-6.730038774981707093e+02,-7.520695930058350314e+02,-1.234616943727608941e+03,-1.228551094120223979e+03,-6.959328014185650773e+02,-7.990740814446642162e+02,9.484992027282714844e+00,-9.561483860015869141e-01,-2.677215635776519775e-01,3.400000000000000000e+02
-1.265763211647298249e+03,-1.254961277075488169e+03,-6.744375994208519387e+02,-7.494976731840740740e+02,-1.231408168740320889e+03,-1.224270383282825605e+03,-6.980080897163227291e+02,-7.973139931957525732e+02,9.484992027282714844e+00,-9.561483860015869141e-01,-2.677215635776519775e-01,3.410000000000000000e+02
-1.265347379101944171e+03,-1.250454499345182057e+03,-6.750458707399811829e+02,-7.464261977397883356e+02,-1.228818185732488018e+03,-1.220234922135062106e+03,-6.987829625242368365e+02,-7.951313671185805561e+02,9.484992027282714844e+00,-9.561483860015869141e-01,-2.677215635776519775e-01,3.420000000000000000e+02
-1.263053760535811989e+03,-1.245590625756490681e+03,-6.738152665544645288e+02,-7.430053929585867536e+02,-1.226032861978545952e+03,-1.216361403933054135e+03,-6.975467249520629593e+02,-7.925580923682609864e+02,9.484992027282714844e+00,-9.561483860015869141e-01,-2.677215635776519775e-01,3.430000000000000000e+02
-1.258004182715079423e+03,-1.240164404381029726e+03,-6.707912205923286137e+02,-7.396773494666573470e+02,-1.222716698004906675e+03,-1.212381838560270808e+03,-6.948797227610850769e+02,-7.898826700278211774e+02,9.484992027282714844e+00,-9.561483860015869141e-01,-2.677215635776519775e-01,3.440000000000000000e+02
-1.250681366105376583e+03,-1.234317467330311274e+03,-6.667582098933012276e+02,-7.369356375271233901e+02,-1.218986619596087166e+03,-1.208123605791237196e+03,-6.918374808817336543e+02,-7.872849948474527082e+02,9.484992027282714844e+00,-9.561483860015869141e-01,-2.677215635776519775e-01,3.450000000000000000e+02
-1.242499977877390165e+03,-1.228529547394104839e+03,-6.625342464404586735e+02,-7.350194811838227906e+02,-1.214995576884171442e+03,-1.203734044245613859e+03,-6.890017186874247272e+02,-7.846591637338809733e+02,9.484992027282714844e+00,-9.561483860015869141e-01,-2.677215635776519775e-01,3.460000000000000000e+02
-1.234891546294891668e+03,-1.223379907891963285e+03,-6.584490031282817881e+02,-7.337619051651346354e+02,-1.210554385496461691e+03,-1.199564821080987258e+03,-6.861456489058450643e+02,-7.816836783588332764e+02,9.484992027282714844e+00,-9.561483860015869141e-01,-2.677215635776519775e-01,3.470000000000000000e+02
-1.228568130033445414e+03,-1.219127425235987403e+03,-6.543871128469163523e+02,-7.326845742153926722e+02,-1.205190300750658480e+03,-1.195769040934872010e+03,-6.826116657167642643e+02,-7.780068813324211305e+02,9.484992027282714844e+00,-9.561483860015869141e-01,-2.677215635776519775e-01,3.480000000000000000e+02
-1.223388213165826983e+03,-1.215365783655002360e+03,-6.502764316141177687e+02,-7.312296071865258682e+02,-1.198610948593930061e+03,-1.191983617410128318e+03,-6.779468108086089160e+02,-7.734206399500930047e+02,9.484992027282714844e+00,-9.561483860015869141e-01,-2.677215635776519775e-01,3.490000000000000000e+02
-1.218728994487501950e+03,-1.211109761395900932e+03,-6.464823233483436979e+02,-7.289708398028546981e+02,-1.191145282261772536e+03,-1.187460812769044878e+03,-6.723181469128101071e+02,-7.680124031136666645e+02,9.484992027282714844e+00,-9.561483860015869141e-01,-2.677215635776519775e-01,3.500000000000000000e+02
-1.213961974909538185e+03,-1.205410443915343876e+03,-6.436547871659032580e+02,-7.257572942121444157e+02,-1.183730685035324768e+03,-1.181641128932622451e+03,-6.665390259933783454e+02,-7.622746198031110225e+02,9.484992027282714844e+00,-9.561483860015869141e-01,-2.677215635776519775e-01,3.510000000000000000e+02
-1.208705302477300393e+03,-1.198107841397158609e+03,-6.421022275560362687e+02,-7.217942988622645544e+02,-1.177377622097731319e+03,-1.174703472513165025e+03,-6.617614943710457283e+02,-7.570236039516638584e+02,9.484992027282714844e+00,-9.561483860015869141e-01,-2.677215635776519775e-01,3.520000000000000000e+02
-1.202843374876115377e+03,-1.190089064430751705e+03,-6.412793889488239074e+02,-7.176111368006074827e+02,-1.172491312138371086e+03,-1.167562027127744386e+03,-6.589454337087528302e+02,-7.530055588259940578e+02,9.484992027282714844e+00,-9.561483860015869141e-01,-2.677215635776519775e-01,3.530000000000000000e+02
-1.196486955628719670e+03,-1.182763329467841686e+03,-6.399627452397529623e+02,-7.138104830695017426e+02,-1.168562024578323417e+03,-1.161214056949212591e+03,-6.582589610546922358e+02,-7.503437118589203010e+02,9.484992027282714844e+00,-9.561483860015869141e-01,-2.677215635776519775e-01,3.540000000000000000e+02
-1.189944597344846898e+03,-1.177119924149890949e+03,-6.370858463058644929e+02,-7.106448712674509807e+02,-1.164466739611445291e+03,-1.155940120598885187e+03,-6.587273788099041667e+02,-7.482774930560844950e+02,9.484992027282714844e+00,-9.561483860015869141e-01,-2.677215635776519775e-01,3.550000000000000000e+02
-1.183615430641395960e+03,-1.173096021616621556e+03,-6.325495211307188583e+02,-7.077302061658483581e+02,-1.159184636551324729e+03,-1.151074750602451331e+03,-6.585151624188997630e+02,-7.455625652918829473e+02,9.484992027282714844e+00,-9.561483860015869141e-01,-2.677215635776519775e-01,3.560000000000000000e+02
-1.177740054552967194e+03,-1.169711615135761122e+03,-6.272802987947214888e+02,-7.042313420706968827e+02,-1.152424882745883679e+03,-1.145596259466056608e+03,-6.559029221415962638e+02,-7.413382067690245094e+02,9.484992027282714844e+00,-9.561483860015869141e-01,-2.677215635776519775e-01,3.570000000000000000e+02
-1.172165384713289768e+03,-1.165772063186361720e+03,-6.224813060744224913e+02,-6.995169404145990484e+02,-1.144743571531596444e+03,-1.139026259565771852e+03,-6.504269113314910555e+02,-7.357778856429841881e+02,9.446745872497558594e+00,-8.796565532684326172e-01,-2.677215635776519775e-01,3.580000000000000000e+02
-1.166382685889451750e+03,-1.160531675428652079e+03,-6.187317814197846246e+02,-6.937917750742972203e+02,-1.137083085378956866e+03,-1.131801486324933194e+03,-6.432983592890466298e+02,-7.299175364961803325e+02,9.446745872497558594e+00,-8.796565532684326172e-01,-2.677215635776519775e-01,3.590000000000000000e+02
-1.159892179967805532e+03,-1.153878222332177756e+03,-6.156748957444754069e+02,-6.881062937660324224e+02,-1.130080704556016826e+03,-1.124759798576581488e+03,-6.366109647940890000e+02,-7.247448405719067068e+02,9.446745872497558594e+00,-8.796565532684326172e-01,-2.677215635776519775e-01,3.600000000000000000e+02
-1.152613811402501597e+03,-1.146107876506733191e+03,-6.124552284727435563e+02,-6.836339250059102142e+02,-1.123661550651940388e+03,-1.118263576800022292e+03,-6.318215399498660645e+02,-7.203292926859262479e+02,9.446745872497558594e+00,-8.796565532684326172e-01,-2.677215635776519775e-01,3.610000000000000000e+02
-1.144949415838842469e+03,-1.137656771069364368e+03,-6.084105349926463759e+02,-6.807649362688698602e+02,-1.117192564895151918e+03,-1.111846946236697022e+03,-6.286878148273409579e+02,-7.157637326965437978e+02,9.446745872497558594e+00,-8.796565532684326172e-01,-2.677215635776519775e-01,3.620000000000000000e+02
-1.137394903069209477e+03,-1.128987455820884861e+03,-6.034113660802836421e+02,-6.787700900535380697e+02,-1.110030104677219470e+03,-1.104740824696550135e+03,-6.255457472597861397e+02,-7.099696300892511545e+02,9.446745872497558594e+00,-8.796565532684326172e-01,-2.677215635776519775e-01,3.630000000000000000e+02
-1.130056693367057960e+03,-1.120515241818206732e+03,-5.977104214995337088e+02,-6.763178999237538847e+02,-1.102002609500585322e+03,-1.096720271333953406e+03,-6.207157483958459352e+02,-7.026414565881536873e+02,9.446745872497558594e+00,-8.796565532684326172e-01,-2.677215635776519775e-01,3.640000000000000000e+02
-1.122552570090868812e+03,-1.112438285635847478e+03,-5.916589289425448897e+02,-6.724246013280044281e+02,-1.093477845937538632e+03,-1.088389421772728383e+03,-6.138766555764207169e+02,-6.945304638696561597e+02,9.446745872497558594e+00,-8.796565532684326172e-01,-2.677215635776519775e-01,3.650000000000000000e+02
-1.114416998109751830e+03,-1.104581058742731557e+03,-5.856396710289285465e+02,-6.670988913065366432e+02,-1.085058631037590658e+03,-1.080628003113853538e+03,-6.063098558380955865e+02,-6.869125075200799984e+02,9.446745872497558594e+00,-8.796565532684326172e-01,-2.677215635776519775e-01,3.660000000000000000e+02
-1.105630887152470905e+03,-1.096518434070956118e+03,-5.801568618045217818e+02,-6.612301393290626947e+02,-1.077222795404511999e+03,-1.073794925780604217e+03,-5.999081108470770687e+02,-6.807693378261928956e+02,9.446745872497558594e+00,-8.796565532684326172e-01,-2.677215635776519775e-01,3.670000000000000000e+02
-1.096758446100024457e+03,-1.088018996532036908e+03,-5.757673091653739448e+02,-6.558881236794197775e+02,-1.070178779017523993e+03,-1.067515628159215794e+03,-5.958556415107781277e+02,-6.763428714725944246e+02,9.446745872497558594e+00,-8.796565532684326172e-01,-2.677215635776519775e-01,3.680000000000000000e+02
-1.088568181920404413e+03,-1.079442458794459526e+03,-5.727556438647677624e+02,-6.516162777143217681e+02,-1.063924683706983615e+03,-1.061223007948190570e+03,-5.940207022942998947e+02,-6.732662555406466254e+02,9.446745872497558594e+00,-8.796565532684326172e-01,-2.677215635776519775e-01,3.690000000000000000e+02
-1.081503821747696065e+03,-1.071621969935501966e+03,-5.708107870340318186e+02,-6.482095221732909067e+02,-1.058302583150953296e+03,-1.054804617789861823e+03,-5.933050890368697310e+02,-6.709362591100780264e+02,9.446745872497558594e+00,-8.796565532684326172e-01,-2.677215635776519775e-01,3.700000000000000000e+02
-1.075473168631787985e+03,-1.065195341992210160e+03,-5.690725065554962612e+02,-6.450503391745583031e+02,-1.052952404001256355e+03,-1.048642363513607052e+03,-5.924068956400506067e+02,-6.687252360494130698e+02,9.446745872497558594e+00,-8.796565532684326172e-01,-2.677215635776519775e-01,3.710000000000000000e+02
-1.070078942176310193e+03,-1.059932321915336161e+03,-5.666086820937355242e+02,-6.416569243375370206e+02,-1.047288995209854875e+03,-1.043023064822187962e+03,-5.903477214050780049e+02,-6.659743860983790000e+02,9.446745872497558594e+00,-8.796565532684326172e-01,-2.677215635776519775e-01,3.720000000000000000e+02
-1.064978038804073321e+03,-1.054718027125843264e+03,-5.629531420595277496e+02,-6.379877474436282228e+02,-1.040686241049523233e+03,-1.037597910276348102e+03,-5.866142662105762611e+02,-6.620117910544554434e+02,9.446745872497558594e+00,-8.796565532684326172e-01,-2.677215635776519775e-01,3.730000000000000000e+02
-1.059997894122130219e+03,-1.048296075656972334e+03,-5.582991925456597073e+02,-6.342926212851580203e+02,-1.032848481512917715e+03,-1.031508621037470903e+03,-5.812035668229350449e+02,-6.563904772509054055e+02,9.446745872497558594e+00,-8.796565532684326172e-01,-2.677215635776519775e-01,3.740000000000000000e+02
-1.054960515998250003e+03,-1.040165841284879889e+03,-5.532680438680806674e+02,-6.307048154585318116e+02,-1.024094842006934869e+03,-1.024082024962270452e+03,-5.747503937862643397e+02,-6.492139723641228102e+02,9.446745872497558594e+00,-8.796565532684326172e-01,-2.677215635776519775e-01,3.750000000000000000e+02
-1.049514409060858952e+03,-1.030873510657864699e+03,-5.485254828873419228e+02,-6.270072246968811669e+02,-1.015279108031550777e+03,-1.015420839386794796e+03,-5.685200757765705930e+02,-6.412424392042380532e+02,9.446745872497558594e+00,-8.796565532684326172e-01,-2.677215635776519775e-01,3.760000000000000000e+02
-1.043255751133767717e+03,-1.021514285448761711e+03,-5.445328554753659773e+02,-6.228319430301448847e+02,-1.007319452735938057e+03,-1.006327348080413685e+03,-5.639193541878194083e+02,-6.335929785755706689e+02,9.446745872497558594e+00,-8.796565532684326172e-01,-2.677215635776519775e-01,3.770000000000000000e+02
-1.036062344193546778e+03,-1.012974016004154919e+03,-5.414720351886721801e+02,-6.181205432834358362e+02,-1.000633745850098876e+03,-9.976703335301526749e+02,-5.616304144439072843e+02,-6.271812792764771984e+02,9.446745872497558594e+00,-8.796565532684326172e-01,-2.677215635776519775e-01,3.780000000000000000e+02
-1.028294482096238198e+03,-1.005590587611176034e+03,-5.392316541850823342e+02,-6.133713179340604711e+02,-9.948956258466769214e+02,-9.898051292625509632e+02,-5.610211957964393150e+02,-6.222906860947730365e+02,9.446745872497558594e+00,-8.796565532684326172e-01,-2.677215635776519775e-01,3.790000000000000000e+02
-1.020614648695867118e+03,-9.993732366583308249e+02,-5.374014005662425006e+02,-6.093448533574294288e+02,-9.893086374383137809e+02,-9.825175849660536187e+02,-5.604275851655038423e+02,-6.185464023586423536e+02,9.446745872497558594e+00,-8.796565532684326172e-01,-2.677215635776519775e-01,3.800000000000000000e+02
-1.013532290447136575e+03,-9.943143476875566193e+02,-5.353546647039295294e+02,-6.064236573176171987e+02,-9.832005683814959411e+02,-9.754163841468516694e+02,-5.582049995551753909e+02,-6.152601582995393983e+02,9.446745872497558594e+00,-8.796565532684326172e-01,-2.677215635776519775e-01,3.810000000000000000e+02
-1.007059587546955299e+03,-9.903188908809006534e+02,-5.324749320859084492e+02,-6.041946858678206809e+02,-9.764602931279134737e+02,-9.683167151146872129e+02,-5.537737112368072303e+02,-6.118448760392836903e+02,9.446745872497558594e+00,-8.796565532684326172e-01,-2.677215635776519775e-01,3.820000000000000000e+02
-1.000766495357395570e+03,-9.868503449178090250e+02,-5.284206665645160683e+02,-6.016663727084282982e+02,-9.694636744986739814e+02,-9.612717829846842506e+02,-5.478712707247623257e+02,-6.080067475003477284e+02,9.446745872497558594e+00,-8.796565532684326172e-01,-2.677215635776519775e-01,3.830000000000000000e+02
-9.941671158714298144e+02,-9.828425367223271678e+02,-5.232611027742177612e+02,-5.979638377239209603e+02,-9.625736113057523653e+02,-9.543320408435979516e+02,-5.419161032988972693e+02,-6.036716458264866105e+02,9.446745872497558594e+00,-8.796565532684326172e-01,-2.677215635776519775e-01,3.840000000000000000e+02
-9.871003582824762361e+02,-9.772164176315918667e+02,-5.174232157556566563e+02,-5.929256696890561216e+02,-9.557035340724178241e+02,-9.473719225995569104e+02,-5.370804412767938629e+02,-5.988379234896431171e+02,9.446745872497558594e+00,-9.561483860015869141e-01,-1.912296712398529053e-01,3.850000000000000000e+02
-9.797862797245786624e+02,-9.696520816260242555e+02,-5.115148625652268493e+02,-5.871373159457505153e+02,-9.483787093953085332e+02,-9.401820393539132965e+02,-5.337152216115769079e+02,-5.935349708849362287e+02,9.446745872497558594e+00,-9.561483860015869141e-01,-1.912296712398529053e-01,3.860000000000000000e+02
-9.725468673788398064e+02,-9.608748631900323289e+02,-5.061269894200374893e+02,-5.814444149102700976e+02,-9.402505268629167858e+02,-9.326803385374169011e+02,-5.313268187987118836e+02,-5.878609867876466524e+02,9.446745872497558594e+00,-9.561483860015869141e-01,-1.912296712398529053e-01,3.870000000000000000e+02
-9.654605667096552679e+02,-9.521069700893006029e+02,-5.016292633968391783e+02,-5.763992837596388199e+02,-9.315485867426555160e+02,-9.249634478363809649e+02,-5.288909054372543324e+02,-5.819484869977318340e+02,9.446745872497558594e+00,-9.561483860015869141e-01,-1.912296712398529053e-01,3.880000000000000000e+02
-9.582638346161529626e+02,-9.441480079154850955e+02,-4.979860203026269119e+02,-5.720468183042996770e+02,-9.229902864370187672e+02,-9.171354077154337574e+02,-5.252862290189032137e+02,-5.758299458277820122e+02,9.446745872497558594e+00,-9.561483860015869141e-01,-1.912296712398529053e-01,3.890000000000000000e+02
-9.505971863004324405e+02,-9.369287837353472241e+02,-4.947217755346300692e+02,-5.680945793135374515e+02,-9.152189846916483020e+02,-9.091507832365532522e+02,-5.198280121411946766e+02,-5.693794874791892653e+02,9.446745872497558594e+00,-9.561483860015869141e-01,-1.912296712398529053e-01,3.900000000000000000e+02
-9.423941634607392643e+02,-9.299041341623440076e+02,-4.911865720671901272e+02,-5.642260380288889792e+02,-9.083369371295596011e+02,-9.009245370894359439e+02,-5.128184801889819937e+02,-5.625123721005209063e+02,9.446745872497558594e+00,-9.561483860015869141e-01,-1.912296712398529053e-01,3.910000000000000000e+02
-9.340572885648412012e+02,-9.228212008882787813e+02,-4.870507971560596161e+02,-5.603091898640827822e+02,-9.019946873902433708e+02,-8.926331138985310645e+02,-5.057407477739470778e+02,-5.555280069944774368e+02,9.446745872497558594e+00,-9.561483860015869141e-01,-1.912296712398529053e-01,3.920000000000000000e+02
-9.262204096464693066e+02,-9.160418579139131907e+02,-4.826277615337371572e+02,-5.564166495097315419e+02,-8.958925941840843734e+02,-8.848205212184616357e+02,-5.006569438884635019e+02,-5.491935867149154546e+02,9.446745872497558594e+00,-9.561483860015869141e-01,-1.912296712398529053e-01,3.930000000000000000e+02
-9.192580235075054134e+02,-9.100882895929958067e+02,-4.786405904046409887e+02,-5.526980787462771332e+02,-8.901009154354719612e+02,-8.780390980264523932e+02,-4.988976736092640749e+02,-5.442925257086069450e+02,9.446745872497558594e+00,-9.561483860015869141e-01,-1.912296712398529053e-01,3.940000000000000000e+02
-9.129659039120640500e+02,-9.049131952853288112e+02,-4.755425552356980461e+02,-5.491933731589488161e+02,-8.848498957557253561e+02,-8.722759037798859936e+02,-4.999342648259237194e+02,-5.409159306218489291e+02,9.446745872497558594e+00,-9.561483860015869141e-01,-1.912296712398529053e-01,3.950000000000000000e+02
-9.067389215824600797e+02,-8.996881537418801145e+02,-4.730135077721597554e+02,-5.457078297853249751e+02,-8.800862449873245623e+02,-8.667726613926424761e+02,-5.014790366948141127e+02,-5.381901071367640270e+02,9.446745872497558594e+00,-9.561483860015869141e-01,-1.912296712398529053e-01,3.960000000000000000e+02
-9.001278798244272821e+02,-8.933975366262920943e+02,-4.701854496524465503e+02,-5.418720345144147359e+02,-8.753676215574262187e+02,-8.605629551356792035e+02,-5.009633657097410833e+02,-5.348548396322380540e+02,9.446745872497558594e+00,-9.561483860015869141e-01,-1.912296712398529053e-01,3.970000000000000000e+02
-8.932597742985490186e+02,-8.857154458801724104e+02,-4.664427880322677993e+02,-5.373973950834542848e+02,-8.702429872431398508e+02,-8.533182582659665059e+02,-4.972918121906993747e+02,-5.302727738290277557e+02,9.446745872497558594e+00,-9.561483860015869141e-01,-1.912296712398529053e-01,3.980000000000000000e+02
-8.866694654458256082e+02,-8.773438790624916237e+02,-4.619944475818022056e+02,-5.323554146424089595e+02,-8.646438367026712513e+02,-8.456714012368220210e+02,-4.913952519446879705e+02,-5.249113685443205668e+02,9.446745872497558594e+00,-9.561483860015869141e-01,-1.912296712398529053e-01,3.990000000000000000e+02
-8.806446062005038584e+02,-8.694765882090318883e+02,-4.575732564016407196e+02,-5.272201994149872917e+02,-8.587589516801208447e+02,-8.386093436170817768e+02,-4.851149634385956233e+02,-5.197423722090225056e+02,9.446745872497558594e+00,-9.561483860015869141e-01,-1.912296712398529053e-01,4.000000000000000000e+02
-8.747061173355082246e+02,-8.628469123900736122e+02,-4.535040490963019693e+02,-5.225758286667487482e+02,-8.524878614237525198e+02,-8.324560167498411829e+02,-4.794828485334774086e+02,-5.150833684297069794e+02,9.446745872497558594e+00,-9.561483860015869141e-01,-1.912296712398529053e-01,4.010000000000000000e+02
-8.678165240623302452e+02,-8.571637721112131203e+02,-4.491320002798934183e+02,-5.186798217112173006e+02,-8.451441761720493560e+02,-8.264400387184828105e+02,-4.740243637241630950e+02,-5.100425070177063844e+02,9.446745872497558594e+00,-9.561483860015869141e-01,-1.912296712398529053e-01,4.020000000000000000e+02
-8.592539013128118768e+02,-8.513715571054513020e+02,-4.433317510850599774e+02,-5.152419698996473016e+02,-8.359101770905358535e+02,-8.193269435610081928e+02,-4.676958652200651159e+02,-5.032177736796384124e+02,9.446745872497558594e+00,-9.561483860015869141e-01,-1.912296712398529053e-01,4.030000000000000000e+02
-8.494046848117866375e+02,-8.444832247487292989e+02,-4.357423412767361697e+02,-5.116312120537349983e+02,-8.247381107143769441e+02,-8.105605624849908963e+02,-4.604362825736388913e+02,-4.940830772513620559e+02,9.446745872497558594e+00,-9.561483860015869141e-01,-1.912296712398529053e-01,4.040000000000000000e+02
-8.397217413114292413e+02,-8.362979031162428782e+02,-4.275426413504465017e+02,-5.073531766451010299e+02,-8.128185397340862437e+02,-8.008441671986574875e+02,-4.536868365050950160e+02,-4.837537388007440313e+02,9.446745872497558594e+00,-9.561483860015869141e-01,-1.912296712398529053e-01,4.050000000000000000e+02
-8.317966831423443637e+02,-8.274794666248092199e+02,-4.209023706125301487e+02,-5.024258249604176854e+02,-8.020678466706472136e+02,-7.916378889280022122e+02,-4.492674993895395801e+02,-4.743672199712275415e+02,9.446745872497558594e+00,-9.561483860015869141e-01,-1.912296712398529053e-01,4.060000000000000000e+02
-8.262806983511832186e+02,-8.190300577938160131e+02,-4.174539614903635538e+02,-4.973680261216322833e+02,-7.939798648446667357e+02,-7.840647366819775925e+02,-4.476641172595093394e+02,-4.676011638313802905e+02,9.446745872497558594e+00,-9.561483860015869141e-01,-1.912296712398529053e-01,4.070000000000000000e+02
-8.225156843165452756e+02,-8.116262440650637018e+02,-4.170404463557119925e+02,-4.928237009402100739e+02,-7.887428749075143060e+02,-7.782034656122750675e+02,-4.473901756014943203e+02,-4.636067633984280292e+02,9.446745872497558594e+00,-9.561483860015869141e-01,-1.912296712398529053e-01,4.080000000000000000e+02
-8.190866635585271069e+02,-8.052947714681008620e+02,-4.177563557029529875e+02,-4.891023354108247077e+02,-7.852357183407348202e+02,-7.732773370632858132e+02,-4.460722167830967919e+02,-4.611758547649587854e+02,9.446745872497558594e+00,-9.561483860015869141e-01,-1.912296712398529053e-01,4.090000000000000000e+02
-8.147309996188992045e+02,-7.995356310881854824e+02,-4.171776604970216340e+02,-4.859404421838689814e+02,-7.817524019659017540e+02,-7.683908445328784182e+02,-4.422684634889169502e+02,-4.587974198118336062e+02,9.446745872497558594e+00,-9.561483860015869141e-01,-1.912296712398529053e-01,4.100000000000000000e+02
-8.088704522435805302e+02,-7.936674536392606569e+02,-4.137663560950568353e+02,-4.826276290360260646e+02,-7.768476477986623649e+02,-7.630937004664488086e+02,-4.363966460745032236e+02,-4.555791448577974734e+02,9.446745872497558594e+00,-9.561483860015869141e-01,-1.912296712398529053e-01,4.110000000000000000e+02
-8.015277100759280984e+02,-7.871138618865379613e+02,-4.075017480880740095e+02,-4.784219381997977507e+02,-7.698311277047482690e+02,-7.573962749358261135e+02,-4.300787546156502685e+02,-4.513750579385146011e+02,9.446745872497558594e+00,-9.561483860015869141e-01,-1.912296712398529053e-01,4.120000000000000000e+02
-7.930045618708234088e+02,-7.795314949671851537e+02,-3.995645028827034366e+02,-4.730115371761712595e+02,-7.608550701626923001e+02,-7.514436649145095544e+02,-4.247042897232147425e+02,-4.463441534903272441e+02,9.446745872497558594e+00,-9.561483860015869141e-01,-1.912296712398529053e-01,4.130000000000000000e+02
-7.837716625561836281e+02,-7.708736107082418130e+02,-3.915751758674462053e+02,-4.667300320973808994e+02,-7.507546142706414685e+02,-7.452613429913931213e+02,-4.205594429684442730e+02,-4.406067192914210864e+02,9.446745872497558594e+00,-9.561483860015869141e-01,-1.912296712398529053e-01,4.140000000000000000e+02
-7.745598399749508189e+02,-7.614540204178958902e+02,-3.849210542709045058e+02,-4.603638373406638493e+02,-7.407242903390051652e+02,-7.387477855875804380e+02,-4.171012139554813984e+02,-4.343255431203979242e+02,9.446745872497558594e+00,-9.561483860015869141e-01,-1.912296712398529053e-01,4.150000000000000000e+02
-7.662752307195212325e+02,-7.519109816274562945e+02,-3.803275862545624477e+02,-4.546565288491574393e+02,-7.318348505442540954e+02,-7.318022431526601395e+02,-4.137734320046238281e+02,-4.279312296375019287e+02,9.446745872497558594e+00,-9.179025292396545410e-01,-2.677215635776519775e-01,4.160000000000000000e+02
-7.595281644395211060e+02,-7.429439285099199424e+02,-3.776392306373199972e+02,-4.498460601307601792e+02,-7.245236396110981332e+02,-7.244237300087766016e+02,-4.104094223684778626e+02,-4.220500601294102125e+02,9.446745872497558594e+00,-9.179025292396545410e-01,-2.677215635776519775e-01,4.170000000000000000e+02
-7.541079609607681959e+02,-7.348942309901904082e+02,-3.758806706730786118e+02,-4.455718597367572329e+02,-7.183799620482909631e+02,-7.167478462485896671e+02,-4.069596738904592712e+02,-4.171017799409592044e+02,9.446745872497558594e+00,-9.179025292396545410e-01,-2.677215635776519775e-01,4.180000000000000000e+02
-7.489923604042057832e+02,-7.275069864975428118e+02,-3.737475739221313233e+02,-4.412321731247989192e+02,-7.124692072767616082e+02,-7.090634184519508381e+02,-4.031491332955708913e+02,-4.129977122407667594e+02,9.446745872497558594e+00,-9.179025292396545410e-01,-2.677215635776519775e-01,4.190000000000000000e+02
-7.430723079783965659e+02,-7.201653477390300395e+02,-3.703957122491945029e+02,-4.365187002734055568e+02,-7.060424985888048468e+02,-7.017832029778983269e+02,-3.986718240933917059e+02,-4.092909145582352721e+02,9.446745872497558594e+00,-9.179025292396545410e-01,-2.677215635776519775e-01,4.200000000000000000e+02
-7.360565349867943041e+02,-7.124789743311116581e+02,-3.660072951368010763e+02,-4.316997961555343863e+02,-6.991172345950194540e+02,-6.953022021364845386e+02,-3.937537505402256102e+02,-4.056479734375757289e+02,9.446745872497558594e+00,-9.179025292396545410e-01,-2.677215635776519775e-01,4.210000000000000000e+02
-7.287249891745195782e+02,-7.047139826865152372e+02,-3.616161487895633400e+02,-4.274099905145490084e+02,-6.924465699660222526e+02,-6.897765665431588786e+02,-3.893315711041896066e+02,-4.021493966804214324e+02,9.446745872497558594e+00,-9.179025292396545410e-01,-2.677215635776519775e-01,4.220000000000000000e+02
-7.222389230515209420e+02,-6.976004223313043440e+02,-3.582423533488783960e+02,-4.240991855782290259e+02,-6.868743589697960488e+02,-6.849829195590978088e+02,-3.863981181173317054e+02,-3.990871618721853338e+02,9.446745872497558594e+00,-9.179025292396545410e-01,-2.677215635776519775e-01,4.230000000000000000e+02
-7.170961780328070745e+02,-6.916267486308693151e+02,-3.560400608012564589e+02,-4.215885703103467677e+02,-6.825840625356477176e+02,-6.804022136381827295e+02,-3.850095569462289404e+02,-3.964724252553528459e+02,9.446745872497558594e+00,-9.179025292396545410e-01,-2.677215635776519775e-01,4.240000000000000000e+02
-7.126834916524494474e+02,-6.864856271298026513e+02,-3.542054166665377579e+02,-4.191188587940391699e+02,-6.788586217573156318e+02,-6.755056158871570915e+02,-3.839705927311626965e+02,-3.937932186539933355e+02,9.446745872497558594e+00,-9.179025292396545410e-01,-2.677215635776519775e-01,4.250000000000000000e+02
-7.078361715097412343e+02,-6.812494178564957110e+02,-3.517181783494143019e+02,-4.158895294340854889e+02,-6.745669080807474529e+02,-6.700510832964905603e+02,-3.816550773793073859e+02,-3.903183888816656690e+02,9.446745872497558594e+00,-9.179025292396545410e-01,-2.677215635776519775e-01,4.260000000000000000e+02
-7.018549643127262243e+02,-6.751829605451034695e+02,-3.482129540021276171e+02,-4.116689162878592469e+02,-6.689725106311734635e+02,-6.641723467825077023e+02,-3.773136898062566615e+02,-3.856916697775677676e+02,9.446745872497558594e+00,-9.179025292396545410e-01,-2.677215635776519775e-01,4.270000000000000000e+02
-6.950273880084582743e+02,-6.684320273621251545e+02,-3.441786456085997088e+02,-4.069674545157085959e+02,-6.621943406051436796e+02,-6.582136798862366049e+02,-3.717015013783334325e+02,-3.802535867279057129e+02,9.446745872497558594e+00,-9.179025292396545410e-01,-2.677215635776519775e-01,4.280000000000000000e+02
-6.882241777648646348e+02,-6.618997599401413936e+02,-3.403549988330869382e+02,-4.026075179967810982e+02,-6.549605678496891414e+02,-6.524451518908958860e+02,-3.664479533413082208e+02,-3.747822002679690740e+02,9.446745872497558594e+00,-9.179025292396545410e-01,-2.677215635776519775e-01,4.290000000000000000e+02
-6.820233938625401606e+02,-6.563908780625338295e+02,-3.369421809027305699e+02,-3.990292296961542888e+02,-6.479138967441895147e+02,-6.468564134368316445e+02,-3.627143271018771884e+02,-3.698688751744030014e+02,9.446745872497558594e+00,-9.179025292396545410e-01,-2.677215635776519775e-01,4.300000000000000000e+02
-6.762220832911630168e+02,-6.518245676696164992e+02,-3.333754279719482838e+02,-3.959294435715660256e+02,-6.411081868927058167e+02,-6.411683105995884944e+02,-3.603021254317468447e+02,-3.654751619902835955e+02,9.446745872497558594e+00,-9.179025292396545410e-01,-2.677215635776519775e-01,4.310000000000000000e+02
-6.701359459668537966e+02,-6.472678344404630479e+02,-3.288450263832310156e+02,-3.925404491573121959e+02,-6.341103601584277385e+02,-6.350313787947634410e+02,-3.579234438513085479e+02,-3.610127692827895771e+02,9.446745872497558594e+00,-9.179025292396545410e-01,-2.677215635776519775e-01,4.320000000000000000e+02
-6.632833920564453365e+02,-6.417561171876477601e+02,-3.230307402814078159e+02,-3.882962320115925650e+02,-6.265270424372320122e+02,-6.282574910944581461e+02,-3.543007200389142781e+02,-3.558311983027479073e+02,9.446745872497558594e+00,-9.179025292396545410e-01,-2.677215635776519775e-01,4.330000000000000000e+02
-6.557314883707463196e+02,-6.351256664148836535e+02,-3.163700360363245636e+02,-3.832927908676447259e+02,-6.183962176300988176e+02,-6.209260818056068274e+02,-3.491272537943341376e+02,-3.496917710217194326e+02,9.446745872497558594e+00,-9.179025292396545410e-01,-2.677215635776519775e-01,4.340000000000000000e+02
-6.478474481462167205e+02,-6.281075621217432854e+02,-3.096980371325489614e+02,-3.781625077461744695e+02,-6.100884878825490887e+02,-6.133228824186749080e+02,-3.431865914360573697e+02,-3.429141460159353301e+02,9.446745872497558594e+00,-9.179025292396545410e-01,-2.677215635776519775e-01,4.350000000000000000e+02
-6.398549030626645617e+02,-6.216530634896339507e+02,-3.036725392717323757e+02,-3.735308675335550106e+02,-6.019111868266486454e+02,-6.058049434070080679e+02,-3.376982032725541103e+02,-3.361919458881416176e+02,9.446745872497558594e+00,-9.179025292396545410e-01,-2.677215635776519775e-01,4.360000000000000000e+02
-6.317543022130080317e+02,-6.161602612528008649e+02,-2.985096905840734962e+02,-3.695766462625533677e+02,-5.938941390503077855e+02,-5.987014276172690188e+02,-3.335120814681731645e+02,-3.302517455396505284e+02,9.408499717712402344e+00,-9.179025292396545410e-01,-2.677215635776519775e-01,4.370000000000000000e+02
-6.236662153367788051e+02,-6.112857242559571205e+02,-2.941589529358795971e+02,-3.660525015256753250e+02,-5.859807262047870609e+02,-5.922601167284678922e+02,-3.307083140686909246e+02,-3.255187461403666020e+02,9.408499717712402344e+00,-9.179025292396545410e-01,-2.677215635776519775e-01,4.380000000000000000e+02
-6.161215605083025366e+02,-6.063997259025300082e+02,-2.906062186938170271e+02,-3.626418978203550978e+02,-5.783565074661069048e+02,-5.865736012053525883e+02,-3.287205830521807002e+02,-3.219005512373855709e+02,9.408499717712402344e+00,-9.179025292396545410e-01,-2.677215635776519775e-01,4.390000000000000000e+02
-6.098537698049144637e+02,-6.011590167118297359e+02,-2.879351490990459297e+02,-3.592411636072952206e+02,-5.714895817014562454e+02,-5.814749859155008380e+02,-3.267451285865977297e+02,-3.187990388029820679e+02,9.408499717712402344e+00,-9.179025292396545410e-01,-2.677215635776519775e-01,4.400000000000000000e+02
-6.051988415736777824e+02,-5.956654357647930738e+02,-2.861148978358633030e+02,-3.559238336101202549e+02,-5.658022887423394423e+02,-5.765304336385061106e+02,-3.241614650675210214e+02,-3.154242616160581747e+02,9.408499717712402344e+00,-9.179025292396545410e-01,-2.677215635776519775e-01,4.410000000000000000e+02
-6.016849085292101336e+02,-5.901717339555552826e+02,-2.848143760587099678e+02,-3.527210045681435986e+02,-5.613073824384732688e+02,-5.712541994456701104e+02,-3.208122935038718424e+02,-3.113011095327042312e+02,9.408499717712402344e+00,-9.179025292396545410e-01,-2.677215635776519775e-01,4.420000000000000000e+02
-5.982543642197697409e+02,-5.847289480329172875e+02,-2.835019797207305601e+02,-3.495114872219014615e+02,-5.575877788546376905e+02,-5.654619170452524486e+02,-3.170522744784116185e+02,-3.066176983654804644e+02,9.408499717712402344e+00,-9.179025292396545410e-01,-2.677215635776519775e-01,4.430000000000000000e+02
-5.939532682655058125e+02,-5.791620632283802479e+02,-2.817615351746449051e+02,-3.461349487363504522e+02,-5.541224383455969473e+02,-5.594620885825365804e+02,-3.135180707636418447e+02,-3.020767129967584879e+02,9.408499717712402344e+00,-9.179025292396545410e-01,-2.677215635776519775e-01,4.440000000000000000e+02
-5.884829827058638330e+02,-5.733743592875771355e+02,-2.795144611954501670e+02,-3.425704460239699074e+02,-5.506037341292585552e+02,-5.538521765228415461e+02,-3.106867170395385074e+02,-2.982894154481145961e+02,9.408499717712402344e+00,-9.179025292396545410e-01,-2.677215635776519775e-01,4.450000000000000000e+02
-5.821941121401550845e+02,-5.676319341653961601e+02,-2.769345224068970310e+02,-3.389706963170224299e+02,-5.469562285234255796e+02,-5.490396246472378152e+02,-3.084713592947664438e+02,-2.952126413918599610e+02,9.408499717712402344e+00,-9.179025292396545410e-01,-2.677215635776519775e-01,4.460000000000000000e+02
-5.756634329836797406e+02,-5.625053399572052513e+02,-2.741798096350098604e+02,-3.355199773514318622e+02,-5.431284234412783007e+02,-5.448917508712079325e+02,-3.062053693594930337e+02,-2.921649094334647998e+02,9.408499717712402344e+00,-9.179025292396545410e-01,-2.677215635776519775e-01,4.470000000000000000e+02
-5.693493813278882953e+02,-5.584701295645986647e+02,-2.712560987219803792e+02,-3.322770406162098880e+02,-5.389642768707226423e+02,-5.408355014852959357e+02,-3.031301162219278922e+02,-2.884463062681593328e+02,9.408499717712402344e+00,-9.179025292396545410e-01,-2.677215635776519775e-01,4.480000000000000000e+02
-5.636117051893420467e+02,-5.554876649208622439e+02,-2.681737729690057677e+02,-3.291607278915917050e+02,-5.343212205856807486e+02,-5.363112688568676276e+02,-2.990707343793446853e+02,-2.840071466298204541e+02,9.408499717712402344e+00,-9.179025292396545410e-01,-2.677215635776519775e-01,4.490000000000000000e+02
-5.588796779765775682e+02,-5.529272227081814890e+02,-2.651913007648909115e+02,-3.260580291450055483e+02,-5.292683003260626720e+02,-5.311514529994569784e+02,-2.947393362102225183e+02,-2.795148075182228240e+02,9.408499717712402344e+00,-9.179025292396545410e-01,-2.677215635776519775e-01,4.500000000000000000e+02
-5.555509857842371275e+02,-5.499263871390485292e+02,-2.627786995672604462e+02,-3.229277619478325505e+02,-5.240846149972862804e+02,-5.255652234036633672e+02,-2.913140061320623317e+02,-2.757317445972166752e+02,9.408499717712402344e+00,-9.179025292396545410e-01,-2.677215635776519775e-01,4.510000000000000000e+02
-5.535451686768637956e+02,-5.459443571524288927e+02,-2.612154330462431062e+02,-3.198149899604172788e+02,-5.190145564925774124e+02,-5.198288928782153562e+02,-2.895562531061932532e+02,-2.728085815755657677e+02,9.408499717712402344e+00,-9.179025292396545410e-01,-2.677215635776519775e-01,4.520000000000000000e+02
-5.519539076715236661e+02,-5.411090183458582032e+02,-2.601604074626602596e+02,-3.167917224829311635e+02,-5.140338399162515088e+02,-5.140515970125570675e+02,-2.891569879309340649e+02,-2.701764078387932386e+02,9.408499717712402344e+00,-9.179025292396545410e-01,-2.677215635776519775e-01,4.530000000000000000e+02
-5.492955055158472533e+02,-5.360849309777909184e+02,-2.586603887969486095e+02,-3.138790318442565876e+02,-5.088932854542103996e+02,-5.082360287824076295e+02,-2.888579855455436700e+02,-2.671173237220464216e+02,9.408499717712402344e+00,-9.179025292396545410e-01,-2.677215635776519775e-01,4.540000000000000000e+02
-5.443729854235298262e+02,-5.315560536697425960e+02,-2.557355335202400965e+02,-3.109970377625545552e+02,-5.034324730289504259e+02,-5.024904567063708782e+02,-2.873010072465654048e+02,-2.634441157560845568e+02,9.408499717712402344e+00,-9.179025292396545410e-01,-2.677215635776519775e-01,4.550000000000000000e+02
-5.371258050360238485e+02,-5.277341984623703866e+02,-2.511498135529764113e+02,-3.079771183901339100e+02,-4.978636317384903123e+02,-4.970891172694132365e+02,-2.839563201781547832e+02,-2.596412431808125802e+02,9.408499717712402344e+00,-9.179025292396545410e-01,-2.677215635776519775e-01,4.560000000000000000e+02
-5.287521855028971913e+02,-5.242820021656175413e+02,-2.457276905704652563e+02,-3.046445441756977743e+02,-4.927134863301744190e+02,-4.922662648258115041e+02,-2.794321588114803490e+02,-2.563629099492040950e+02,9.408499717712402344e+00,-9.179025292396545410e-01,-2.677215635776519775e-01,4.570000000000000000e+02
-5.209389982221478022e+02,-5.206825131103519197e+02,-2.408938563734868694e+02,-3.009404164978059271e+02,-4.884243093256704924e+02,-4.879453613160621899e+02,-2.749748219149601027e+02,-2.537944687392496235e+02,9.408499717712402344e+00,-9.179025292396545410e-01,-2.677215635776519775e-01,4.580000000000000000e+02
-5.147784920106823847e+02,-5.166982630404895644e+02,-2.377485533094684342e+02,-2.970078298634225575e+02,-4.849486921285606513e+02,-4.837058583593643561e+02,-2.716173227505255454e+02,-2.514768581441489914e+02,9.408499717712402344e+00,-9.179025292396545410e-01,-2.677215635776519775e-01,4.590000000000000000e+02
-5.102129967121782101e+02,-5.125072904679009298e+02,-2.363712598286763296e+02,-2.931565001270255379e+02,-4.817096174465709737e+02,-4.790612112330636592e+02,-2.696165782487137221e+02,-2.487216343051723015e+02,9.408499717712402344e+00,-9.179025292396545410e-01,-2.677215635776519775e-01,4.600000000000000000e+02
-5.063729540948243084e+02,-5.084456460498395245e+02,-2.358575249103346323e+02,-2.897025990950196501e+02,-4.780006221400467439e+02,-4.738208375899421299e+02,-2.684787079618663483e+02,-2.451916211686743736e+02,9.408499717712402344e+00,-9.179025292396545410e-01,-2.677215635776519775e-01,4.610000000000000000e+02
-5.024145087040824365e+02,-5.046523237013257130e+02,-2.350189719915576916e+02,-2.867859645042194643e+02,-4.735074597005659598e+02,-4.682332491621350528e+02,-2.673900025969824128e+02,-2.411345323462733177e+02,9.484992027282714844e+00,-9.179025292396545410e-01,-2.677215635776519775e-01,4.620000000000000000e+02
-4.981044127143122751e+02,-5.009550351919456261e+02,-2.331736384045466366e+02,-2.842830332877506407e+02,-4.685161954575060008e+02,-4.628029562966257799e+02,-2.656406606400691999e+02,-2.371235433680653841e+02,9.484992027282714844e+00,-9.179025292396545410e-01,-2.677215635776519775e-01,4.630000000000000000e+02
-4.937315181101553208e+02,-4.970253935359937714e+02,-2.304442570016983609e+02,-2.818559352503598348e+02,-4.636371964753734574e+02,-4.579330176815215054e+02,-2.627987635078493440e+02,-2.335831408344947704e+02,9.484992027282714844e+00,-9.179025292396545410e-01,-2.677215635776519775e-01,4.640000000000000000e+02
-4.895854773240016584e+02,-4.925633089708699117e+02,-2.274089337651880669e+02,-2.790799284098470707e+02,-4.592729483426046500e+02,-4.536535784159204923e+02,-2.587018820377907105e+02,-2.304975761388764113e+02,9.484992027282714844e+00,-9.179025292396545410e-01,-2.677215635776519775e-01,4.650000000000000000e+02
-4.855967375642003390e+02,-4.873425249944543793e+02,-2.244645350257887912e+02,-2.755838046187222972e+02,-4.552699437647183913e+02,-4.495980713863564233e+02,-2.534681916512336102e+02,-2.274801036257849773e+02,9.484992027282714844e+00,-9.179025292396545410e-01,-2.677215635776519775e-01,4.660000000000000000e+02
-4.814641448779912025e+02,-4.812318311290791826e+02,-2.214520262620631001e+02,-2.711748618753035771e+02,-4.510160846958101502e+02,-4.452003532300304869e+02,-2.475720846150575198e+02,-2.240690518838719072e+02,9.484992027282714844e+00,-9.179025292396545410e-01,-2.677215635776519775e-01,4.670000000000000000e+02
-4.770405657708788567e+02,-4.743762708571016447e+02,-2.178443325568366618e+02,-2.659571382466156138e+02,-4.458828996712572916e+02,-4.399933191122918288e+02,-2.418576337585213878e+02,-2.200157462388451677e+02,9.484992027282714844e+00,-9.179025292396545410e-01,-2.677215635776519775e-01,4.680000000000000000e+02
-4.724947342286927778e+02,-4.674476702928554914e+02,-2.133234897885342889e+02,-2.604074091686616157e+02,-4.396795408558432428e+02,-4.338847200823788626e+02,-2.373480066182373776e+02,-2.154388658261746059e+02,9.484992027282714844e+00,-9.179025292396545410e-01,-2.677215635776519775e-01,4.690000000000000000e+02
-4.680580732587459352e+02,-4.615775218264170690e+02,-2.082443007645217676e+02,-2.552988067558621879e+02,-4.328233258356613078e+02,-4.272961307650662093e+02,-2.348498720020722885e+02,-2.108249696150373893e+02,9.484992027282714844e+00,-9.179025292396545410e-01,-2.677215635776519775e-01,4.700000000000000000e+02
-4.636707896707634973e+02,-4.577497408128040206e+02,-2.035652953116295976e+02,-2.514104657089819739e+02,-4.261653956485783965e+02,-4.210690703940094863e+02,-2.345375628742508525e+02,-2.068608889948945944e+02,9.484992027282714844e+00,-9.179025292396545410e-01,-2.677215635776519775e-01,4.710000000000000000e+02
-4.589907801598492370e+02,-4.560169217895670499e+02,-2.002580114866013901e+02,-2.491183144228966739e+02,-4.205781129561505622e+02,-4.160959428501096227e+02,-2.357577695865124952e+02,-2.040998697323120723e+02,9.484992027282714844e+00,-9.179025292396545410e-01,-2.677215635776519775e-01,4.720000000000000000e+02
-4.538245105581472671e+02,-4.552620867885707412e+02,-1.986210358747778173e+02,-2.481125872359016284e+02,-4.164907595330996628e+02,-4.127985659149685489e+02,-2.371876116147841458e+02,-2.025619305101058671e+02,9.484992027282714844e+00,-9.179025292396545410e-01,-2.677215635776519775e-01,4.730000000000000000e+02
-4.485309571965358373e+02,-4.538542494954308495e+02,-1.980278415271072845e+02,-2.474776835869502065e+02,-4.135981141590996231e+02,-4.107617752178812225e+02,-2.373243249169524915e+02,-2.015226695060018756e+02,9.484992027282714844e+00,-9.179025292396545410e-01,-2.677215635776519775e-01,4.740000000000000000e+02
-4.439101428164162826e+02,-4.507331840515796557e+02,-1.973323615006067939e+02,-2.461614100255137600e+02,-4.109684925194533207e+02,-4.088493004211600237e+02,-2.351493769837106811e+02,-1.997654776007675537e+02,9.484992027282714844e+00,-9.179025292396545410e-01,-2.677215635776519775e-01,4.750000000000000000e+02
-4.405567302750491763e+02,-4.460056698946432334e+02,-1.956208841920822579e+02,-2.435780577191608245e+02,-4.075859229537568353e+02,-4.058440886007238078e+02,-2.306573386196369029e+02,-1.962668394451266067e+02,9.484992027282714844e+00,-9.179025292396545410e-01,-2.677215635776519775e-01,4.760000000000000000e+02
-4.382445453079428717e+02,-4.405599530118563507e+02,-1.927471338722323253e+02,-2.399348261184945841e+02,-4.030232467432238082e+02,-4.012062422235353552e+02,-2.249176021506718826e+02,-1.908825560256987046e+02,9.484992027282714844e+00,-9.179025292396545410e-01,-2.677215635776519775e-01,4.770000000000000000e+02
-4.359538915977968827e+02,-4.351379706524696758e+02,-1.892890235496543028e+02,-2.360237646020777902e+02,-3.977338539492543532e+02,-3.953642596504655558e+02,-2.195443348878372944e+02,-1.844925592589988810e+02,9.484992027282714844e+00,-9.179025292396545410e-01,-2.677215635776519775e-01,4.780000000000000000e+02
-4.325814870632384554e+02,-4.297866225479756395e+02,-1.860221657125593993e+02,-2.326056581017755889e+02,-3.926643271470293257e+02,-3.892884035325701007e+02,-2.158225958733728476e+02,-1.784364118047369629e+02,9.484992027282714844e+00,-9.179025292396545410e-01,-2.677215635776519775e-01,4.790000000000000000e+02
-4.277510074470637846e+02,-4.241443560530724426e+02,-1.833611178726796425e+02,-2.298676987873441249e+02,-3.884741839567204806e+02,-3.837144965166075963e+02,-2.140260876916413508e+02,-1.736681015892895630e+02,9.484992027282714844e+00,-9.179025292396545410e-01,-2.677215635776519775e-01,4.800000000000000000e+02
-4.220384228554294168e+02,-4.181452722094818455e+02,-1.811591519646117376e+02,-2.274085083577665500e+02,-3.850485077378061760e+02,-3.787026297681068172e+02,-2.133656315527348397e+02,-1.702885389893588126e+02,9.484992027282714844e+00,-9.179025292396545410e-01,-2.677215635776519775e-01,4.810000000000000000e+02
-4.164484126790471237e+02,-4.123409863564754687e+02,-1.789240506783694400e+02,-2.247547988035325943e+02,-3.817304418994785919e+02,-3.738800746383262776e+02,-2.125668012050980451e+02,-1.677612630941753196e+02,9.484992027282714844e+00,-9.179025292396545410e-01,-2.677215635776519775e-01,4.820000000000000000e+02
-4.116445074317796298e+02,-4.075146923885677097e+02,-1.762166128283079161e+02,-2.219372392303080233e+02,-3.780260207191172412e+02,-3.690590753589340238e+02,-2.106297754077506852e+02,-1.655148122363245875e+02,9.484992027282714844e+00,-9.179025292396545410e-01,-2.677215635776519775e-01,4.830000000000000000e+02
-4.075712592812656112e+02,-4.040102250598124556e+02,-1.729192812649428106e+02,-2.195522709901592862e+02,-3.740593856930390757e+02,-3.645605535719064392e+02,-2.072373458890670008e+02,-1.633272706572017796e+02,9.484992027282714844e+00,-9.179025292396545410e-01,-2.677215635776519775e-01,4.840000000000000000e+02
-4.036850990778289088e+02,-4.014524613574596970e+02,-1.692299876264651175e+02,-2.181913931490248615e+02,-3.703269545115470009e+02,-3.609073299859169310e+02,-2.026492609953775172e+02,-1.612054144630092196e+02,9.484992027282714844e+00,-9.179025292396545410e-01,-2.677215635776519775e-01,4.850000000000000000e+02
-3.994961150489391457e+02,-3.990869223875356511e+02,-1.654654003101552462e+02,-2.177494851286714947e+02,-3.670602744937066291e+02,-3.582461194256775343e+02,-1.973794200401011949e+02,-1.590292265679743196e+02,9.484992027282714844e+00,-9.179025292396545410e-01,-2.677215635776519775e-01,4.860000000000000000e+02
-3.949447749041719362e+02,-3.963602882704904005e+02,-1.618514801963644913e+02,-2.172959211009010687e+02,-3.639018468298745574e+02,-3.561150679144366222e+02,-1.920165068543265079e+02,-1.564304088699357180e+02,9.484992027282714844e+00,-9.179025292396545410e-01,-2.677215635776519775e-01,4.870000000000000000e+02
-3.903957776002323499e+02,-3.932176518526480322e+02,-1.584536723334219914e+02,-2.157061403822769989e+02,-3.602449316754300526e+02,-3.537853959654862592e+02,-1.872335807767983624e+02,-1.530613364708872268e+02,9.484992027282714844e+00,-9.179025292396545410e-01,-2.677215635776519775e-01,4.880000000000000000e+02
-3.863809846623962585e+02,-3.899484547330603164e+02,-1.552745566784406037e+02,-2.125342439558071419e+02,-3.558558218199286785e+02,-3.507991332827286897e+02,-1.837270043676790010e+02,-1.489493903962420518e+02,9.523238182067871094e+00,-8.796565532684326172e-01,-1.529837548732757568e-01,4.890000000000000000e+02
-3.833078447728803440e+02,-3.868188166057007038e+02,-1.524076578540932587e+02,-2.083569917904485465e+02,-3.511089681363928321e+02,-3.471622072875507001e+02,-1.818973297715988338e+02,-1.445364357309326806e+02,9.523238182067871094e+00,-8.796565532684326172e-01,-1.529837548732757568e-01,4.900000000000000000e+02
-3.812454611292714617e+02,-3.838232413213036125e+02,-1.500546128652404150e+02,-2.042841910760714654e+02,-3.465984311027841613e+02,-3.430920567408074930e+02,-1.814603396027869167e+02,-1.403479039132137132e+02,9.523238182067871094e+00,-8.796565532684326172e-01,-1.529837548732757568e-01,4.910000000000000000e+02
-3.798040992304108840e+02,-3.807071163067103043e+02,-1.483070886309467369e+02,-2.010827211418582010e+02,-3.425388966102682389e+02,-3.387008750201334806e+02,-1.814132095095285422e+02,-1.366037244775041017e+02,9.523238182067871094e+00,-8.796565532684326172e-01,-1.529837548732757568e-01,4.920000000000000000e+02
-3.781813275452354901e+02,-3.771893706050377659e+02,-1.468534282878895283e+02,-1.986891368129829516e+02,-3.385562211965577717e+02,-3.339883885521066986e+02,-1.805523717805722299e+02,-1.331056449235379660e+02,9.523238182067871094e+00,-8.796565532684326172e-01,-1.529837548732757568e-01,4.930000000000000000e+02
-3.754878820777216788e+02,-3.732158015057561897e+02,-1.449430201001223395e+02,-1.964795380312853013e+02,-3.340335035439086369e+02,-3.290804159662516213e+02,-1.782144830209649626e+02,-1.294298121277267910e+02,9.523238182067871094e+00,-8.796565532684326172e-01,-1.529837548732757568e-01,4.940000000000000000e+02
-3.712798331613294067e+02,-3.690813332259824620e+02,-1.418235253024402027e+02,-1.939682228705200941e+02,-3.286664254649908798e+02,-3.243418769998966127e+02,-1.746587092829809080e+02,-1.252213718138525564e+02,9.523238182067871094e+00,-8.796565532684326172e-01,-1.529837548732757568e-01,4.950000000000000000e+02
-3.659441899907455991e+02,-3.652982444661877253e+02,-1.374136725020681524e+02,-1.912696467670025413e+02,-3.227533915721469384e+02,-3.201683930194540153e+02,-1.707902063257561167e+02,-1.204108373934834617e+02,9.523238182067871094e+00,-8.796565532684326172e-01,-1.529837548732757568e-01,4.960000000000000000e+02
-3.605413341324308476e+02,-3.622510260656025594e+02,-1.326154483115096809e+02,-1.889350336801871890e+02,-3.170341462195556232e+02,-3.166645458480536490e+02,-1.674843370749385940e+02,-1.153063691425661546e+02,9.523238182067871094e+00,-8.796565532684326172e-01,-1.529837548732757568e-01,4.970000000000000000e+02
-3.560961549188455137e+02,-3.598962972991064362e+02,-1.288479114609340286e+02,-1.873872381974779273e+02,-3.122589449883034831e+02,-3.135736177032608794e+02,-1.650729590220992122e+02,-1.105655651500621843e+02,9.523238182067871094e+00,-8.796565532684326172e-01,-1.529837548732757568e-01,4.980000000000000000e+02
-3.528572892385952855e+02,-3.578105052541422992e+02,-1.270399897514978420e+02,-1.865012912997747208e+02,-3.087622274056340075e+02,-3.105282045895173724e+02,-1.633361106610053639e+02,-1.069738378246238426e+02,9.523238182067871094e+00,-8.796565532684326172e-01,-1.529837548732757568e-01,4.990000000000000000e+02
-3.501717757443759638e+02,-3.556022664510273898e+02,-1.268997401247810330e+02,-1.856773441796135558e+02,-3.062359745453804862e+02,-3.073302172314570271e+02,-1.618598059910755182e+02,-1.049946283136503098e+02,9.523238182067871094e+00,-8.796565532684326172e-01,-1.529837548732757568e-01,5.000000000000000000e+02
-3.471320934176562787e+02,-3.533009566416795906e+02,-1.271554357195470857e+02,-1.842879400278068260e+02,-3.038263050511952770e+02,-3.039706355605369481e+02,-1.603779901561905490e+02,-1.043185265759860840e+02,9.523238182067871094e+00,-8.796565532684326172e-01,-1.529837548732757568e-01,5.010000000000000000e+02
-3.434319471096846428e+02,-3.512764114146799557e+02,-1.266129707734971817e+02,-1.820671793738962378e+02,-3.005699415019785192e+02,-3.004248008223183888e+02,-1.588695599175989628e+02,-1.038340559660440476e+02,9.523238182067871094e+00,-8.796565532684326172e-01,-1.529837548732757568e-01,5.020000000000000000e+02
-3.396347023896130395e+02,-3.497031588564556159e+02,-1.251126928763912360e+02,-1.791584565050358151e+02,-2.960081614703034347e+02,-2.965436689017376466e+02,-1.574975575703546156e+02,-1.022594372365408617e+02,9.523238182067871094e+00,-8.796565532684326172e-01,-1.529837548732757568e-01,5.030000000000000000e+02
-3.365862951635934337e+02,-3.481345515610126995e+02,-1.235330260124121651e+02,-1.758838831946040955e+02,-2.905744122560745382e+02,-2.922269543696020264e+02,-1.565362316563461604e+02,-9.909973044698244848e+01,9.523238182067871094e+00,-8.796565532684326172e-01,-1.529837548732757568e-01,5.040000000000000000e+02
-3.345212321880493391e+02,-3.457429261208818616e+02,-1.228698599723568350e+02,-1.725145931692534305e+02,-2.853784767260875697e+02,-2.877101582954134074e+02,-1.562735532823254516e+02,-9.518121891154584091e+01,9.523238182067871094e+00,-8.796565532684326172e-01,-1.529837548732757568e-01,5.050000000000000000e+02
-3.327278829354811478e+02,-3.421004334472552841e+02,-1.232783891077195904e+02,-1.692328631694783212e+02,-2.814347650994118908e+02,-2.836177491813912752e+02,-1.567813480817351319e+02,-9.221241701524581913e+01,9.523238182067871094e+00,-8.796565532684326172e-01,-1.529837548732757568e-01,5.060000000000000000e+02
-3.301300212085335488e+02,-3.377114444746342770e+02,-1.239736408487314634e+02,-1.661971336048792978e+02,-2.788856047721191658e+02,-2.806064893992185603e+02,-1.576110472782960414e+02,-9.157665720911228391e+01,9.523238182067871094e+00,-8.796565532684326172e-01,-1.529837548732757568e-01,5.070000000000000000e+02
-3.262691564954982368e+02,-3.336506983311036834e+02,-1.240487834784956931e+02,-1.635195244455248940e+02,-2.768918273726172288e+02,-2.788461359107865292e+02,-1.577491955871384448e+02,-9.328857815666094666e+01,9.523238182067871094e+00,-8.796565532684326172e-01,-1.529837548732757568e-01,5.080000000000000000e+02
-3.217875542361416024e+02,-3.305549528529432450e+02,-1.234051347912487131e+02,-1.611138371455035099e+02,-2.743649508737129281e+02,-2.777751126873015437e+02,-1.560993957268103429e+02,-9.598751548900779085e+01,9.523238182067871094e+00,-8.796565532684326172e-01,-1.529837548732757568e-01,5.090000000000000000e+02
-3.179527955835975490e+02,-3.279609696041115399e+02,-1.229186455107640370e+02,-1.586129960837151884e+02,-2.709610517659182847e+02,-2.763813580855587020e+02,-1.522776226521485796e+02,-9.801389077780777370e+01,9.523238182067871094e+00,-8.796565532684326172e-01,-1.529837548732757568e-01,5.100000000000000000e+02
-3.156277262086813948e+02,-3.247258424271199146e+02,-1.237153009934932584e+02,-1.555696937073225854e+02,-2.674649186136057324e+02,-2.738559695347074694e+02,-1.470838900137787846e+02,-9.871488504815863507e+01,9.523238182067871094e+00,-8.796565532684326172e-01,-1.529837548732757568e-01,5.110000000000000000e+02
-3.145870187417666557e+02,-3.201839498678455129e+02,-1.262281907257970488e+02,-1.518525438742981919e+02,-2.651668285306822668e+02,-2.701569475146259833e+02,-1.421293711228106531e+02,-9.890915830082616367e+01,9.523238182067871094e+00,-8.796565532684326172e-01,-1.529837548732757568e-01,5.120000000000000000e+02
-3.137314489782322653e+02,-3.149000612457182342e+02,-1.298116389130423727e+02,-1.478701512045604431e+02,-2.647042815266577236e+02,-2.660585414064399856e+02,-1.387817133106585743e+02,-1.001480221076648149e+02,9.523238182067871094e+00,-8.796565532684326172e-01,-1.529837548732757568e-01,5.130000000000000000e+02
-3.119587625725516773e+02,-3.102295105732339380e+02,-1.331350596345100712e+02,-1.443349394709130138e+02,-2.653557524137278278e+02,-2.626140409638130677e+02,-1.372414829388818589e+02,-1.034151097690372580e+02,9.523238182067871094e+00,-8.796565532684326172e-01,-1.529837548732757568e-01,5.140000000000000000e+02
-3.089377717144961935e+02,-3.070982252645110293e+02,-1.349651444334807593e+02,-1.417041619865333359e+02,-2.654392343215100709e+02,-2.604001151958677838e+02,-1.365281869283821834e+02,-1.083513697067190833e+02,9.523238182067871094e+00,-8.796565532684326172e-01,-1.529837548732757568e-01,5.150000000000000000e+02
-3.051996693713831519e+02,-3.052015294610431511e+02,-1.347824766294700112e+02,-1.397946909780248461e+02,-2.635542595054605499e+02,-2.590959570721115597e+02,-1.353955641635909615e+02,-1.136099114405534465e+02,9.523238182067871094e+00,-8.796565532684326172e-01,-1.529837548732757568e-01,5.160000000000000000e+02
-3.015710632872792303e+02,-3.033623107645844357e+02,-1.329092013334501416e+02,-1.379398928887881084e+02,-2.596349101222131139e+02,-2.577091756156564770e+02,-1.333439074215464188e+02,-1.179460375232190472e+02,9.523238182067871094e+00,-8.796565532684326172e-01,-1.529837548732757568e-01,5.170000000000000000e+02
-2.984801467044563879e+02,-3.006331596422922985e+02,-1.301993717372421315e+02,-1.355521457168447341e+02,-2.549193708064112798e+02,-2.552767039068839949e+02,-1.308460494342359652e+02,-1.210579395167792427e+02,9.523238182067871094e+00,-8.796565532684326172e-01,-1.529837548732757568e-01,5.180000000000000000e+02
-2.956992612449651006e+02,-2.970416023254440461e+02,-1.275556662916904997e+02,-1.325736525048519070e+02,-2.508844969040933393e+02,-2.515087991222465007e+02,-1.286835647346333644e+02,-1.235196315898297144e+02,9.523238182067871094e+00,-8.796565532684326172e-01,-1.529837548732757568e-01,5.190000000000000000e+02
-2.926586688418719859e+02,-2.933095914523760257e+02,-1.255147730815951945e+02,-1.294214479582394688e+02,-2.480812945783800387e+02,-2.469086362166360686e+02,-1.270928507824387452e+02,-1.259946243216518269e+02,9.446745872497558594e+00,-8.796565532684326172e-01,-2.677215635776519775e-01,5.200000000000000000e+02
-2.890114689877341334e+02,-2.899597538413936491e+02,-1.240890857913332184e+02,-1.265504985469592611e+02,-2.458821575366125671e+02,-2.423366618483951243e+02,-1.255513169794685382e+02,-1.285363460353551091e+02,9.446745872497558594e+00,-8.796565532684326172e-01,-2.677215635776519775e-01,5.210000000000000000e+02
-2.849828075047846596e+02,-2.868002661805567186e+02,-1.229566430198697162e+02,-1.241017089752781430e+02,-2.433048194465393408e+02,-2.384082035198216545e+02,-1.233754101210010958e+02,-1.306200989664673671e+02,9.446745872497558594e+00,-8.796565532684326172e-01,-2.677215635776519775e-01,5.220000000000000000e+02
-2.812495669033401100e+02,-2.832832398482973986e+02,-1.218877970324856506e+02,-1.219430478914623563e+02,-2.400897468101393315e+02,-2.351964012839271163e+02,-1.204825955580631671e+02,-1.318069264655964616e+02,9.446745872497558594e+00,-8.796565532684326172e-01,-2.677215635776519775e-01,5.230000000000000000e+02
-2.784640345217303548e+02,-2.792751669287506502e+02,-1.210749929565631646e+02,-1.199626740752778460e+02,-2.370057637793004233e+02,-2.323968676295271507e+02,-1.175252415540094262e+02,-1.323351469536555669e+02,9.446745872497558594e+00,-8.796565532684326172e-01,-2.677215635776519775e-01,5.240000000000000000e+02
-2.767931320342283925e+02,-2.753793218698961027e+02,-1.210666863459753131e+02,-1.182419700830050715e+02,-2.351321248159647439e+02,-2.297224738978729874e+02,-1.152642475741658927e+02,-1.330480314982919481e+02,9.446745872497558594e+00,-8.796565532684326172e-01,-2.677215635776519775e-01,5.250000000000000000e+02
-2.758144991038191165e+02,-2.724735476384553294e+02,-1.223162771084782889e+02,-1.169462226422988351e+02,-2.348450275948589479e+02,-2.271685444395789091e+02,-1.138285783495089163e+02,-1.347240181911547552e+02,9.446745872497558594e+00,-8.796565532684326172e-01,-2.677215635776519775e-01,5.260000000000000000e+02
-2.748365942456648554e+02,-2.709541057433334572e+02,-1.247118320320014391e+02,-1.161066855497256256e+02,-2.354670625415492395e+02,-2.249490377485512909e+02,-1.126200780009949085e+02,-1.374303070299433784e+02,9.446745872497558594e+00,-8.796565532684326172e-01,-2.677215635776519775e-01,5.270000000000000000e+02
-2.733891444150276584e+02,-2.704344794078879204e+02,-1.275030603930626967e+02,-1.155729990314239330e+02,-2.358523192410493721e+02,-2.232142992247631810e+02,-1.109782996046737935e+02,-1.404835715395906846e+02,9.446745872497558594e+00,-8.796565532684326172e-01,-2.677215635776519775e-01,5.280000000000000000e+02
-2.714990025995375618e+02,-2.701293150044302820e+02,-1.297018411863355141e+02,-1.151764720515084264e+02,-2.352857628581959943e+02,-2.218363168916989707e+02,-1.089495919841692739e+02,-1.430291874196332174e+02,9.446745872497558594e+00,-8.796565532684326172e-01,-2.677215635776519775e-01,5.290000000000000000e+02
-2.695462028418078262e+02,-2.694776950793570904e+02,-1.306222772797550533e+02,-1.148939536419002252e+02,-2.338666748814366656e+02,-2.204715252692585636e+02,-1.073656919185755214e+02,-1.447215806143685768e+02,9.446745872497558594e+00,-8.796565532684326172e-01,-2.677215635776519775e-01,5.300000000000000000e+02
-2.678423171675340200e+02,-2.684136267903304542e+02,-1.301487387560332536e+02,-1.148326440698265287e+02,-2.321534391920422422e+02,-2.188653726773300150e+02,-1.071060095046714196e+02,-1.459424975160973190e+02,9.446745872497558594e+00,-8.796565532684326172e-01,-2.677215635776519775e-01,5.310000000000000000e+02
-2.663182172109109160e+02,-2.671383206929403968e+02,-1.286196158888178616e+02,-1.150718630562091676e+02,-2.305525553434590620e+02,-2.171212903552623175e+02,-1.082149428410102701e+02,-1.474136180855703060e+02,9.446745872497558594e+00,-8.796565532684326172e-01,-2.677215635776519775e-01,5.320000000000000000e+02
-2.645997151119418049e+02,-2.657640531873807959e+02,-1.265580824830112761e+02,-1.155433245955632628e+02,-2.290575869129415878e+02,-2.156452975244137633e+02,-1.097259535897073874e+02,-1.495543076613835183e+02,9.446745872497558594e+00,-8.796565532684326172e-01,-2.677215635776519775e-01,5.330000000000000000e+02
-2.623927273582921771e+02,-2.642317824482365722e+02,-1.244904587985797662e+02,-1.160360325644451223e+02,-2.274471970988720386e+02,-2.147425557221777126e+02,-1.104044793008856686e+02,-1.520930452425527619e+02,9.446745872497558594e+00,-8.796565532684326172e-01,-2.677215635776519775e-01,5.340000000000000000e+02
-2.598045132452989492e+02,-2.625098556857792573e+02,-1.228823911682384278e+02,-1.162797812109656661e+02,-2.256046817944934446e+02,-2.142058750102478371e+02,-1.097591280731089682e+02,-1.542386753654341192e+02,9.446745872497558594e+00,-8.796565532684326172e-01,-2.677215635776519775e-01,5.350000000000000000e+02
-2.572748915156021212e+02,-2.607648463392956728e+02,-1.220368184832191218e+02,-1.160246800464092303e+02,-2.236136621958467003e+02,-2.133256963080739297e+02,-1.083980580091520096e+02,-1.552758140669129716e+02,9.446745872497558594e+00,-8.796565532684326172e-01,-2.677215635776519775e-01,5.360000000000000000e+02
-2.551530069583418481e+02,-2.592627265561604872e+02,-1.219028028663815348e+02,-1.151068355874431290e+02,-2.216216128577216296e+02,-2.114056568013529613e+02,-1.073926431939107715e+02,-1.551165523391377974e+02,9.446745872497558594e+00,-8.796565532684326172e-01,-2.677215635776519775e-01,5.370000000000000000e+02
-2.533140811457519703e+02,-2.581122853440092513e+02,-1.219755872351652215e+02,-1.135340507183345835e+02,-2.197119367576106015e+02,-2.083727009700214694e+02,-1.072484463705272901e+02,-1.543751963891063497e+02,9.446745872497558594e+00,-8.796565532684326172e-01,-2.677215635776519775e-01,5.380000000000000000e+02
-2.512186778242567016e+02,-2.571786437668019971e+02,-1.215042996683168894e+02,-1.115525919867986886e+02,-2.179276930914320474e+02,-2.049084097868208119e+02,-1.074487690055811981e+02,-1.539019977659481810e+02,9.446745872497558594e+00,-8.796565532684326172e-01,-2.677215635776519775e-01,5.390000000000000000e+02
-2.484162836841887838e+02,-2.562909662298111471e+02,-1.199699276712030951e+02,-1.095865363469802105e+02,-2.163507840996126106e+02,-2.019372490878722601e+02,-1.069950986325975464e+02,-1.541516525177885342e+02,9.446745872497558594e+00,-8.796565532684326172e-01,-2.677215635776519775e-01,5.400000000000000000e+02
-2.450537541120802416e+02,-2.555105647980462891e+02,-1.174912925745188659e+02,-1.080137208047572130e+02,-2.150839364060839216e+02,-1.999128514730173265e+02,-1.054096518076553366e+02,-1.548999669336526495e+02,9.484992027282714844e+00,-9.561483860015869141e-01,-2.677215635776519775e-01,5.410000000000000000e+02
-2.418878510979493512e+02,-2.550994726090430049e+02,-1.148060709178384968e+02,-1.069112506202427539e+02,-2.141297993065536502e+02,-1.985366796382968460e+02,-1.032063576618074876e+02,-1.555148892723691461e+02,9.484992027282714844e+00,-9.561483860015869141e-01,-2.677215635776519775e-01,5.420000000000000000e+02
-2.397329739679453269e+02,-2.551285378315087655e+02,-1.127996778057431584e+02,-1.059893931005517516e+02,-2.133118936025775838e+02,-1.971313018160699357e+02,-1.013687494145060555e+02,-1.555134430766938749e+02,9.484992027282714844e+00,-9.561483860015869141e-01,-2.677215635776519775e-01,5.430000000000000000e+02
-2.388030330595956912e+02,-2.551036399439990419e+02,-1.119247507925701939e+02,-1.048024657389596541e+02,-2.123449018893861648e+02,-1.952599205598580738e+02,-1.003641054761155829e+02,-1.548970105865746518e+02,9.484992027282714844e+00,-9.561483860015869141e-01,-2.677215635776519775e-01,5.440000000000000000e+02
-2.385366157414873669e+02,-2.540870044346493160e+02,-1.119586155828501433e+02,-1.030994012035180276e+02,-2.110191901534944918e+02,-1.930105214318864455e+02,-9.971670402481595374e+01,-1.540183404034896739e+02,9.484992027282714844e+00,-9.561483860015869141e-01,-2.677215635776519775e-01,5.450000000000000000e+02
-2.380779312365575606e+02,-2.513968973114942855e+02,-1.122660583963252066e+02,-1.010591328797281676e+02,-2.093628268703887443e+02,-1.907762257155445695e+02,-9.861183749626434292e+01,-1.532187515425666788e+02,9.484992027282714844e+00,-9.561483860015869141e-01,-2.677215635776519775e-01,5.460000000000000000e+02
-2.369852810849333764e+02,-2.473738832113922399e+02,-1.123271744784815382e+02,-9.923261216158152820e+01,-2.076573389380600929e+02,-1.888706973541593470e+02,-9.691316628457843763e+01,-1.526563781310196646e+02,9.484992027282714844e+00,-9.561483860015869141e-01,-2.677215635776519775e-01,5.470000000000000000e+02
-2.355277360980344383e+02,-2.434704967231027695e+02,-1.120908523614989463e+02,-9.822305601285825105e+01,-2.063011458504588518e+02,-1.873992726083070011e+02,-9.548136867052107846e+01,-1.524627449244899253e+02,9.484992027282714844e+00,-9.561483860015869141e-01,-2.677215635776519775e-01,5.480000000000000000e+02
-2.343166965770369643e+02,-2.413779642051495102e+02,-1.118775124197190962e+02,-9.830121592651903484e+01,-2.055896856811132238e+02,-1.864116217174178018e+02,-9.534643511806461902e+01,-1.529347876990814257e+02,9.484992027282714844e+00,-9.561483860015869141e-01,-2.677215635776519775e-01,5.490000000000000000e+02
-2.336515298082622394e+02,-2.417320138480581591e+02,-1.119368841755513131e+02,-9.918718684709710942e+01,-2.055322333368567342e+02,-1.860205835367978580e+02,-9.649058566731218889e+01,-1.543930563037765751e+02,9.484992027282714844e+00,-9.561483860015869141e-01,-2.677215635776519775e-01,5.500000000000000000e+02
-2.332118423836645889e+02,-2.434433634655370042e+02,-1.120712991479285847e+02,-1.001471822965340834e+02,-2.058324028397128131e+02,-1.862770513361883786e+02,-9.752186852910472226e+01,-1.567401396686718726e+02,9.484992027282714844e+00,-9.561483860015869141e-01,-2.677215635776519775e-01,5.510000000000000000e+02
-2.323689129576814594e+02,-2.443397964632113144e+02,-1.116898335051864706e+02,-1.003865720236699417e+02,-2.060438037970006917e+02,-1.869507365575645963e+02,-9.674665186094716773e+01,-1.591776500770392886e+02,9.484992027282714844e+00,-9.561483860015869141e-01,-2.677215635776519775e-01,5.520000000000000000e+02
-2.307877336179617487e+02,-2.427675639887529542e+02,-1.102964567006065408e+02,-9.953702053636152414e+01,-2.058024222099575127e+02,-1.875497224770078901e+02,-9.376548041093883512e+01,-1.605165790082355670e+02,9.484992027282714844e+00,-9.561483860015869141e-01,-2.677215635776519775e-01,5.530000000000000000e+02
-2.287289064099195457e+02,-2.389171865136677297e+02,-1.080006773197019356e+02,-9.792261559088728973e+01,-2.049614226897119806e+02,-1.876422342594360089e+02,-9.006959788798394584e+01,-1.599473441514646765e+02,9.484992027282714844e+00,-9.561483860015869141e-01,-2.677215635776519775e-01,5.540000000000000000e+02
-2.267966985077682693e+02,-2.347439705359556683e+02,-1.055844284320774022e+02,-9.639443474609288387e+01,-2.035643281950706296e+02,-1.871886035167517548e+02,-8.796010993446816428e+01,-1.576493675588890255e+02,9.484992027282714844e+00,-9.561483860015869141e-01,-2.677215635776519775e-01,5.550000000000000000e+02
-2.254286232563272279e+02,-2.324643144900664993e+02,-1.040103654711010677e+02,-9.579871212283251225e+01,-2.017668238093174295e+02,-1.865515776668980834e+02,-8.866723896534313099e+01,-1.547007640278206964e+02,9.484992027282714844e+00,-9.561483860015869141e-01,-2.677215635776519775e-01,5.560000000000000000e+02
-2.246097568178847723e+02,-2.328188084024950513e+02,-1.037347275398833517e+02,-9.640485811213511624e+01,-1.998269887115875463e+02,-1.861661793722068978e+02,-9.131093542911548866e+01,-1.523258937802311266e+02,9.484992027282714844e+00,-9.561483860015869141e-01,-2.677215635776519775e-01,5.570000000000000000e+02
-2.240200501903764234e+02,-2.345179292065276968e+02,-1.044033836861208329e+02,-9.768511199153363123e+01,-1.981465114931688731e+02,-1.861822635288426682e+02,-9.361752563827849372e+01,-1.510911783935171115e+02,9.484992027282714844e+00,-9.561483860015869141e-01,-2.677215635776519775e-01,5.580000000000000000e+02
-2.233767394587230228e+02,-2.353064868811297856e+02,-1.051759290192640037e+02,-9.861088121727698308e+01,-1.971827170740052679e+02,-1.863696886773359438e+02,-9.372593008349485899e+01,-1.506489677812660375e+02,9.484992027282714844e+00,-9.561483860015869141e-01,-2.677215635776519775e-01,5.590000000000000000e+02
-2.226029644654299773e+02,-2.337151667738471588e+02,-1.053560511585128552e+02,-9.827814041969031678e+01,-1.971399171195353119e+02,-1.862988666063556593e+02,-9.150562215215086326e+01,-1.501307821394402708e+02,9.484992027282714844e+00,-9.561483860015869141e-01,-2.677215635776519775e-01,5.600000000000000000e+02
-2.217379145975228312e+02,-2.300379798418471182e+02,-1.047958179543575170e+02,-9.645415654852149601e+01,-1.976700490193288715e+02,-1.855881981065831496e+02,-8.837664557694279210e+01,-1.488012178270037111e+02,9.484992027282714844e+00,-9.561483860015869141e-01,-2.677215635776519775e-01,5.610000000000000000e+02
-2.207894048043308430e+02,-2.258442861867879401e+02,-1.037910044655645834e+02,-9.369640703564073192e+01,-1.979288361166418326e+02,-1.840314491102581087e+02,-8.600942990820294654e+01,-1.464781511587589193e+02,9.484992027282714844e+00,-9.561483860015869141e-01,-2.677215635776519775e-01,5.620000000000000000e+02
-2.197385875029231102e+02,-2.226377322106618522e+02,-1.026897565473491341e+02,-9.099566689847597445e+01,-1.971056054320488329e+02,-1.816210619191624573e+02,-8.516542508821294177e+01,-1.435387464275900129e+02,9.484992027282714844e+00,-9.561483860015869141e-01,-2.677215635776519775e-01,5.630000000000000000e+02
-2.186496406331807520e+02,-2.208945797306532768e+02,-1.016425334822024524e+02,-8.920267917943601788e+01,-1.950691579124450072e+02,-1.785649074673056020e+02,-8.555048186322528636e+01,-1.406431607008653373e+02,9.484992027282714844e+00,-9.561483860015869141e-01,-2.677215635776519775e-01,5.640000000000000000e+02
-2.176626244827257324e+02,-2.201554527054613573e+02,-1.006582702826854074e+02,-8.859753007077233633e+01,-1.925436483087705710e+02,-1.752987042593649676e+02,-8.645988532569572271e+01,-1.383864786738140538e+02,9.484992027282714844e+00,-9.561483860015869141e-01,-2.677215635776519775e-01,5.650000000000000000e+02
-2.168175050232002832e+02,-2.197716403744379932e+02,-9.977944579189534124e+01,-8.884814151026330364e+01,-1.905886388395392714e+02,-1.724181556900512078e+02,-8.737114167647087015e+01,-1.370343956176202482e+02,9.484992027282714844e+00,-9.179025292396545410e-01,-1.912296712398529053e-01,5.660000000000000000e+02
-2.159215102702710283e+02,-2.194033720339157298e+02,-9.909914947075048985e+01,-8.932657945078790362e+01,-1.897870462619794125e+02,-1.704775858638058708e+02,-8.795563832520929282e+01,-1.364048546103513218e+02,9.484992027282714844e+00,-9.179025292396545410e-01,-1.912296712398529053e-01,5.670000000000000000e+02
-2.146830613005367923e+02,-2.188489373385637009e+02,-9.859644561775166949e+01,-8.952490708987534163e+01,-1.898334361562738195e+02,-1.697300708767907054e+02,-8.776643638457426277e+01,-1.359406988515256671e+02,9.484992027282714844e+00,-9.179025292396545410e-01,-1.912296712398529053e-01,5.680000000000000000e+02
-2.130407112941848027e+02,-2.176428510161895247e+02,-9.803247667319192260e+01,-8.927929660582412907e+01,-1.898595073575270362e+02,-1.699598677455032885e+02,-8.621306161717075156e+01,-1.349857316976213042e+02,9.484992027282714844e+00,-9.179025292396545410e-01,-1.912296712398529053e-01,5.690000000000000000e+02
-2.113188054631336854e+02,-2.151113588384341710e+02,-9.709026773619007145e+01,-8.869881885693939694e+01,-1.891846005789775518e+02,-1.705281462603343243e+02,-8.301363477467748453e+01,-1.331485997708441573e+02,9.484992027282714844e+00,-9.179025292396545410e-01,-1.912296712398529053e-01,5.700000000000000000e+02
-2.099560439141878305e+02,-2.109883487592433085e+02,-9.563837003261141945e+01,-8.793546577505549067e+01,-1.878319472188395594e+02,-1.706314324794439017e+02,-7.867929187098525290e+01,-1.305232803624094231e+02,9.484992027282714844e+00,-9.179025292396545410e-01,-1.912296712398529053e-01,5.710000000000000000e+02
-2.090104454210704716e+02,-2.059634443322120205e+02,-9.384467525496438611e+01,-8.703056655690124899e+01,-1.864108773109583126e+02,-1.696596689906000393e+02,-7.446300485340725572e+01,-1.275966958512944984e+02,9.484992027282714844e+00,-9.179025292396545410e-01,-1.912296712398529053e-01,5.720000000000000000e+02
-2.079666630710344180e+02,-2.014956820565821545e+02,-9.204006705387473630e+01,-8.596217221003826126e+01,-1.855520691684814665e+02,-1.674861687672237167e+02,-7.169418837560078828e+01,-1.249137945412749104e+02,9.484992027282714844e+00,-9.179025292396545410e-01,-1.912296712398529053e-01,5.730000000000000000e+02
-2.061545921982797154e+02,-1.989102123877219128e+02,-9.052317911956379248e+01,-8.480612511201252346e+01,-1.854399900239786803e+02,-1.645321268697516643e+02,-7.101251471077193855e+01,-1.227788112888993055e+02,9.484992027282714844e+00,-9.179025292396545410e-01,-1.912296712398529053e-01,5.740000000000000000e+02
-2.034688940348132746e+02,-1.985251450836003642e+02,-8.952078050334057480e+01,-8.380981653383423691e+01,-1.858105336816533963e+02,-1.615489075817495177e+02,-7.209328461183031322e+01,-1.212291665839711641e+02,9.484992027282714844e+00,-9.179025292396545410e-01,-1.912296712398529053e-01,5.750000000000000000e+02
-2.006866185431681515e+02,-1.995488241075818223e+02,-8.927366987340974447e+01,-8.327725943938276032e+01,-1.863204584851664549e+02,-1.592202094160893466e+02,-7.399409232272228110e+01,-1.202574839020089712e+02,9.484992027282714844e+00,-9.179025292396545410e-01,-1.912296712398529053e-01,5.760000000000000000e+02
-1.989706947699578450e+02,-2.007702188790844957e+02,-9.001642241984518478e+01,-8.335283275190886343e+01,-1.868694434736735275e+02,-1.578164056934983819e+02,-7.575894968408101704e+01,-1.200087465252672700e+02,9.484992027282714844e+00,-9.179025292396545410e-01,-1.912296712398529053e-01,5.770000000000000000e+02
-1.989156859311679000e+02,-2.013767064783696696e+02,-9.174542646866029827e+01,-8.389678493092287681e+01,-1.875693253614226705e+02,-1.571360859840824560e+02,-7.682634790342308406e+01,-1.207160257401883428e+02,9.484992027282714844e+00,-9.179025292396545410e-01,-1.912296712398529053e-01,5.780000000000000000e+02
-1.999975323317867151e+02,-2.012352095254827873e+02,-9.400253084100404521e+01,-8.456397883164754603e+01,-1.884395176324342174e+02,-1.567616619762629853e+02,-7.707844955215114169e+01,-1.224059994053059199e+02,9.484992027282714844e+00,-9.179025292396545410e-01,-1.912296712398529053e-01,5.790000000000000000e+02
-2.009664283377023821e+02,-2.005698923799645854e+02,-9.598790311536868103e+01,-8.500375618228281382e+01,-1.891613984377363522e+02,-1.563979626690488658e+02,-7.665556616518733790e+01,-1.246483284863297740e+02,9.484992027282714844e+00,-9.179025292396545410e-01,-1.912296712398529053e-01,5.800000000000000000e+02
-2.008592131035984494e+02,-1.995277798565966805e+02,-9.701755887515719223e+01,-8.500937921878357884e+01,-1.891544290376805293e+02,-1.559916939092872781e+02,-7.574808637168644054e+01,-1.266042472729386645e+02,9.484992027282714844e+00,-9.179025292396545410e-01,-1.912296712398529053e-01,5.810000000000000000e+02
-1.997106280828720628e+02,-1.980908048104665795e+02,-9.695083455032363418e+01,-8.451236366745069972e+01,-1.879291446255192568e+02,-1.555343787175224861e+02,-7.447421323881280841e+01,-1.273839686922128749e+02,9.484992027282714844e+00,-9.179025292396545410e-01,-1.912296712398529053e-01,5.820000000000000000e+02
-1.983273560043999169e+02,-1.963063977443707699e+02,-9.618032609624060569e+01,-8.348476912089608959e+01,-1.854238440749795700e+02,-1.547909814019621990e+02,-7.285626950061487150e+01,-1.264822824919556297e+02,9.484992027282714844e+00,-9.179025292396545410e-01,-1.912296712398529053e-01,5.830000000000000000e+02
-1.974102974019242538e+02,-1.944583562288298708e+02,-9.521993765778279339e+01,-8.191571898511756444e+01,-1.820785289501654916e+02,-1.533115495894962805e+02,-7.091396130351313332e+01,-1.240363582864847558e+02,9.484992027282714844e+00,-9.179025292396545410e-01,-1.912296712398529053e-01,5.840000000000000000e+02
-1.969158506589501485e+02,-1.929209018638066482e+02,-9.430649065358920780e+01,-7.991806141378037864e+01,-1.786128581801276596e+02,-1.508180247556374525e+02,-6.881907145531658898e+01,-1.207777202815159399e+02,9.484992027282714844e+00,-9.179025292396545410e-01,-1.912296712398529053e-01,5.850000000000000000e+02
-1.962513265238103486e+02,-1.918555011018142977e+02,-9.337318315029915539e+01,-7.784430375551528414e+01,-1.756872421322441369e+02,-1.476449566919109202e+02,-6.696661402244717465e+01,-1.177310671973391436e+02,9.484992027282714844e+00,-9.179025292396545410e-01,-1.912296712398529053e-01,5.860000000000000000e+02
-1.950190214689955610e+02,-1.911149866847663361e+02,-9.233693426231366175e+01,-7.622415727909901761e+01,-1.736562826304725604e+02,-1.447508204605474020e+02,-6.582621544491485110e+01,-1.157885034655919299e+02,9.484992027282714844e+00,-9.179025292396545410e-01,-1.912296712398529053e-01,5.870000000000000000e+02
-1.934598386846828362e+02,-1.904611269208162412e+02,-9.129941455378502724e+01,-7.546965025536701432e+01,-1.724942057225307508e+02,-1.431313628368952777e+02,-6.560828399757701845e+01,-1.153021835459621798e+02,9.484992027282714844e+00,-9.179025292396545410e-01,-1.912296712398529053e-01,5.880000000000000000e+02
-1.921149555500560382e+02,-1.898146275598392094e+02,-9.042764258274837630e+01,-7.554714940556004876e+01,-1.718745523741745274e+02,-1.430390677392133512e+02,-6.602170675964225666e+01,-1.158808808443718590e+02,9.484992027282714844e+00,-9.179025292396545410e-01,-1.912296712398529053e-01,5.890000000000000000e+02
-1.911257315751754504e+02,-1.892161792168772081e+02,-8.970429028816397476e+01,-7.592507141229725676e+01,-1.713604245995775273e+02,-1.436930793395513319e+02,-6.640752641436665726e+01,-1.165641636545842630e+02,9.484992027282714844e+00,-9.179025292396545410e-01,-1.912296712398529053e-01,5.900000000000000000e+02
-1.900206915378948906e+02,-1.885421032829035539e+02,-8.890899012318186578e+01,-7.591439231844924507e+01,-1.706375288807321340e+02,-1.438169354977690091e+02,-6.620892343980631267e+01,-1.163688464940860285e+02,9.484992027282714844e+00,-9.179025292396545410e-01,-1.912296712398529053e-01,5.910000000000000000e+02
-1.883018529532091634e+02,-1.873733403838923550e+02,-8.789426419292794890e+01,-7.516541973777202656e+01,-1.696785641395254061e+02,-1.426088677975021710e+02,-6.537963426811984391e+01,-1.149160922816736274e+02,9.484992027282714844e+00,-9.179025292396545410e-01,-1.912296712398529053e-01,5.920000000000000000e+02
-1.862167341297899839e+02,-1.853157220367720583e+02,-8.682467587434985035e+01,-7.391560028198728105e+01,-1.687311088179958460e+02,-1.403260299471148755e+02,-6.433392833088510088e+01,-1.126843506615732622e+02,9.484992027282714844e+00,-9.179025292396545410e-01,-2.294756323099136353e-01,5.930000000000000000e+02
-1.847810858392731461e+02,-1.825336085233611811e+02,-8.604235165696809418e+01,-7.276572988269253983e+01,-1.681074841635927442e+02,-1.379788503299459990e+02,-6.346362072348711081e+01,-1.106403547963782330e+02,9.484992027282714844e+00,-9.179025292396545410e-01,-2.294756323099136353e-01,5.940000000000000000e+02
-1.848546661229192978e+02,-1.799008441066798696e+02,-8.564265243308000208e+01,-7.217274052577340626e+01,-1.679262081147753634e+02,-1.364316117484049755e+02,-6.269755236931450781e+01,-1.094888371482011280e+02,9.484992027282714844e+00,-9.179025292396545410e-01,-2.294756323099136353e-01,5.950000000000000000e+02
-1.861268086286108883e+02,-1.784490134258739999e+02,-8.520768238745586132e+01,-7.209041167590839905e+01,-1.679983113581583893e+02,-1.357314589283014357e+02,-6.156745548917388078e+01,-1.091270223745814292e+02,9.484992027282714844e+00,-9.179025292396545410e-01,-2.294756323099136353e-01,5.960000000000000000e+02
-1.870858966256819258e+02,-1.785013017149249208e+02,-8.402281814658999792e+01,-7.204204214601486456e+01,-1.679063670508476207e+02,-1.352227253773635312e+02,-5.974120403181223082e+01,-1.087424889781759703e+02,9.484992027282714844e+00,-9.179025292396545410e-01,-2.294756323099136353e-01,5.970000000000000000e+02
-1.861587770921942138e+02,-1.793076240128139034e+02,-8.161553164830547757e+01,-7.152833316742908210e+01,-1.671667877489599050e+02,-1.342450789811155119e+02,-5.747942455847078236e+01,-1.074605941393456305e+02,9.484992027282714844e+00,-9.179025292396545410e-01,-2.294756323099136353e-01,5.980000000000000000e+02
-1.830446278114650340e+02,-1.796134079100265808e+02,-7.813920983314892510e+01,-7.039953046382652246e+01,-1.653535292590677273e+02,-1.327059461403296154e+02,-5.551962120567259262e+01,-1.049907757862783910e+02,9.484992027282714844e+00,-9.179025292396545410e-01,-2.294756323099136353e-01,5.990000000000000000e+02
-1.790150108576890489e+02,-1.786903680511277344e+02,-7.429004093298499356e+01,-6.890744930822256720e+01,-1.622050837404058257e+02,-1.310345794391978416e+02,-5.445337233142709010e+01,-1.017658197595083038e+02,9.484992027282714844e+00,-9.179025292396545410e-01,-2.294756323099136353e-01,6.000000000000000000e+02
-1.758955958044207364e+02,-1.768579326532671985e+02,-7.087069826005608775e+01,-6.746001859190073446e+01,-1.577877275526043377e+02,-1.296740179762127809e+02,-5.417659337555596721e+01,-9.853583491364770452e+01,9.484992027282714844e+00,-9.179025292396545410e-01,-2.294756323099136353e-01,6.010000000000000000e+02
-1.746569969997035514e+02,-1.750043389674501668e+02,-6.839604203814087668e+01,-6.631819279664341593e+01,-1.526727581686827762e+02,-1.286795221195061458e+02,-5.397619154358471860e+01,-9.584229833261633758e+01,9.484992027282714844e+00,-9.179025292396545410e-01,-2.294756323099136353e-01,6.020000000000000000e+02
-1.748415975596944918e+02,-1.735938200008895365e+02,-6.698721134172592429e+01,-6.546270888788421871e+01,-1.479161637267243350e+02,-1.277952601899160072e+02,-5.320288599976265687e+01,-9.382336370858683949e+01,9.484992027282714844e+00,-9.179025292396545410e-01,-2.294756323099136353e-01,6.030000000000000000e+02
-1.752048164552579692e+02,-1.721748838967359916e+02,-6.647407002491308958e+01,-6.466570047941786470e+01,-1.446628254164679674e+02,-1.268440267075930024e+02,-5.189509767478375579e+01,-9.240951143687925651e+01,9.484992027282714844e+00,-9.179025292396545410e-01,-2.294756323099136353e-01,6.040000000000000000e+02
-1.748468912162607012e+02,-1.699055862072091259e+02,-6.652238269239387591e+01,-6.366673069363241666e+01,-1.435468753084860509e+02,-1.259838922440030728e+02,-5.076773931768548209e+01,-9.160012935810664203e+01,9.484992027282714844e+00,-9.179025292396545410e-01,-2.294756323099136353e-01,6.050000000000000000e+02
-1.737849317314612563e+02,-1.665600625495499116e+02,-6.672475155132269720e+01,-6.232861732979654334e+01,-1.443236898094364733e+02,-1.255685316943927319e+02,-5.056904030831719865e+01,-9.148510211150642135e+01,9.484992027282714844e+00,-9.179025292396545410e-01,-2.294756323099136353e-01,6.060000000000000000e+02
-1.725998993734719988e+02,-1.629620855776047392e+02,-6.672518521779420553e+01,-6.068879974129595212e+01,-1.460451554602550459e+02,-1.257626067416058504e+02,-5.139149276297030156e+01,-9.198641010634310078e+01,9.484992027282714844e+00,-9.179025292396545410e-01,-2.294756323099136353e-01,6.070000000000000000e+02
-1.717013464579795254e+02,-1.603670848280635255e+02,-6.637983775277825771e+01,-5.890719850586901885e+01,-1.476600380257368670e+02,-1.262842868727602763e+02,-5.254506067351758247e+01,-9.262176615108182887e+01,9.484992027282714844e+00,-9.179025292396545410e-01,-2.294756323099136353e-01,6.080000000000000000e+02
-1.709845938672915509e+02,-1.593788658193407173e+02,-6.582374506571068196e+01,-5.717190909749115235e+01,-1.485631530453611049e+02,-1.265038043252716307e+02,-5.307796200495431549e+01,-9.260005185684713069e+01,9.484992027282714844e+00,-9.179025292396545410e-01,-2.294756323099136353e-01,6.090000000000000000e+02
-1.701100894820265239e+02,-1.594748313343625341e+02,-6.532633047356284806e+01,-5.566157614292023936e+01,-1.487239751435627113e+02,-1.258437195778824389e+02,-5.248011664587102132e+01,-9.126541503666885546e+01,9.484992027282714844e+00,-9.179025292396545410e-01,-2.294756323099136353e-01,6.100000000000000000e+02
