F3,F4,C3,C4,P3,P4,Cz,Pz,Accel_x,Accel_y,Accel_z,Sample
-2.910383045673370361e-11,-3.728928277269005775e-11,-4.183675628155469894e-11,-5.275069270282983780e-11,-5.002220859751105309e-11,-4.729372449219226837e-11,-3.547029336914420128e-11,-6.275513442233204842e-11,9.484992027282714844e+00,-9.943943619728088379e-01,-2.294756323099136353e-01,2.260000000000000000e+02
-8.832143547225314251e+00,-1.168778184390703245e+01,-1.161989148922657478e-01,7.810593770038394723e+00,3.757750324399239616e+00,4.682088323335847235e+00,-2.384282043720304500e+00,5.781157464774878463e+00,9.484992027282714844e+00,-9.943943619728088379e-01,-2.294756323099136353e-01,2.270000000000000000e+02
-1.730003379356639925e+01,-2.116898674576532358e+01,4.321622125644353218e-01,9.380740400290960679e+00,1.648191152379695268e+00,2.227141907127588638e+00,-2.585293139517489180e+00,8.605966886181704467e+00,9.484992027282714844e+00,-9.943943619728088379e-01,-2.294756323099136353e-01,2.280000000000000000e+02
-2.501076653629024804e+01,-2.781459315786105435e+01,1.789308755958700203e+00,3.952510343824542360e+00,-6.914692550908512203e+00,-8.283125505186035298e+00,-4.664002924600936240e-01,7.863755629166007566e+00,9.484992027282714844e+00,-9.943943619728088379e-01,-2.294756323099136353e-01,2.290000000000000000e+02
-3.186512268255410163e+01,-3.279535604453576525e+01,3.342433446887298487e+00,-3.672980030871258350e+00,-1.737950353317319241e+01,-2.147476735018426552e+01,1.739172835559656960e+00,5.300699737495051522e+00,9.484992027282714844e+00,-9.943943619728088379e-01,-2.294756323099136353e-01,2.300000000000000000e+02
-3.846792708814427897e+01,-3.787307063994376222e+01,3.955023663992506044e+00,-8.225677695500053233e+00,-2.519779671193282411e+01,-3.143264295254994067e+01,1.124390521473287663e+00,2.893201277542175376e+00,9.484992027282714844e+00,-9.943943619728088379e-01,-2.294756323099136353e-01,2.310000000000000000e+02
-4.597755241743834631e+01,-4.395785185853492294e+01,2.630231854120211210e+00,-8.805354242793328012e+00,-3.030672614869217796e+01,-3.708562665321551322e+01,-3.528987814283937041e+00,9.947847283774535754e-01,9.484992027282714844e+00,-9.943943619728088379e-01,-2.294756323099136353e-01,2.320000000000000000e+02
-5.523102592930990795e+01,-5.067441211851746630e+01,-7.595348180093424162e-01,-8.766402083674620371e+00,-3.636875136911203299e+01,-4.197595010297482077e+01,-1.062698706672654225e+01,-1.349135339317399485e+00,9.484992027282714844e+00,-9.943943619728088379e-01,-2.294756323099136353e-01,2.330000000000000000e+02
-6.584373677063740615e+01,-5.708299721077128197e+01,-5.202062791898242722e+00,-1.142060036665316147e+01,-4.607643450961768394e+01,-4.947799847843089083e+01,-1.678545749102977425e+01,-4.562968969113171624e+00,9.484992027282714844e+00,-9.943943619728088379e-01,-2.294756323099136353e-01,2.340000000000000000e+02
-7.623012266392015590e+01,-6.265697435711808794e+01,-9.031833388469749480e+00,-1.649121396322334476e+01,-5.790796451166897896e+01,-5.909819722541942610e+01,-1.919458796433082171e+01,-7.473658308632366243e+00,9.484992027282714844e+00,-9.943943619728088379e-01,-2.294756323099136353e-01,2.350000000000000000e+02
-8.469511746527496143e+01,-6.761273383669868053e+01,-1.092540662264218554e+01,-2.086137293643514568e+01,-6.771331343214842491e+01,-6.760235146249760874e+01,-1.749870353506594256e+01,-8.302020324627847003e+00,9.484992027282714844e+00,-9.943943619728088379e-01,-2.294756323099136353e-01,2.360000000000000000e+02
-9.068410495667194482e+01,-7.250526728190652648e+01,-1.071755656070763507e+01,-2.223376219090096129e+01,-7.306379390157235321e+01,-7.306218815697138780e+01,-1.382896623407759762e+01,-6.597087920425110497e+00,9.484992027282714844e+00,-9.943943619728088379e-01,-2.294756323099136353e-01,2.370000000000000000e+02
-9.509571745571065549e+01,-7.769073187240064726e+01,-9.424044713562580000e+00,-2.146032185599415243e+01,-7.554710499264183454e+01,-7.699522482729844342e+01,-1.111137771122685081e+01,-3.942880576671996096e+00,9.484992027282714844e+00,-9.943943619728088379e-01,-2.294756323099136353e-01,2.380000000000000000e+02
-9.944694367592273920e+01,-8.318291900683288986e+01,-8.454166013435497007e+00,-2.127921837505164149e+01,-7.882551231863635621e+01,-8.244783487938548205e+01,-1.106452989885747229e+01,-2.654639057246640732e+00,9.484992027282714844e+00,-9.179025292396545410e-01,-2.294756323099136353e-01,2.390000000000000000e+02
-1.047151340221953433e+02,-8.885910932138267526e+01,-8.630992836959194392e+00,-2.329215752355958102e+01,-8.491574044155913725e+01,-9.057341138530136959e+01,-1.336149810672668536e+01,-3.822769829042954370e+00,9.484992027282714844e+00,-9.179025292396545410e-01,-2.294756323099136353e-01,2.400000000000000000e+02
-1.108580256572513463e+02,-9.464879470772848435e+01,-9.773043756830702478e+00,-2.660284801565649104e+01,-9.265641732405583753e+01,-9.960561586207222717e+01,-1.636798283119605912e+01,-6.624699448952014791e+00,9.484992027282714844e+00,-9.179025292396545410e-01,-2.294756323099136353e-01,2.410000000000000000e+02
-1.172498671136254416e+02,-1.005318051849608310e+02,-1.108705782145807461e+01,-2.927593629126658925e+01,-9.951862541046557453e+01,-1.070448321099993336e+02,-1.862259569922480296e+01,-9.376234820249919721e+00,9.484992027282714844e+00,-9.179025292396545410e-01,-2.294756323099136353e-01,2.420000000000000000e+02
-1.234281297215575250e+02,-1.064977294233904104e+02,-1.194704739670851268e+01,-3.063519573751545977e+01,-1.043539814594487325e+02,-1.122978361986042728e+02,-1.982544483451511041e+01,-1.107339735738150921e+01,9.484992027282714844e+00,-9.179025292396545410e-01,-2.294756323099136353e-01,2.430000000000000000e+02
-1.294309339107212509e+02,-1.126049842063930555e+02,-1.238199871113101835e+01,-3.183483221361439064e+01,-1.081759533784215819e+02,-1.168930807257038396e+02,-2.070832023855928128e+01,-1.192925898627800052e+01,9.484992027282714844e+00,-9.179025292396545410e-01,-2.294756323099136353e-01,2.440000000000000000e+02
-1.355685280119269009e+02,-1.190172960409799998e+02,-1.292150429103458009e+01,-3.435466839496530156e+01,-1.126317082939040120e+02,-1.224127432568766380e+02,-2.213925407760780217e+01,-1.266292330904525443e+01,9.484992027282714844e+00,-9.179025292396545410e-01,-2.294756323099136353e-01,2.450000000000000000e+02
-1.420150732320935276e+02,-1.258287734433315563e+02,-1.403642753015355993e+01,-3.829658140026731417e+01,-1.182132889829163105e+02,-1.287129390184618387e+02,-2.433564776311777678e+01,-1.353173307337965525e+01,9.484992027282714844e+00,-9.179025292396545410e-01,-2.294756323099136353e-01,2.460000000000000000e+02
-1.486632730220690064e+02,-1.327600047660926066e+02,-1.572498168986840028e+01,-4.228730516927680583e+01,-1.240618828923006731e+02,-1.342983493086921953e+02,-2.678876805745403544e+01,-1.412077924921868544e+01,9.484992027282714844e+00,-9.179025292396545410e-01,-2.294756323099136353e-01,2.470000000000000000e+02
-1.553040206293535448e+02,-1.391176643570825036e+02,-1.758834677142931469e+01,-4.489375883166121639e+01,-1.291915947800598587e+02,-1.381282321937360393e+02,-2.883925779281071300e+01,-1.395486593524765340e+01,9.484992027282714844e+00,-9.179025292396545410e-01,-2.294756323099136353e-01,2.480000000000000000e+02
-1.618492801539114225e+02,-1.442456318802333044e+02,-1.925551887450274080e+01,-4.597674085950438894e+01,-1.335766523187257917e+02,-1.407190532785079995e+02,-3.032574073330397368e+01,-1.318995938416992431e+01,9.484992027282714844e+00,-9.179025292396545410e-01,-2.294756323099136353e-01,2.490000000000000000e+02
-1.683450103686254806e+02,-1.481431551803198090e+02,-2.071700413529288198e+01,-4.673157431443814858e+01,-1.380621174737752881e+02,-1.435081812386133606e+02,-3.174639959954038204e+01,-1.269642761096383765e+01,9.484992027282714844e+00,-9.179025292396545410e-01,-2.294756323099136353e-01,2.500000000000000000e+02
-1.747900627187254941e+02,-1.516128540814861481e+02,-2.228565653891291731e+01,-4.858333820663028746e+01,-1.434809670306522094e+02,-1.474291690830714288e+02,-3.384615246110115550e+01,-1.349039143934533058e+01,9.484992027282714844e+00,-9.179025292396545410e-01,-2.294756323099136353e-01,2.510000000000000000e+02
-1.809904535835057686e+02,-1.556513846498883140e+02,-2.428336905757350905e+01,-5.204939816463775060e+01,-1.499903262633761187e+02,-1.522533079640434153e+02,-3.701702503903925390e+01,-1.600797164580853860e+01,9.484992027282714844e+00,-9.179025292396545410e-01,-2.294756323099136353e-01,2.520000000000000000e+02
-1.866446982569004831e+02,-1.605573940883268733e+02,-2.677782899861176702e+01,-5.645179714896858059e+01,-1.571135111852281625e+02,-1.571377102029082380e+02,-4.099603187081993383e+01,-1.977212945839983149e+01,9.484992027282714844e+00,-9.179025292396545410e-01,-2.294756323099136353e-01,2.530000000000000000e+02
-1.916277823129530589e+02,-1.656092893296709008e+02,-2.956864668263006024e+01,-6.050584937012445153e+01,-1.641848605015966314e+02,-1.615162696634797612e+02,-4.504128924223823560e+01,-2.364890106271923287e+01,9.484992027282714844e+00,-9.179025292396545410e-01,-2.294756323099136353e-01,2.540000000000000000e+02
-1.962168583482548456e+02,-1.696932310802030770e+02,-3.233096702309194370e+01,-6.321367351685239555e+01,-1.707026906721130217e+02,-1.653951050243513237e+02,-4.836593439471471356e+01,-2.649518601493673486e+01,9.484992027282714844e+00,-9.179025292396545410e-01,-2.294756323099136353e-01,2.550000000000000000e+02
-2.009870732818094439e+02,-1.723356641731784293e+02,-3.469802704136691318e+01,-6.443788305521684379e+01,-1.764154913867596406e+02,-1.690091671437285186e+02,-5.044444469006430154e+01,-2.776699686618303531e+01,9.484992027282714844e+00,-9.179025292396545410e-01,-2.294756323099136353e-01,2.560000000000000000e+02
-2.063607273222683034e+02,-1.741597286531550708e+02,-3.625099680192943197e+01,-6.484634457791707973e+01,-1.812667908083358270e+02,-1.724624727459404312e+02,-5.103463134937010182e+01,-2.771401211821557808e+01,9.484992027282714844e+00,-9.179025292396545410e-01,-2.294756323099136353e-01,2.570000000000000000e+02
-2.121540654151322087e+02,-1.763177569269369087e+02,-3.658526016350879217e+01,-6.532678696378843597e+01,-1.853101824516179477e+02,-1.757624182091267357e+02,-5.009603160283222678e+01,-2.707707642471541476e+01,9.484992027282714844e+00,-9.179025292396545410e-01,-2.294756323099136353e-01,2.580000000000000000e+02
-2.175870066919237615e+02,-1.794293175729380891e+02,-3.557639921235841030e+01,-6.630407457790079206e+01,-1.886117562793251636e+02,-1.790381145712490252e+02,-4.786829031842262339e+01,-2.654330579472298268e+01,9.484992027282714844e+00,-9.179025292396545410e-01,-2.294756323099136353e-01,2.590000000000000000e+02
-2.218937353806204555e+02,-1.830596097601141992e+02,-3.369875243158503508e+01,-6.749879252165465005e+01,-1.912033763482459108e+02,-1.825480690960857828e+02,-4.510846812692943786e+01,-2.638073201701990911e+01,9.408499717712402344e+00,-8.796565532684326172e-01,-2.294756323099136353e-01,2.600000000000000000e+02
-2.250788631116379293e+02,-1.862514930471252228e+02,-3.200586683849451219e+01,-6.832771826937459991e+01,-1.931505948807007371e+02,-1.864251013363509628e+02,-4.310222270850317727e+01,-2.645145842629062827e+01,9.408499717712402344e+00,-8.796565532684326172e-01,-2.294756323099136353e-01,2.610000000000000000e+02
-2.280941330422770079e+02,-1.885556100226017406e+02,-3.157573527644763089e+01,-6.856332322996240691e+01,-1.946831948011831628e+02,-1.904742776427847275e+02,-4.311824771068631890e+01,-2.646176785426087008e+01,9.408499717712402344e+00,-8.796565532684326172e-01,-2.294756323099136353e-01,2.620000000000000000e+02
-2.321358767755878034e+02,-1.905104773079337974e+02,-3.274651866283556956e+01,-6.861306886250986281e+01,-1.962142515734303743e+02,-1.942882400787648294e+02,-4.550303171317409578e+01,-2.618721712832393678e+01,9.408499717712402344e+00,-8.796565532684326172e-01,-2.294756323099136353e-01,2.630000000000000000e+02
-2.375803269581479071e+02,-1.930882409165019453e+02,-3.480044415329712137e+01,-6.913268203424468084e+01,-1.981488748188730824e+02,-1.975831277198112730e+02,-4.917993231920672770e+01,-2.555810958367874264e+01,9.408499717712402344e+00,-8.796565532684326172e-01,-2.294756323099136353e-01,2.640000000000000000e+02
-2.435312025348821408e+02,-1.966645113524023145e+02,-3.649357973129417587e+01,-7.036508022238467674e+01,-2.006417232260564560e+02,-2.004368315721703766e+02,-5.220804956075517111e+01,-2.469390257021041180e+01,9.408499717712402344e+00,-8.796565532684326172e-01,-2.294756323099136353e-01,2.650000000000000000e+02
-2.484711874004105994e+02,-2.005477953707768393e+02,-3.707636684932595017e+01,-7.189607990009426430e+01,-2.035607037689942445e+02,-2.032375342082377756e+02,-5.318564377857546788e+01,-2.394171193520014640e+01,9.408499717712402344e+00,-8.796565532684326172e-01,-2.294756323099136353e-01,2.660000000000000000e+02
-2.515079606928848079e+02,-2.035391361061015232e+02,-3.692940583167091972e+01,-7.308489839418052725e+01,-2.067071630843474850e+02,-2.064113670109982195e+02,-5.238548366570785220e+01,-2.380180185822518979e+01,9.408499717712402344e+00,-8.796565532684326172e-01,-2.294756323099136353e-01,2.670000000000000000e+02
-2.531230495627737582e+02,-2.049732846547112786e+02,-3.722415863272226488e+01,-7.371481010780371435e+01,-2.100486613006178231e+02,-2.101387839855715356e+02,-5.156380213557531533e+01,-2.462910782044582447e+01,9.408499717712402344e+00,-8.796565532684326172e-01,-2.294756323099136353e-01,2.680000000000000000e+02
-2.547480507101481635e+02,-2.052615495929185272e+02,-3.884707137083569251e+01,-7.417536701712197100e+01,-2.136822130990544792e+02,-2.142210199243008901e+02,-5.247848425562779084e+01,-2.626937852112951077e+01,9.408499717712402344e+00,-8.796565532684326172e-01,-2.294756323099136353e-01,2.690000000000000000e+02
-2.575610325317711613e+02,-2.054866938096329250e+02,-4.153029260392850119e+01,-7.501451703409838956e+01,-2.175730768591765809e+02,-2.181562728486405831e+02,-5.534735146631874159e+01,-2.801821129218114947e+01,9.408499717712402344e+00,-8.796565532684326172e-01,-2.294756323099136353e-01,2.700000000000000000e+02
-2.615819656537059927e+02,-2.065151387274786430e+02,-4.398450611676662447e+01,-7.638929039776940044e+01,-2.214192451595890816e+02,-2.214193135313098537e+02,-5.863709252760145318e+01,-2.911348609923425101e+01,9.408499717712402344e+00,-8.796565532684326172e-01,-2.294756323099136353e-01,2.710000000000000000e+02
-2.658074302231557340e+02,-2.084795632982945790e+02,-4.494132488385412216e+01,-7.799272744703739590e+01,-2.248455519151989392e+02,-2.238044569328349098e+02,-6.041142840197653641e+01,-2.941734436799697505e+01,9.408499717712402344e+00,-8.796565532684326172e-01,-2.294756323099136353e-01,2.720000000000000000e+02
-2.691443163976555297e+02,-2.110026860210186896e+02,-4.418221514835340713e+01,-7.944133719649380510e+01,-2.277252653380728589e+02,-2.255843883543011543e+02,-6.002652273113926640e+01,-2.960404920736618806e+01,9.408499717712402344e+00,-8.796565532684326172e-01,-2.294756323099136353e-01,2.730000000000000000e+02
-2.712696919701570550e+02,-2.137759244572330317e+02,-4.267078093358804836e+01,-8.064762843538665038e+01,-2.302975222352952187e+02,-2.273640671089769967e+02,-5.864714370784895436e+01,-3.057441217477298778e+01,9.408499717712402344e+00,-8.796565532684326172e-01,-2.294756323099136353e-01,2.740000000000000000e+02
-2.727556172245813286e+02,-2.168343296901489339e+02,-4.172244837243215443e+01,-8.180350887605709431e+01,-2.329626803268233743e+02,-2.297257342506391069e+02,-5.814531619281615349e+01,-3.256803343858155131e+01,9.408499717712402344e+00,-8.796565532684326172e-01,-2.294756323099136353e-01,2.750000000000000000e+02
-2.745156631589093195e+02,-2.203097266159606988e+02,-4.195932588842879341e+01,-8.307439074585454364e+01,-2.359535006529713428e+02,-2.329071521961568578e+02,-5.943039519092098999e+01,-3.480630923199760218e+01,9.408499717712402344e+00,-8.796565532684326172e-01,-2.294756323099136353e-01,2.760000000000000000e+02
-2.771475521876423045e+02,-2.240418691559525541e+02,-4.293214453418931953e+01,-8.440275876142823108e+01,-2.391714174503299546e+02,-2.367184125222802322e+02,-6.173163307859567794e+01,-3.604900322077719466e+01,9.408499717712402344e+00,-8.796565532684326172e-01,-2.294756323099136353e-01,2.770000000000000000e+02
-2.806407664119565197e+02,-2.275301336042107323e+02,-4.361869279040547553e+01,-8.561276613137488312e+01,-2.422604706415522742e+02,-2.406998057405999134e+02,-6.336557088612426014e+01,-3.556601980336427005e+01,9.408499717712402344e+00,-8.796565532684326172e-01,-2.294756323099136353e-01,2.780000000000000000e+02
-2.844790969433588543e+02,-2.302706196801536862e+02,-4.325925685887477812e+01,-8.662452433872022084e+01,-2.447971119216263105e+02,-2.443718883703213578e+02,-6.316018852308752685e+01,-3.364270923262847646e+01,9.408499717712402344e+00,-8.796565532684326172e-01,-2.294756323099136353e-01,2.790000000000000000e+02
-2.879176183057161325e+02,-2.320999381493070359e+02,-4.182143873928134781e+01,-8.747854546557664435e+01,-2.464687110327809023e+02,-2.474255571719895670e+02,-6.124747585522345616e+01,-3.122090820207813522e+01,9.408499717712402344e+00,-8.796565532684326172e-01,-2.294756323099136353e-01,2.800000000000000000e+02
-2.902835208939859513e+02,-2.332103607474959972e+02,-3.986111199149218010e+01,-8.814285086690324533e+01,-2.472153529382881061e+02,-2.497869596569871646e+02,-5.871832097179003540e+01,-2.911169243090535019e+01,9.408499717712402344e+00,-8.796565532684326172e-01,-2.294756323099136353e-01,2.810000000000000000e+02
-2.912819894854092126e+02,-2.338942543726670920e+02,-3.809675450067516067e+01,-8.838915189453882704e+01,-2.473480017297888480e+02,-2.515807677285047248e+02,-5.671438805634215896e+01,-2.756846799921049751e+01,9.408499717712402344e+00,-8.796565532684326172e-01,-2.294756323099136353e-01,2.820000000000000000e+02
-2.912300030316637276e+02,-2.343322512325589742e+02,-3.709861593889763753e+01,-8.796106467194067591e+01,-2.475464343531980376e+02,-2.530406399130033606e+02,-5.584905706165591255e+01,-2.651448386873698837e+01,9.408499717712402344e+00,-8.796565532684326172e-01,-2.294756323099136353e-01,2.830000000000000000e+02
-2.910128046711661227e+02,-2.346291090955819527e+02,-3.718222690087486626e+01,-8.691206731070587921e+01,-2.485978454793289529e+02,-2.544085730693341247e+02,-5.623651972732523063e+01,-2.598740651398793489e+01,9.408499717712402344e+00,-8.796565532684326172e-01,-2.294756323099136353e-01,2.840000000000000000e+02
-2.916483274317274663e+02,-2.349974086913603060e+02,-3.834282982688273478e+01,-8.577199264948785640e+01,-2.509269258853623796e+02,-2.558708212179290058e+02,-5.773220294497787108e+01,-2.620407415802856121e+01,9.523238182067871094e+00,-8.796565532684326172e-01,-1.912296712398529053e-01,2.850000000000000000e+02
-2.936736569540116761e+02,-2.358271484574270289e+02,-4.015433262251872293e+01,-8.531760832646250492e+01,-2.542116764460351988e+02,-2.575434779180832265e+02,-5.994899162927367797e+01,-2.715500549908028916e+01,9.523238182067871094e+00,-8.796565532684326172e-01,-1.912296712398529053e-01,2.860000000000000000e+02
-2.968098740014602299e+02,-2.375252919959211795e+02,-4.180995250420346565e+01,-8.608403532294369143e+01,-2.574420752671994705e+02,-2.594722568407587460e+02,-6.214607225444660799e+01,-2.825232299739946029e+01,9.523238182067871094e+00,-8.796565532684326172e-01,-1.912296712398529053e-01,2.870000000000000000e+02
-3.001883202732383324e+02,-2.402423434178972457e+02,-4.247386647735766019e+01,-8.799300033527561027e+01,-2.594811020399820336e+02,-2.615939248663876242e+02,-6.339598303186448902e+01,-2.855405699820448717e+01,9.523238182067871094e+00,-8.796565532684326172e-01,-1.912296712398529053e-01,2.880000000000000000e+02
-3.029460600534496280e+02,-2.437000014603796672e+02,-4.179606640392808004e+01,-9.036939564318390694e+01,-2.597768098485055361e+02,-2.636738281531995653e+02,-6.313405618861975199e+01,-2.747783220482460820e+01,9.523238182067871094e+00,-8.796565532684326172e-01,-1.912296712398529053e-01,2.890000000000000000e+02
-3.046909221871040927e+02,-2.472427548404837125e+02,-4.016434386967966930e+01,-9.232342219305928666e+01,-2.587023721123714495e+02,-2.653364185306204490e+02,-6.165219816064745828e+01,-2.534896250861288536e+01,9.523238182067871094e+00,-8.796565532684326172e-01,-1.912296712398529053e-01,2.900000000000000000e+02
-3.054990628419458289e+02,-2.500807275751319594e+02,-3.838599993982120395e+01,-9.322862434523926822e+01,-2.572552890205768108e+02,-2.662652704819513474e+02,-5.997685870595387314e+01,-2.321002917001419519e+01,9.523238182067871094e+00,-8.796565532684326172e-01,-1.912296712398529053e-01,2.910000000000000000e+02
-3.055858082500346882e+02,-2.516161962180738101e+02,-3.702733611922667478e+01,-9.300815798199255369e+01,-2.563569607328445272e+02,-2.664745083087777857e+02,-5.911582831855480435e+01,-2.202746555862700006e+01,9.523238182067871094e+00,-8.796565532684326172e-01,-1.912296712398529053e-01,2.920000000000000000e+02
-3.050883687058503710e+02,-2.517153691219284610e+02,-3.602133234281018304e+01,-9.208626203919402542e+01,-2.563168032314329139e+02,-2.664001481901937041e+02,-5.930415363564520703e+01,-2.200620041770434909e+01,9.523238182067871094e+00,-8.796565532684326172e-01,-1.912296712398529053e-01,2.930000000000000000e+02
-3.041898824434285871e+02,-2.507916896495135006e+02,-3.494230896606404713e+01,-9.107584787083374067e+01,-2.568845810784528112e+02,-2.666618878991221209e+02,-5.993089283968083691e+01,-2.260478296735436743e+01,9.523238182067871094e+00,-8.796565532684326172e-01,-1.912296712398529053e-01,2.940000000000000000e+02
-3.033498248992500521e+02,-2.496039545260695149e+02,-3.367662799157142217e+01,-9.042671159956876181e+01,-2.577759891239732042e+02,-2.676369950486614471e+02,-6.017878620406554546e+01,-2.316084754303597038e+01,9.523238182067871094e+00,-8.796565532684326172e-01,-1.912296712398529053e-01,2.950000000000000000e+02
-3.032202399024376973e+02,-2.488461050580322080e+02,-3.278570266974497827e+01,-9.025460483193046457e+01,-2.591244250869267489e+02,-2.692005002967018754e+02,-5.977514162025681799e+01,-2.347365290846278185e+01,9.523238182067871094e+00,-8.796565532684326172e-01,-1.912296712398529053e-01,2.960000000000000000e+02
-3.041592337497961580e+02,-2.487998191165410162e+02,-3.311662257506964124e+01,-9.043474909054907585e+01,-2.613846473427995534e+02,-2.708791208792870293e+02,-5.921521188217116105e+01,-2.380991184342383349e+01,9.523238182067871094e+00,-8.796565532684326172e-01,-1.912296712398529053e-01,2.970000000000000000e+02
-3.057727657305358662e+02,-2.493069339887715614e+02,-3.495742522915975314e+01,-9.083091619720039489e+01,-2.647343883578489567e+02,-2.722809582273825981e+02,-5.932373616191216570e+01,-2.440895445061801183e+01,9.523238182067871094e+00,-8.796565532684326172e-01,-1.912296712398529053e-01,2.980000000000000000e+02
-3.070216492232920018e+02,-2.500745208379007636e+02,-3.753082964497616558e+01,-9.141434961948561977e+01,-2.685305423943982532e+02,-2.733898860549145411e+02,-6.056440386184135605e+01,-2.502759344200308078e+01,9.523238182067871094e+00,-8.796565532684326172e-01,-1.912296712398529053e-01,2.990000000000000000e+02
-3.069549880292900070e+02,-2.510250827553019235e+02,-3.936473264009191553e+01,-9.214051822726378305e+01,-2.713906299013327725e+02,-2.744256013710000843e+02,-6.261731148495891830e+01,-2.496860551180907350e+01,9.523238182067871094e+00,-8.796565532684326172e-01,-1.912296712398529053e-01,3.000000000000000000e+02
-3.054958929166062944e+02,-2.523589093620206540e+02,-3.930372481140057062e+01,-9.271750118905561067e+01,-2.719369170688058830e+02,-2.754095424364113569e+02,-6.447245103710429248e+01,-2.354217542635433347e+01,9.523238182067871094e+00,-8.796565532684326172e-01,-1.912296712398529053e-01,3.010000000000000000e+02
-3.035597764271466303e+02,-2.542769715308071454e+02,-3.735823356075752599e+01,-9.258530975253165707e+01,-2.696682130997692184e+02,-2.759252652415452758e+02,-6.496774798831097542e+01,-2.056973991850395578e+01,9.523238182067871094e+00,-8.796565532684326172e-01,-1.912296712398529053e-01,3.020000000000000000e+02
-3.023583182107461198e+02,-2.566528775503167026e+02,-3.472571263116606133e+01,-9.126865473955854213e+01,-2.653236698216240939e+02,-2.754195663454579517e+02,-6.347294206409969775e+01,-1.659612997907174758e+01,9.523238182067871094e+00,-8.796565532684326172e-01,-1.912296712398529053e-01,3.030000000000000000e+02
-3.024712859422727433e+02,-2.589721086713727800e+02,-3.299507414906838676e+01,-8.886471520509121547e+01,-2.605059158542420619e+02,-2.738445518320813790e+02,-6.032709675359978974e+01,-1.274260588839183583e+01,9.523238182067871094e+00,-8.796565532684326172e-01,-1.912296712398529053e-01,3.040000000000000000e+02
-3.034927312845426286e+02,-2.605822431557559185e+02,-3.317391912009748012e+01,-8.618354945262740330e+01,-2.568745117826728119e+02,-2.720172029564637342e+02,-5.671142453029756325e+01,-1.031984431036141814e+01,9.523238182067871094e+00,-8.796565532684326172e-01,-1.912296712398529053e-01,3.050000000000000000e+02
-3.045208203617868321e+02,-2.610256064329234391e+02,-3.523680090234574891e+01,-8.427857087662528102e+01,-2.554345879449084578e+02,-2.712212008908568350e+02,-5.394264266186428358e+01,-1.033157609792692710e+01,9.523238182067871094e+00,-8.796565532684326172e-01,-1.912296712398529053e-01,3.060000000000000000e+02
-3.049838339667227842e+02,-2.602037777096265359e+02,-3.839733452567111271e+01,-8.365166626600853306e+01,-2.562367112810559320e+02,-2.722370915319716005e+02,-5.261885303351346010e+01,-1.299871814844686924e+01,9.523238182067871094e+00,-8.796565532684326172e-01,-1.912296712398529053e-01,3.070000000000000000e+02
-3.050107009719051234e+02,-2.583386472026150500e+02,-4.175035569163287619e+01,-8.381941321791964583e+01,-2.585161527768409542e+02,-2.745930387184096162e+02,-5.228711847079728159e+01,-1.755302348059774431e+01,9.523238182067871094e+00,-8.796565532684326172e-01,-1.912296712398529053e-01,3.080000000000000000e+02
-3.050569280682880162e+02,-2.558814946053810218e+02,-4.475098478210338726e+01,-8.370160428170584055e+01,-2.611308990424940930e+02,-2.767614544090276922e+02,-5.197800992652128116e+01,-2.256643743351162357e+01,9.523238182067871094e+00,-8.796565532684326172e-01,-1.912296712398529053e-01,3.090000000000000000e+02
-3.052559528422925723e+02,-2.534590446458547603e+02,-4.726657953135213575e+01,-8.257376283236499148e+01,-2.631066580962522039e+02,-2.772554970233891254e+02,-5.119975777281410956e+01,-2.677322807725829534e+01,9.523238182067871094e+00,-8.796565532684326172e-01,-1.912296712398529053e-01,3.100000000000000000e+02
-3.052128856070642087e+02,-2.517739045701907799e+02,-4.934043767834862138e+01,-8.075089911856639446e+01,-2.640626266882405844e+02,-2.757540288466730090e+02,-5.046951010328166376e+01,-2.985591444905401204e+01,9.523238182067871094e+00,-8.796565532684326172e-01,-1.912296712398529053e-01,3.110000000000000000e+02
-3.044843579281236998e+02,-2.513583156705730062e+02,-5.101272536209228292e+01,-7.935962735948760383e+01,-2.642965768225840293e+02,-2.733054978508795330e+02,-5.080933742566321598e+01,-3.254317020513894931e+01,9.446745872497558594e+00,-9.179025292396545410e-01,-2.294756323099136353e-01,3.120000000000000000e+02
-3.032365212363523597e+02,-2.522633012609891239e+02,-5.236915671267286143e+01,-7.937868031449124828e+01,-2.644450985779349139e+02,-2.714432940792156614e+02,-5.260667406781783484e+01,-3.586784305682101603e+01,9.446745872497558594e+00,-9.179025292396545410e-01,-2.294756323099136353e-01,3.130000000000000000e+02
-3.023363414502299520e+02,-2.539421431683641686e+02,-5.368195844464185029e+01,-8.081486629174810332e+01,-2.649282242986199662e+02,-2.709978064067917103e+02,-5.492146766761936760e+01,-4.019867895215952558e+01,9.446745872497558594e+00,-9.179025292396545410e-01,-2.294756323099136353e-01,3.140000000000000000e+02
-3.026669082807004543e+02,-2.555244065659753687e+02,-5.536429648758485200e+01,-8.275897968048070652e+01,-2.656016564958291610e+02,-2.716149692175470136e+02,-5.599871561721079161e+01,-4.491299984879935892e+01,9.446745872497558594e+00,-9.179025292396545410e-01,-2.294756323099136353e-01,3.150000000000000000e+02
-3.042537395014850858e+02,-2.563513202779687390e+02,-5.764702020076879307e+01,-8.422212740421309718e+01,-2.659075966527343553e+02,-2.722816219123139945e+02,-5.461878245231116580e+01,-4.901535202802529056e+01,9.446745872497558594e+00,-9.179025292396545410e-01,-2.294756323099136353e-01,3.160000000000000000e+02
-3.060525140634641161e+02,-2.563657312624221163e+02,-6.023433932923933298e+01,-8.492539746328293404e+01,-2.654088725726238636e+02,-2.722506897630991034e+02,-5.110911087857152779e+01,-5.211431731287234470e+01,9.446745872497558594e+00,-9.179025292396545410e-01,-2.294756323099136353e-01,3.170000000000000000e+02
-3.066798945969316037e+02,-2.560362222269139920e+02,-6.234130236441831130e+01,-8.531220405784824834e+01,-2.642520685021161171e+02,-2.715154733074075466e+02,-4.714295304584152291e+01,-5.482523185808531707e+01,9.446745872497558594e+00,-9.179025292396545410e-01,-2.294756323099136353e-01,3.180000000000000000e+02
-3.055110417440338892e+02,-2.558711837012144770e+02,-6.323418140196622517e+01,-8.587000444800605692e+01,-2.631678432236709568e+02,-2.705623655819404121e+02,-4.451726082750042224e+01,-5.821693587582444707e+01,9.446745872497558594e+00,-9.179025292396545410e-01,-2.294756323099136353e-01,3.190000000000000000e+02
-3.031969255617682393e+02,-2.559222179830643995e+02,-6.289330339299135630e+01,-8.651925771582261859e+01,-2.629984768784851212e+02,-2.698369560738678956e+02,-4.395037408485336528e+01,-6.281831052626989731e+01,9.446745872497558594e+00,-9.179025292396545410e-01,-2.294756323099136353e-01,3.200000000000000000e+02
-3.011526949946357945e+02,-2.556804725866908257e+02,-6.218824015962400154e+01,-8.668797293726788666e+01,-2.641062731040910876e+02,-2.694819462500182681e+02,-4.479835341136129045e+01,-6.807697520590409113e+01,9.446745872497558594e+00,-9.179025292396545410e-01,-2.294756323099136353e-01,3.210000000000000000e+02
-3.004535330672190980e+02,-2.544483681810322082e+02,-6.228938035168346232e+01,-8.594638554302161992e+01,-2.660830915841764863e+02,-2.694418740451540089e+02,-4.570975315591351773e+01,-7.270616052426419174e+01,9.446745872497558594e+00,-9.179025292396545410e-01,-2.294756323099136353e-01,3.220000000000000000e+02
-3.010537245826691901e+02,-2.519069111054774339e+02,-6.371523772117370754e+01,-8.451838736751699344e+01,-2.679486953522869044e+02,-2.696059487728326758e+02,-4.555949435439504214e+01,-7.558116546915425715e+01,9.446745872497558594e+00,-9.179025292396545410e-01,-2.294756323099136353e-01,3.230000000000000000e+02
-3.019154099951402372e+02,-2.484745307707179336e+02,-6.583192937186652216e+01,-8.317048812487075793e+01,-2.687161860829558009e+02,-2.697601456534474664e+02,-4.402104732513953422e+01,-7.647530610290993991e+01,9.446745872497558594e+00,-9.179025292396545410e-01,-2.294756323099136353e-01,3.240000000000000000e+02
-3.018393713783986527e+02,-2.452054867974976560e+02,-6.727516563463018429e+01,-8.261999102497463809e+01,-2.679656614170143030e+02,-2.694988936276868117e+02,-4.160615124831542744e+01,-7.614905707590230577e+01,9.446745872497558594e+00,-9.179025292396545410e-01,-2.294756323099136353e-01,3.250000000000000000e+02
-3.002876236359663267e+02,-2.432854573016161339e+02,-6.696820907149344748e+01,-8.303843882067303639e+01,-2.660529852233888732e+02,-2.683720612875906681e+02,-3.936005581012852872e+01,-7.584410698252088423e+01,9.446745872497558594e+00,-9.179025292396545410e-01,-2.294756323099136353e-01,3.260000000000000000e+02
-2.976394706573234998e+02,-2.434119654320511472e+02,-6.488897861121051847e+01,-8.404938937965800960e+01,-2.638023968702276534e+02,-2.662357329003323230e+02,-3.839367584677700052e+01,-7.657998004931005198e+01,9.446745872497558594e+00,-9.179025292396545410e-01,-2.294756323099136353e-01,3.270000000000000000e+02
-2.948619101538033647e+02,-2.454020871366767551e+02,-6.198889857927224512e+01,-8.511230283946520103e+01,-2.618967315077354669e+02,-2.634512490620585368e+02,-3.934316732748095546e+01,-7.865646129633296368e+01,9.446745872497558594e+00,-9.179025292396545410e-01,-2.294756323099136353e-01,3.280000000000000000e+02
-2.929515196586889942e+02,-2.482447597417236125e+02,-5.943888366802457313e+01,-8.590523502579139858e+01,-2.604472820836214169e+02,-2.606847187693912247e+02,-4.194778677440285719e+01,-8.158725775123116364e+01,9.446745872497558594e+00,-9.179025292396545410e-01,-2.294756323099136353e-01,3.290000000000000000e+02
-2.924713418466545249e+02,-2.505916129214376724e+02,-5.791634650381399751e+01,-8.643963563324700772e+01,-2.591012924823548929e+02,-2.584881322230697833e+02,-4.505967777856778866e+01,-8.446928403923880069e+01,9.446745872497558594e+00,-9.179025292396545410e-01,-2.294756323099136353e-01,3.300000000000000000e+02
-2.933059448316791986e+02,-2.514442751737022945e+02,-5.748714691507473162e+01,-8.694398296395388570e+01,-2.575883590615462708e+02,-2.570779696667892722e+02,-4.723653617231298085e+01,-8.657715971388608978e+01,9.446745872497558594e+00,-9.179025292396545410e-01,-2.294756323099136353e-01,3.310000000000000000e+02
-2.946473529612197808e+02,-2.506496611049635703e+02,-5.795064269330043771e+01,-8.767157134323565515e+01,-2.561727805707515699e+02,-2.564602880271085041e+02,-4.758962278148351288e+01,-8.780810455929588443e+01,9.446745872497558594e+00,-9.179025292396545410e-01,-2.294756323099136353e-01,3.320000000000000000e+02
-2.952964072428786153e+02,-2.489003020887972184e+02,-5.911958426561989199e+01,-8.873148498507612203e+01,-2.555493794631746596e+02,-2.566386425304571048e+02,-4.625601292911733253e+01,-8.867475943609815658e+01,9.446745872497558594e+00,-9.179025292396545410e-01,-2.294756323099136353e-01,3.330000000000000000e+02
-2.943113675661359139e+02,-2.472430127099591459e+02,-6.074790900690322815e+01,-8.998065917926032853e+01,-2.562534128851768855e+02,-2.575949062068812054e+02,-4.412531326335829363e+01,-8.986522298791101093e+01,9.446745872497558594e+00,-9.179025292396545410e-01,-2.294756323099136353e-01,3.340000000000000000e+02
-2.917077134581252835e+02,-2.464264352082387859e+02,-6.234125426185141805e+01,-9.104255097675536490e+01,-2.581462508277367078e+02,-2.590832281830364536e+02,-4.209191996366769217e+01,-9.172320268214912176e+01,9.446745872497558594e+00,-9.179025292396545410e-01,-2.294756323099136353e-01,3.350000000000000000e+02
-2.886382779408921238e+02,-2.465155524202669426e+02,-6.325598043962747852e+01,-9.150585495004384029e+01,-2.604587192989340565e+02,-2.605629417341500584e+02,-4.051086917877660198e+01,-9.404970009452347313e+01,9.446745872497558594e+00,-9.179025292396545410e-01,-2.294756323099136353e-01,3.360000000000000000e+02
-2.867032925725706036e+02,-2.469891853791781955e+02,-6.312753406373826692e+01,-9.120467691783119335e+01,-2.623081279758148412e+02,-2.614403538169941612e+02,-3.926674632510218999e+01,-9.631190487830588154e+01,9.446745872497558594e+00,-9.179025292396545410e-01,-2.294756323099136353e-01,3.370000000000000000e+02
-2.867538752068900862e+02,-2.471634289714401120e+02,-6.220353958112286819e+01,-9.034084976889892005e+01,-2.631599919443262934e+02,-2.613861476767709746e+02,-3.822510841817450000e+01,-9.798578090733462886e+01,9.446745872497558594e+00,-9.179025292396545410e-01,-2.294756323099136353e-01,3.380000000000000000e+02
-2.881395271548373103e+02,-2.465717348040230377e+02,-6.115858342342301057e+01,-8.929821565957354323e+01,-2.628550939309350269e+02,-2.603820103154248500e+02,-3.749560378940998362e+01,-9.871976010649404998e+01,9.446745872497558594e+00,-9.179025292396545410e-01,-2.294756323099136353e-01,3.390000000000000000e+02
-2.891404038590596883e+02,-2.450619771364304711e+02,-6.049486127137731728e+01,-8.829546528625030533e+01,-2.613551330295198341e+02,-2.584824261615345904e+02,-3.723892640059807491e+01,-9.830372243377621544e+01,9.446745872497558594e+00,-9.179025292396545410e-01,-2.294756323099136353e-01,3.400000000000000000e+02
-2.883335458686081552e+02,-2.426891917475253422e+02,-6.010738479736369300e+01,-8.721809447325665587e+01,-2.586534335386788825e+02,-2.556563889753153944e+02,-3.731934244623971608e+01,-9.667810800001666394e+01,9.446745872497558594e+00,-9.179025292396545410e-01,-2.294756323099136353e-01,3.410000000000000000e+02
-2.857458537395100961e+02,-2.396320076675598330e+02,-5.945539825159653446e+01,-8.582800816192275306e+01,-2.550154284276785575e+02,-2.519925246835086909e+02,-3.729236572905870162e+01,-9.411135095223869484e+01,9.446745872497558594e+00,-9.179025292396545410e-01,-2.294756323099136353e-01,3.420000000000000000e+02
-2.827726119473410904e+02,-2.362352101270118965e+02,-5.820775499863430014e+01,-8.418137367894496492e+01,-2.512391227770272053e+02,-2.480722698769604904e+02,-3.683518936041184588e+01,-9.136883218765024139e+01,9.446745872497558594e+00,-9.179025292396545410e-01,-2.677215635776519775e-01,3.430000000000000000e+02
-2.809367267818287246e+02,-2.330558408241867028e+02,-5.672477272265132342e+01,-8.285420693213393406e+01,-2.484937689957480416e+02,-2.450058086926894703e+02,-3.618379695504449955e+01,-8.956170955648372001e+01,9.446745872497558594e+00,-9.179025292396545410e-01,-2.677215635776519775e-01,3.440000000000000000e+02
-2.806150071571964872e+02,-2.307316463055717577e+02,-5.587638859316439266e+01,-8.271783432547999837e+01,-2.476991339828487071e+02,-2.438961067929184310e+02,-3.607630917108144786e+01,-8.961084761257302489e+01,9.446745872497558594e+00,-9.179025292396545410e-01,-2.677215635776519775e-01,3.450000000000000000e+02
-2.808721339434041511e+02,-2.296777208515406983e+02,-5.633736653072344325e+01,-8.438560436435363954e+01,-2.489008229719654537e+02,-2.450998150038482208e+02,-3.717479882234658817e+01,-9.166547702546085929e+01,9.446745872497558594e+00,-9.179025292396545410e-01,-2.677215635776519775e-01,3.460000000000000000e+02
-2.804732006209158044e+02,-2.298567585746095574e+02,-5.797939012926906344e+01,-8.773924260041303569e+01,-2.511515749500269976e+02,-2.479263970996621538e+02,-3.946537341309419844e+01,-9.492789760354253303e+01,9.446745872497558594e+00,-9.179025292396545410e-01,-2.677215635776519775e-01,3.470000000000000000e+02
-2.790495609345781531e+02,-2.308591830097611819e+02,-5.987657465504969423e+01,-9.188239982365712422e+01,-2.529987589487330979e+02,-2.510494727628390592e+02,-4.217038793982976586e+01,-9.802557945231296799e+01,9.446745872497558594e+00,-9.179025292396545410e-01,-2.677215635776519775e-01,3.480000000000000000e+02
-2.773250664100456788e+02,-2.322619422490865873e+02,-6.089510481405989140e+01,-9.556309867438392303e+01,-2.532194813791118122e+02,-2.532781773630867974e+02,-4.421730989568163750e+01,-9.966145536511203318e+01,9.446745872497558594e+00,-9.179025292396545410e-01,-2.677215635776519775e-01,3.490000000000000000e+02
-2.762695958305930617e+02,-2.339583121492029250e+02,-6.037512323661758273e+01,-9.780081593120803518e+01,-2.513366443828297179e+02,-2.540750738030299090e+02,-4.485033741224708592e+01,-9.913909068647501499e+01,9.446745872497558594e+00,-9.179025292396545410e-01,-2.677215635776519775e-01,3.500000000000000000e+02
-2.760835704014789371e+02,-2.361365152591731658e+02,-5.843414985509434700e+01,-9.833773527278799520e+01,-2.477076546525486265e+02,-2.535237201491918313e+02,-4.393979181977260851e+01,-9.655190625731279397e+01,9.446745872497558594e+00,-9.179025292396545410e-01,-2.677215635776519775e-01,3.510000000000000000e+02
-2.759902651284170361e+02,-2.388869430026469445e+02,-5.577761928919062484e+01,-9.763650207793909885e+01,-2.432621718221645324e+02,-2.519748861776899957e+02,-4.189896294580580616e+01,-9.267934254697570395e+01,9.446745872497558594e+00,-9.179025292396545410e-01,-2.677215635776519775e-01,3.520000000000000000e+02
-2.749635942087305693e+02,-2.417649039613594368e+02,-5.324472510238933864e+01,-9.642511185416458375e+01,-2.390829978828408002e+02,-2.497807702577283635e+02,-3.942613413404751554e+01,-8.871530918784640107e+01,9.446745872497558594e+00,-9.179025292396545410e-01,-2.677215635776519775e-01,3.530000000000000000e+02
-2.726410323959673860e+02,-2.437263069524769890e+02,-5.140576009774508748e+01,-9.511257918921148757e+01,-2.360000359839099247e+02,-2.472747131627688759e+02,-3.725472460560808940e+01,-8.586024385111045376e+01,9.446745872497558594e+00,-9.179025292396545410e-01,-2.677215635776519775e-01,3.540000000000000000e+02
-2.695978364878687898e+02,-2.436137321560908049e+02,-5.040628181580359524e+01,-9.353951626271100395e+01,-2.343426407870995263e+02,-2.448298477201244623e+02,-3.594009533393364109e+01,-8.482940185809911782e+01,9.446745872497558594e+00,-9.179025292396545410e-01,-2.677215635776519775e-01,3.550000000000000000e+02
-2.668477075358302955e+02,-2.409512194452024687e+02,-5.006870378660664755e+01,-9.130275516453411910e+01,-2.339564524449441478e+02,-2.427905601941602072e+02,-3.564755031161553234e+01,-8.548870782323535877e+01,9.446745872497558594e+00,-9.179025292396545410e-01,-2.677215635776519775e-01,3.560000000000000000e+02
-2.651164882354701149e+02,-2.365071468057292350e+02,-5.012903588600545390e+01,-8.839672037207287758e+01,-2.344469481862382736e+02,-2.413040889442086154e+02,-3.603853919362370561e+01,-8.690204666632553199e+01,9.446745872497558594e+00,-9.179025292396545410e-01,-2.677215635776519775e-01,3.570000000000000000e+02
-2.644966242757211603e+02,-2.321338379809217258e+02,-5.043835065239227333e+01,-8.558377954169486657e+01,-2.354404358059773585e+02,-2.402609868025783726e+02,-3.644665075004718346e+01,-8.787762876328190487e+01,9.446745872497558594e+00,-9.179025292396545410e-01,-2.677215635776519775e-01,3.580000000000000000e+02
-2.645935494300617847e+02,-2.298007696981687786e+02,-5.097125613992159288e+01,-8.405012721154253086e+01,-2.366217095394517855e+02,-2.394421159652504230e+02,-3.631199604239259315e+01,-8.767826284314560326e+01,9.446745872497558594e+00,-9.179025292396545410e-01,-2.677215635776519775e-01,3.590000000000000000e+02
-2.648442907690152879e+02,-2.303328096595421357e+02,-5.162853723262151107e+01,-8.451601195319472026e+01,-2.375427193339556879e+02,-2.387179880666221834e+02,-3.555943975211232555e+01,-8.635207780027349145e+01,9.446745872497558594e+00,-9.179025292396545410e-01,-2.677215635776519775e-01,3.600000000000000000e+02
-2.647281940536751108e+02,-2.327227394017559163e+02,-5.203094724152686013e+01,-8.652231391414193240e+01,-2.374848158239992699e+02,-2.380631145401389404e+02,-3.457949426696893624e+01,-8.441813441981014421e+01,9.446745872497558594e+00,-9.179025292396545410e-01,-2.677215635776519775e-01,3.610000000000000000e+02
-2.638715291859559784e+02,-2.346070584856756795e+02,-5.158853843605231759e+01,-8.856574131310821940e+01,-2.356898935585554682e+02,-2.373626152206154529e+02,-3.381245433608751227e+01,-8.222252771812884475e+01,9.446745872497558594e+00,-9.179025292396545410e-01,-2.677215635776519775e-01,3.620000000000000000e+02
-2.621666306782065021e+02,-2.336829301103127818e+02,-4.991818282083397662e+01,-8.907753135431698865e+01,-2.319289406452063531e+02,-2.362654173912619626e+02,-3.334949024502191151e+01,-7.961685684730343837e+01,9.446745872497558594e+00,-9.179025292396545410e-01,-2.677215635776519775e-01,3.630000000000000000e+02
-2.598695892666167993e+02,-2.291055690583441447e+02,-4.730169368535393914e+01,-8.750330838450963711e+01,-2.269509429992566538e+02,-2.343418809626723487e+02,-3.294673215472607808e+01,-7.629524021942097534e+01,9.523238182067871094e+00,-8.414105772972106934e-01,-2.294756323099136353e-01,3.640000000000000000e+02
-2.575017998857164230e+02,-2.218696538856213465e+02,-4.471961210984306945e+01,-8.462378895738424944e+01,-2.223028907262743132e+02,-2.314792083862178060e+02,-3.240736274751191104e+01,-7.245151078149604018e+01,9.523238182067871094e+00,-8.414105772972106934e-01,-2.294756323099136353e-01,3.650000000000000000e+02
-2.555076413904100718e+02,-2.139461915394822427e+02,-4.327824586787619410e+01,-8.187628707027261044e+01,-2.194708391672845664e+02,-2.281293636320667702e+02,-3.186995389159790193e+01,-6.902556267287422997e+01,9.523238182067871094e+00,-8.414105772972106934e-01,-2.294756323099136353e-01,3.660000000000000000e+02
-2.539169303466915153e+02,-2.069255237086229045e+02,-4.341154624709656673e+01,-8.026865190342232381e+01,-2.189167637089922209e+02,-2.251023109474838293e+02,-3.165465833866721823e+01,-6.716118128560697187e+01,9.523238182067871094e+00,-8.414105772972106934e-01,-2.294756323099136353e-01,3.670000000000000000e+02
-2.523640777288808295e+02,-2.012387371785666801e+02,-4.453838432693805771e+01,-7.977566124905933975e+01,-2.197920149965050314e+02,-2.230226691497880438e+02,-3.183820785571799661e+01,-6.730737149853666779e+01,9.523238182067871094e+00,-8.414105772972106934e-01,-2.294756323099136353e-01,3.680000000000000000e+02
-2.505111758536628486e+02,-1.964286202615796810e+02,-4.553498584872636457e+01,-7.963248847860290880e+01,-2.206168330169853107e+02,-2.219222555666588050e+02,-3.209458389167184578e+01,-6.882285368371003642e+01,9.523238182067871094e+00,-8.414105772972106934e-01,-2.294756323099136353e-01,3.690000000000000000e+02
-2.485058363947948692e+02,-1.919899691582396599e+02,-4.567817150423161365e+01,-7.915092484351316671e+01,-2.204011594606949984e+02,-2.213228623814329694e+02,-3.206528715057390855e+01,-7.050359956954571317e+01,9.523238182067871094e+00,-8.414105772972106934e-01,-2.294756323099136353e-01,3.700000000000000000e+02
-2.470152628199048195e+02,-1.878900267036237892e+02,-4.524646178222019444e+01,-7.828906202739949549e+01,-2.192727111948011043e+02,-2.206805721777491271e+02,-3.187838736006835916e+01,-7.154443343379170983e+01,9.523238182067871094e+00,-8.414105772972106934e-01,-2.294756323099136353e-01,3.710000000000000000e+02
-2.467448226560554758e+02,-1.843541704653300712e+02,-4.523042539988796307e+01,-7.752333380647655758e+01,-2.181115585020975232e+02,-2.197321843830704893e+02,-3.217071746755311779e+01,-7.200759555926879329e+01,9.523238182067871094e+00,-8.414105772972106934e-01,-2.294756323099136353e-01,3.720000000000000000e+02
-2.478299317264581987e+02,-1.813479357544511004e+02,-4.640246715084231255e+01,-7.725741918206335868e+01,-2.175981186767248801e+02,-2.184584873607122972e+02,-3.347680353869463943e+01,-7.239387619747890312e+01,9.523238182067871094e+00,-8.414105772972106934e-01,-2.294756323099136353e-01,3.730000000000000000e+02
-2.496146243301955110e+02,-1.784807848146235756e+02,-4.856800596153652805e+01,-7.741585366891354170e+01,-2.175966994325294763e+02,-2.168527377753966903e+02,-3.558255574455756687e+01,-7.285641569970539422e+01,9.523238182067871094e+00,-8.414105772972106934e-01,-2.294756323099136353e-01,3.740000000000000000e+02
-2.509737862935253361e+02,-1.755005346431271391e+02,-5.063175198696842472e+01,-7.761409643428896743e+01,-2.174209524612492714e+02,-2.148783173251290464e+02,-3.756535674956990078e+01,-7.296599270601745957e+01,9.523238182067871094e+00,-8.414105772972106934e-01,-2.294756323099136353e-01,3.750000000000000000e+02
-2.509161753023208803e+02,-1.728085935863008444e+02,-5.139346726535313792e+01,-7.766817887159436395e+01,-2.166261533083620634e+02,-2.126930182831765705e+02,-3.856130390205134972e+01,-7.230694576779251292e+01,9.523238182067871094e+00,-8.414105772972106934e-01,-2.294756323099136353e-01,3.760000000000000000e+02
-2.490535056281795505e+02,-1.712888370586933888e+02,-5.036982081242103959e+01,-7.784144666495285492e+01,-2.154455703499920673e+02,-2.107885742699734237e+02,-3.848628846527390124e+01,-7.119152623295121884e+01,9.523238182067871094e+00,-8.414105772972106934e-01,-2.294756323099136353e-01,3.770000000000000000e+02
-2.457177235820356600e+02,-1.714494939580845312e+02,-4.800117642663803963e+01,-7.852537558321569122e+01,-2.144108690352068152e+02,-2.097156438174654340e+02,-3.794458553376171039e+01,-7.058007995354319064e+01,9.523238182067871094e+00,-8.414105772972106934e-01,-2.294756323099136353e-01,3.780000000000000000e+02
-2.417883354260854958e+02,-1.726778288166458424e+02,-4.521870970595534800e+01,-7.968238677557246774e+01,-2.136197203411504688e+02,-2.095632255952743890e+02,-3.743327601606688404e+01,-7.115196724141765117e+01,9.523238182067871094e+00,-8.414105772972106934e-01,-2.294756323099136353e-01,3.790000000000000000e+02
-2.383564836446726076e+02,-1.734396541116643675e+02,-4.287051811199671647e+01,-8.067413597485301580e+01,-2.125273140805736602e+02,-2.097666952179388318e+02,-3.677201221624454774e+01,-7.248813332729559988e+01,9.523238182067871094e+00,-8.414105772972106934e-01,-2.294756323099136353e-01,3.800000000000000000e+02
-2.363063894635076849e+02,-1.724083988087527359e+02,-4.147745849900798021e+01,-8.074370203895159648e+01,-2.105713187530191135e+02,-2.095631604583095395e+02,-3.547914161715289083e+01,-7.333555179091536047e+01,9.523238182067871094e+00,-8.414105772972106934e-01,-2.294756323099136353e-01,3.810000000000000000e+02
-2.359247347038522093e+02,-1.695731900044056601e+02,-4.132889681045207908e+01,-7.973314135769987843e+01,-2.079863196555188551e+02,-2.087166584875672015e+02,-3.371568608123288868e+01,-7.282906176263873022e+01,9.523238182067871094e+00,-8.414105772972106934e-01,-2.294756323099136353e-01,3.820000000000000000e+02
-2.367429720114332667e+02,-1.662808461085608087e+02,-4.255397452308079664e+01,-7.831180838265049715e+01,-2.058532000988407162e+02,-2.077590632516576079e+02,-3.263004188787681414e+01,-7.144925445653461793e+01,9.523238182067871094e+00,-8.414105772972106934e-01,-2.294756323099136353e-01,3.830000000000000000e+02
-2.377742342910478328e+02,-1.640813436666421694e+02,-4.491758418487370363e+01,-7.742638120251422151e+01,-2.051774169715381504e+02,-2.074190621101051875e+02,-3.344155845577506625e+01,-7.062893370673350546e+01,9.523238182067871094e+00,-8.414105772972106934e-01,-2.294756323099136353e-01,3.840000000000000000e+02
-2.380443469244073640e+02,-1.633580516581325810e+02,-4.753631838994738246e+01,-7.743895057999066012e+01,-2.058185889375758961e+02,-2.077595953458810527e+02,-3.597343730661214067e+01,-7.125614342792050593e+01,9.523238182067871094e+00,-8.414105772972106934e-01,-2.294756323099136353e-01,3.850000000000000000e+02
-2.370460960108966901e+02,-1.629599691967259787e+02,-4.897944164329646810e+01,-7.774694000600175059e+01,-2.063511430975627263e+02,-2.079055468992207807e+02,-3.816800426861163942e+01,-7.252633320364952851e+01,9.523238182067871094e+00,-8.414105772972106934e-01,-2.294756323099136353e-01,3.860000000000000000e+02
-2.347932991035975192e+02,-1.611930295379381732e+02,-4.796558175418203973e+01,-7.725187803616540805e+01,-2.051104742208328844e+02,-2.067045818756041626e+02,-3.738821712997105351e+01,-7.239960999501386141e+01,9.523238182067871094e+00,-8.414105772972106934e-01,-2.294756323099136353e-01,3.870000000000000000e+02
-2.315286184675787808e+02,-1.573330909411911307e+02,-4.427133952618328294e+01,-7.526936167121948529e+01,-2.015467087276256279e+02,-2.037403373677886975e+02,-3.260399446186124806e+01,-6.940612344701503389e+01,9.523238182067871094e+00,-8.414105772972106934e-01,-2.294756323099136353e-01,3.880000000000000000e+02
-2.274916028914376511e+02,-1.523672616740325338e+02,-3.913624185008529821e+01,-7.210623327767507362e+01,-1.967362029404976056e+02,-1.997768113672134405e+02,-2.556265575727570649e+01,-6.420100755927296632e+01,9.523238182067871094e+00,-9.179025292396545410e-01,-3.442134261131286621e-01,3.890000000000000000e+02
-2.230369212766499913e+02,-1.483179212816492054e+02,-3.470652847512860717e+01,-6.885397566742858544e+01,-1.926317929602382719e+02,-1.962339950239738755e+02,-1.978115341350735434e+01,-5.937142848978055554e+01,9.523238182067871094e+00,-9.179025292396545410e-01,-3.442134261131286621e-01,3.900000000000000000e+02
-2.189122881563976080e+02,-1.467081118168150624e+02,-3.278358428238880151e+01,-6.663163522271452166e+01,-1.906809097610364461e+02,-1.941628970124738771e+02,-1.807802889740628416e+01,-5.753176077870602967e+01,9.523238182067871094e+00,-9.179025292396545410e-01,-3.442134261131286621e-01,3.910000000000000000e+02
-2.161969008839766957e+02,-1.474210363895690534e+02,-3.374492644756537629e+01,-6.591535709844811208e+01,-1.909095724397793674e+02,-1.935719123230501282e+02,-2.065617770320113777e+01,-5.930416043148943572e+01,9.523238182067871094e+00,-9.179025292396545410e-01,-3.442134261131286621e-01,3.920000000000000000e+02
-2.156804752547552653e+02,-1.488209090186358026e+02,-3.640236274981771203e+01,-6.639456377220949435e+01,-1.920764239276454646e+02,-1.935686321613484324e+02,-2.522679847929634889e+01,-6.288452601941685316e+01,9.523238182067871094e+00,-9.179025292396545410e-01,-3.442134261131286621e-01,3.930000000000000000e+02
-2.171048922942507033e+02,-1.489444293126366574e+02,-3.884735140611928728e+01,-6.730803436383985172e+01,-1.926281219047880313e+02,-1.930885752296976534e+02,-2.887255702758602638e+01,-6.550427550751965100e+01,9.523238182067871094e+00,-9.179025292396545410e-01,-3.442134261131286621e-01,3.940000000000000000e+02
-2.190168365658032599e+02,-1.467904345573952014e+02,-3.962390074854465638e+01,-6.791084314742511197e+01,-1.916837010683809694e+02,-1.916033863643310724e+02,-2.999028492439833826e+01,-6.550481194525491446e+01,9.523238182067871094e+00,-9.179025292396545410e-01,-3.442134261131286621e-01,3.950000000000000000e+02
-2.195497110191283809e+02,-1.427989458564038614e+02,-3.841321118834935078e+01,-6.779346462529542805e+01,-1.894135540895867962e+02,-1.893567508048890886e+02,-2.886957035300929419e+01,-6.333578241701070510e+01,9.523238182067871094e+00,-9.179025292396545410e-01,-3.442134261131286621e-01,3.960000000000000000e+02
-2.176183037322866767e+02,-1.383418988456730858e+02,-3.590588541009697110e+01,-6.699098316740810333e+01,-1.867052980689418291e+02,-1.870828416316680887e+02,-2.682376420637524461e+01,-6.082561887820702395e+01,9.523238182067871094e+00,-9.179025292396545410e-01,-3.442134261131286621e-01,3.970000000000000000e+02
-2.135998170516504615e+02,-1.347819394094899508e+02,-3.319095546297580768e+01,-6.592598593162256293e+01,-1.844776870890509599e+02,-1.854712632405417025e+02,-2.495763997126778122e+01,-5.954087629459468189e+01,9.523238182067871094e+00,-9.179025292396545410e-01,-3.442134261131286621e-01,3.980000000000000000e+02
-2.089980907228059550e+02,-1.328159530275340785e+02,-3.122266740942450269e+01,-6.520079118651119643e+01,-1.831419257838213070e+02,-1.847245001136461724e+02,-2.366532028456117587e+01,-5.966612798687810937e+01,9.523238182067871094e+00,-9.179025292396545410e-01,-3.442134261131286621e-01,3.990000000000000000e+02
-2.054306954358116855e+02,-1.324163696025618719e+02,-3.060461168642746088e+01,-6.525911723510216689e+01,-1.825012587275164151e+02,-1.844511560681748961e+02,-2.297784088553794390e+01,-6.018989424891879025e+01,9.523238182067871094e+00,-9.179025292396545410e-01,-3.442134261131286621e-01,4.000000000000000000e+02
-2.037436202302180845e+02,-1.331712401494080495e+02,-3.151229476908929428e+01,-6.606835306001767094e+01,-1.820343019503727646e+02,-1.839420599885638694e+02,-2.305165729832219768e+01,-5.997969455159000063e+01,9.523238182067871094e+00,-9.179025292396545410e-01,-3.442134261131286621e-01,4.010000000000000000e+02
-2.037936095642623968e+02,-1.346322534716812243e+02,-3.355921594663413998e+01,-6.707709801656801574e+01,-1.812774971153901333e+02,-1.826609960044888794e+02,-2.414935638535757789e+01,-5.868980431697013955e+01,9.523238182067871094e+00,-9.179025292396545410e-01,-3.442134261131286621e-01,4.020000000000000000e+02
-2.048056749819527340e+02,-1.364404215087238299e+02,-3.573141292371860800e+01,-6.756496377801977360e+01,-1.800306090437420607e+02,-1.806230120016080036e+02,-2.615737969508199967e+01,-5.679883957058837041e+01,9.523238182067871094e+00,-9.179025292396545410e-01,-3.442134261131286621e-01,4.030000000000000000e+02
-2.058678325869022956e+02,-1.382677408431525237e+02,-3.671820024037378971e+01,-6.716904261382615005e+01,-1.783263508792661014e+02,-1.783807462630375085e+02,-2.826782701549745980e+01,-5.496176432128550005e+01,9.523238182067871094e+00,-9.179025292396545410e-01,-3.442134261131286621e-01,4.040000000000000000e+02
-2.062756630565206706e+02,-1.397402156744335571e+02,-3.567184583706193735e+01,-6.614481734791752388e+01,-1.763030012982280823e+02,-1.766073797433218715e+02,-2.928522404445425309e+01,-5.340485267628650945e+01,9.523238182067871094e+00,-9.179025292396545410e-01,-3.442134261131286621e-01,4.050000000000000000e+02
-2.057222316796080577e+02,-1.404659588926383549e+02,-3.287607581635302267e+01,-6.510011578744433791e+01,-1.741326463789066565e+02,-1.755885935635701571e+02,-2.839549101337365755e+01,-5.188079288146855106e+01,9.523238182067871094e+00,-9.179025292396545410e-01,-3.442134261131286621e-01,4.060000000000000000e+02
-2.043865840411899626e+02,-1.401838557869484703e+02,-2.966538537689257282e+01,-6.443719742091707303e+01,-1.720317102510243785e+02,-1.750363561549811493e+02,-2.578855424311359457e+01,-5.009454430698951910e+01,9.523238182067871094e+00,-9.179025292396545410e-01,-3.442134261131286621e-01,4.070000000000000000e+02
-2.028113028508132629e+02,-1.389440037785577715e+02,-2.749595756318194617e+01,-6.403356107678246190e+01,-1.702544958437008518e+02,-1.743643507030456021e+02,-2.261815292609412609e+01,-4.809478888022249521e+01,9.523238182067871094e+00,-9.179025292396545410e-01,-3.442134261131286621e-01,4.080000000000000000e+02
-2.014937525105997338e+02,-1.371764195582375123e+02,-2.687892807485695812e+01,-6.348701962232189544e+01,-1.690042040987368637e+02,-1.731798717092669904e+02,-2.032202434595228624e+01,-4.626151077338181494e+01,9.523238182067871094e+00,-9.179025292396545410e-01,-3.442134261131286621e-01,4.090000000000000000e+02
-2.004162988720770500e+02,-1.355181338968236560e+02,-2.711818071704715294e+01,-6.267184076528337755e+01,-1.683188831847348865e+02,-1.715674994083256024e+02,-1.978920680527312470e+01,-4.497015410670564961e+01,9.523238182067871094e+00,-9.179025292396545410e-01,-3.442134261131286621e-01,4.100000000000000000e+02
-1.989642495045277428e+02,-1.344162602253049954e+02,-2.708378605556345065e+01,-6.198711261970538544e+01,-1.680284405221709676e+02,-1.699275477380560915e+02,-2.090886196510041373e+01,-4.428080388639887133e+01,9.523238182067871094e+00,-9.179025292396545410e-01,-3.442134261131286621e-01,4.110000000000000000e+02
-1.964533370293959251e+02,-1.337418403743156432e+02,-2.628978832451116432e+01,-6.197753825208519629e+01,-1.678339470072978656e+02,-1.685378417173528760e+02,-2.273010693743663069e+01,-4.391921314036653712e+01,9.523238182067871094e+00,-9.179025292396545410e-01,-3.442134261131286621e-01,4.120000000000000000e+02
-1.928786809781345255e+02,-1.327699107466448822e+02,-2.527308495236638919e+01,-6.269008568146409743e+01,-1.674649924792347520e+02,-1.672762387538323310e+02,-2.410485616342384674e+01,-4.353132682176146773e+01,9.523238182067871094e+00,-9.179025292396545410e-01,-3.442134261131286621e-01,4.130000000000000000e+02
-1.891503351487117470e+02,-1.306784460879671315e+02,-2.496228434003364782e+01,-6.347489484307243401e+01,-1.668356663534323161e+02,-1.657969606495303196e+02,-2.441603440812014014e+01,-4.299194043034458446e+01,9.523238182067871094e+00,-9.179025292396545410e-01,-3.442134261131286621e-01,4.140000000000000000e+02
-1.864743051656946591e+02,-1.272512451411741949e+02,-2.570603201452377107e+01,-6.352519088414965154e+01,-1.661146051499486020e+02,-1.639961564964987701e+02,-2.393564704542541222e+01,-4.253635727474329542e+01,9.523238182067871094e+00,-9.179025292396545410e-01,-3.442134261131286621e-01,4.150000000000000000e+02
-1.853582396860670087e+02,-1.231766349314041236e+02,-2.689191049076180207e+01,-6.265313604323910113e+01,-1.656240076109093025e+02,-1.622715560757765161e+02,-2.354913027765678635e+01,-4.260286513586834189e+01,9.446745872497558594e+00,-9.179025292396545410e-01,-3.059675097465515137e-01,4.160000000000000000e+02
-1.851579567902699637e+02,-1.195814719068891918e+02,-2.744877158017061447e+01,-6.148748545878970617e+01,-1.655492856929704431e+02,-1.612361536442012948e+02,-2.397826660297619128e+01,-4.344981749419594053e+01,9.446745872497558594e+00,-9.179025292396545410e-01,-3.059675097465515137e-01,4.170000000000000000e+02
-1.846218694719827909e+02,-1.171234136705252240e+02,-2.665556039286548184e+01,-6.083766567696966376e+01,-1.655870687200758766e+02,-1.610759571357289133e+02,-2.503024193222472604e+01,-4.476899723599581193e+01,9.446745872497558594e+00,-9.179025292396545410e-01,-3.059675097465515137e-01,4.180000000000000000e+02
-1.829371932740743887e+02,-1.154576057758176830e+02,-2.448796209139368329e+01,-6.085486384140267546e+01,-1.648435230442692045e+02,-1.611655814149389698e+02,-2.551491265665981700e+01,-4.560568408920562433e+01,9.446745872497558594e+00,-9.179025292396545410e-01,-3.059675097465515137e-01,4.190000000000000000e+02
-1.802940354095389921e+02,-1.136422155284851669e+02,-2.134775348991729516e+01,-6.087581257935971735e+01,-1.622432593151188485e+02,-1.604022571436685212e+02,-2.405403381000905938e+01,-4.477642781574195396e+01,9.446745872497558594e+00,-9.179025292396545410e-01,-3.059675097465515137e-01,4.200000000000000000e+02
-1.774947253304781043e+02,-1.111584401398829414e+02,-1.767548005453454607e+01,-6.014071988228715782e+01,-1.573207790752226174e+02,-1.580673444587973790e+02,-2.027663172420102455e+01,-4.163129809921611013e+01,9.446745872497558594e+00,-9.179025292396545410e-01,-3.059675097465515137e-01,4.210000000000000000e+02
-1.751017217782004991e+02,-1.085228511148377493e+02,-1.393797653769524914e+01,-5.863182741348418858e+01,-1.508405764081967391e+02,-1.544635918361263975e+02,-1.544595772079605922e+01,-3.664526225023791994e+01,9.446745872497558594e+00,-9.179025292396545410e-01,-3.059675097465515137e-01,4.220000000000000000e+02
-1.730444157679044110e+02,-1.067760413385408356e+02,-1.087730021716356532e+01,-5.711807137600362694e+01,-1.446508715647760255e+02,-1.507069629643733606e+02,-1.186740161339957922e+01,-3.131120409616323741e+01,9.446745872497558594e+00,-9.179025292396545410e-01,-3.059675097465515137e-01,4.230000000000000000e+02
-1.710437301709582698e+02,-1.062473775419789490e+02,-9.463360399142857204e+00,-5.631524889583215554e+01,-1.406965339324788147e+02,-1.478087457785572951e+02,-1.135004029237234136e+01,-2.726586760269947263e+01,9.446745872497558594e+00,-9.179025292396545410e-01,-3.059675097465515137e-01,4.240000000000000000e+02
-1.692690160381589521e+02,-1.058530421537100210e+02,-1.027907823015721078e+01,-5.603017935486832357e+01,-1.398223075811556555e+02,-1.458564973309712514e+02,-1.381969753997555017e+01,-2.520997278709273814e+01,9.446745872497558594e+00,-9.179025292396545410e-01,-3.059675097465515137e-01,4.250000000000000000e+02
-1.683613934663935652e+02,-1.038226691907459553e+02,-1.278563406913735889e+01,-5.522299758359258703e+01,-1.412329425540119701e+02,-1.440273251950998201e+02,-1.717547963837887437e+01,-2.444184422889247799e+01,9.446745872497558594e+00,-9.179025292396545410e-01,-3.059675097465515137e-01,4.260000000000000000e+02
-1.686734651698200196e+02,-9.939770196075687636e+01,-1.525345326185765771e+01,-5.300566696403029709e+01,-1.430078787599777570e+02,-1.414126280925511310e+02,-1.857839668995438842e+01,-2.340592617041829726e+01,9.446745872497558594e+00,-9.179025292396545410e-01,-3.059675097465515137e-01,4.270000000000000000e+02
-1.695209351889025129e+02,-9.396264030812039891e+01,-1.564781229193249601e+01,-4.961425825397418521e+01,-1.432651597926419527e+02,-1.378862007015372910e+02,-1.628204359677170032e+01,-2.084646311080359737e+01,9.446745872497558594e+00,-9.179025292396545410e-01,-3.059675097465515137e-01,4.280000000000000000e+02
-1.693635742879380359e+02,-9.040014101934070823e+01,-1.290598420128162616e+01,-4.637431795919655997e+01,-1.411383086618166089e+02,-1.342362603678056985e+02,-1.073234474257492366e+01,-1.667689643125595467e+01,9.446745872497558594e+00,-9.179025292396545410e-01,-3.059675097465515137e-01,4.290000000000000000e+02
-1.669512196572147786e+02,-9.103545741260745672e+01,-7.633231093955146207e+00,-4.464909610220365721e+01,-1.369845030366896026e+02,-1.314958503505858971e+02,-4.255280002155359398e+00,-1.193646515903265026e+01,9.446745872497558594e+00,-9.179025292396545410e-01,-3.059675097465515137e-01,4.300000000000000000e+02
-1.624514359106772190e+02,-9.585925515020676357e+01,-1.712232460208042539e+00,-4.473333811230304491e+01,-1.319025257776938815e+02,-1.301244269375938529e+02,3.274516986366506899e-01,-7.981480287553040398e+00,9.446745872497558594e+00,-9.179025292396545410e-01,-3.059675097465515137e-01,4.310000000000000000e+02
-1.574848413978047574e+02,-1.025274042667072081e+02,2.807132322896450205e+00,-4.568497993675464386e+01,-1.270914266863578632e+02,-1.297634300778236138e+02,1.200659583354536153e+00,-5.645593849932538433e+00,9.446745872497558594e+00,-9.179025292396545410e-01,-3.059675097465515137e-01,4.320000000000000000e+02
-1.539580494453321080e+02,-1.080804966464822883e+02,4.692851184544906573e+00,-4.619291528585517881e+01,-1.234982791789316252e+02,-1.297020520344781289e+02,-1.673058416731237230e+00,-5.008286200984912284e+00,9.446745872497558594e+00,-9.179025292396545410e-01,-3.059675097465515137e-01,4.330000000000000000e+02
-1.526851919635705599e+02,-1.108675309830598508e+02,3.845615487622353612e+00,-4.564871399941876007e+01,-1.217670030560593659e+02,-1.295434790103608975e+02,-6.752759771220326002e+00,-5.759769348041118064e+00,9.446745872497558594e+00,-9.179025292396545410e-01,-3.059675097465515137e-01,4.340000000000000000e+02
-1.529558702151612124e+02,-1.111772588831136090e+02,1.023358996146498612e+00,-4.449707176438550960e+01,-1.222062100843813823e+02,-1.294527497691155986e+02,-1.178018103089425495e+01,-7.615297077886225452e+00,9.446745872497558594e+00,-9.179025292396545410e-01,-3.059675097465515137e-01,4.350000000000000000e+02
-1.533059248403430956e+02,-1.104146892233773087e+02,-2.609315675993229888e+00,-4.367020447323193366e+01,-1.246045089612748598e+02,-1.298228074858425316e+02,-1.482732163773107459e+01,-1.032448505243246473e+01,9.446745872497558594e+00,-9.179025292396545410e-01,-3.059675097465515137e-01,4.360000000000000000e+02
-1.527100587993002136e+02,-1.098858088513063649e+02,-5.832164116239027862e+00,-4.373240903992882522e+01,-1.280629609894167515e+02,-1.307412692734933444e+02,-1.510545682483439123e+01,-1.336910901932151319e+01,9.446745872497558594e+00,-9.179025292396545410e-01,-3.059675097465515137e-01,4.370000000000000000e+02
-1.511769674393683545e+02,-1.102693093088755631e+02,-7.670287153918025069e+00,-4.450822181541116151e+01,-1.311755311591896316e+02,-1.317739010082595996e+02,-1.322908819634631072e+01,-1.584235577723939059e+01,9.446745872497558594e+00,-9.179025292396545410e-01,-3.059675097465515137e-01,4.380000000000000000e+02
-1.494116638717787282e+02,-1.118590015570878222e+02,-7.742866922243592853e+00,-4.542011067119346990e+01,-1.326504993745802494e+02,-1.322413236454390244e+02,-1.081039242233464392e+01,-1.682654098287775923e+01,9.446745872497558594e+00,-9.179025292396545410e-01,-3.059675097465515137e-01,4.390000000000000000e+02
-1.480433118755900068e+02,-1.148560540154637692e+02,-6.485076083137300884e+00,-4.608514807484471021e+01,-1.320051763559808933e+02,-1.317046524393449545e+02,-9.534295401374492940e+00,-1.599706701230297767e+01,9.446745872497558594e+00,-9.179025292396545410e-01,-3.059675097465515137e-01,4.400000000000000000e+02
-1.471433986879096665e+02,-1.191811559311327073e+02,-4.923375736430898542e+00,-4.654793206608337641e+01,-1.297703322353936528e+02,-1.302183429056076420e+02,-1.020195707152743125e+01,-1.385346195943293424e+01,9.446745872497558594e+00,-9.179025292396545410e-01,-3.059675097465515137e-01,4.410000000000000000e+02
-1.463150226621692127e+02,-1.240813213138821993e+02,-3.973069093817912290e+00,-4.697078634584295287e+01,-1.269732130704119299e+02,-1.281653976155957935e+02,-1.233549278454665910e+01,-1.128962569295435969e+01,9.446745872497558594e+00,-9.179025292396545410e-01,-3.059675097465515137e-01,4.420000000000000000e+02
-1.450828489699497368e+02,-1.281713921537509577e+02,-3.730316505092105217e+00,-4.717447165374778706e+01,-1.242853751333682339e+02,-1.258883337033885255e+02,-1.459030879108877343e+01,-8.876784513021448220e+00,9.446745872497558594e+00,-9.179025292396545410e-01,-3.059675097465515137e-01,4.430000000000000000e+02
-1.432005113062587043e+02,-1.300851221887826341e+02,-3.398607670963883720e+00,-4.657548100947951752e+01,-1.215706343860579182e+02,-1.234877076335897073e+02,-1.566529324449220439e+01,-6.545444693479112175e+00,9.446745872497558594e+00,-9.179025292396545410e-01,-3.059675097465515137e-01,4.440000000000000000e+02
-1.407609593909719479e+02,-1.292285359620584586e+02,-2.037507832291339582e+00,-4.465776236201099891e+01,-1.182536797933626076e+02,-1.209458497751070354e+02,-1.505959189564737244e+01,-3.959589852161116141e+00,9.446745872497558594e+00,-9.179025292396545410e-01,-3.059675097465515137e-01,4.450000000000000000e+02
-1.381842537775023629e+02,-1.259833961268941493e+02,4.372322226181495353e-01,-4.155779966785621582e+01,-1.141787373894812845e+02,-1.183719645482628948e+02,-1.319407771969781606e+01,-1.159238764967540192e+00,9.446745872497558594e+00,-9.179025292396545410e-01,-3.059675097465515137e-01,4.460000000000000000e+02
-1.361159047650123739e+02,-1.212985202443235266e+02,2.892788055502251154e+00,-3.817346471203472902e+01,-1.101450287191246389e+02,-1.160566065701304979e+02,-1.096244675294747140e+01,1.230506261566915782e+00,9.484992027282714844e+00,-9.179025292396545410e-01,-2.677215635776519775e-01,4.470000000000000000e+02
-1.351681702251833030e+02,-1.161957321493691779e+02,3.679213394891576172e+00,-3.561569604566739145e+01,-1.075718079575740376e+02,-1.142614960850810348e+02,-9.160709039178072999e+00,2.481991607642157760e+00,9.484992027282714844e+00,-9.179025292396545410e-01,-2.677215635776519775e-01,4.480000000000000000e+02
-1.355228216490907016e+02,-1.116351165973801471e+02,1.902646599669651550e+00,-3.443890800841973032e+01,-1.075236971282847662e+02,-1.129899800247326311e+02,-8.191233398824806500e+00,2.460468885714817588e+00,9.484992027282714844e+00,-9.179025292396545410e-01,-2.677215635776519775e-01,4.490000000000000000e+02
-1.366506744581465682e+02,-1.085992843333083329e+02,-1.777735850731460232e+00,-3.431515213104012219e+01,-1.099092700622049961e+02,-1.120223761254374040e+02,-8.104589633338946442e+00,1.798992113972417428e+00,9.484992027282714844e+00,-9.179025292396545410e-01,-2.677215635776519775e-01,4.500000000000000000e+02
-1.374696054183257274e+02,-1.079299244424050812e+02,-5.517410713515118914e+00,-3.443369180365880311e+01,-1.135011301064514555e+02,-1.112033076770603657e+02,-8.754374130576707103e+00,1.345176438371709082e+00,9.484992027282714844e+00,-9.179025292396545410e-01,-2.677215635776519775e-01,4.510000000000000000e+02
-1.369558019809983307e+02,-1.097918677146451500e+02,-7.528970790734092589e+00,-3.425401443233704413e+01,-1.167048798198939039e+02,-1.106630846849484442e+02,-9.881173876220600505e+00,1.414438920555312507e+00,9.484992027282714844e+00,-9.179025292396545410e-01,-2.677215635776519775e-01,4.520000000000000000e+02
-1.347889813757176398e+02,-1.132471813808037950e+02,-7.187848341298376909e+00,-3.392781804599599127e+01,-1.184101326110439913e+02,-1.107013173533155168e+02,-1.113870815879909060e+01,1.591278668333870883e+00,9.484992027282714844e+00,-9.179025292396545410e-01,-2.677215635776519775e-01,4.530000000000000000e+02
-1.315187949778924121e+02,-1.165189648241318991e+02,-5.150214965827899505e+00,-3.402926392155950452e+01,-1.182993952513861586e+02,-1.114192034100733508e+02,-1.215021362547031458e+01,1.286152496878457896e+00,9.484992027282714844e+00,-9.179025292396545410e-01,-2.677215635776519775e-01,4.540000000000000000e+02
-1.281297803317079342e+02,-1.179561749951644742e+02,-2.524180671584645097e+00,-3.487906215636940033e+01,-1.165516172913462469e+02,-1.124714646018355779e+02,-1.261082076526736273e+01,5.047995870927479700e-01,9.484992027282714844e+00,-9.179025292396545410e-01,-2.677215635776519775e-01,4.550000000000000000e+02
-1.254021207331891219e+02,-1.170185659805958949e+02,7.401520668167904660e-02,-3.611091720848980913e+01,-1.133868557782370772e+02,-1.132007806766537215e+02,-1.235930251425133974e+01,8.319655861305363942e-02,9.484992027282714844e+00,-9.179025292396545410e-01,-2.677215635776519775e-01,4.560000000000000000e+02
-1.235928601227151375e+02,-1.145109651725392723e+02,2.762228266169813651e+00,-3.688503391579706658e+01,-1.089097747295950285e+02,-1.130342047810818258e+02,-1.138186137642742324e+01,1.143771022832879680e+00,9.484992027282714844e+00,-9.179025292396545410e-01,-2.677215635776519775e-01,4.570000000000000000e+02
-1.225856954144207975e+02,-1.118992571086562293e+02,5.853112998780261478e+00,-3.654922846908812062e+01,-1.033240386393981680e+02,-1.117884291009363551e+02,-9.802422215111164405e+00,4.226489585283616179e+00,9.484992027282714844e+00,-9.179025292396545410e-01,-2.677215635776519775e-01,4.580000000000000000e+02
-1.221892422725022698e+02,-1.102663858286286995e+02,9.207471883198195428e+00,-3.515455268141067791e+01,-9.722657524760916203e+01,-1.096802498723336612e+02,-7.908026409865669848e+00,8.803589259383443277e+00,9.484992027282714844e+00,-9.179025292396545410e-01,-2.677215635776519775e-01,4.590000000000000000e+02
-1.222044093977760895e+02,-1.096799008581929229e+02,1.217044944057033717e+01,-3.338518881242271164e+01,-9.163258220770421758e+01,-1.071442522698957873e+02,-6.139703352238484513e+00,1.353024167717239834e+01,9.484992027282714844e+00,-9.179025292396545410e-01,-2.677215635776519775e-01,4.600000000000000000e+02
-1.222368761407956299e+02,-1.093323745607012825e+02,1.411911132974819338e+01,-3.199153998728343140e+01,-8.762473763524894821e+01,-1.046735208810159747e+02,-4.938344398799472401e+00,1.700148487500882766e+01,9.484992027282714844e+00,-9.179025292396545410e-01,-2.677215635776519775e-01,4.610000000000000000e+02
-1.216274386412019339e+02,-1.082472766845883143e+02,1.500046450464947156e+01,-3.124755298196487274e+01,-8.586065997967079966e+01,-1.027452445206231459e+02,-4.494864567586773774e+00,1.845993420000422702e+01,9.484992027282714844e+00,-9.179025292396545410e-01,-2.677215635776519775e-01,4.620000000000000000e+02
-1.197909262024584223e+02,-1.060043515157931324e+02,1.528581295175263222e+01,-3.086823032165330005e+01,-8.626702630099043745e+01,-1.016984840668419565e+02,-4.601815266360063106e+00,1.805641080227906059e+01,9.484992027282714844e+00,-9.179025292396545410e-01,-2.677215635776519775e-01,4.630000000000000000e+02
-1.167729576947299392e+02,-1.029987219539748367e+02,1.541536303904649685e+01,-3.037191445635153286e+01,-8.809461114556052053e+01,-1.015028034200113325e+02,-4.779278901354700793e+00,1.664353016941140595e+01,9.484992027282714844e+00,-9.179025292396545410e-01,-2.677215635776519775e-01,4.640000000000000000e+02
-1.134734705743646828e+02,-1.001138933927695689e+02,1.535092644216592817e+01,-2.949214084930827084e+01,-9.026981482720748318e+01,-1.015919432462992518e+02,-4.601166498626298562e+00,1.535036676672962130e+01,9.484992027282714844e+00,-9.179025292396545410e-01,-2.677215635776519775e-01,4.650000000000000000e+02
-1.111800576148420987e+02,-9.805802624012767410e+01,1.473338535323796350e+01,-2.826929678539727320e+01,-9.180638721441664529e+01,-1.010246603129858158e+02,-3.921765002128040578e+00,1.519354139807865067e+01,9.484992027282714844e+00,-9.179025292396545410e-01,-2.677215635776519775e-01,4.660000000000000000e+02
-1.106952021145357321e+02,-9.681853242141164628e+01,1.345362017389061293e+01,-2.683218256250847844e+01,-9.208575823805949767e+01,-9.900456011587766625e+01,-2.817250137004521093e+00,1.680959517145583959e+01,9.484992027282714844e+00,-9.179025292396545410e-01,-2.677215635776519775e-01,4.670000000000000000e+02
-1.117684760487595668e+02,-9.564236654406545313e+01,1.197114058433089667e+01,-2.519423983569777192e+01,-9.098034106165414414e+01,-9.543490820931401686e+01,-1.386460656344070230e+00,2.026878414685143071e+01,9.408499717712402344e+00,-9.179025292396545410e-01,-3.059675097465515137e-01,4.680000000000000000e+02
-1.133105012127280133e+02,-9.358655247790716203e+01,1.100042129484904763e+01,-2.332214364493211178e+01,-8.886503215281345547e+01,-9.107179837369358211e+01,3.111535772691240709e-01,2.497884666048503277e+01,9.408499717712402344e+00,-9.179025292396545410e-01,-3.059675097465515137e-01,4.690000000000000000e+02
-1.141735037810012727e+02,-9.023597923795909992e+01,1.089102596588031702e+01,-2.138371954131116581e+01,-8.651166732568435691e+01,-8.712066168006003863e+01,2.086855834721518477e+00,2.977748302913278167e+01,9.408499717712402344e+00,-9.179025292396545410e-01,-3.059675097465515137e-01,4.700000000000000000e+02
-1.138178702539444203e+02,-8.603594417692102070e+01,1.138407994482190588e+01,-1.984292051935562995e+01,-8.479328056015538095e+01,-8.455727634151298844e+01,3.462262259347880899e+00,3.330083053634825774e+01,9.408499717712402344e+00,-9.179025292396545410e-01,-3.059675097465515137e-01,4.710000000000000000e+02
-1.123741851027680241e+02,-8.198467963880489151e+01,1.201737387311914063e+01,-1.921184300216145857e+01,-8.422504133063330301e+01,-8.365893232665575852e+01,3.825976761899710255e+00,3.454487550932753948e+01,9.408499717712402344e+00,-9.179025292396545410e-01,-3.059675097465515137e-01,4.720000000000000000e+02
-1.102344887638530508e+02,-7.896097095293748680e+01,1.270980031272551969e+01,-1.965901370580013463e+01,-8.460833678371045607e+01,-8.403491435794376230e+01,2.888824032776028616e+00,3.333350044835378867e+01,9.408499717712402344e+00,-9.179025292396545410e-01,-3.059675097465515137e-01,4.730000000000000000e+02
-1.077034363714187748e+02,-7.724175431076400855e+01,1.384958989090137038e+01,-2.086750955993193202e+01,-8.510779757125737888e+01,-8.503257965628472448e+01,1.057401203977406112e+00,3.040398651228088056e+01,9.408499717712402344e+00,-9.179025292396545410e-01,-3.059675097465515137e-01,4.740000000000000000e+02
-1.050155886711615949e+02,-7.654110939275165038e+01,1.577185088940041169e+01,-2.228732498868475886e+01,-8.480278466139225202e+01,-8.612854449623955588e+01,-6.701012638218344364e-01,2.704885950663856420e+01,9.408499717712402344e+00,-9.179025292396545410e-01,-3.059675097465515137e-01,4.750000000000000000e+02
-1.025029999491296167e+02,-7.638905868523534082e+01,1.822845765688771280e+01,-2.351365226878488102e+01,-8.331692736417244305e+01,-8.700337939808241572e+01,-1.270437864389123206e+00,2.455344017972174697e+01,9.408499717712402344e+00,-9.179025292396545410e-01,-3.059675097465515137e-01,4.760000000000000000e+02
-1.005271924777262029e+02,-7.640446014478652614e+01,2.051657917181228186e+01,-2.439698042635609454e+01,-8.098346526083423669e+01,-8.734207728831279383e+01,-2.776648921569631057e-01,2.377466405583891174e+01,9.408499717712402344e+00,-9.179025292396545410e-01,-3.059675097465515137e-01,4.770000000000000000e+02
-9.916707446013606386e+01,-7.625617618767137174e+01,2.217043495718371560e+01,-2.482380433463958980e+01,-7.842120387937939086e+01,-8.668654429481011903e+01,2.030868108724462218e+00,2.500524772799690254e+01,9.408499717712402344e+00,-9.179025292396545410e-01,-3.059675097465515137e-01,4.780000000000000000e+02
-9.807694277085988688e+01,-7.553642989015133935e+01,2.342056034765846562e+01,-2.452286908013820721e+01,-7.599066539431714773e+01,-8.461962280876650766e+01,4.858260791308111948e+00,2.799979108552906837e+01,9.408499717712402344e+00,-9.179025292396545410e-01,-3.059675097465515137e-01,4.790000000000000000e+02
-9.684318536680189027e+01,-7.390006087564597692e+01,2.482694700597630799e+01,-2.324451214746704864e+01,-7.370716954174713464e+01,-8.119900910893284163e+01,7.227577692257227682e+00,3.200969653004949578e+01,9.408499717712402344e+00,-9.179025292396545410e-01,-3.059675097465515137e-01,4.800000000000000000e+02
-9.556894126969200443e+01,-7.143557691505588991e+01,2.643692786146652907e+01,-2.117030430918157435e+01,-7.164316423174545889e+01,-7.720060574442004508e+01,8.271854039727941199e+00,3.590109065183810344e+01,9.408499717712402344e+00,-9.179025292396545410e-01,-3.059675097465515137e-01,4.810000000000000000e+02
-9.500315172603404790e+01,-6.881287980624733791e+01,2.745360906699079351e+01,-1.903773298854366658e+01,-7.025793256018027932e+01,-7.380552360729961947e+01,7.543990907817715197e+00,3.854541828284459370e+01,9.408499717712402344e+00,-9.179025292396545410e-01,-3.059675097465515137e-01,4.820000000000000000e+02
-9.588643055559418826e+01,-6.685281488352575252e+01,2.694572453995124306e+01,-1.767305062159675799e+01,-7.011872180696718715e+01,-7.185636715235978045e+01,5.373681034641776932e+00,3.943989058415309046e+01,9.408499717712402344e+00,-9.179025292396545410e-01,-3.059675097465515137e-01,4.830000000000000000e+02
-9.802755427751458228e+01,-6.576101270578124058e+01,2.499628193140915755e+01,-1.726437695143658857e+01,-7.118718129926219262e+01,-7.126929167074194993e+01,3.026794652706712441e+00,3.912971864011592515e+01,9.408499717712402344e+00,-9.179025292396545410e-01,-3.059675097465515137e-01,4.840000000000000000e+02
-1.000626084009520582e+02,-6.475736527909930373e+01,2.305594616956750542e+01,-1.708885115301200130e+01,-7.245530082789446169e+01,-7.113766354357312593e+01,2.273699520520040096e+00,3.894573121935081872e+01,9.408499717712402344e+00,-9.179025292396545410e-01,-3.059675097465515137e-01,4.850000000000000000e+02
-1.002972471842306277e+02,-6.260504983452869965e+01,2.296398196568998173e+01,-1.605719735125330772e+01,-7.248380578934984442e+01,-7.047137910456376630e+01,4.361772709067508913e+00,4.008267186885450428e+01,9.408499717712402344e+00,-9.179025292396545410e-01,-3.059675097465515137e-01,4.860000000000000000e+02
-9.797322221784293106e+01,-5.869348857395470986e+01,2.543902866689268194e+01,-1.365420270252707269e+01,-7.049311759762645124e+01,-6.893014308946931124e+01,9.056902645673744701e+00,4.270091618799870048e+01,9.408499717712402344e+00,-9.179025292396545410e-01,-3.059675097465515137e-01,4.870000000000000000e+02
-9.382310554670107194e+01,-5.370400336117882034e+01,2.945014969635053603e+01,-1.043247446721943561e+01,-6.701911361123711686e+01,-6.690970354838782441e+01,1.460247403534208388e+01,4.585377224577950983e+01,9.408499717712402344e+00,-9.179025292396545410e-01,-3.059675097465515137e-01,4.880000000000000000e+02
-8.941881750578204446e+01,-4.916669920371055014e+01,3.308789538373662253e+01,-7.608795554786411230e+00,-6.348172626365317228e+01,-6.497579294502793346e+01,1.879871365116036941e+01,4.835561482705497838e+01,9.408499717712402344e+00,-9.179025292396545410e-01,-3.059675097465515137e-01,4.890000000000000000e+02
-8.595250736554930882e+01,-4.623229055371393770e+01,3.512168122902016876e+01,-6.143417265525158655e+00,-6.102062654808469233e+01,-6.325925543585663036e+01,2.041502019639210630e+01,4.982702080303602088e+01,9.408499717712402344e+00,-9.179025292396545410e-01,-3.059675097465515137e-01,4.900000000000000000e+02
-8.356882867516856095e+01,-4.475295128778498110e+01,3.582284629891387340e+01,-6.113825355322433097e+00,-5.963587364687577974e+01,-6.140733067112569188e+01,1.980812233216465756e+01,5.095999593523129079e+01,9.408499717712402344e+00,-9.179025292396545410e-01,-3.059675097465515137e-01,4.910000000000000000e+02
-8.172993774445808413e+01,-4.350048227710885840e+01,3.641311559787322949e+01,-6.842995550772684510e+00,-5.835018057633578792e+01,-5.907475226545875557e+01,1.832846176614407341e+01,5.277444829104570090e+01,9.408499717712402344e+00,-9.179025292396545410e-01,-3.059675097465515137e-01,4.920000000000000000e+02
-8.006347928616150966e+01,-4.128470810100066046e+01,3.781158703487858475e+01,-7.537025527064997732e+00,-5.617208138956630137e+01,-5.640482727383232486e+01,1.716099447670012523e+01,5.557971879943556814e+01,9.484992027282714844e+00,-8.796565532684326172e-01,-1.912296712398529053e-01,4.930000000000000000e+02
-7.875418180704127735e+01,-3.789721248645059859e+01,3.990282224563793534e+01,-7.800460851489560810e+00,-5.297395352987632577e+01,-5.400531790523291420e+01,1.664329220252284358e+01,5.861413844173739562e+01,9.484992027282714844e+00,-8.796565532684326172e-01,-1.912296712398529053e-01,4.940000000000000000e+02
-7.816183786893225260e+01,-3.405654209608974270e+01,4.187219146547045057e+01,-7.669008363583998289e+00,-4.958771031430751464e+01,-5.247180491697736215e+01,1.647447452484061614e+01,6.065721287225414926e+01,9.484992027282714844e+00,-8.796565532684326172e-01,-1.912296712398529053e-01,4.950000000000000000e+02
-7.820467286325799705e+01,-3.056544865075306916e+01,4.305798731438790128e+01,-7.328107436378104467e+00,-4.716583819964580471e+01,-5.194332176552734381e+01,1.631736455943803321e+01,6.099192866688053982e+01,9.484992027282714844e+00,-8.796565532684326172e-01,-1.912296712398529053e-01,4.960000000000000000e+02
-7.823083246063504248e+01,-2.764252830939904015e+01,4.340757152588071222e+01,-6.906634176314128126e+00,-4.642114753901478252e+01,-5.208013128837251315e+01,1.605867039499582916e+01,5.983974067234066752e+01,9.484992027282714844e+00,-8.796565532684326172e-01,-1.912296712398529053e-01,4.970000000000000000e+02
-7.749319083098328065e+01,-2.507723663630440569e+01,4.324661144914000488e+01,-6.500563374243938597e+00,-4.729388718654399781e+01,-5.237984992173824139e+01,1.561872589801885169e+01,5.799962030872507057e+01,9.484992027282714844e+00,-8.796565532684326172e-01,-1.912296712398529053e-01,4.980000000000000000e+02
-7.568503715847725744e+01,-2.287461258032965361e+01,4.282001727429963012e+01,-6.255222549347536187e+00,-4.913181135355068818e+01,-5.246377946091092781e+01,1.482131385887623765e+01,5.619806486696211323e+01,9.484992027282714844e+00,-8.796565532684326172e-01,-1.912296712398529053e-01,4.990000000000000000e+02
-7.301410741103882174e+01,-2.150391998514498937e+01,4.215226209724210094e+01,-6.274976617959055147e+00,-5.109499788067580539e+01,-5.210451986560792648e+01,1.370168463848392548e+01,5.482103900854031053e+01,9.484992027282714844e+00,-8.796565532684326172e-01,-1.912296712398529053e-01,5.000000000000000000e+02
-6.988541277866011114e+01,-2.133336487646613477e+01,4.123961715926441229e+01,-6.397140406160360726e+00,-5.247044933713289083e+01,-5.110375646956731543e+01,1.292610133524283356e+01,5.416371308256395878e+01,9.484992027282714844e+00,-8.796565532684326172e-01,-1.912296712398529053e-01,5.010000000000000000e+02
-6.667629017666911295e+01,-2.185543722602665184e+01,4.016915296393710832e+01,-6.115058558230089147e+00,-5.278125682473717006e+01,-4.927860066952678153e+01,1.361554766829294749e+01,5.471052946953068385e+01,9.484992027282714844e+00,-8.796565532684326172e-01,-1.912296712398529053e-01,5.020000000000000000e+02
-6.383888036661335263e+01,-2.169911887071987167e+01,3.894742005550006070e+01,-4.856172754837984940e+00,-5.177447960278948358e+01,-4.663155091497310423e+01,1.641146941226236322e+01,5.693309024877555657e+01,9.484992027282714844e+00,-8.796565532684326172e-01,-1.912296712398529053e-01,5.030000000000000000e+02
-6.203760622586020190e+01,-1.968342668350101121e+01,3.731334326405738011e+01,-2.473481325077955262e+00,-4.941340061437495024e+01,-4.352305938347581105e+01,2.058086442319881826e+01,6.068510143367382170e+01,9.484992027282714844e+00,-8.796565532684326172e-01,-1.912296712398529053e-01,5.040000000000000000e+02
-6.189995996362210917e+01,-1.602572964069508998e+01,3.493149092053852200e+01,4.813459430342845735e-01,-4.590177481170542251e+01,-4.060651706064595601e+01,2.418527616460715990e+01,6.482546384738498091e+01,9.484992027282714844e+00,-8.796565532684326172e-01,-1.912296712398529053e-01,5.050000000000000000e+02
-6.343903540101752014e+01,-1.247708064102704384e+01,3.189396436612884145e+01,3.028427933884927370e+00,-4.169261413474163191e+01,-3.849405819636763226e+01,2.543612678299041363e+01,6.760230032357299024e+01,9.484992027282714844e+00,-8.796565532684326172e-01,-1.912296712398529053e-01,5.060000000000000000e+02
-6.574293988364337338e+01,-1.107712120146055668e+01,2.897962784905951139e+01,4.451387162444120804e+00,-3.742124667201829880e+01,-3.738301591373209476e+01,2.415105683717047214e+01,6.764901760152116594e+01,9.484992027282714844e+00,-8.796565532684326172e-01,-1.912296712398529053e-01,5.070000000000000000e+02
-6.741861850992219729e+01,-1.255310759861760062e+01,2.722604858707455833e+01,4.865352245758799654e+00,-3.376835490050262933e+01,-3.693506865715517051e+01,2.196507755483662550e+01,6.483311442797128166e+01,9.484992027282714844e+00,-8.796565532684326172e-01,-1.912296712398529053e-01,5.080000000000000000e+02
-6.753820389256867429e+01,-1.579067677076317011e+01,2.705307411020442032e+01,5.141065166422151833e+00,-3.130937927743508453e+01,-3.651622567392843166e+01,2.100668207125508502e+01,6.024392943773511888e+01,9.484992027282714844e+00,-8.796565532684326172e-01,-1.912296712398529053e-01,5.090000000000000000e+02
-6.626694860494482953e+01,-1.885633111847445775e+01,2.771924662545309559e+01,6.174873987064060543e+00,-3.040042919497658147e+01,-3.563191957805909738e+01,2.215089991437636741e+01,5.531982602665534188e+01,9.484992027282714844e+00,-8.796565532684326172e-01,-1.912296712398529053e-01,5.100000000000000000e+02
-6.459588424523768424e+01,-2.064423167517269064e+01,2.768371913869159329e+01,8.067579473379495880e+00,-3.113195683239005973e+01,-3.425507450697197953e+01,2.436155930009812920e+01,5.082805266252611887e+01,9.484992027282714844e+00,-8.796565532684326172e-01,-1.912296712398529053e-01,5.110000000000000000e+02
-6.343877334242063171e+01,-2.166216715621183653e+01,2.566170318697231778e+01,9.933725148307587460e+00,-3.332532486428198126e+01,-3.280879594318105319e+01,2.564790446634424370e+01,4.650861449379840451e+01,9.484992027282714844e+00,-8.796565532684326172e-01,-1.912296712398529053e-01,5.120000000000000000e+02
-6.294918872610810467e+01,-2.331311142965262206e+01,2.152316850060114461e+01,1.055970916663193293e+01,-3.655745406699492150e+01,-3.183057278337446405e+01,2.473889927796332699e+01,4.158632274569060883e+01,9.484992027282714844e+00,-8.796565532684326172e-01,-1.912296712398529053e-01,5.130000000000000000e+02
-6.265281928054923810e+01,-2.642795012889257578e+01,1.634456525135323091e+01,9.392491848322038095e+00,-4.023581251163307115e+01,-3.159350230355130407e+01,2.204330515388221556e+01,3.562425341774348908e+01,9.484992027282714844e+00,-8.796565532684326172e-01,-1.912296712398529053e-01,5.140000000000000000e+02
-6.213734648895029977e+01,-3.043742166629255053e+01,1.166136474522102162e+01,7.034142545053555295e+00,-4.371227206492022788e+01,-3.195725858680145848e+01,1.920645359582704259e+01,2.897254346071252940e+01,9.484992027282714844e+00,-8.796565532684326172e-01,-1.912296712398529053e-01,5.150000000000000000e+02
-6.151651944042976083e+01,-3.391673791108928526e+01,8.579795740003078208e+00,4.825746173772813563e+00,-4.638247795466929801e+01,-3.250935779763699429e+01,1.780519102337422055e+01,2.251873315717853075e+01,9.484992027282714844e+00,-8.796565532684326172e-01,-1.912296712398529053e-01,5.160000000000000000e+02
-6.119576462224927127e+01,-3.591702723624962346e+01,7.387752947825674710e+00,3.882042782679150150e+00,-4.773366989017142714e+01,-3.282168720370680148e+01,1.831882103380598892e+01,1.708395128477786784e+01,9.484992027282714844e+00,-8.796565532684326172e-01,-1.912296712398529053e-01,5.170000000000000000e+02
-6.127422715796046759e+01,-3.680240051122120803e+01,7.753970459220909106e+00,4.393320656630066878e+00,-4.738697465411087251e+01,-3.260166053911007111e+01,2.007843804082961015e+01,1.304051037697820448e+01,9.484992027282714844e+00,-8.796565532684326172e-01,-1.912296712398529053e-01,5.180000000000000000e+02
-6.130959420445992691e+01,-3.784365056410035777e+01,9.106982086476591576e+00,5.719398632155161977e+00,-4.524253319210731661e+01,-3.169019649015672258e+01,2.198868283501678889e+01,1.038711148575566767e+01,9.484992027282714844e+00,-8.796565532684326172e-01,-1.912296712398529053e-01,5.190000000000000000e+02
-6.076055689769486889e+01,-3.999697902767741198e+01,1.080582689739071611e+01,7.070633523327387593e+00,-4.171539319479393271e+01,-3.003212939464060582e+01,2.328841016311798739e+01,9.014911285974676503e+00,9.523238182067871094e+00,-9.179025292396545410e-01,-2.294756323099136353e-01,5.200000000000000000e+02
-5.966094719297257143e+01,-4.301090736568869488e+01,1.211120515309789880e+01,8.104446375872157660e+00,-3.783817508488141357e+01,-2.772574627668996072e+01,2.380370352595946315e+01,8.763848970790604653e+00,9.523238182067871094e+00,-9.179025292396545410e-01,-2.294756323099136353e-01,5.210000000000000000e+02
-5.877630138178392372e+01,-4.564754527455806965e+01,1.226066660086826232e+01,8.948279993557662237e+00,-3.495954391452960408e+01,-2.509726979513902734e+01,2.371267676021807347e+01,9.199980893578413088e+00,9.523238182067871094e+00,-9.179025292396545410e-01,-2.294756323099136353e-01,5.220000000000000000e+02
-5.897748576481512828e+01,-4.676626382258154990e+01,1.085199352494896630e+01,9.765268897264832049e+00,-3.403091354259049695e+01,-2.264982437550111172e+01,2.323629466237048291e+01,9.467075195639381491e+00,9.523238182067871094e+00,-9.179025292396545410e-01,-2.294756323099136353e-01,5.230000000000000000e+02
-6.035159743849089864e+01,-4.627105419988629365e+01,8.323572566089069369e+00,1.039481659264265545e+01,-3.492391256380096820e+01,-2.083587761040644182e+01,2.258696259784596805e+01,8.581401526382933298e+00,9.523238182067871094e+00,-9.179025292396545410e-01,-2.294756323099136353e-01,5.240000000000000000e+02
-6.188920657243193091e+01,-4.512646553856347964e+01,6.017333479854414691e+00,1.045574103764465690e+01,-3.637909236618315845e+01,-1.979504895860009128e+01,2.212782251412500045e+01,6.097142293936030910e+00,9.523238182067871094e+00,-9.179025292396545410e-01,-2.294756323099136353e-01,5.250000000000000000e+02
-6.210431382560796010e+01,-4.450933547878548779e+01,5.514993845176832110e+00,9.787226376790840732e+00,-3.677126595100185114e+01,-1.926375542464393220e+01,2.242671242502478890e+01,2.603655217201549021e+00,9.523238182067871094e+00,-9.179025292396545410e-01,-2.294756323099136353e-01,5.260000000000000000e+02
-6.012021720818074755e+01,-4.488984118418693470e+01,7.547084320653084433e+00,8.744075704315946496e+00,-3.520662355777494668e+01,-1.874088094948092476e+01,2.397829976948969488e+01,-4.934016838942625327e-01,9.523238182067871094e+00,-9.179025292396545410e-01,-2.294756323099136353e-01,5.270000000000000000e+02
-5.634345824735464703e+01,-4.581000197762341486e+01,1.127450875857448409e+01,8.008092909019524086e+00,-3.212364544709544134e+01,-1.779984943228737393e+01,2.671932214829280383e+01,-1.885670858528101235e+00,9.523238182067871094e+00,-9.179025292396545410e-01,-2.294756323099136353e-01,5.280000000000000000e+02
-5.218933082642342924e+01,-4.644769338117930602e+01,1.463119150862030438e+01,8.061553849218398682e+00,-2.894379816782020498e+01,-1.634877835179713657e+01,2.976629362475750895e+01,-1.321709984259541670e+00,9.523238182067871094e+00,-9.179025292396545410e-01,-2.294756323099136353e-01,5.290000000000000000e+02
-4.910012833071732530e+01,-4.638736989146764245e+01,1.564016602245965259e+01,8.807991541829323978e+00,-2.707769506224076395e+01,-1.468617463285090707e+01,3.174105466877381332e+01,1.468393843379089958e-01,9.523238182067871094e+00,-9.179025292396545410e-01,-2.294756323099136353e-01,5.300000000000000000e+02
-4.764203504948045520e+01,-4.593482054529840752e+01,1.376828134016886906e+01,9.694752223496379884e+00,-2.708443254871508543e+01,-1.333817978197157572e+01,3.157791031084207134e+01,8.447382622839541000e-01,9.523238182067871094e+00,-9.179025292396545410e-01,-2.294756323099136353e-01,5.310000000000000000e+02
-4.735500249193682976e+01,-4.579219450251184753e+01,1.025075302469394956e+01,1.021584137743957399e+01,-2.856970116947377392e+01,-1.276857522543514278e+01,2.923960143450858595e+01,-4.501217737870319979e-01,9.523238182067871094e+00,-9.179025292396545410e-01,-2.294756323099136353e-01,5.320000000000000000e+02
-4.737721253696872736e+01,-4.645571026920379154e+01,7.090909414690941048e+00,1.033003455345942712e+01,-3.072836423104081405e+01,-1.310146226228152955e+01,2.574301370112334553e+01,-3.839192061911489873e+00,9.523238182067871094e+00,-9.179025292396545410e-01,-2.294756323099136353e-01,5.330000000000000000e+02
-4.726622130515852405e+01,-4.785020108431672270e+01,5.529869699460505217e+00,1.041949671350130302e+01,-3.296107965324381439e+01,-1.401301018293270317e+01,2.242088672273803240e+01,-8.451640181931907136e+00,9.523238182067871094e+00,-9.179025292396545410e-01,-2.294756323099136353e-01,5.340000000000000000e+02
-4.733275925618772817e+01,-4.944390363501270258e+01,5.248167895351343759e+00,1.085473584622468479e+01,-3.506568333589120812e+01,-1.487506547462544404e+01,2.002542982566910723e+01,-1.312570073198912723e+01,9.523238182067871094e+00,-9.179025292396545410e-01,-2.294756323099136353e-01,5.350000000000000000e+02
-4.825245848979284347e+01,-5.067583386156002234e+01,4.916720467847426335e+00,1.160386292611110548e+01,-3.700289121131299908e+01,-1.509654930145461549e+01,1.840586437711408507e+01,-1.701236713848902582e+01,9.523238182067871094e+00,-9.179025292396545410e-01,-2.294756323099136353e-01,5.360000000000000000e+02
-5.032215838258844087e+01,-5.132445763941586847e+01,3.539224372778335237e+00,1.226290781552052067e+01,-3.861972000416835726e+01,-1.446976158346751618e+01,1.696951425211909736e+01,-1.974111821600718031e+01,9.523238182067871094e+00,-9.179025292396545410e-01,-2.294756323099136353e-01,5.370000000000000000e+02
-5.298554607945879980e+01,-5.156946403588517569e+01,1.367379606304439221e+00,1.245904844843425963e+01,-3.964571733171533197e+01,-1.329382178104879131e+01,1.541855625103062266e+01,-2.127920954803767017e+01,9.523238182067871094e+00,-9.179025292396545410e-01,-2.294756323099136353e-01,5.380000000000000000e+02
-5.502324020579226271e+01,-5.177435761573042328e+01,-3.704620482458267361e-01,1.221421592729529948e+01,-3.992072818223368813e+01,-1.219012242563076143e+01,1.406450014694928541e+01,-2.181367716114300492e+01,9.523238182067871094e+00,-9.179025292396545410e-01,-2.294756323099136353e-01,5.390000000000000000e+02
-5.525986265642632134e+01,-5.220420493310120946e+01,-5.574940853630323545e-01,1.191816089251915400e+01,-3.953950665367119655e+01,-1.170945467766250658e+01,1.353273535503922176e+01,-2.172613772687782330e+01,9.523238182067871094e+00,-9.179025292396545410e-01,-2.294756323099136353e-01,5.400000000000000000e+02
-5.326927855606527373e+01,-5.289516435915948023e+01,9.479141557953880692e-01,1.195748859498326055e+01,-3.870682837205458782e+01,-1.196075438160823978e+01,1.427505035252852394e+01,-2.146461592192463286e+01,9.523238182067871094e+00,-9.179025292396545410e-01,-2.294756323099136353e-01,5.410000000000000000e+02
-4.961103387260209274e+01,-5.373341028577669931e+01,3.378433755407513672e+00,1.237601023736442585e+01,-3.744065403065178543e+01,-1.249742022730333701e+01,1.637700231228109260e+01,-2.121661357609082188e+01,9.523238182067871094e+00,-9.179025292396545410e-01,-2.294756323099136353e-01,5.420000000000000000e+02
-4.550357957629694283e+01,-5.461735455985262888e+01,5.820629631158226402e+00,1.287681581541164633e+01,-3.547477667318980821e+01,-1.257014465674546955e+01,1.968449034096647665e+01,-2.065201133326081617e+01,9.523238182067871094e+00,-9.179025292396545410e-01,-2.294756323099136353e-01,5.430000000000000000e+02
-4.220202940065337316e+01,-5.554068783790989983e+01,7.839281884798765532e+00,1.311991298181328602e+01,-3.254484676352331007e+01,-1.163664457639879402e+01,2.387701871934586961e+01,-1.913236417108964815e+01,9.523238182067871094e+00,-9.179025292396545410e-01,-2.294756323099136353e-01,5.440000000000000000e+02
-4.045783262878467212e+01,-5.653848722394468496e+01,9.446696727424750861e+00,1.300624883248474362e+01,-2.883443441990857536e+01,-9.807557816877306323e+00,2.828826351204315870e+01,-1.637437889583907236e+01,9.523238182067871094e+00,-9.179025292396545410e-01,-2.294756323099136353e-01,5.450000000000000000e+02
-4.029654033241695288e+01,-5.756656195912455587e+01,1.067505410354806372e+01,1.270581256734840281e+01,-2.512184544274168729e+01,-7.860779569148689916e+00,3.181363275543935742e+01,-1.297555977407500905e+01,9.523238182067871094e+00,-9.179025292396545410e-01,-2.294756323099136353e-01,5.460000000000000000e+02
-4.114690710840932297e+01,-5.843489782923825260e+01,1.138333202777630504e+01,1.248810038261035515e+01,-2.237536616737088480e+01,-6.715691777136271412e+00,3.336891975358412310e+01,-1.016155103692472039e+01,9.523238182067871094e+00,-9.179025292396545410e-01,-2.294756323099136353e-01,5.470000000000000000e+02
-4.220667177175710094e+01,-5.884219206523539469e+01,1.152278854659289209e+01,1.258011637152776530e+01,-2.106586835197776963e+01,-6.709054364697294659e+00,3.276875134989768412e+01,-8.817741191134700784e+00,9.523238182067871094e+00,-9.179025292396545410e-01,-2.294756323099136353e-01,5.480000000000000000e+02
-4.283789099630303099e+01,-5.845465984782276792e+01,1.147414743810895743e+01,1.317584841615644109e+01,-2.079817234265010484e+01,-7.270942227489285870e+00,3.121747046911332291e+01,-8.651511609229601163e+00,9.523238182067871094e+00,-9.179025292396545410e-01,-2.294756323099136353e-01,5.490000000000000000e+02
-4.278378142691599351e+01,-5.697108875006688322e+01,1.195633889398595784e+01,1.450822041308947519e+01,-2.062028056035524060e+01,-7.334954415206084377e+00,3.071823311540902068e+01,-8.340192681551343412e+00,9.523238182067871094e+00,-9.179025292396545410e-01,-2.294756323099136353e-01,5.500000000000000000e+02
-4.211307458754890831e+01,-5.420271235507425445e+01,1.348582097561484261e+01,1.681557805977172393e+01,-1.977833675441524974e+01,-6.192585731943836436e+00,3.266308823378130910e+01,-6.642751123050402384e+00,9.599730491638183594e+00,-8.796565532684326172e-01,-2.294756323099136353e-01,5.510000000000000000e+02
-4.098004805604159628e+01,-5.024324849631102552e+01,1.591338013349104585e+01,2.017113936250825645e+01,-1.826758287066604680e+01,-4.058129196379013592e+00,3.677222665976478311e+01,-3.489327004144797684e+00,9.599730491638183594e+00,-8.796565532684326172e-01,-2.294756323099136353e-01,5.520000000000000000e+02
-3.944802598545084038e+01,-4.568323921036517277e+01,1.852308569471551891e+01,2.430646930200964562e+01,-1.672053212561513647e+01,-1.832782089413740323e+00,4.134760786333208671e+01,-4.127467746911861468e-02,9.599730491638183594e+00,-8.796565532684326172e-01,-2.294756323099136353e-01,5.530000000000000000e+02
-3.755624233120124700e+01,-4.163857325771459728e+01,2.058638555503694079e+01,2.858036948634435248e+01,-1.580958251992524310e+01,-3.069000021805550205e-01,4.459673122663207323e+01,2.291142688025502139e+00,9.599730491638183594e+00,-8.796565532684326172e-01,-2.294756323099136353e-01,5.540000000000000000e+02
-3.553662591363718093e+01,-3.936404095593024977e+01,2.182055298703289736e+01,3.214691085509184632e+01,-1.574440789265463536e+01,4.358799627625558060e-01,4.580590770538128709e+01,2.922071160400264489e+00,9.599730491638183594e+00,-8.796565532684326172e-01,-2.294756323099136353e-01,5.550000000000000000e+02
-3.387400949509265047e+01,-3.955478563892029342e+01,2.236176538229028665e+01,3.424456575600379438e+01,-1.627032510759909201e+01,8.730942075471830321e-01,4.538538153028457600e+01,2.299009888247383060e+00,9.599730491638183594e+00,-8.796565532684326172e-01,-2.294756323099136353e-01,5.560000000000000000e+02
-3.301975172106722312e+01,-4.182004923783097183e+01,2.240827183539840917e+01,3.447225841341787600e+01,-1.704398984634190128e+01,1.379787130143085960e+00,4.400824522471521050e+01,1.223361726337316213e+00,9.599730491638183594e+00,-8.796565532684326172e-01,-2.294756323099136353e-01,5.570000000000000000e+02
-3.296050710791860183e+01,-4.484045560980212031e+01,2.199972636536222126e+01,3.293503909575883881e+01,-1.792132212805427116e+01,1.779268445436173351e+00,4.193249616993125528e+01,1.292823478670470649e-01,9.599730491638183594e+00,-8.796565532684326172e-01,-2.294756323099136353e-01,5.580000000000000000e+02
-3.309923158529545617e+01,-4.723140362799222203e+01,2.114783494365110528e+01,3.018242881813966960e+01,-1.888686135026182455e+01,1.568634691491752164e+00,3.920495138396745460e+01,-9.296062484172580298e-01,9.599730491638183594e+00,-8.796565532684326172e-01,-2.294756323099136353e-01,5.590000000000000000e+02
-3.270917291642763303e+01,-4.849250460822986497e+01,2.004307876680468326e+01,2.695374917097069556e+01,-1.981065101376952953e+01,5.463422340435499791e-01,3.631579344167312229e+01,-1.721964742071577348e+00,9.599730491638183594e+00,-8.796565532684326172e-01,-2.294756323099136353e-01,5.600000000000000000e+02
-3.165701433483991423e+01,-4.924330450026263861e+01,1.897954282366481493e+01,2.387765298194062780e+01,-2.038829978201829363e+01,-8.421011056216229917e-01,3.431467114889346703e+01,-1.501792240742361173e+00,9.599730491638183594e+00,-8.796565532684326172e-01,-2.294756323099136353e-01,5.610000000000000000e+02
-3.071183045055113325e+01,-5.049038393469800212e+01,1.802650435409759666e+01,2.131506180327050970e+01,-2.038314377511596831e+01,-1.809134788050869247e+00,3.403910009847731999e+01,5.740150718065706315e-01,9.599730491638183594e+00,-8.796565532684326172e-01,-2.294756323099136353e-01,5.620000000000000000e+02
-3.104089817440672050e+01,-5.254736402401886153e+01,1.686573193467484089e+01,1.942669992154878855e+01,-1.992151491763979720e+01,-1.875634033885944518e+00,3.520787618750091497e+01,4.597843574607395567e+00,9.599730491638183594e+00,-8.796565532684326172e-01,-2.294756323099136353e-01,5.630000000000000000e+02
-3.323296910764111090e+01,-5.459248890147955535e+01,1.509538312785844028e+01,1.833415293306643434e+01,-1.949888726700555708e+01,-1.243976069546988583e+00,3.642191249705774680e+01,9.491927877405032632e+00,9.599730491638183594e+00,-8.796565532684326172e-01,-2.294756323099136353e-01,5.640000000000000000e+02
-3.666051144200446288e+01,-5.529597307083531632e+01,1.278373633767841966e+01,1.816963861082331277e+01,-1.962534681475881371e+01,-5.633410680529777892e-01,3.625325682673064875e+01,1.351990146513890068e+01,9.599730491638183594e+00,-8.796565532684326172e-01,-2.294756323099136353e-01,5.650000000000000000e+02
-3.975807513379368174e+01,-5.399901160685931245e+01,1.068520812191218283e+01,1.892492528414732078e+01,-2.041122224119862949e+01,-3.685275206753431121e-01,3.442921541885516490e+01,1.534390874113523751e+01,9.599730491638183594e+00,-8.796565532684326172e-01,-2.294756323099136353e-01,5.660000000000000000e+02
-4.102406049647106556e+01,-5.139570607745736197e+01,9.805900497942275251e+00,2.026289316527072515e+01,-2.145539474119141232e+01,-7.268593398111988790e-01,3.199927634755658801e+01,1.476455878813249001e+01,9.599730491638183594e+00,-8.796565532684326172e-01,-2.294756323099136353e-01,5.670000000000000000e+02
-3.995401726297495770e+01,-4.909304891112333280e+01,1.065351178041782987e+01,2.155260067090785014e+01,-2.212784738275513519e+01,-1.344086802851961693e+00,3.038317157136043534e+01,1.262530158171102812e+01,9.599730491638183594e+00,-8.796565532684326172e-01,-2.294756323099136353e-01,5.680000000000000000e+02
-3.722634073734661797e+01,-4.842668069493447547e+01,1.283698931065919169e+01,2.218237235123888240e+01,-2.201881721840800310e+01,-1.937932328824899741e+00,3.024229480059875641e+01,1.011360591165430378e+01,9.599730491638183594e+00,-8.796565532684326172e-01,-2.294756323099136353e-01,5.690000000000000000e+02
-3.411272243634266488e+01,-4.954180001383610943e+01,1.536536140765747405e+01,2.192030661261560454e+01,-2.120729224232127308e+01,-2.488445238130225334e+00,3.117505281933517836e+01,8.104865680317743681e+00,9.599730491638183594e+00,-8.796565532684326172e-01,-2.294756323099136353e-01,5.700000000000000000e+02
-3.168072402981852065e+01,-5.145480955810489831e+01,1.733970270780628198e+01,2.102213272559674806e+01,-2.015762795649061445e+01,-3.159450296243448975e+00,3.233363340306095779e+01,6.973853341432914021e+00,9.599730491638183594e+00,-8.796565532684326172e-01,-2.294756323099136353e-01,5.710000000000000000e+02
-3.038448032957603573e+01,-5.292026688275109336e+01,1.843148448316787835e+01,2.001235564814669488e+01,-1.934829456701299932e+01,-4.018007418508204864e+00,3.320768192967079813e+01,6.783116249966042233e+00,9.446745872497558594e+00,-8.796565532684326172e-01,-2.294756323099136353e-01,5.720000000000000000e+02
-3.017591184533193882e+01,-5.326604129243241914e+01,1.883473360986863554e+01,1.936390207746262604e+01,-1.893586610297097650e+01,-4.842356724187993677e+00,3.386069651394245739e+01,7.476432009319978533e+00,9.446745872497558594e+00,-8.796565532684326172e-01,-2.294756323099136353e-01,5.730000000000000000e+02
-3.081607865247133304e+01,-5.252333788892246957e+01,1.891780652971647214e+01,1.935102711429135525e+01,-1.870482262293444364e+01,-5.190786878774815705e+00,3.461220485404555802e+01,8.899369049500819528e+00,9.446745872497558594e+00,-8.796565532684326172e-01,-2.294756323099136353e-01,5.740000000000000000e+02
-3.202797284353437135e+01,-5.096398601347027579e+01,1.899183613403874915e+01,2.011229286626439716e+01,-1.830099147072360211e+01,-4.673704456687119091e+00,3.566102301467981306e+01,1.076947273466066690e+01,9.446745872497558594e+00,-8.796565532684326172e-01,-2.294756323099136353e-01,5.750000000000000000e+02
-3.343341696378593042e+01,-4.871914592985012860e+01,1.932038868747622473e+01,2.171495747220433259e+01,-1.751563344917849463e+01,-3.215002489600010449e+00,3.700405109881830867e+01,1.277267310582828941e+01,9.446745872497558594e+00,-8.796565532684326172e-01,-2.294756323099136353e-01,5.760000000000000000e+02
-3.449785398200947384e+01,-4.594164365540200379e+01,2.015910182543484552e+01,2.404858159862487810e+01,-1.637536007501512358e+01,-1.112649173694080673e+00,3.854483000250547775e+01,1.474617717813271156e+01,9.446745872497558594e+00,-8.796565532684326172e-01,-2.294756323099136353e-01,5.770000000000000000e+02
-3.469342765897090430e+01,-4.326473126962082461e+01,2.162161090663357754e+01,2.664527590610850893e+01,-1.500374230341003567e+01,1.132335320791753475e+00,4.011776003059094364e+01,1.673501312749431236e+01,9.446745872497558594e+00,-8.796565532684326172e-01,-2.294756323099136353e-01,5.780000000000000000e+02
-3.382495889777419507e+01,-4.187213012498250464e+01,2.348079188008341589e+01,2.871107515201219940e+01,-1.345859724857109541e+01,3.084379024003283121e+00,4.141399893449124647e+01,1.881773734305534163e+01,9.446745872497558594e+00,-8.796565532684326172e-01,-2.294756323099136353e-01,5.790000000000000000e+02
-3.222661282364970248e+01,-4.281569191123708151e+01,2.520086766420899949e+01,2.952927309606820927e+01,-1.173807433223191765e+01,4.564912913883745205e+00,4.204816681130432698e+01,2.087956145507087058e+01,9.446745872497558594e+00,-8.796565532684326172e-01,-2.294756323099136353e-01,5.800000000000000000e+02
-3.060214229560369859e+01,-4.604025365226334543e+01,2.627619479462373420e+01,2.900914558133445098e+01,-9.937690765440493124e+00,5.671715071912331041e+00,4.185173150867922232e+01,2.260912875691064983e+01,9.446745872497558594e+00,-8.796565532684326172e-01,-2.294756323099136353e-01,5.810000000000000000e+02
-2.958093679709782009e+01,-5.004034826013412385e+01,2.658946387859941751e+01,2.789773660093851504e+01,-8.343494376755188568e+00,6.656459795518458122e+00,4.111570800266053993e+01,2.376702230531373061e+01,9.446745872497558594e+00,-8.796565532684326172e-01,-2.294756323099136353e-01,5.820000000000000000e+02
-2.933608799817011459e+01,-5.263955052937490109e+01,2.640913405855098972e+01,2.735861318454408320e+01,-7.316620925941606401e+00,7.752253135793580441e+00,4.044312151520898624e+01,2.443411358527919219e+01,9.446745872497558594e+00,-8.796565532684326172e-01,-2.294756323099136353e-01,5.830000000000000000e+02
-2.956812201950742747e+01,-5.241626529125642264e+01,2.601446307306468952e+01,2.815409279112282093e+01,-7.082412602228941978e+00,9.024787850223219721e+00,4.025421841523166222e+01,2.490859018331866537e+01,9.446745872497558594e+00,-8.796565532684326172e-01,-2.294756323099136353e-01,5.840000000000000000e+02
-2.983186030458819005e+01,-4.965689166091397055e+01,2.536098760016102460e+01,3.007841396327421535e+01,-7.648449102780432440e+00,1.030986563101396314e+01,4.041405172715167282e+01,2.530658849983228720e+01,9.446745872497558594e+00,-8.796565532684326172e-01,-2.294756323099136353e-01,5.850000000000000000e+02
-2.986840369210221979e+01,-4.606822279792504560e+01,2.418944302962336224e+01,3.213980416282720398e+01,-8.910852996226822142e+00,1.126553856797545450e+01,4.038158492304137326e+01,2.529659872148113209e+01,9.446745872497558594e+00,-8.796565532684326172e-01,-2.294756323099136353e-01,5.860000000000000000e+02
-2.963187864688188711e+01,-4.349575953536441375e+01,2.251691484356706496e+01,3.335776404487478430e+01,-1.075492234629200539e+01,1.153813568256737199e+01,3.977986814686300931e+01,2.435062133672545315e+01,9.446745872497558594e+00,-8.796565532684326172e-01,-2.294756323099136353e-01,5.870000000000000000e+02
-2.904462431642423326e+01,-4.269271043306616775e+01,2.100026657351554604e+01,3.350028463337366702e+01,-1.295149245392894954e+01,1.097637307490367675e+01,3.886900803021489992e+01,2.238927712416989380e+01,9.446745872497558594e+00,-8.796565532684326172e-01,-2.294756323099136353e-01,5.880000000000000000e+02
-2.782399515724864614e+01,-4.305152660592830216e+01,2.073232024863682454e+01,3.314108498546556802e+01,-1.492534122365759686e+01,9.768088689521391643e+00,3.849714745971323282e+01,2.022278026582716848e+01,9.446745872497558594e+00,-8.796565532684326172e-01,-2.294756323099136353e-01,5.890000000000000000e+02
-2.566352605775864504e+01,-4.333409582035892527e+01,2.256246850857314712e+01,3.305230858188951970e+01,-1.572199914016164257e+01,8.403038285272486974e+00,3.959229379711177899e+01,1.927402417337725637e+01,9.446745872497558594e+00,-8.796565532684326172e-01,-2.294756323099136353e-01,5.900000000000000000e+02
-2.264635597571395920e+01,-4.267276690985272580e+01,2.648078472501401848e+01,3.354521141315854038e+01,-1.442615500971078291e+01,7.470248621732025640e+00,4.259552483948573354e+01,2.067692691694537643e+01,9.446745872497558594e+00,-8.796565532684326172e-01,-2.294756323099136353e-01,5.910000000000000000e+02
-1.944062947855127277e+01,-4.105706073437249870e+01,3.154103562106502068e+01,3.435668648576756823e+01,-1.085705484759455430e+01,7.408805852330260677e+00,4.717662994204692950e+01,2.443023511298815720e+01,9.446745872497558594e+00,-8.796565532684326172e-01,-2.294756323099136353e-01,5.920000000000000000e+02
-1.697606001862186531e+01,-3.911493314513609221e+01,3.630867426246913965e+01,3.508686555208623759e+01,-6.017451115360017866e+00,8.330646099751902511e+00,5.227648700736608589e+01,2.927070911880218773e+01,9.446745872497558594e+00,-8.796565532684326172e-01,-2.294756323099136353e-01,5.930000000000000000e+02
-1.583012681229592999e+01,-3.760864994696385111e+01,3.942449889284034725e+01,3.561923575358741800e+01,-1.873124442623520736e+00,9.947543493781267898e+00,5.637091302167391405e+01,3.333925995180106838e+01,9.446745872497558594e+00,-8.796565532684326172e-01,-2.294756323099136353e-01,5.940000000000000000e+02
-1.587859131803452328e+01,-3.711531294541237003e+01,3.996618681363543146e+01,3.604755108641620609e+01,-4.780340022007294465e-01,1.160821357142413035e+01,5.792089540272718295e+01,3.511952963005387574e+01,9.446745872497558594e+00,-8.796565532684326172e-01,-2.294756323099136353e-01,5.950000000000000000e+02
-1.653230637078013388e+01,-3.796788254937928286e+01,3.762937536744175304e+01,3.626559066026311484e+01,-2.905496400751871988e+00,1.248855399243984721e+01,5.598926168416437577e+01,3.404129785715849721e+01,9.446745872497558594e+00,-8.796565532684326172e-01,-2.294756323099136353e-01,5.960000000000000000e+02
-1.732069726835106849e+01,-4.023010359963154770e+01,3.288081805449655803e+01,3.579499625746757374e+01,-8.610396491785650142e+00,1.194869878515601158e+01,5.080641086046307464e+01,3.055009706967030070e+01,9.484992027282714844e+00,-9.179025292396545410e-01,-2.677215635776519775e-01,5.970000000000000000e+02
-1.822482839983786107e+01,-4.356053800883455551e+01,2.705085317858174676e+01,3.418517568543393281e+01,-1.559518838772055460e+01,9.930900420960824704e+00,4.388864997700147796e+01,2.584525404287342099e+01,9.484992027282714844e+00,-9.179025292396545410e-01,-2.677215635776519775e-01,5.980000000000000000e+02
-1.944620993978605838e+01,-4.714366253166008391e+01,2.207826300166561850e+01,3.162987930625968147e+01,-2.131608225091622444e+01,7.111324474950379226e+00,3.744556464655761374e+01,2.150660081825117231e+01,9.484992027282714844e+00,-9.179025292396545410e-01,-2.677215635776519775e-01,5.990000000000000000e+02
-2.090100427330617094e+01,-4.995991142772618332e+01,1.975481027908608667e+01,2.911056080501293764e+01,-2.385826196188281756e+01,4.609238871315028518e+00,3.332906661447850638e+01,1.905305225329720997e+01,9.484992027282714844e+00,-9.179025292396545410e-01,-2.677215635776519775e-01,6.000000000000000000e+02
-2.202162976599720423e+01,-5.134136520013635163e+01,2.080380287336083711e+01,2.779505876365510630e+01,-2.275974031028090394e+01,3.386659859577775933e+00,3.220485003491194220e+01,1.941201856387488078e+01,9.484992027282714844e+00,-9.179025292396545410e-01,-2.677215635776519775e-01,6.010000000000000000e+02
-2.213128188693008269e+01,-5.139159855966136092e+01,2.445776068486520671e+01,2.818676168717865949e+01,-1.905592702778812964e+01,3.759528462542220950e+00,3.351196272269589826e+01,2.247511488362943055e+01,9.484992027282714844e+00,-9.179025292396545410e-01,-2.677215635776519775e-01,6.020000000000000000e+02
-2.103338273110784939e+01,-5.084075817029224709e+01,2.895783764502994018e+01,2.980542232860170770e+01,-1.455532681200929801e+01,5.374600262002786621e+00,3.616079912167697330e+01,2.709265153227170231e+01,9.484992027282714844e+00,-9.179025292396545410e-01,-2.677215635776519775e-01,6.030000000000000000e+02
-1.922954978377674706e+01,-5.039400636265054345e+01,3.268280769211196457e+01,3.167343162657198263e+01,-1.081718291390643572e+01,7.602390460258902749e+00,3.934173122286301805e+01,3.167779850384613383e+01,9.484992027282714844e+00,-9.179025292396545410e-01,-2.677215635776519775e-01,6.040000000000000000e+02
-1.754312208755072788e+01,-5.012521704526443500e+01,3.507680130664084572e+01,3.313081106331082992e+01,-8.445042043858848047e+00,9.963803786780772498e+00,4.281151376431444078e+01,3.512417800261391676e+01,9.484992027282714844e+00,-9.179025292396545410e-01,-2.677215635776519775e-01,6.050000000000000000e+02
-1.649831287235065247e+01,-4.946926537339459173e+01,3.670927343714356539e+01,3.423824271649209550e+01,-7.043142316342709819e+00,1.225651692889368860e+01,4.656469878151983721e+01,3.739839356929587666e+01,9.484992027282714844e+00,-9.179025292396545410e-01,-2.677215635776519775e-01,6.060000000000000000e+02
-1.600227905239444226e+01,-4.783382720316876657e+01,3.853289857451454736e+01,3.548753388271143194e+01,-5.716848633641347988e+00,1.440159157127345679e+01,5.034834244440207840e+01,3.934978301994124195e+01,9.484992027282714844e+00,-9.179025292396545410e-01,-2.677215635776519775e-01,6.070000000000000000e+02
-1.553688734629031387e+01,-4.526509063431149116e+01,4.102997550371947000e+01,3.719561734870512737e+01,-3.712715344510797877e+00,1.627790749276027782e+01,5.352560400331276469e+01,4.188113704599527409e+01,9.484992027282714844e+00,-9.179025292396545410e-01,-2.677215635776519775e-01,6.080000000000000000e+02
-1.461162182133557508e+01,-4.253379816667438718e+01,4.391965227876062272e+01,3.916343310758020380e+01,-8.412345421675127000e-01,1.772604868123744382e+01,5.539594029637737549e+01,4.514154898445121944e+01,9.484992027282714844e+00,-9.179025292396545410e-01,-2.677215635776519775e-01,6.090000000000000000e+02
-1.308506278114509769e+01,-4.052520536480733426e+01,4.652441001817351207e+01,4.083898090221191524e+01,2.461151539293496171e+00,1.865635088356066262e+01,5.565906556764457491e+01,4.837715550585926394e+01,9.484992027282714844e+00,-9.179025292396545410e-01,-2.677215635776519775e-01,6.100000000000000000e+02
-1.118801616322161863e+01,-3.945066410092840670e+01,4.834016499014251167e+01,4.175555144038662547e+01,5.372400800963077927e+00,1.908712296275916742e+01,5.464024288246218930e+01,5.052868408012727741e+01,9.484992027282714844e+00,-9.179025292396545410e-01,-2.677215635776519775e-01,6.110000000000000000e+02
-9.372872708729119040e+00,-3.855920405402503093e+01,4.929169385239219991e+01,4.185800538555122330e+01,7.081512563694559503e+00,1.908119545326917432e+01,5.313104356851545162e+01,5.106775969793307013e+01,9.484992027282714844e+00,-9.179025292396545410e-01,-2.677215635776519775e-01,6.120000000000000000e+02
-8.154659766543773003e+00,-3.660818816077517113e+01,4.955349374357319903e+01,4.152508602813031757e+01,7.160258526942925528e+00,1.871144304464542074e+01,5.197335202297108481e+01,5.039051240429398604e+01,9.484992027282714844e+00,-9.179025292396545410e-01,-2.677215635776519775e-01,6.130000000000000000e+02
