F3,F4,C3,C4,P3,P4,Cz,Pz,Accel_x,Accel_y,Accel_z,Sample
-6.184563972055912018e-11,-4.638422979041934013e-11,-4.911271389573812485e-11,-5.638867150992155075e-11,-5.638867150992155075e-11,-5.820766091346740723e-11,-4.092726157978177071e-11,-6.184563972055912018e-11,9.523238182067871094e+00,-8.414105772972106934e-01,-7.649186849594116211e-01,2.270000000000000000e+02
-8.709047950038439012e+00,-7.816563347619194246e+00,-7.001537108651973540e+00,-5.178540545897703851e+00,-1.328044792288164899e+01,-1.467903053481313691e+01,-4.915724267953919480e+00,-2.771167109131056350e+00,9.523238182067871094e+00,-8.414105772972106934e-01,-7.649186849594116211e-01,2.280000000000000000e+02
-1.681359786719713156e+01,-1.675619203151381953e+01,-1.241630341179006791e+01,-9.587218934715565410e+00,-2.468744398624221503e+01,-2.625626294307221542e+01,-7.998249083629161760e+00,-3.482581812148964673e+00,9.523238182067871094e+00,-8.414105772972106934e-01,-7.649186849594116211e-01,2.290000000000000000e+02
-2.388852151025184867e+01,-2.702114524964235898e+01,-1.564302179615788191e+01,-1.337842374143201596e+01,-3.383233301703330653e+01,-3.442082959574690904e+01,-9.004415943109052023e+00,-2.143825102417395101e+00,9.484992027282714844e+00,-8.796565532684326172e-01,-6.884268522262573242e-01,2.300000000000000000e+02
-2.978553355815074610e+01,-3.763397349365459377e+01,-1.711073156420025043e+01,-1.745633410029495280e+01,-4.168864563184160943e+01,-4.169497719127139135e+01,-9.054925072420701326e+00,-7.931302809838598478e-01,9.484992027282714844e+00,-8.796565532684326172e-01,-6.884268522262573242e-01,2.310000000000000000e+02
-3.464855957013332954e+01,-4.702160559604089940e+01,-1.750167153589245572e+01,-2.236576416661318945e+01,-4.912350073248671833e+01,-5.080622066158866801e+01,-8.948112761581796804e+00,-1.432058083804804482e+00,9.484992027282714844e+00,-8.796565532684326172e-01,-6.884268522262573242e-01,2.320000000000000000e+02
-3.889748125494679698e+01,-5.402416373162304808e+01,-1.714251733212131512e+01,-2.749006860132431029e+01,-5.588726671788299427e+01,-6.213325229795555060e+01,-8.126559747413011792e+00,-4.086028567244284204e+00,9.484992027282714844e+00,-8.796565532684326172e-01,-6.884268522262573242e-01,2.330000000000000000e+02
-4.318792725060757220e+01,-5.863042926367143082e+01,-1.623821733593649697e+01,-3.150552877109385008e+01,-6.126052204838197213e+01,-7.372281525639482425e+01,-5.633679781109094620e+00,-6.951593224406678928e+00,9.484992027282714844e+00,-8.796565532684326172e-01,-6.884268522262573242e-01,2.340000000000000000e+02
-4.827397835763349576e+01,-6.193834738362420467e+01,-1.552322233568065712e+01,-3.367572709420437604e+01,-6.554668408957786596e+01,-8.360815749272387620e+01,-1.962021303007531969e+00,-8.393731607483459811e+00,9.484992027282714844e+00,-8.796565532684326172e-01,-6.884268522262573242e-01,2.350000000000000000e+02
-5.470770697696843854e+01,-6.539519535933322913e+01,-1.630711530486405536e+01,-3.462441919662705914e+01,-7.051074221471480996e+01,-9.183648504918983235e+01,5.550078114947609720e-01,-8.666154158371682570e+00,9.484992027282714844e+00,-8.796565532684326172e-01,-6.884268522262573242e-01,2.360000000000000000e+02
-6.248488277524393197e+01,-6.988680138700055977e+01,-1.957060173963782290e+01,-3.576582931971552171e+01,-7.800798654249956599e+01,-1.001421411379888013e+02,-3.427948323551390786e-01,-9.601584082104636764e+00,9.484992027282714844e+00,-8.796565532684326172e-01,-6.884268522262573242e-01,2.370000000000000000e+02
-7.091994330972738680e+01,-7.533346586099924025e+01,-2.495562444052029605e+01,-3.799897103273724497e+01,-8.816142967484302062e+01,-1.098452656574072535e+02,-4.440634476415652898e+00,-1.266666208196602383e+01,9.484992027282714844e+00,-8.796565532684326172e-01,-6.884268522262573242e-01,2.380000000000000000e+02
-7.896583218085743283e+01,-8.103600111567720887e+01,-3.078019628209494840e+01,-4.099719964400810568e+01,-9.906274675691565790e+01,-1.203520227280496329e+02,-8.764382130855665309e+00,-1.739576563775972318e+01,9.484992027282714844e+00,-8.796565532684326172e-01,-6.884268522262573242e-01,2.390000000000000000e+02
-8.585387558316779177e+01,-8.645091444300123840e+01,-3.525039225979344337e+01,-4.376603165688811714e+01,-1.084031121342195547e+02,-1.298137916320301883e+02,-9.998716534911181952e+00,-2.173144762548236031e+01,9.484992027282714844e+00,-8.796565532684326172e-01,-6.884268522262573242e-01,2.400000000000000000e+02
-9.160196795436240791e+01,-9.174627341744053410e+01,-3.781710013153951877e+01,-4.581944740492326673e+01,-1.154186369882754661e+02,-1.371023968862800757e+02,-7.411888092942717776e+00,-2.383869726532429922e+01,9.484992027282714844e+00,-8.796565532684326172e-01,-6.884268522262573242e-01,2.410000000000000000e+02
-9.695815135053999256e+01,-9.767437090599105431e+01,-3.942959100266671157e+01,-4.773823770591661741e+01,-1.212472243643023830e+02,-1.429379944188931404e+02,-3.481670222195134556e+00,-2.357457950783827982e+01,9.484992027282714844e+00,-8.796565532684326172e-01,-6.884268522262573242e-01,2.420000000000000000e+02
-1.027829935364934499e+02,-1.048626256813786313e+02,-4.150455061009961355e+01,-5.059415334805999009e+01,-1.275092851395447724e+02,-1.490619522140159461e+02,-1.646174538245759322e+00,-2.229482103804548387e+01,9.484992027282714844e+00,-8.796565532684326172e-01,-6.884268522262573242e-01,2.430000000000000000e+02
-1.093751330036939180e+02,-1.131295677083262490e+02,-4.465918903369492909e+01,-5.492173115743025846e+01,-1.347261400077823055e+02,-1.564810300752487819e+02,-3.349486173918194254e+00,-2.143244321058409696e+01,9.484992027282714844e+00,-8.796565532684326172e-01,-6.884268522262573242e-01,2.440000000000000000e+02
-1.163234971186284383e+02,-1.214260157633261770e+02,-4.836414981996404094e+01,-6.029065765976611146e+01,-1.421527606420704615e+02,-1.646746247925348143e+02,-7.063613122550123080e+00,-2.134987600233125704e+01,9.484992027282714844e+00,-8.796565532684326172e-01,-6.884268522262573242e-01,2.450000000000000000e+02
-1.229839654565539604e+02,-1.284828285103249073e+02,-5.168494378825926105e+01,-6.581493290022808651e+01,-1.489581807732256493e+02,-1.724682871389159118e+02,-9.939464168724043702e+00,-2.148197208111923828e+01,9.484992027282714844e+00,-8.796565532684326172e-01,-6.884268522262573242e-01,2.460000000000000000e+02
-1.290994614063056360e+02,-1.336763477652139045e+02,-5.423298910673565842e+01,-7.096579065373771300e+01,-1.552996809326605216e+02,-1.794697184889164419e+02,-1.031905559002188966e+01,-2.138048822025029949e+01,9.484992027282714844e+00,-8.796565532684326172e-01,-6.884268522262573242e-01,2.470000000000000000e+02
-1.349706318078888216e+02,-1.374517350207279378e+02,-5.639571595722281927e+01,-7.584306476832534827e+01,-1.621377117730025930e+02,-1.864914313694816883e+02,-8.832280094862653641e+00,-2.144407885430246097e+01,9.484992027282714844e+00,-8.796565532684326172e-01,-6.884268522262573242e-01,2.480000000000000000e+02
-1.410313250939025238e+02,-1.410105645397052285e+02,-5.874171407115318289e+01,-8.071167908918687317e+01,-1.700762743814593705e+02,-1.945710140681558187e+02,-7.393086551370288362e+00,-2.256785615764420072e+01,9.484992027282714844e+00,-8.796565532684326172e-01,-6.884268522262573242e-01,2.490000000000000000e+02
-1.472724065120364685e+02,-1.455515292849595426e+02,-6.129947845917649829e+01,-8.537560155960545671e+01,-1.785197795249832780e+02,-2.036973559695807126e+02,-7.348068033906201890e+00,-2.511355292100597580e+01,9.484992027282714844e+00,-8.796565532684326172e-01,-6.884268522262573242e-01,2.500000000000000000e+02
-1.531033142191054139e+02,-1.516239407875664256e+02,-6.343180258200300159e+01,-8.907466528447912424e+01,-1.860034296504418307e+02,-2.125829700756958118e+02,-8.507855729409129708e+00,-2.827617571284008591e+01,9.484992027282714844e+00,-8.796565532684326172e-01,-6.884268522262573242e-01,2.510000000000000000e+02
-1.578102646434890630e+02,-1.589640184177997071e+02,-6.436074473147255048e+01,-9.101072380511959636e+01,-1.913052944550054235e+02,-2.196869596376827758e+02,-9.655647926380879653e+00,-3.049002327785001398e+01,9.484992027282714844e+00,-8.796565532684326172e-01,-6.884268522262573242e-01,2.520000000000000000e+02
-1.612073194660752051e+02,-1.667585163804642434e+02,-6.380345210899486119e+01,-9.101169534269138239e+01,-1.942900934958597645e+02,-2.244925842735892729e+02,-9.743321048696998332e+00,-3.053889859784794680e+01,9.484992027282714844e+00,-8.796565532684326172e-01,-6.884268522262573242e-01,2.530000000000000000e+02
-1.638933162587245533e+02,-1.740402259507654890e+02,-6.216066270492683543e+01,-8.976026050680775370e+01,-1.958384536226049022e+02,-2.279021278611226080e+02,-8.602556248622931889e+00,-2.843195830109743838e+01,9.484992027282714844e+00,-8.796565532684326172e-01,-6.884268522262573242e-01,2.540000000000000000e+02
-1.668901313259020753e+02,-1.800129355283934274e+02,-6.018715625835102401e+01,-8.846306708445536060e+01,-1.971266705820762581e+02,-2.315394414919965129e+02,-6.728919190216402058e+00,-2.537591700367374870e+01,9.446745872497558594e+00,-9.179025292396545410e-01,-7.649186849594116211e-01,2.550000000000000000e+02
-1.709721996181033319e+02,-1.842994388082252044e+02,-5.852823835509661876e+01,-8.828645468258764595e+01,-1.989832370717504091e+02,-2.366908075741393986e+02,-4.653555428872095945e+00,-2.297539628709819226e+01,9.446745872497558594e+00,-9.179025292396545410e-01,-7.649186849594116211e-01,2.560000000000000000e+02
-1.762044992640212513e+02,-1.871314109038585229e+02,-5.752419232588817977e+01,-8.994542383583120682e+01,-2.017479120979514846e+02,-2.437169298255976173e+02,-2.659925329422549112e+00,-2.235278632808422117e+01,9.446745872497558594e+00,-9.179025292396545410e-01,-7.649186849594116211e-01,2.570000000000000000e+02
-1.819872639749437440e+02,-1.893494975364073980e+02,-5.734977658875141060e+01,-9.356181316705351492e+01,-2.055174861211517054e+02,-2.521706719322528443e+02,-1.041148180376694654e+00,-2.377985778354286595e+01,9.446745872497558594e+00,-9.179025292396545410e-01,-7.649186849594116211e-01,2.580000000000000000e+02
-1.875067868454998461e+02,-1.920384013871625939e+02,-5.821598585904393985e+01,-9.865355194887342805e+01,-2.103898999673183425e+02,-2.612411423738622034e+02,-3.979146787069112179e-01,-2.685728232719611697e+01,9.446745872497558594e+00,-9.179025292396545410e-01,-7.649186849594116211e-01,2.590000000000000000e+02
-1.922499036161780168e+02,-1.958746843517674279e+02,-6.035308760675252415e+01,-1.041590455766263403e+02,-2.164686980151200260e+02,-2.700626509477015134e+02,-1.391700156397746468e+00,-3.084128066959601711e+01,9.446745872497558594e+00,-9.179025292396545410e-01,-7.649186849594116211e-01,2.600000000000000000e+02
-1.962685479973506517e+02,-2.005973410915930799e+02,-6.377229301074339674e+01,-1.086059983026270856e+02,-2.236709161535036401e+02,-2.777968681384527372e+02,-3.997962042086328438e+00,-3.479761629437416559e+01,9.446745872497558594e+00,-9.179025292396545410e-01,-7.649186849594116211e-01,2.610000000000000000e+02
-2.000621366534305707e+02,-2.050595804522654362e+02,-6.804371464413407011e+01,-1.105869993515743772e+02,-2.315229863773556644e+02,-2.836921496079849021e+02,-6.984391216915355471e+00,-3.764889636231600889e+01,9.446745872497558594e+00,-9.179025292396545410e-01,-7.649186849594116211e-01,2.620000000000000000e+02
-2.041728791723198810e+02,-2.079400976717688536e+02,-7.234987919627019437e+01,-1.094811298781532969e+02,-2.391535515833047612e+02,-2.873104039718964486e+02,-8.367805711412074743e+00,-3.841779996269724506e+01,9.446745872497558594e+00,-9.179025292396545410e-01,-7.649186849594116211e-01,2.630000000000000000e+02
-2.087593748781264367e+02,-2.086680639990645432e+02,-7.584009309877137639e+01,-1.060248279270986131e+02,-2.455727044227924125e+02,-2.888402380361621908e+02,-6.790316743527910148e+00,-3.675977677069931815e+01,9.446745872497558594e+00,-9.179025292396545410e-01,-7.649186849594116211e-01,2.640000000000000000e+02
-2.134324015568631694e+02,-2.078973889095095728e+02,-7.803803699553600381e+01,-1.022412216591515062e+02,-2.501510090746087371e+02,-2.892291034214040337e+02,-2.787378747376351384e+00,-3.342526104734679393e+01,9.446745872497558594e+00,-9.179025292396545410e-01,-7.649186849594116211e-01,2.650000000000000000e+02
-2.174941981035030949e+02,-2.071890342670521932e+02,-7.901623690671021905e+01,-1.005878520632550135e+02,-2.530202965170528842e+02,-2.899405626986235802e+02,1.230236100446745695e+00,-3.013715393953953026e+01,9.446745872497558594e+00,-9.179025292396545410e-01,-7.649186849594116211e-01,2.660000000000000000e+02
-2.204640246175777065e+02,-2.081454937793414501e+02,-7.926779222375353129e+01,-1.027536231061317267e+02,-2.550896640613245836e+02,-2.923950043956583613e+02,2.484649272916612972e+00,-2.877100616116149467e+01,9.446745872497558594e+00,-9.179025292396545410e-01,-7.649186849594116211e-01,2.670000000000000000e+02
-2.225304519404271559e+02,-2.115788835124221805e+02,-7.944337461148325019e+01,-1.088520945169948391e+02,-2.576072597435331772e+02,-2.973951906341235372e+02,-2.715783005069170031e-01,-3.033947399754288199e+01,9.446745872497558594e+00,-9.179025292396545410e-01,-7.649186849594116211e-01,2.680000000000000000e+02
-2.245716848631773246e+02,-2.171754604570919582e+02,-8.013689289462536181e+01,-1.174968796952653065e+02,-2.615017401763780072e+02,-3.048347839451389518e+02,-5.967910561746975873e+00,-3.448717973110069579e+01,9.446745872497558594e+00,-9.179025292396545410e-01,-7.649186849594116211e-01,2.690000000000000000e+02
-2.276675521824363386e+02,-2.237347749905748060e+02,-8.174086900481825069e+01,-1.266034313669192670e+02,-2.669031771378013218e+02,-3.138010701627508752e+02,-1.210349871591915871e+01,-3.979205724711027869e+01,9.446745872497558594e+00,-9.179025292396545410e-01,-7.649186849594116211e-01,2.700000000000000000e+02
-2.324206008809369450e+02,-2.297588806330222724e+02,-8.428759405711571162e+01,-1.342927730980477463e+02,-2.730852280462258932e+02,-3.229372930552808612e+02,-1.643056159917750847e+01,-4.451839245882456453e+01,9.446745872497558594e+00,-9.179025292396545410e-01,-7.649186849594116211e-01,2.710000000000000000e+02
-2.385576900803866920e+02,-2.340893221223100227e+02,-8.727078789151346427e+01,-1.393395454115875509e+02,-2.787681897641778050e+02,-3.308159838871270040e+02,-1.796605703729528614e+01,-4.720994215969949437e+01,9.446745872497558594e+00,-9.179025292396545410e-01,-7.649186849594116211e-01,2.720000000000000000e+02
-2.450827225172802173e+02,-2.363590588412912439e+02,-8.968490408600018782e+01,-1.411532132401948729e+02,-2.826177400312139980e+02,-3.362288629133463473e+02,-1.673982971383293261e+01,-4.689486084491818474e+01,9.446745872497558594e+00,-9.179025292396545410e-01,-7.649186849594116211e-01,2.730000000000000000e+02
-2.508365739062669491e+02,-2.370939270794160620e+02,-9.049276027651649201e+01,-1.396820853924723451e+02,-2.838000113896923722e+02,-3.384500658330780425e+02,-1.302451063133139542e+01,-4.317075262752905473e+01,9.446745872497558594e+00,-9.179025292396545410e-01,-7.649186849594116211e-01,2.740000000000000000e+02
-2.550524270796850033e+02,-2.373838768925193108e+02,-8.935544222047519725e+01,-1.355151238028647640e+02,-2.824463407385819664e+02,-3.375022133645938993e+02,-7.176593241777482035e+00,-3.647501742002305036e+01,9.446745872497558594e+00,-9.179025292396545410e-01,-7.649186849594116211e-01,2.750000000000000000e+02
-2.575755625508240882e+02,-2.382583371897353572e+02,-8.708311351800830380e+01,-1.300221635828220315e+02,-2.797967455104267174e+02,-3.343069855871954132e+02,-2.919018491152201022e-01,-2.839921843121237544e+01,9.446745872497558594e+00,-9.179025292396545410e-01,-7.649186849594116211e-01,2.760000000000000000e+02
-2.587119723747432545e+02,-2.401223394130693123e+02,-8.530002455420662955e+01,-1.251146876553052607e+02,-2.777783154029370962e+02,-3.305095490445091855e+02,5.331810166082959768e+00,-2.151022074749107560e+01,9.446745872497558594e+00,-9.179025292396545410e-01,-7.649186849594116211e-01,2.770000000000000000e+02
-2.589294030417549948e+02,-2.426495048186238819e+02,-8.540736266859994430e+01,-1.225158278673366112e+02,-2.780761291139974674e+02,-3.279266835083330989e+02,6.986487313941324828e+00,-1.836591760159353726e+01,9.446745872497558594e+00,-9.179025292396545410e-01,-7.649186849594116211e-01,2.780000000000000000e+02
-2.586515761817558996e+02,-2.452038545936293303e+02,-8.757581678097312761e+01,-1.229601507872357615e+02,-2.811946632599519944e+02,-3.278554950218590420e+02,3.397280051501638809e+00,-2.014579137654664009e+01,9.446745872497558594e+00,-9.179025292396545410e-01,-7.649186849594116211e-01,2.790000000000000000e+02
-2.582231656120366097e+02,-2.474140254204398843e+02,-9.056708095056137608e+01,-1.259227393177116028e+02,-2.861586049104153062e+02,-3.305997350530792573e+02,-3.894052580169045541e+00,-2.585044568803505172e+01,9.446745872497558594e+00,-9.179025292396545410e-01,-7.649186849594116211e-01,2.800000000000000000e+02
-2.579527571957373766e+02,-2.493760668382246877e+02,-9.256400083670268941e+01,-1.300691885342948808e+02,-2.911202532058391625e+02,-3.354297161672816401e+02,-1.105070200201134867e+01,-3.273786837173975073e+01,9.446745872497558594e+00,-9.179025292396545410e-01,-7.649186849594116211e-01,2.810000000000000000e+02
-2.581126904499392367e+02,-2.513209365108623388e+02,-9.237707748381353667e+01,-1.340257739333428617e+02,-2.944611128471974553e+02,-3.409272203400460057e+02,-1.425381923779741555e+01,-3.777036697664470921e+01,9.408499717712402344e+00,-8.031646609306335449e-01,-6.884268522262573242e-01,2.820000000000000000e+02
-2.588680490105089120e+02,-2.531501603567962775e+02,-9.012710473244260356e+01,-1.368964248295210382e+02,-2.956085615689353290e+02,-3.455158793941782278e+02,-1.209981542590321624e+01,-3.911062419602603768e+01,9.408499717712402344e+00,-8.031646609306335449e-01,-6.884268522262573242e-01,2.830000000000000000e+02
-2.601958043541553707e+02,-2.544139148985545944e+02,-8.698588363641238175e+01,-1.383300489965663473e+02,-2.950863105603261829e+02,-3.480133687207567164e+02,-6.245573254077044112e+00,-3.675825778592661663e+01,9.408499717712402344e+00,-8.031646609306335449e-01,-6.884268522262573242e-01,2.840000000000000000e+02
-2.618529130335291484e+02,-2.548511852723786433e+02,-8.429763392425184065e+01,-1.383883002732063687e+02,-2.939344020266498774e+02,-3.480695169597338463e+02,7.996174460276961327e-02,-3.212842268596023132e+01,9.408499717712402344e+00,-8.031646609306335449e-01,-6.884268522262573242e-01,2.850000000000000000e+02
-2.634079996375471637e+02,-2.549431865141473281e+02,-8.277557426733801549e+01,-1.374936673434281147e+02,-2.930367075908352490e+02,-3.463192612602470035e+02,4.366106090217726887e+00,-2.709140085689068655e+01,9.408499717712402344e+00,-8.031646609306335449e-01,-6.884268522262573242e-01,2.860000000000000000e+02
-2.643494410646221695e+02,-2.558045145951605264e+02,-8.226479725644503560e+01,-1.363923517239900320e+02,-2.927994168832101423e+02,-3.440828185502305132e+02,6.108135848526671907e+00,-2.316316917176573043e+01,9.408499717712402344e+00,-8.031646609306335449e-01,-6.884268522262573242e-01,2.870000000000000000e+02
-2.642800990854102565e+02,-2.583408133534371700e+02,-8.206752846786548616e+01,-1.358490086100810004e+02,-2.932165165489664105e+02,-3.426697874614469583e+02,6.336985851968165662e+00,-2.119472583036304059e+01,9.408499717712402344e+00,-8.031646609306335449e-01,-6.884268522262573242e-01,2.880000000000000000e+02
-2.631570549365906118e+02,-2.623897109075328444e+02,-8.149937232661795861e+01,-1.360905855129922202e+02,-2.940940253848348220e+02,-3.426854914954697051e+02,6.150739918531598960e+00,-2.147253684624320158e+01,9.408499717712402344e+00,-8.031646609306335449e-01,-6.884268522262573242e-01,2.890000000000000000e+02
-2.614157833279840020e+02,-2.667001412068712511e+02,-8.032594771492586005e+01,-1.364792638787725991e+02,-2.952309670336049976e+02,-3.438343552094878532e+02,5.660329671545014207e+00,-2.395170215768314392e+01,9.408499717712402344e+00,-8.031646609306335449e-01,-6.884268522262573242e-01,2.900000000000000000e+02
-2.598125295565143915e+02,-2.698828809163888423e+02,-7.890148800523024875e+01,-1.359142727888236095e+02,-2.965242376395614201e+02,-3.453652367844147193e+02,4.147593801657194490e+00,-2.840965425571243941e+01,9.408499717712402344e+00,-8.031646609306335449e-01,-6.884268522262573242e-01,2.910000000000000000e+02
-2.590184701604164275e+02,-2.715451121275800688e+02,-7.799227504504392527e+01,-1.338306772528002284e+02,-2.980178529139650436e+02,-3.467610504043259425e+02,1.079306612657660480e+00,-3.445956430608805476e+01,9.408499717712402344e+00,-8.031646609306335449e-01,-6.884268522262573242e-01,2.920000000000000000e+02
-2.592382054585563651e+02,-2.726003897507299598e+02,-7.837629640449870294e+01,-1.309500604990955708e+02,-2.998713329569764028e+02,-3.480697948707954765e+02,-3.046914641257217227e+00,-4.147853188334670449e+01,9.408499717712402344e+00,-8.031646609306335449e-01,-6.884268522262573242e-01,2.930000000000000000e+02
-2.601811173682771710e+02,-2.744706745562887704e+02,-8.041494532068611534e+01,-1.289756569049193331e+02,-3.022203416807278700e+02,-3.496304714317660682e+02,-6.792399100501711473e+00,-4.857834205619428758e+01,9.408499717712402344e+00,-8.031646609306335449e-01,-6.884268522262573242e-01,2.940000000000000000e+02
-2.614254749135137104e+02,-2.778914944886048488e+02,-8.382568578619350319e+01,-1.293033753445247385e+02,-3.049757235047409267e+02,-3.515195763468250334e+02,-8.691896840794015588e+00,-5.471925344498367849e+01,9.408499717712402344e+00,-8.031646609306335449e-01,-6.884268522262573242e-01,2.950000000000000000e+02
-2.628360356572883916e+02,-2.823442946059395240e+02,-8.780621134815760342e+01,-1.317921524552815526e+02,-3.077158405822721079e+02,-3.532956252993931230e+02,-8.216908679893208500e+00,-5.899705667511454976e+01,9.408499717712402344e+00,-8.031646609306335449e-01,-6.884268522262573242e-01,2.960000000000000000e+02
-2.646025062159778258e+02,-2.865365363012244870e+02,-9.141604061834891581e+01,-1.347169329809751162e+02,-3.098177571149916503e+02,-3.543008096629565671e+02,-6.034626432980985555e+00,-6.098786072681980386e+01,9.408499717712402344e+00,-8.031646609306335449e-01,-6.884268522262573242e-01,2.970000000000000000e+02
-2.668068170488342048e+02,-2.894033020925814981e+02,-9.393781485353383687e+01,-1.360335712655005409e+02,-3.107890195109407614e+02,-3.542204887493005572e+02,-3.401233728107058596e+00,-6.092325802087202646e+01,9.408499717712402344e+00,-8.031646609306335449e-01,-6.884268522262573242e-01,2.980000000000000000e+02
-2.689309627089393189e+02,-2.907356343183507761e+02,-9.500330032247836698e+01,-1.349113812782294417e+02,-3.105715661013391582e+02,-3.533766642243302840e+02,-1.190963558831185765e+00,-5.956462794121569004e+01,9.408499717712402344e+00,-8.031646609306335449e-01,-6.884268522262573242e-01,2.990000000000000000e+02
-2.698708673408061145e+02,-2.910321447698087240e+02,-9.451254073909467479e+01,-1.322575147953009491e+02,-3.095950057894364704e+02,-3.525215131693288413e+02,6.763358839175452886e-01,-5.790916020283646048e+01,9.408499717712402344e+00,-8.031646609306335449e-01,-6.884268522262573242e-01,3.000000000000000000e+02
-2.686028023214463474e+02,-2.908957391182611900e+02,-9.256836712909489506e+01,-1.298561229587472781e+02,-3.085432000036815339e+02,-3.523462850040382364e+02,2.977383080233835244e+00,-5.697588408455840181e+01,9.408499717712402344e+00,-8.031646609306335449e-01,-6.884268522262573242e-01,3.010000000000000000e+02
-2.650294588832824729e+02,-2.905960976405849010e+02,-8.954081626035531372e+01,-1.289266123333493397e+02,-3.079946785726168059e+02,-3.530914421907779115e+02,6.351943775920858570e+00,-5.770318913978087494e+01,9.408499717712402344e+00,-8.031646609306335449e-01,-6.884268522262573242e-01,3.020000000000000000e+02
-2.602979656222639733e+02,-2.901190660883285091e+02,-8.615261308134597584e+01,-1.293361340805383861e+02,-3.081848816680414416e+02,-3.544944741192570064e+02,1.056797073155121325e+01,-6.078262357175765374e+01,9.408499717712402344e+00,-8.031646609306335449e-01,-6.884268522262573242e-01,3.030000000000000000e+02
-2.562610334470946896e+02,-2.894849186168867732e+02,-8.334890006352861747e+01,-1.299974620107230976e+02,-3.090005816699391517e+02,-3.560012030210799594e+02,1.446861490820049312e+01,-6.628124432068864280e+01,9.408499717712402344e+00,-8.031646609306335449e-01,-6.884268522262573242e-01,3.040000000000000000e+02
-2.544293566536813387e+02,-2.889159519961668821e+02,-8.187577987002043756e+01,-1.299031933164857264e+02,-3.101117526928127290e+02,-3.570240701047107450e+02,1.666472281122628374e+01,-7.325411428109680401e+01,9.408499717712402344e+00,-8.031646609306335449e-01,-6.884268522262573242e-01,3.050000000000000000e+02
-2.551525207974410705e+02,-2.886941466812003227e+02,-8.184161155261153908e+01,-1.288203324606405431e+02,-3.110941947486453500e+02,-3.571079609937137320e+02,1.645941034165139172e+01,-7.983732624162041702e+01,9.408499717712402344e+00,-8.031646609306335449e-01,-6.884268522262573242e-01,3.060000000000000000e+02
-2.575580022929478901e+02,-2.889185229637670886e+02,-8.265402684740274708e+01,-1.271692876780156212e+02,-3.115074330379898129e+02,-3.560117186790315031e+02,1.432660932299802425e+01,-8.408878683535431264e+01,9.408499717712402344e+00,-8.031646609306335449e-01,-6.884268522262573242e-01,3.070000000000000000e+02
-2.601940059760116242e+02,-2.894364790650868144e+02,-8.344090769381955397e+01,-1.254309681732773925e+02,-3.110092227985478530e+02,-3.537628614442162416e+02,1.162321914624760666e+01,-8.514071428280374221e+01,9.408499717712402344e+00,-8.031646609306335449e-01,-6.884268522262573242e-01,3.080000000000000000e+02
-2.618712282527109210e+02,-2.900064321860444352e+02,-8.363459204665980451e+01,-1.237635150353600011e+02,-3.095541249775851043e+02,-3.506903919424601668e+02,9.777402035070963393e+00,-8.376056102947541149e+01,9.408499717712402344e+00,-8.031646609306335449e-01,-6.884268522262573242e-01,3.090000000000000000e+02
-2.621659844379886977e+02,-2.904995211991820270e+02,-8.322886621624752479e+01,-1.221226756609918311e+02,-3.075260282063305226e+02,-3.473777647192326867e+02,9.550028902199983349e+00,-8.176228325238696470e+01,9.408499717712402344e+00,-8.031646609306335449e-01,-6.884268522262573242e-01,3.100000000000000000e+02
-2.613766064638989519e+02,-2.909334196883837649e+02,-8.251342591611717125e+01,-1.205863392894596018e+02,-3.055907792327803918e+02,-3.444903325994246188e+02,1.081924524165026469e+01,-8.067999033190358205e+01,9.408499717712402344e+00,-8.031646609306335449e-01,-6.884268522262573242e-01,3.110000000000000000e+02
-2.601120540519115707e+02,-2.913261719036029262e+02,-8.159589229564915058e+01,-1.194277302842581321e+02,-3.042695753126139948e+02,-3.425218902948726054e+02,1.289008461663320304e+01,-8.081712120453744319e+01,9.408499717712402344e+00,-8.031646609306335449e-01,-6.884268522262573242e-01,3.120000000000000000e+02
-2.588824662952199560e+02,-2.915687722708331648e+02,-8.023666380526026387e+01,-1.188678457758417153e+02,-3.035721359110497133e+02,-3.416010234768203304e+02,1.496514884585610616e+01,-8.147783247298480092e+01,9.523238182067871094e+00,-9.179025292396545410e-01,-6.884268522262573242e-01,3.130000000000000000e+02
-2.579559203158039509e+02,-2.914944039172294197e+02,-7.819639348085138408e+01,-1.188410067943834747e+02,-3.030599823465087752e+02,-3.414884830180793642e+02,1.643812544980266921e+01,-8.206178294171286325e+01,9.523238182067871094e+00,-9.179025292396545410e-01,-6.884268522262573242e-01,3.140000000000000000e+02
-2.574787103003100697e+02,-2.910900371503921065e+02,-7.574365263373908874e+01,-1.190708469596464738e+02,-3.023281545195820854e+02,-3.417710979564382114e+02,1.696128878232764237e+01,-8.287230726140762727e+01,9.523238182067871094e+00,-9.179025292396545410e-01,-6.884268522262573242e-01,3.150000000000000000e+02
-2.576248050696193559e+02,-2.906084633086860549e+02,-7.373321837117146060e+01,-1.193572157982225690e+02,-3.014336015625074765e+02,-3.420951718361314420e+02,1.645961098975021741e+01,-8.478058617421174858e+01,9.523238182067871094e+00,-9.179025292396545410e-01,-6.884268522262573242e-01,3.160000000000000000e+02
-2.585475876741790557e+02,-2.904042896844864572e+02,-7.304721859433726650e+01,-1.197246905288827747e+02,-3.007912606187067013e+02,-3.422626368876869947e+02,1.519395441761275833e+01,-8.807494145442956324e+01,9.523238182067871094e+00,-9.179025292396545410e-01,-6.884268522262573242e-01,3.170000000000000000e+02
-2.601406571439554227e+02,-2.905796253675872549e+02,-7.384114713035137356e+01,-1.202473893390089188e+02,-3.006179850216356613e+02,-3.421568855850591149e+02,1.376441306463584624e+01,-9.171603211527872190e+01,9.523238182067871094e+00,-9.179025292396545410e-01,-6.884268522262573242e-01,3.180000000000000000e+02
-2.618725472705619950e+02,-2.907522852700212184e+02,-7.530398080392325255e+01,-1.207601305888020988e+02,-3.005320601979855724e+02,-3.416384951796728160e+02,1.289016180972907932e+01,-9.386731784358846653e+01,9.523238182067871094e+00,-9.179025292396545410e-01,-6.884268522262573242e-01,3.190000000000000000e+02
-2.629615926328045816e+02,-2.902265373623517348e+02,-7.621344746502228418e+01,-1.208227009180333766e+02,-2.998102444453310227e+02,-3.405642718486226954e+02,1.300321830211441920e+01,-9.330656550735204746e+01,9.523238182067871094e+00,-9.179025292396545410e-01,-6.884268522262573242e-01,3.200000000000000000e+02
-2.628698115762350653e+02,-2.885129231976695223e+02,-7.585833026576847260e+01,-1.200419592174228569e+02,-2.981267542771622630e+02,-3.389392464211398988e+02,1.394510160001175336e+01,-9.044255622103298720e+01,9.523238182067871094e+00,-9.179025292396545410e-01,-6.884268522262573242e-01,3.210000000000000000e+02
-2.617256139441952314e+02,-2.858071545203228538e+02,-7.453858505070587626e+01,-1.184597097227953668e+02,-2.960269750479949380e+02,-3.370425862964396515e+02,1.506714802653527840e+01,-8.701489243928335782e+01,9.523238182067871094e+00,-9.179025292396545410e-01,-6.884268522262573242e-01,3.220000000000000000e+02
-2.602568148298672668e+02,-2.829984123312443671e+02,-7.323503075677530205e+01,-1.166261515376427269e+02,-2.945959360784315209e+02,-3.353676631792626495e+02,1.570055562670609106e+01,-8.478003194716927737e+01,9.523238182067871094e+00,-9.179025292396545410e-01,-6.884268522262573242e-01,3.230000000000000000e+02
-2.592270091174143545e+02,-2.811437939028808728e+02,-7.278424967349855024e+01,-1.152884243861946061e+02,-2.945750352228437237e+02,-3.343882147551855155e+02,1.561547804477947921e+01,-8.436262490264834923e+01,9.523238182067871094e+00,-9.179025292396545410e-01,-6.884268522262573242e-01,3.240000000000000000e+02
-2.588428892397898835e+02,-2.807749904497401303e+02,-7.327771484746864417e+01,-1.149497959491556003e+02,-2.957365028583615754e+02,-3.343119524413853583e+02,1.511847941535381779e+01,-8.515158714467361278e+01,9.523238182067871094e+00,-9.179025292396545410e-01,-6.884268522262573242e-01,3.250000000000000000e+02
-2.586578227815009541e+02,-2.815698007562556313e+02,-7.412691772238980548e+01,-1.156075116388804531e+02,-2.970706760432452711e+02,-3.349805004153873256e+02,1.476947465055604880e+01,-8.606840577046614271e+01,9.523238182067871094e+00,-9.179025292396545410e-01,-6.884268522262573242e-01,3.260000000000000000e+02
-2.580427512641844032e+02,-2.826324341342365756e+02,-7.460710710025659864e+01,-1.167753851665053730e+02,-2.975580208211844706e+02,-3.359369594254696949e+02,1.503209844005891682e+01,-8.634073710691745873e+01,9.523238182067871094e+00,-9.179025292396545410e-01,-6.884268522262573242e-01,3.270000000000000000e+02
-2.567673522777877793e+02,-2.831227010806778139e+02,-7.434480554214297854e+01,-1.176989189498385713e+02,-2.968112928750715014e+02,-3.365864589971520218e+02,1.612871565803857266e+01,-8.569954548635871561e+01,9.523238182067871094e+00,-9.179025292396545410e-01,-6.884268522262573242e-01,3.280000000000000000e+02
-2.551426402580056561e+02,-2.827222813843733888e+02,-7.339268056195538747e+01,-1.176518242848198952e+02,-2.951087815500121110e+02,-3.363963915618614351e+02,1.806462387658075386e+01,-8.417937593711758382e+01,9.523238182067871094e+00,-9.179025292396545410e-01,-6.884268522262573242e-01,3.290000000000000000e+02
-2.536228009546146609e+02,-2.816294509885951811e+02,-7.199112563065295944e+01,-1.162638874645578539e+02,-2.929772844773875136e+02,-3.351102978995554054e+02,2.060657102141544783e+01,-8.203060161317341681e+01,9.523238182067871094e+00,-9.179025292396545410e-01,-6.884268522262573242e-01,3.300000000000000000e+02
-2.522999653706984304e+02,-2.802104220557789631e+02,-7.034333695914551754e+01,-1.138016695726755643e+02,-2.908133221135912549e+02,-3.329093631882174691e+02,2.316066126169050676e+01,-7.984863944024937155e+01,9.523238182067871094e+00,-9.179025292396545410e-01,-6.884268522262573242e-01,3.310000000000000000e+02
-2.508216233472578551e+02,-2.786963076467795304e+02,-6.859236859287699417e+01,-1.112088525183341403e+02,-2.888172915047518927e+02,-3.304034418007678937e+02,2.478218360201833548e+01,-7.852921874201501851e+01,9.523238182067871094e+00,-9.179025292396545410e-01,-6.884268522262573242e-01,3.320000000000000000e+02
-2.488032830647438232e+02,-2.771739132658786957e+02,-6.690562869113387023e+01,-1.097291460958158495e+02,-2.871084759912841946e+02,-3.283772082732989475e+02,2.457939155201506765e+01,-7.874635476114679022e+01,9.523238182067871094e+00,-9.179025292396545410e-01,-6.884268522262573242e-01,3.330000000000000000e+02
-2.462983437927172190e+02,-2.757653258921137649e+02,-6.548670252022685645e+01,-1.101967779836862178e+02,-2.857768366388788763e+02,-3.273893749756184661e+02,2.240145618924248083e+01,-8.028338735119291414e+01,9.523238182067871094e+00,-8.414105772972106934e-01,-7.266727685928344727e-01,3.340000000000000000e+02
-2.438272381524974435e+02,-2.746984891902203572e+02,-6.447779760303581043e+01,-1.124177588051833254e+02,-2.848161466670803748e+02,-3.274632284330971288e+02,1.927171440091342447e+01,-8.193079706072489898e+01,9.523238182067871094e+00,-8.414105772972106934e-01,-7.266727685928344727e-01,3.350000000000000000e+02
-2.419183250690834370e+02,-2.741375938675238899e+02,-6.387096895660920381e+01,-1.151281617790838254e+02,-2.840919053602369786e+02,-3.280750675279143707e+02,1.703632928548074688e+01,-8.224889024123638137e+01,9.523238182067871094e+00,-8.414105772972106934e-01,-7.266727685928344727e-01,3.360000000000000000e+02
-2.406171833961150242e+02,-2.739456603148752265e+02,-6.355146467139741162e+01,-1.166783056268932910e+02,-2.834604953628238491e+02,-3.284533175651008605e+02,1.725501291239265811e+01,-8.065984345832214331e+01,9.523238182067871094e+00,-8.414105772972106934e-01,-7.266727685928344727e-01,3.370000000000000000e+02
-2.394442128517513311e+02,-2.736679712076856958e+02,-6.343847317810804043e+01,-1.160740881926512884e+02,-2.829432243984715569e+02,-3.280107746794883496e+02,2.004993594922177635e+01,-7.793604975984032990e+01,9.523238182067871094e+00,-8.414105772972106934e-01,-7.266727685928344727e-01,3.380000000000000000e+02
-2.378532146256764008e+02,-2.728287481596261159e+02,-6.358355581079638341e+01,-1.137146693468798162e+02,-2.827773118677534967e+02,-3.266995481237934200e+02,2.380278733097497934e+01,-7.567041704111579747e+01,9.523238182067871094e+00,-8.414105772972106934e-01,-7.266727685928344727e-01,3.390000000000000000e+02
-2.357689194501798511e+02,-2.713141171193320815e+02,-6.413420914633388747e+01,-1.113077029203223560e+02,-2.832746803074296622e+02,-3.251055785548126096e+02,2.603539209501582263e+01,-7.520477434432950758e+01,9.523238182067871094e+00,-8.414105772972106934e-01,-7.266727685928344727e-01,3.400000000000000000e+02
-2.336931427836581179e+02,-2.695077948328743105e+02,-6.518723800237478372e+01,-1.109443980635902562e+02,-2.845774420852003459e+02,-3.241925151892908161e+02,2.496098133015834719e+01,-7.687550535109915018e+01,9.523238182067871094e+00,-8.414105772972106934e-01,-7.266727685928344727e-01,3.410000000000000000e+02
-2.322508970599787972e+02,-2.680523361798819906e+02,-6.663092024749937536e+01,-1.138447451769942518e+02,-2.864619063671366348e+02,-3.247559541226589772e+02,2.065976432832565024e+01,-8.002292281972154342e+01,9.523238182067871094e+00,-8.414105772972106934e-01,-7.266727685928344727e-01,3.420000000000000000e+02
-2.315710832282782121e+02,-2.674312995193267852e+02,-6.808492467892875766e+01,-1.195276661261129902e+02,-2.883181715180518268e+02,-3.268490820262811667e+02,1.505185485031506687e+01,-8.351544872254510210e+01,9.523238182067871094e+00,-8.414105772972106934e-01,-7.266727685928344727e-01,3.430000000000000000e+02
-2.310650377239087447e+02,-2.676948827127773711e+02,-6.900150036718787305e+01,-1.259531613578960787e+02,-2.893518730561858092e+02,-3.295770641422084282e+02,1.068653912682862028e+01,-8.627808981676798794e+01,9.523238182067871094e+00,-8.414105772972106934e-01,-7.266727685928344727e-01,3.440000000000000000e+02
-2.298413113878166314e+02,-2.684915847022767821e+02,-6.892828163902254346e+01,-1.306101914646342266e+02,-2.889607616036040554e+02,-3.315212903253827790e+02,9.193423756162246718e+00,-8.759420849558944155e+01,9.523238182067871094e+00,-8.414105772972106934e-01,-7.266727685928344727e-01,3.450000000000000000e+02
-2.274489810269410555e+02,-2.693122308560290321e+02,-6.781975476909406098e+01,-1.319013832677786695e+02,-2.871080284307258808e+02,-3.315907597505108697e+02,1.046229433264227282e+01,-8.726625353227359483e+01,9.523238182067871094e+00,-8.414105772972106934e-01,-7.266727685928344727e-01,3.460000000000000000e+02
-2.243236433899974145e+02,-2.697331779464731198e+02,-6.618176356493495405e+01,-1.299383108513303569e+02,-2.844234199078936172e+02,-3.296829764200807631e+02,1.306032644851245550e+01,-8.569146067775784559e+01,9.523238182067871094e+00,-8.414105772972106934e-01,-7.266727685928344727e-01,3.470000000000000000e+02
-2.215222916085604083e+02,-2.695411492256827160e+02,-6.487872082341493751e+01,-1.262541494823854009e+02,-2.818880168783117597e+02,-3.266230359316299428e+02,1.545831918074350142e+01,-8.371829427779528032e+01,9.523238182067871094e+00,-8.414105772972106934e-01,-7.266727685928344727e-01,3.480000000000000000e+02
-2.199141069940183115e+02,-2.687657417491329852e+02,-6.464015509195178311e+01,-1.226989261238539939e+02,-2.802670503508527418e+02,-3.234336454594491670e+02,1.705332562633157067e+01,-8.218909326492666878e+01,9.523238182067871094e+00,-8.414105772972106934e-01,-7.266727685928344727e-01,3.490000000000000000e+02
-2.194987108394425377e+02,-2.676762904037823319e+02,-6.558859690561212119e+01,-1.203545817285032626e+02,-2.796965870944243306e+02,-3.205850913466134671e+02,1.821233477434054748e+01,-8.143591847924540161e+01,9.523238182067871094e+00,-8.414105772972106934e-01,-7.266727685928344727e-01,3.500000000000000000e+02
-2.194619491345497408e+02,-2.667160734240044349e+02,-6.718934775255843306e+01,-1.192258949980182479e+02,-2.797619504104744692e+02,-3.179055895045191846e+02,1.940778144102841907e+01,-8.120981938103875564e+01,9.523238182067871094e+00,-8.414105772972106934e-01,-7.266727685928344727e-01,3.510000000000000000e+02
-2.189634149901069122e+02,-2.662926884057509369e+02,-6.871129877501493866e+01,-1.187738650475054101e+02,-2.799838489730618676e+02,-3.151850917007893713e+02,2.030546680318786912e+01,-8.118261713794038315e+01,9.523238182067871094e+00,-8.414105772972106934e-01,-7.266727685928344727e-01,3.520000000000000000e+02
-2.179793918142095208e+02,-2.664733026328813139e+02,-6.984523882649591542e+01,-1.186661156200191272e+02,-2.802682965894741756e+02,-3.128015736324371119e+02,1.970930666737149295e+01,-8.154946877591294196e+01,9.523238182067871094e+00,-8.414105772972106934e-01,-7.266727685928344727e-01,3.530000000000000000e+02
-2.173939079608871907e+02,-2.668101699865842420e+02,-7.092602046282217998e+01,-1.190326023222902450e+02,-2.809050827593547410e+02,-3.116565029095811497e+02,1.651440023187353745e+01,-8.303761603667271629e+01,9.523238182067871094e+00,-8.414105772972106934e-01,-7.266727685928344727e-01,3.540000000000000000e+02
-2.181609439706564899e+02,-2.665365339004955558e+02,-7.250819779521486907e+01,-1.200893617541205458e+02,-2.821194687813286919e+02,-3.123842894346556704e+02,1.089253910454283414e+01,-8.616782015641979342e+01,9.523238182067871094e+00,-8.414105772972106934e-01,-7.266727685928344727e-01,3.550000000000000000e+02
-2.202201885498570846e+02,-2.651075234083102714e+02,-7.464650605034682940e+01,-1.216275507539793352e+02,-2.836278184908283038e+02,-3.145766754484393459e+02,4.642553136996184548e+00,-9.045210171968631130e+01,9.523238182067871094e+00,-8.414105772972106934e-01,-7.266727685928344727e-01,3.560000000000000000e+02
-2.221730127009540183e+02,-2.627020885582776373e+02,-7.656716967274735453e+01,-1.229525546941418952e+02,-2.846527316283261371e+02,-3.168301426839528858e+02,2.854038426349916335e-01,-9.439960390301132520e+01,9.523238182067871094e+00,-8.414105772972106934e-01,-7.266727685928344727e-01,3.570000000000000000e+02
-2.221347065435043078e+02,-2.602335325563660717e+02,-7.710947502161388911e+01,-1.233591581852977015e+02,-2.844246565076790603e+02,-3.176884475523768288e+02,-4.908084836929447192e-01,-9.648080953750059052e+01,9.523238182067871094e+00,-8.414105772972106934e-01,-7.266727685928344727e-01,3.580000000000000000e+02
-2.191631810084944618e+02,-2.587765528895965872e+02,-7.564072214763314150e+01,-1.226907739683647378e+02,-2.827419717498373757e+02,-3.167081900112247013e+02,2.109116977178928209e+00,-9.624328398865509371e+01,9.446745872497558594e+00,-8.414105772972106934e-01,-7.266727685928344727e-01,3.590000000000000000e+02
-2.141024934079409832e+02,-2.588094762428844433e+02,-7.266545748994224141e+01,-1.214437324735015409e+02,-2.800764644316667500e+02,-3.146939419295143807e+02,6.199330384849190523e+00,-9.454438819770234659e+01,9.446745872497558594e+00,-8.414105772972106934e-01,-7.266727685928344727e-01,3.600000000000000000e+02
-2.090986391941637521e+02,-2.598622554050714371e+02,-6.956142770612746062e+01,-1.203315167894438673e+02,-2.771260202244689026e+02,-3.128689253956711127e+02,9.508265666768124902e+00,-9.268625711695710834e+01,9.446745872497558594e+00,-8.414105772972106934e-01,-7.266727685928344727e-01,3.610000000000000000e+02
-2.061371231233999879e+02,-2.608506943002078060e+02,-6.762060373747101494e+01,-1.197237348288148269e+02,-2.742308861323381279e+02,-3.117215687656107548e+02,1.078616269626354551e+01,-9.127773089090680969e+01,9.446745872497558594e+00,-8.414105772972106934e-01,-7.266727685928344727e-01,3.620000000000000000e+02
-2.057539872924994597e+02,-2.608023236821807131e+02,-6.717737908567198701e+01,-1.194336773811918420e+02,-2.711969914918868199e+02,-3.105732311187130108e+02,1.036001215617125126e+01,-8.988652070561192886e+01,9.446745872497558594e+00,-8.414105772972106934e-01,-7.266727685928344727e-01,3.630000000000000000e+02
-2.068982466985930841e+02,-2.593949775744954422e+02,-6.752047490725260559e+01,-1.189660025516950554e+02,-2.676952169946118829e+02,-3.082646571517120719e+02,9.571313873325607346e+00,-8.775192054984881906e+01,9.446745872497558594e+00,-8.414105772972106934e-01,-7.266727685928344727e-01,3.640000000000000000e+02
-2.079408919789698302e+02,-2.569538282420198811e+02,-6.760880909702211738e+01,-1.179359789997239432e+02,-2.638407693652950456e+02,-3.043311210417261918e+02,9.634966792047862327e+00,-8.478924988087749171e+01,9.446745872497558594e+00,-8.414105772972106934e-01,-7.266727685928344727e-01,3.650000000000000000e+02
-2.079289160079141539e+02,-2.540597417441257448e+02,-6.693951389371920868e+01,-1.163280312446549942e+02,-2.603544429323051190e+02,-2.995902422134988683e+02,1.078278410984216862e+01,-8.189208050052661747e+01,9.446745872497558594e+00,-8.414105772972106934e-01,-7.266727685928344727e-01,3.660000000000000000e+02
-2.071166392198823587e+02,-2.511984219322307581e+02,-6.585179328904371232e+01,-1.144946952799049313e+02,-2.580938889170245147e+02,-2.956001886912647478e+02,1.223103695664656243e+01,-8.027332108988184700e+01,9.446745872497558594e+00,-8.414105772972106934e-01,-7.266727685928344727e-01,3.670000000000000000e+02
-2.065355227657187243e+02,-2.487042033976028961e+02,-6.510426460660801240e+01,-1.129983216150797034e+02,-2.573703114384400124e+02,-2.934791147640589770e+02,1.286087011056133633e+01,-8.051471921691700118e+01,9.446745872497558594e+00,-8.414105772972106934e-01,-7.266727685928344727e-01,3.680000000000000000e+02
-2.071497251148125542e+02,-2.468680661665935077e+02,-6.516772726281476480e+01,-1.123999167169029079e+02,-2.576843826357269336e+02,-2.931232484345055127e+02,1.204171946536803262e+01,-8.218245952411780308e+01,9.446745872497558594e+00,-8.414105772972106934e-01,-7.266727685928344727e-01,3.690000000000000000e+02
-2.093131392870764103e+02,-2.459227509149636717e+02,-6.582794183761996010e+01,-1.130112128513354719e+02,-2.581064800304447999e+02,-2.934448478991125739e+02,1.002465141632001178e+01,-8.424832731791775586e+01,9.446745872497558594e+00,-8.414105772972106934e-01,-7.266727685928344727e-01,3.700000000000000000e+02
-2.127957692950008095e+02,-2.458466757839471484e+02,-6.636174752142335365e+01,-1.146600169515403422e+02,-2.579168773610131211e+02,-2.933210166110216051e+02,7.701334663876423292e+00,-8.582027735910060073e+01,9.446745872497558594e+00,-8.414105772972106934e-01,-7.266727685928344727e-01,3.710000000000000000e+02
-2.171090210355905583e+02,-2.462368460281563785e+02,-6.607685276260087903e+01,-1.166525750795367458e+02,-2.569238669434982967e+02,-2.923759987442417696e+02,5.971473577166307223e+00,-8.654326379729400287e+01,9.446745872497558594e+00,-8.414105772972106934e-01,-7.266727685928344727e-01,3.720000000000000000e+02
-2.217367787185180532e+02,-2.464920311777127608e+02,-6.478033459483799561e+01,-1.180880228405969774e+02,-2.552749808286866937e+02,-2.909913807672546682e+02,5.205538052537121985e+00,-8.649041408245102502e+01,9.446745872497558594e+00,-8.414105772972106934e-01,-7.266727685928344727e-01,3.730000000000000000e+02
-2.261566849610171630e+02,-2.462122122860487252e+02,-6.286505616235308480e+01,-1.183997720780664622e+02,-2.531060652749365545e+02,-2.897116153148276680e+02,5.164355101821001881e+00,-8.585036340371493679e+01,9.446745872497558594e+00,-8.414105772972106934e-01,-7.266727685928344727e-01,3.740000000000000000e+02
-2.298325339734130921e+02,-2.454383365854309886e+02,-6.100770506773312718e+01,-1.177083179727128481e+02,-2.504484153906892061e+02,-2.886877718743396599e+02,5.368311652007605517e+00,-8.475740408357387423e+01,9.446745872497558594e+00,-8.414105772972106934e-01,-7.266727685928344727e-01,3.750000000000000000e+02
-2.323449155796763534e+02,-2.444779174225486713e+02,-5.971957685849531572e+01,-1.166419046962464563e+02,-2.474102529854521890e+02,-2.876183298887003730e+02,5.585254246243948728e+00,-8.331105897576958341e+01,9.446745872497558594e+00,-8.414105772972106934e-01,-7.266727685928344727e-01,3.760000000000000000e+02
-2.336031807028839467e+02,-2.434999677768309994e+02,-5.908294709829351632e+01,-1.157694596851479218e+02,-2.443107807817718822e+02,-2.861108302680611359e+02,6.010638031861162744e+00,-8.164039999524788982e+01,9.446745872497558594e+00,-8.414105772972106934e-01,-7.266727685928344727e-01,3.770000000000000000e+02
-2.339203876661963477e+02,-2.423375205958091101e+02,-5.884712075500897299e+01,-1.151864106227703815e+02,-2.415355757330278266e+02,-2.840352965575029884e+02,6.973736099648931486e+00,-7.992856581313321840e+01,9.446745872497558594e+00,-8.414105772972106934e-01,-7.266727685928344727e-01,3.780000000000000000e+02
-2.338468628620828440e+02,-2.407257118794382222e+02,-5.878604651856676355e+01,-1.146509487003363574e+02,-2.392839471127781508e+02,-2.815778918256041834e+02,8.416118041476920553e+00,-7.844309781737638332e+01,9.446745872497558594e+00,-8.414105772972106934e-01,-7.266727685928344727e-01,3.790000000000000000e+02
-2.338837582964424655e+02,-2.387341686033946644e+02,-5.898431834757366232e+01,-1.141003604401757912e+02,-2.375452465493608543e+02,-2.790663982546582247e+02,9.604785544991045754e+00,-7.759470177621437870e+01,9.446745872497558594e+00,-8.414105772972106934e-01,-7.266727685928344727e-01,3.800000000000000000e+02
-2.342798764841663797e+02,-2.369100999004613186e+02,-5.974339964118826174e+01,-1.139339931740119027e+02,-2.363389053621297080e+02,-2.767855702571289385e+02,9.408780394239556699e+00,-7.787376022117541652e+01,9.446745872497558594e+00,-8.414105772972106934e-01,-7.266727685928344727e-01,3.810000000000000000e+02
-2.349879916170887100e+02,-2.359080281762189770e+02,-6.115100263727549645e+01,-1.146669340630114675e+02,-2.358765348782685578e+02,-2.749008471168067445e+02,7.030443790456956776e+00,-7.953985211137432998e+01,9.446745872497558594e+00,-8.414105772972106934e-01,-7.266727685928344727e-01,3.820000000000000000e+02
-2.357117981648495970e+02,-2.358969890985169968e+02,-6.272868454652461878e+01,-1.162529292113540578e+02,-2.363529896737425133e+02,-2.734514391608418009e+02,2.684975784906328045e+00,-8.223531584467673383e+01,9.446745872497558594e+00,-8.414105772972106934e-01,-7.266727685928344727e-01,3.830000000000000000e+02
-2.359867868782271216e+02,-2.362804921070835462e+02,-6.358808533214687486e+01,-1.178087573109971800e+02,-2.375442554490646216e+02,-2.723421402836827383e+02,-2.297172729220847032e+00,-8.493590041504012333e+01,9.446745872497558594e+00,-8.414105772972106934e-01,-7.266727685928344727e-01,3.840000000000000000e+02
-2.353289861502300937e+02,-2.359957319382801870e+02,-6.307234741377510545e+01,-1.181331549619826546e+02,-2.386931195822653535e+02,-2.713437098700990191e+02,-6.086679469784485264e+00,-8.644881205583169503e+01,9.446745872497558594e+00,-8.414105772972106934e-01,-7.266727685928344727e-01,3.850000000000000000e+02
-2.335025132903472240e+02,-2.341791625301616477e+02,-6.133498576542638148e+01,-1.166294493763973605e+02,-2.389128350927503561e+02,-2.701539431181422515e+02,-7.321169921761338628e+00,-8.614700260608788085e+01,9.484992027282714844e+00,-8.414105772972106934e-01,-7.266727685928344727e-01,3.860000000000000000e+02
-2.308125870066173775e+02,-2.307277638761543130e+02,-5.928321008804186931e+01,-1.138148084844158348e+02,-2.377739539624130884e+02,-2.685306073943024785e+02,-5.828585308514902863e+00,-8.433073838389009325e+01,9.484992027282714844e+00,-8.414105772972106934e-01,-7.266727685928344727e-01,3.870000000000000000e+02
-2.281746873344918640e+02,-2.264079897884403181e+02,-5.787593620837105846e+01,-1.109684707729820730e+02,-2.355262591800437804e+02,-2.664286673777685337e+02,-2.682441384103412929e+00,-8.189724029627404889e+01,9.484992027282714844e+00,-8.414105772972106934e-01,-7.266727685928344727e-01,3.880000000000000000e+02
-2.267523371925824449e+02,-2.225160421016582859e+02,-5.739312318819975189e+01,-1.092586872703989229e+02,-2.327809771012337023e+02,-2.640646433907463688e+02,4.151844170169169956e-01,-7.962277473005565298e+01,9.484992027282714844e+00,-8.414105772972106934e-01,-7.266727685928344727e-01,3.890000000000000000e+02
-2.272677151992356812e+02,-2.203181443642406521e+02,-5.733867369364315891e+01,-1.091017784389589451e+02,-2.300256669310251709e+02,-2.618581344929011721e+02,2.036301564836776379e+00,-7.771656077541410923e+01,9.484992027282714844e+00,-8.414105772972106934e-01,-7.266727685928344727e-01,3.900000000000000000e+02
-2.294239562293034851e+02,-2.205051451107378853e+02,-5.702888840388504832e+01,-1.101689575625021007e+02,-2.274530954398258018e+02,-2.602440550656956475e+02,1.700239773597786552e+00,-7.598663023081417123e+01,9.484992027282714844e+00,-8.414105772972106934e-01,-7.266727685928344727e-01,3.910000000000000000e+02
-2.319126975810813747e+02,-2.228354058597906260e+02,-5.626236157218522749e+01,-1.118122258643568330e+02,-2.251515079273440278e+02,-2.594182498556706378e+02,-2.522296665370049595e-02,-7.432257976605501426e+01,9.484992027282714844e+00,-8.414105772972106934e-01,-7.266727685928344727e-01,3.920000000000000000e+02
-2.331138137822395038e+02,-2.261348991636750725e+02,-5.543221564653777023e+01,-1.134016518348162208e+02,-2.232832221309768101e+02,-2.591481223213677367e+02,-1.982525505580497338e+00,-7.291802706460157424e+01,9.484992027282714844e+00,-8.414105772972106934e-01,-7.266727685928344727e-01,3.930000000000000000e+02
-2.320655688412027757e+02,-2.287434672273250271e+02,-5.502733514754231692e+01,-1.143663534885940862e+02,-2.219508624638885976e+02,-2.588068371544798083e+02,-3.113062390419145231e+00,-7.199921934075837271e+01,9.484992027282714844e+00,-8.414105772972106934e-01,-7.266727685928344727e-01,3.940000000000000000e+02
-2.290435536621234860e+02,-2.292815751910468407e+02,-5.508813177472165989e+01,-1.141783231193830943e+02,-2.208996025150522655e+02,-2.576763585822254754e+02,-2.960195511535175683e+00,-7.140896084711471303e+01,9.484992027282714844e+00,-8.414105772972106934e-01,-7.266727685928344727e-01,3.950000000000000000e+02
-2.253177599006335186e+02,-2.273351615395238241e+02,-5.517938775448783417e+01,-1.125587719963618838e+02,-2.194880062451447884e+02,-2.553472843613669738e+02,-1.734266989787556668e+00,-7.054712325896434777e+01,9.484992027282714844e+00,-8.414105772972106934e-01,-7.266727685928344727e-01,3.960000000000000000e+02
-2.222568282174258911e+02,-2.236197575243684241e+02,-5.486890073375298016e+01,-1.098308820985184866e+02,-2.171192214190134564e+02,-2.519466294093999750e+02,-1.529163059217353293e-02,-6.878327325488589850e+01,9.484992027282714844e+00,-8.414105772972106934e-01,-7.266727685928344727e-01,3.970000000000000000e+02
-2.204366446444914800e+02,-2.195074409109977296e+02,-5.417875539304532140e+01,-1.070168885595480788e+02,-2.137861755741696470e+02,-2.480468426732995795e+02,1.618542107317352929e+00,-6.596218124278357209e+01,9.484992027282714844e+00,-8.414105772972106934e-01,-7.266727685928344727e-01,3.980000000000000000e+02
-2.193917287308586310e+02,-2.162382560993469269e+02,-5.353358135249027328e+01,-1.053936041696231314e+02,-2.101895756463222824e+02,-2.443401842182533983e+02,2.794045324804073971e+00,-6.253942808635520123e+01,9.484992027282714844e+00,-8.414105772972106934e-01,-7.266727685928344727e-01,3.990000000000000000e+02
-2.181390043533610879e+02,-2.143460250125608582e+02,-5.326799440990953372e+01,-1.057202810114883960e+02,-2.072447703539278336e+02,-2.413131151347481591e+02,3.341806238708159071e+00,-5.926085860348484857e+01,9.484992027282714844e+00,-8.414105772972106934e-01,-7.266727685928344727e-01,4.000000000000000000e+02
-2.160108585519169537e+02,-2.136151703213752171e+02,-5.321443970913469457e+01,-1.077033457451670984e+02,-2.053810766115147999e+02,-2.391041531620505793e+02,3.231143486610790205e+00,-5.672093161214093016e+01,9.484992027282714844e+00,-8.414105772972106934e-01,-7.266727685928344727e-01,4.010000000000000000e+02
-2.131392322814681393e+02,-2.134573249698385098e+02,-5.281990114079690102e+01,-1.101288032735983506e+02,-2.042621787133411999e+02,-2.375556452438536326e+02,2.553770647640249081e+00,-5.515790900172714828e+01,9.484992027282714844e+00,-8.414105772972106934e-01,-7.266727685928344727e-01,4.020000000000000000e+02
-2.102756105491037033e+02,-2.133399792531088224e+02,-5.172008634432813778e+01,-1.116083306706784697e+02,-2.031783842267541331e+02,-2.363717856702767222e+02,1.518449759582381375e+00,-5.451976002190781401e+01,9.484992027282714844e+00,-8.414105772972106934e-01,-7.266727685928344727e-01,4.030000000000000000e+02
-2.081814443599819242e+02,-2.129759638869481932e+02,-5.023428415697412674e+01,-1.114271912346316640e+02,-2.017526717395935520e+02,-2.353033779842630793e+02,3.722700637356410880e-01,-5.458517188497739880e+01,9.484992027282714844e+00,-8.414105772972106934e-01,-7.266727685928344727e-01,4.040000000000000000e+02
-2.071179620466655251e+02,-2.122667010709064925e+02,-4.927973448380225818e+01,-1.099156356407515887e+02,-2.003051005159759370e+02,-2.342936141486993620e+02,-7.233096767649840331e-01,-5.500454283650060461e+01,9.484992027282714844e+00,-8.414105772972106934e-01,-7.266727685928344727e-01,4.050000000000000000e+02
-2.067767466639656959e+02,-2.111829676547197323e+02,-4.969255457554982058e+01,-1.081206197999158576e+02,-1.995209534819705368e+02,-2.334985880521007857e+02,-1.734417028136704175e+00,-5.533755540682818719e+01,9.484992027282714844e+00,-8.414105772972106934e-01,-7.266727685928344727e-01,4.060000000000000000e+02
-2.065950501830441226e+02,-2.097345359677533452e+02,-5.148872189305279790e+01,-1.070519515081909958e+02,-1.997167862948635957e+02,-2.331240440257497539e+02,-2.664265648141054044e+00,-5.521597642990263921e+01,9.484992027282714844e+00,-8.414105772972106934e-01,-7.266727685928344727e-01,4.070000000000000000e+02
-2.061375889900905349e+02,-2.080231913969914785e+02,-5.369796186303256036e+01,-1.070569542477942377e+02,-2.003820001650478844e+02,-2.331484691275545629e+02,-3.441893804224946507e+00,-5.456805806504235079e+01,9.484992027282714844e+00,-8.414105772972106934e-01,-7.266727685928344727e-01,4.080000000000000000e+02
-2.052771033642695784e+02,-2.062651188111449301e+02,-5.497364641350418424e+01,-1.077343645172759352e+02,-2.004557574377577112e+02,-2.331663938519072872e+02,-3.946374935871062917e+00,-5.366060845807351143e+01,9.484992027282714844e+00,-8.414105772972106934e-01,-7.266727685928344727e-01,4.090000000000000000e+02
-2.041376957396273610e+02,-2.047138715348467031e+02,-5.456351816742221672e+01,-1.083737836618074653e+02,-1.991413955411949246e+02,-2.325446917578069588e+02,-4.164392277533124798e+00,-5.283637734477815684e+01,9.484992027282714844e+00,-8.414105772972106934e-01,-7.266727685928344727e-01,4.100000000000000000e+02
-2.029378231633590985e+02,-2.035032950750644432e+02,-5.289905802371868049e+01,-1.085058435421467493e+02,-1.965648000933720141e+02,-2.308232638990675696e+02,-4.274376883324293885e+00,-5.215857561821599120e+01,9.484992027282714844e+00,-8.414105772972106934e-01,-7.266727685928344727e-01,4.110000000000000000e+02
-2.018659984706803243e+02,-2.025079616821965374e+02,-5.131648149088869104e+01,-1.081123812704506690e+02,-1.936971737333706187e+02,-2.280448874183675798e+02,-4.506508129607482260e+00,-5.134251290601787332e+01,9.484992027282714844e+00,-8.414105772972106934e-01,-7.266727685928344727e-01,4.120000000000000000e+02
-2.010235937939098676e+02,-2.013373150389611510e+02,-5.109927749113217033e+01,-1.074072848187199725e+02,-1.916091543375500805e+02,-2.247394699364031112e+02,-4.907004804686494026e+00,-5.010769520770327290e+01,9.484992027282714844e+00,-8.414105772972106934e-01,-7.266727685928344727e-01,4.130000000000000000e+02
-2.004098865353255405e+02,-1.995059762702421722e+02,-5.256668904413209020e+01,-1.065033544606963005e+02,-1.907005321018064024e+02,-2.215980847862592782e+02,-5.297749107279059899e+00,-4.862427866131838528e+01,9.484992027282714844e+00,-8.414105772972106934e-01,-7.266727685928344727e-01,4.140000000000000000e+02
-1.999384079378714887e+02,-1.967073334312294719e+02,-5.489764013582362168e+01,-1.053474406410939537e+02,-1.905269163201187439e+02,-2.191363161514072999e+02,-5.543271115521292813e+00,-4.756064730667640106e+01,9.484992027282714844e+00,-8.414105772972106934e-01,-7.266727685928344727e-01,4.150000000000000000e+02
-1.994921081723418865e+02,-1.930274090164575682e+02,-5.678964764949023447e+01,-1.039558928655671934e+02,-1.902753361232821590e+02,-2.175720872683486959e+02,-5.847540245285472338e+00,-4.757843397052874934e+01,9.484992027282714844e+00,-8.414105772972106934e-01,-7.266727685928344727e-01,4.160000000000000000e+02
-1.989715259885442720e+02,-1.889305735995249051e+02,-5.737645030628391396e+01,-1.026000513427509304e+02,-1.893889223523210603e+02,-2.168610338604639765e+02,-6.662624714892899647e+00,-4.865435506130552312e+01,9.484992027282714844e+00,-8.796565532684326172e-01,-7.266727685928344727e-01,4.170000000000000000e+02
-1.982835991977854064e+02,-1.850122111690961901e+02,-5.668845230743818320e+01,-1.016320714205653530e+02,-1.878147669562449664e+02,-2.167138389903943789e+02,-8.165352682492994063e+00,-4.984858514090137760e+01,9.484992027282714844e+00,-8.796565532684326172e-01,-7.266727685928344727e-01,4.180000000000000000e+02
-1.972706788579562271e+02,-1.816933137627029282e+02,-5.537212243820658841e+01,-1.010726151978976759e+02,-1.857952284305797548e+02,-2.165644899540802726e+02,-9.779013612812377687e+00,-4.978802341057235026e+01,9.484992027282714844e+00,-8.796565532684326172e-01,-7.266727685928344727e-01,4.190000000000000000e+02
-1.956633406646583353e+02,-1.790815148525157383e+02,-5.400306388556646198e+01,-1.004224348382160770e+02,-1.835381381566571690e+02,-2.156537727095433183e+02,-1.030544629709811488e+01,-4.751063206034405084e+01,9.484992027282714844e+00,-8.796565532684326172e-01,-7.266727685928344727e-01,4.200000000000000000e+02
-1.931691057417820048e+02,-1.770756726371141667e+02,-5.263529428115589326e+01,-9.902205192513724796e+01,-1.811167887454193988e+02,-2.133784168731981481e+02,-8.732069399471583893e+00,-4.305219651285324289e+01,9.484992027282714844e+00,-8.796565532684326172e-01,-7.266727685928344727e-01,4.210000000000000000e+02
-1.896934098369865751e+02,-1.755781762535607413e+02,-5.094519030328297049e+01,-9.672747236883878941e+01,-1.786113609316230395e+02,-2.097591952014754497e+02,-5.108257583563499793e+00,-3.741687321524022991e+01,9.484992027282714844e+00,-8.796565532684326172e-01,-7.266727685928344727e-01,4.220000000000000000e+02
-1.855433914587702020e+02,-1.745965341383484883e+02,-4.877006096633431298e+01,-9.426160754623924731e+01,-1.762433971760533495e+02,-2.056376552616147819e+02,-7.292683843461418292e-01,-3.205961898771147389e+01,9.484992027282714844e+00,-8.796565532684326172e-01,-7.266727685928344727e-01,4.230000000000000000e+02
-1.814254358274883998e+02,-1.741397810870153080e+02,-4.650605400661765998e+01,-9.281720999065328215e+01,-1.743195604923989777e+02,-2.023155230278321142e+02,2.592185150178011099e+00,-2.827609392750673578e+01,9.484992027282714844e+00,-8.796565532684326172e-01,-7.266727685928344727e-01,4.240000000000000000e+02
-1.781708401092519125e+02,-1.740483556554459028e+02,-4.497747937589838330e+01,-9.315349400159743709e+01,-1.730430402961155778e+02,-2.007883268612376924e+02,3.622896950761514745e+00,-2.678641978499126708e+01,9.484992027282714844e+00,-8.796565532684326172e-01,-7.266727685928344727e-01,4.250000000000000000e+02
-1.763196271685346801e+02,-1.739690680122748745e+02,-4.485135668025327504e+01,-9.492738251986202158e+01,-1.723816551711583998e+02,-2.010920581446944198e+02,2.357453213301596406e+00,-2.754451055241906943e+01,9.484992027282714844e+00,-8.796565532684326172e-01,-7.266727685928344727e-01,4.260000000000000000e+02
-1.758125293164844152e+02,-1.735244238311252047e+02,-4.605561761993226355e+01,-9.683214032368323387e+01,-1.720838913953475640e+02,-2.022347728798058597e+02,-1.704968489402745035e-01,-2.972270659837931817e+01,9.484992027282714844e+00,-8.796565532684326172e-01,-7.266727685928344727e-01,4.270000000000000000e+02
-1.759863968706749802e+02,-1.725341439527851435e+02,-4.766835928887030605e+01,-9.745138510124479581e+01,-1.717768290883341251e+02,-2.027878052724609006e+02,-2.625518648213073902e+00,-3.193445987840595990e+01,9.484992027282714844e+00,-8.796565532684326172e-01,-7.266727685928344727e-01,4.280000000000000000e+02
-1.759008882851467206e+02,-1.710963254554262676e+02,-4.842292013885048618e+01,-9.617935342626833517e+01,-1.710785857433093042e+02,-2.017588506594647697e+02,-4.054461546546463069e+00,-3.278807350362149009e+01,9.484992027282714844e+00,-8.796565532684326172e-01,-7.266727685928344727e-01,4.290000000000000000e+02
-1.748323949559126049e+02,-1.694794796816004236e+02,-4.751913532360117642e+01,-9.354157500224437172e+01,-1.697217920808675444e+02,-1.991617563959071049e+02,-4.147640982770553819e+00,-3.159872213963308241e+01,9.484992027282714844e+00,-8.796565532684326172e-01,-7.266727685928344727e-01,4.300000000000000000e+02
-1.726595896207736587e+02,-1.679432594106738179e+02,-4.518087129449850181e+01,-9.074956932047916780e+01,-1.676770167337954263e+02,-1.959121033149399409e+02,-3.132532443364652863e+00,-2.878759661136609793e+01,9.484992027282714844e+00,-8.796565532684326172e-01,-7.266727685928344727e-01,4.310000000000000000e+02
-1.699224671376146034e+02,-1.666442598679791445e+02,-4.256388391970835983e+01,-8.889395607167170965e+01,-1.652005133033339916e+02,-1.931551380851301474e+02,-1.558046284934789583e+00,-2.558597836500439371e+01,9.484992027282714844e+00,-8.796565532684326172e-01,-7.266727685928344727e-01,4.320000000000000000e+02
-1.675120079308435379e+02,-1.656407019512585066e+02,-4.103441412550091627e+01,-8.833771325235557015e+01,-1.627076519077454577e+02,-1.914936967599851414e+02,-8.756449323300330434e-02,-2.317233619926582833e+01,9.484992027282714844e+00,-8.796565532684326172e-01,-7.266727685928344727e-01,4.330000000000000000e+02
-1.661671073375000560e+02,-1.648998911465491801e+02,-4.129274893011006498e+01,-8.864474359103405732e+01,-1.605045147785917834e+02,-1.906607803590259209e+02,7.469908770581241697e-01,-2.189279152274093576e+01,9.484992027282714844e+00,-8.796565532684326172e-01,-7.266727685928344727e-01,4.340000000000000000e+02
-1.660651339004853071e+02,-1.642506729072242706e+02,-4.294942767427050967e+01,-8.899878828296459687e+01,-1.585786698559286378e+02,-1.898494730141355831e+02,8.141364073635486420e-01,-2.119164374857700750e+01,9.484992027282714844e+00,-8.796565532684326172e-01,-7.266727685928344727e-01,4.350000000000000000e+02
-1.667394995788199594e+02,-1.633700996078478056e+02,-4.484433052350527760e+01,-8.878670727788539807e+01,-1.566611248083358987e+02,-1.884108740640581345e+02,4.710255311897526553e-01,-2.027275252656500015e+01,9.484992027282714844e+00,-8.796565532684326172e-01,-7.266727685928344727e-01,4.360000000000000000e+02
-1.673610337529921708e+02,-1.619203903531697506e+02,-4.586817202834527052e+01,-8.796110320309753661e+01,-1.545436564534070385e+02,-1.863567096731576385e+02,2.760235787836791133e-01,-1.886561153043476224e+01,9.484992027282714844e+00,-8.796565532684326172e-01,-7.266727685928344727e-01,4.370000000000000000e+02
-1.672004570056728880e+02,-1.598095368496506126e+02,-4.567639935956617592e+01,-8.697945013250682678e+01,-1.523707014638393957e+02,-1.842857139611455750e+02,4.495773776716305292e-01,-1.741266229992515946e+01,9.408499717712402344e+00,-8.796565532684326172e-01,-8.414105772972106934e-01,4.380000000000000000e+02
-1.659909783518642143e+02,-1.573810539487681126e+02,-4.478404899961924457e+01,-8.641982969679702364e+01,-1.506250105663539216e+02,-1.828496888339018369e+02,5.290533008387683367e-01,-1.657597649449871824e+01,9.408499717712402344e+00,-8.796565532684326172e-01,-8.414105772972106934e-01,4.390000000000000000e+02
-1.639905559700637241e+02,-1.553071991780107055e+02,-4.403394703681169631e+01,-8.657483281933627950e+01,-1.497893030884579275e+02,-1.822395637604308831e+02,-3.700121275933270226e-01,-1.660061466439356082e+01,9.408499717712402344e+00,-8.796565532684326172e-01,-8.414105772972106934e-01,4.400000000000000000e+02
-1.617521297146690813e+02,-1.541808042511947860e+02,-4.392897216719075004e+01,-8.731806730079915724e+01,-1.499765807783069249e+02,-1.821088815078337575e+02,-2.778222728946275311e+00,-1.714950219044385449e+01,9.408499717712402344e+00,-8.796565532684326172e-01,-8.414105772972106934e-01,4.410000000000000000e+02
-1.597766093386471766e+02,-1.540886914167617761e+02,-4.436457489121448816e+01,-8.831229582094329089e+01,-1.508503846170324323e+02,-1.819435714656656273e+02,-6.218526741459299956e+00,-1.769868155958101852e+01,9.408499717712402344e+00,-8.796565532684326172e-01,-8.414105772972106934e-01,4.420000000000000000e+02
-1.582721117487244555e+02,-1.545083440649941622e+02,-4.490429955008949037e+01,-8.932221634120378440e+01,-1.518792222298006891e+02,-1.814977878942736425e+02,-9.303266001384599804e+00,-1.800545121252571334e+01,9.408499717712402344e+00,-8.796565532684326172e-01,-8.414105772972106934e-01,4.430000000000000000e+02
-1.571375613049194726e+02,-1.546249347526995734e+02,-4.524611526777152903e+01,-9.030889470387592155e+01,-1.526682185521067368e+02,-1.809087600616467171e+02,-1.060342641276520226e+01,-1.814927311670453491e+01,9.408499717712402344e+00,-8.796565532684326172e-01,-8.414105772972106934e-01,4.440000000000000000e+02
-1.561199215791962160e+02,-1.538369622788986817e+02,-4.542222796749001645e+01,-9.123752899202600020e+01,-1.530814655582876185e+02,-1.804501753925328558e+02,-9.635308907480975904e+00,-1.818055893922701216e+01,9.408499717712402344e+00,-8.796565532684326172e-01,-8.414105772972106934e-01,4.450000000000000000e+02
-1.550136558937720110e+02,-1.520794060542420993e+02,-4.560833446808646841e+01,-9.184957382988250174e+01,-1.531193041938208808e+02,-1.802115881232780339e+02,-7.178072680161221797e+00,-1.787603239432610280e+01,9.408499717712402344e+00,-8.796565532684326172e-01,-8.414105772972106934e-01,4.460000000000000000e+02
-1.537790176546386647e+02,-1.497697626159051651e+02,-4.581825753797738798e+01,-9.172339024486336712e+01,-1.527701160846936546e+02,-1.800163656133031509e+02,-4.702281472000777285e+00,-1.696962157294728968e+01,9.408499717712402344e+00,-8.796565532684326172e-01,-8.414105772972106934e-01,4.470000000000000000e+02
-1.525375863136609951e+02,-1.474909369563024484e+02,-4.584562604684379039e+01,-9.063999770250165966e+01,-1.520410723018026147e+02,-1.796096833966153099e+02,-3.419639260848725826e+00,-1.561951449576326922e+01,9.408499717712402344e+00,-8.796565532684326172e-01,-8.414105772972106934e-01,4.480000000000000000e+02
-1.514649555088080888e+02,-1.456714231871146694e+02,-4.549709526961805750e+01,-8.888381849519146272e+01,-1.510890741677349070e+02,-1.788700478122314053e+02,-3.668628894034100085e+00,-1.448111001085635507e+01,9.408499717712402344e+00,-8.796565532684326172e-01,-8.414105772972106934e-01,4.490000000000000000e+02
-1.506476904318410561e+02,-1.444462282163622149e+02,-4.482323147354372850e+01,-8.710734720904201822e+01,-1.501879283328453312e+02,-1.778024201455441471e+02,-4.951959588101090048e+00,-1.411326171921928108e+01,9.408499717712402344e+00,-8.796565532684326172e-01,-8.414105772972106934e-01,4.500000000000000000e+02
-1.499829451699001766e+02,-1.436811251019030351e+02,-4.406596698064049633e+01,-8.578259432678851226e+01,-1.494431902523638200e+02,-1.763289235698166522e+02,-6.380721091185023397e+00,-1.420592788737167211e+01,9.408499717712402344e+00,-8.796565532684326172e-01,-8.414105772972106934e-01,4.510000000000000000e+02
-1.491993627556380488e+02,-1.430569870733174866e+02,-4.338882612627230628e+01,-8.474666542288787241e+01,-1.485452629787187107e+02,-1.741696426354642426e+02,-7.121449145292444882e+00,-1.349670627300247361e+01,9.408499717712402344e+00,-8.796565532684326172e-01,-8.414105772972106934e-01,4.520000000000000000e+02
-1.480233927912217951e+02,-1.421813842758192550e+02,-4.272455214844694638e+01,-8.335909909801557660e+01,-1.469445746150827290e+02,-1.710545375332912954e+02,-6.675306462323533196e+00,-1.070806111678530215e+01,9.408499717712402344e+00,-8.796565532684326172e-01,-8.414105772972106934e-01,4.530000000000000000e+02
-1.463850956058249722e+02,-1.407440036436710216e+02,-4.192931295452035556e+01,-8.121689940908618155e+01,-1.444217050595802903e+02,-1.671467214841904934e+02,-5.040486199891347496e+00,-5.796152058906500315e+00,9.408499717712402344e+00,-8.796565532684326172e-01,-8.414105772972106934e-01,4.540000000000000000e+02
-1.444800207882276482e+02,-1.387046606639441961e+02,-4.105361288032827360e+01,-7.878711953744186758e+01,-1.415117757934494875e+02,-1.632609195324039320e+02,-2.785726167869597703e+00,-3.302388912829883338e-01,9.408499717712402344e+00,-8.796565532684326172e-01,-8.414105772972106934e-01,4.550000000000000000e+02
-1.425947008965581517e+02,-1.364113435859148922e+02,-4.038014010213055371e+01,-7.729761342719348249e+01,-1.392408329093605062e+02,-1.605353188998665246e+02,-8.894893369561032159e-01,3.505963656185031141e+00,9.408499717712402344e+00,-8.796565532684326172e-01,-8.414105772972106934e-01,4.560000000000000000e+02
-1.408198226522222285e+02,-1.345027951402571489e+02,-4.013994446729884658e+01,-7.786738647834226867e+01,-1.382672584105544047e+02,-1.596865948529575689e+02,-2.540230464978776581e-01,4.547166444950107689e+00,9.408499717712402344e+00,-8.796565532684326172e-01,-8.414105772972106934e-01,4.570000000000000000e+02
-1.389255223444006333e+02,-1.335727726869849903e+02,-4.020870027258342816e+01,-8.058178115877171876e+01,-1.382118245265692167e+02,-1.604293653535778503e+02,-1.128961132736549189e+00,3.514656277343419788e+00,9.408499717712402344e+00,-8.796565532684326172e-01,-8.414105772972106934e-01,4.580000000000000000e+02
-1.365653065719561710e+02,-1.337653090180156141e+02,-4.013315183509439521e+01,-8.430215459134342382e+01,-1.378814651900911485e+02,-1.615791360837511093e+02,-2.887751535113238788e+00,2.370614936101446801e+00,9.408499717712402344e+00,-8.796565532684326172e-01,-8.414105772972106934e-01,4.590000000000000000e+02
-1.336540345153966882e+02,-1.345739151417287758e+02,-3.947440966526755801e+01,-8.737637081145476259e+01,-1.362322533289025159e+02,-1.617988679363334086e+02,-4.395138172349561501e+00,2.770937390786457399e+00,9.408499717712402344e+00,-8.796565532684326172e-01,-8.414105772972106934e-01,4.600000000000000000e+02
-1.305538375091268790e+02,-1.350353016485405533e+02,-3.811449786636603676e+01,-8.865821488058281830e+01,-1.331584059532237916e+02,-1.604009365836423058e+02,-4.720000499579782627e+00,4.986042451199409697e+00,9.408499717712402344e+00,-8.796565532684326172e-01,-8.414105772972106934e-01,4.610000000000000000e+02
-1.278430389589898368e+02,-1.342541231497211811e+02,-3.624196893393946084e+01,-8.804839324361046238e+01,-1.293621549067720480e+02,-1.575944430871145414e+02,-3.656007974808744621e+00,8.096910488652611093e+00,9.408499717712402344e+00,-8.796565532684326172e-01,-8.414105772972106934e-01,4.620000000000000000e+02
-1.258627469849730005e+02,-1.319660295695239256e+02,-3.413681157023165724e+01,-8.626987924198056135e+01,-1.255530933170575736e+02,-1.541209949903231973e+02,-1.717792864857074164e+00,1.102009619450973332e+01,9.523238182067871094e+00,-8.796565532684326172e-01,-7.649186849594116211e-01,4.630000000000000000e+02
-1.244786305823081420e+02,-1.287668256477008981e+02,-3.208124258534985529e+01,-8.423759108475223911e+01,-1.219236323364266354e+02,-1.507393246663991704e+02,2.598010846272700292e-01,1.325339761016493867e+01,9.523238182067871094e+00,-8.796565532684326172e-01,-7.649186849594116211e-01,4.640000000000000000e+02
-1.233080208492337988e+02,-1.258053478470274058e+02,-3.050249481563173504e+01,-8.258045778504128975e+01,-1.184626416288024302e+02,-1.479982014128913761e+02,1.541892437077876821e+00,1.474762253911649168e+01,9.523238182067871094e+00,-8.796565532684326172e-01,-7.649186849594116211e-01,4.650000000000000000e+02
-1.221712355201875653e+02,-1.240862389730496034e+02,-3.004258548214647817e+01,-8.154241731526144576e+01,-1.156298682716778785e+02,-1.462836360068795329e+02,1.710089512692320568e+00,1.535777201356177102e+01,9.523238182067871094e+00,-8.796565532684326172e-01,-7.649186849594116211e-01,4.660000000000000000e+02
-1.212910427231086032e+02,-1.238325462615125616e+02,-3.124632719959026872e+01,-8.108999005096711699e+01,-1.144163173725191882e+02,-1.458045404648928525e+02,7.175840932914070436e-01,1.470383688706760950e+01,9.523238182067871094e+00,-8.796565532684326172e-01,-7.649186849594116211e-01,4.670000000000000000e+02
-1.210283374494065356e+02,-1.243713095398638870e+02,-3.403169222746373634e+01,-8.099338494469020588e+01,-1.155103812275224300e+02,-1.463703449229160469e+02,-1.118884751882887940e+00,1.264298292584908268e+01,9.523238182067871094e+00,-8.796565532684326172e-01,-7.649186849594116211e-01,4.680000000000000000e+02
-1.214248953777814677e+02,-1.246511312509865093e+02,-3.749718533372947604e+01,-8.087040558800072176e+01,-1.183958919463157144e+02,-1.472498089853474994e+02,-3.213222377127294749e+00,9.720722907338313235e+00,9.523238182067871094e+00,-8.796565532684326172e-01,-7.649186849594116211e-01,4.690000000000000000e+02
-1.220385144210954422e+02,-1.240391006087170354e+02,-4.040402017932228773e+01,-8.035561566738351758e+01,-1.214436433286618922e+02,-1.474835201003875227e+02,-4.966880603962636087e+00,6.916073637231420435e+00,9.523238182067871094e+00,-8.796565532684326172e-01,-7.649186849594116211e-01,4.700000000000000000e+02
-1.222504926297588099e+02,-1.227946709142843247e+02,-4.200114473940448079e+01,-7.940534620200924110e+01,-1.230756640393019552e+02,-1.465647885253761160e+02,-6.094362521444963932e+00,4.806343121170357335e+00,9.523238182067871094e+00,-8.796565532684326172e-01,-7.649186849594116211e-01,4.710000000000000000e+02
-1.217479651785702117e+02,-1.218506378056749782e+02,-4.246236807444051919e+01,-7.847317344768680414e+01,-1.229403678516614491e+02,-1.448950430504428368e+02,-6.745749596459518216e+00,3.013136226164988329e+00,9.523238182067871094e+00,-8.796565532684326172e-01,-7.649186849594116211e-01,4.720000000000000000e+02
-1.207214130387328623e+02,-1.220946442471308728e+02,-4.254141038215061599e+01,-7.827881992152470048e+01,-1.219736900224397687e+02,-1.434931540373022472e+02,-7.272165637846228492e+00,5.832379917387697787e-01,9.523238182067871094e+00,-8.796565532684326172e-01,-7.649186849594116211e-01,4.730000000000000000e+02
-1.196298271983891937e+02,-1.237302857851932458e+02,-4.281874284024365807e+01,-7.923522154934903483e+01,-1.213548315451148483e+02,-1.431177404821810342e+02,-7.829877633762862388e+00,-3.018859767093090340e+00,9.523238182067871094e+00,-8.796565532684326172e-01,-7.649186849594116211e-01,4.740000000000000000e+02
-1.188133736033314563e+02,-1.261883224986922869e+02,-4.327952263788347409e+01,-8.097876288801558076e+01,-1.214333154207938605e+02,-1.435615900071543365e+02,-8.211092213172832999e+00,-7.291019268108357210e+00,9.523238182067871094e+00,-8.796565532684326172e-01,-7.649186849594116211e-01,4.750000000000000000e+02
-1.183149994629297908e+02,-1.285728384101853408e+02,-4.354672632171764235e+01,-8.245461410350344522e+01,-1.216115220121209859e+02,-1.437605439445951561e+02,-8.070488543008650595e+00,-1.106649306375538799e+01,9.523238182067871094e+00,-8.796565532684326172e-01,-7.649186849594116211e-01,4.760000000000000000e+02
-1.179858041246279754e+02,-1.302255951016195468e+02,-4.339378701378200276e+01,-8.257740553337634992e+01,-1.211085617346229810e+02,-1.426161704127694065e+02,-7.295542145413946855e+00,-1.348261639906377241e+01,9.523238182067871094e+00,-8.796565532684326172e-01,-7.649186849594116211e-01,4.770000000000000000e+02
-1.176740662326421898e+02,-1.310023480268600906e+02,-4.294633018964873372e+01,-8.100167804693728613e+01,-1.196961388857762358e+02,-1.398273592216919496e+02,-6.128222176335384574e+00,-1.461295264575801411e+01,9.523238182067871094e+00,-8.796565532684326172e-01,-7.649186849594116211e-01,4.780000000000000000e+02
-1.173089978178982165e+02,-1.311976820548784417e+02,-4.245135862629058465e+01,-7.841846008545712721e+01,-1.177313216079046470e+02,-1.360798352223723668e+02,-4.941321556647835678e+00,-1.525748616868440877e+01,9.523238182067871094e+00,-8.796565532684326172e-01,-7.649186849594116211e-01,4.790000000000000000e+02
-1.168854903705635024e+02,-1.313255953467364634e+02,-4.201940779982442109e+01,-7.615177342596621202e+01,-1.156903172860738778e+02,-1.325449566626025444e+02,-3.963167601606983226e+00,-1.624608202085983066e+01,9.523238182067871094e+00,-8.796565532684326172e-01,-7.649186849594116211e-01,4.800000000000000000e+02
-1.164741101616343713e+02,-1.319476456148404395e+02,-4.171471987939071369e+01,-7.536660571862830693e+01,-1.138706541208766794e+02,-1.301848865732627019e+02,-3.286477226531587803e+00,-1.799557382267084904e+01,9.523238182067871094e+00,-8.796565532684326172e-01,-7.649186849594116211e-01,4.810000000000000000e+02
-1.162536120444219705e+02,-1.335236843518539445e+02,-4.184018546904849245e+01,-7.643073393421332185e+01,-1.125095480339609821e+02,-1.293439570882360385e+02,-3.101053270825559594e+00,-2.059813630581629695e+01,9.523238182067871094e+00,-8.796565532684326172e-01,-7.649186849594116211e-01,4.820000000000000000e+02
-1.164449095244692671e+02,-1.362000875102894497e+02,-4.292957494070833491e+01,-7.880545351133082477e+01,-1.119407705312123653e+02,-1.297474957589333826e+02,-3.780285332474932147e+00,-2.407441687335358438e+01,9.523238182067871094e+00,-8.796565532684326172e-01,-7.649186849594116211e-01,4.830000000000000000e+02
-1.170934116392809301e+02,-1.396197515828609994e+02,-4.525642851955171864e+01,-8.143978349262238225e+01,-1.123715833335718344e+02,-1.307333290882988877e+02,-5.584595922035305193e+00,-2.833202552474585900e+01,9.523238182067871094e+00,-8.796565532684326172e-01,-7.649186849594116211e-01,4.840000000000000000e+02
-1.178575035962301172e+02,-1.429613864992029448e+02,-4.828901704590566624e+01,-8.331762483753118431e+01,-1.134330272425327166e+02,-1.315136757817199396e+02,-8.196531561529809551e+00,-3.287200553791240054e+01,9.523238182067871094e+00,-8.796565532684326172e-01,-7.649186849594116211e-01,4.850000000000000000e+02
-1.180692227939334771e+02,-1.452926362031723784e+02,-5.074613030158207039e+01,-8.382429434952564407e+01,-1.141128650203709185e+02,-1.314174209364241506e+02,-1.061898577541865052e+01,-3.673090964726338825e+01,9.523238182067871094e+00,-8.796565532684326172e-01,-7.649186849594116211e-01,4.860000000000000000e+02
-1.171277824970206893e+02,-1.460301188088383242e+02,-5.139501592143415110e+01,-8.283030248722320721e+01,-1.133792166325472408e+02,-1.301093147666906589e+02,-1.171190769665554399e+01,-3.895557462489387035e+01,9.523238182067871094e+00,-8.796565532684326172e-01,-7.649186849594116211e-01,4.870000000000000000e+02
-1.149373292375435085e+02,-1.451735830744689792e+02,-4.996167110850615245e+01,-8.060091433522211446e+01,-1.110286943389091903e+02,-1.277100275412385599e+02,-1.100451451979643025e+01,-3.927948321584062796e+01,9.523238182067871094e+00,-8.796565532684326172e-01,-7.649186849594116211e-01,4.880000000000000000e+02
-1.120118278914019356e+02,-1.431726928385996871e+02,-4.734631537119275890e+01,-7.766082561013058694e+01,-1.079439390252096018e+02,-1.247238031929105091e+02,-9.080481208641913327e+00,-3.836233318797917491e+01,9.523238182067871094e+00,-8.796565532684326172e-01,-7.649186849594116211e-01,4.890000000000000000e+02
-1.091321215863611087e+02,-1.406008845553330957e+02,-4.493513595315084785e+01,-7.463075879427196924e+01,-1.054435869748238019e+02,-1.217797466364042975e+02,-7.151762186593259685e+00,-3.731983507375343834e+01,9.561484336853027344e+00,-8.796565532684326172e-01,-6.884268522262573242e-01,4.900000000000000000e+02
-1.068335937021959126e+02,-1.379156156293618096e+02,-4.360549602085279730e+01,-7.200578502283133275e+01,-1.042717876973053990e+02,-1.193324640084522343e+02,-6.143590447984479397e+00,-3.694382455575987478e+01,9.561484336853027344e+00,-8.796565532684326172e-01,-6.884268522262573242e-01,4.910000000000000000e+02
-1.051473957608200180e+02,-1.354121788830259447e+02,-4.327667634554109100e+01,-6.994786771162966943e+01,-1.041381322842491954e+02,-1.175020586328012087e+02,-6.083006265818312386e+00,-3.729871007476390332e+01,9.561484336853027344e+00,-8.796565532684326172e-01,-6.884268522262573242e-01,4.920000000000000000e+02
-1.037636107131399967e+02,-1.332517310601167537e+02,-4.330740915349838360e+01,-6.825945719485093832e+01,-1.041818978909891484e+02,-1.161285248676276751e+02,-6.295023076325378497e+00,-3.797296675177494762e+01,9.561484336853027344e+00,-8.796565532684326172e-01,-6.884268522262573242e-01,4.930000000000000000e+02
-1.024114652535185996e+02,-1.314404032673733127e+02,-4.327266874945917152e+01,-6.663860757664724588e+01,-1.038746536335329438e+02,-1.149705498970060944e+02,-6.175402025589391997e+00,-3.864001810052104702e+01,9.561484336853027344e+00,-8.796565532684326172e-01,-6.884268522262573242e-01,4.940000000000000000e+02
-1.011076455243699002e+02,-1.298315453633010748e+02,-4.338047104252336794e+01,-6.506526841058712307e+01,-1.035150894286909988e+02,-1.139145201790017836e+02,-5.812503472752950984e+00,-3.937604652231334512e+01,9.561484336853027344e+00,-8.796565532684326172e-01,-6.884268522262573242e-01,4.950000000000000000e+02
-1.000925842086655848e+02,-1.282847497828859105e+02,-4.418823032620343838e+01,-6.396407125845939845e+01,-1.038978357455096102e+02,-1.130699204822813044e+02,-5.887686884749882665e+00,-4.051180272457168030e+01,9.561484336853027344e+00,-8.796565532684326172e-01,-6.884268522262573242e-01,4.960000000000000000e+02
-9.956235781218083503e+01,-1.269044159052657506e+02,-4.594046102879133286e+01,-6.391238719831403614e+01,-1.055027293571297378e+02,-1.126818791225000496e+02,-6.957333715805589236e+00,-4.224665505277289412e+01,9.561484336853027344e+00,-8.796565532684326172e-01,-6.884268522262573242e-01,4.970000000000000000e+02
-9.945661812728189943e+01,-1.260691472735848038e+02,-4.815968112565860793e+01,-6.506850326626272363e+01,-1.079394960763754625e+02,-1.129051363297785429e+02,-8.789457543683056429e+00,-4.439746739783322482e+01,9.561484336853027344e+00,-8.796565532684326172e-01,-6.884268522262573242e-01,4.980000000000000000e+02
-9.946512196432524888e+01,-1.261005104328423840e+02,-4.985197056048957620e+01,-6.681918470686014189e+01,-1.100983478058599303e+02,-1.136075190009466951e+02,-1.038053710731333013e+01,-4.645318138654420181e+01,9.561484336853027344e+00,-8.796565532684326172e-01,-6.884268522262573242e-01,4.990000000000000000e+02
-9.921392155558805825e+01,-1.268167024600297736e+02,-5.013197337789483754e+01,-6.802139423178959987e+01,-1.108332757278067220e+02,-1.143669093789310409e+02,-1.065928913314883175e+01,-4.783045251084081428e+01,9.561484336853027344e+00,-8.796565532684326172e-01,-6.884268522262573242e-01,5.000000000000000000e+02
-9.847119742467532433e+01,-1.274468605576123537e+02,-4.875960371488349665e+01,-6.772213980427795832e+01,-1.096379383108729826e+02,-1.147088234209164739e+02,-9.298146750018986495e+00,-4.816485761224657836e+01,9.561484336853027344e+00,-8.796565532684326172e-01,-6.884268522262573242e-01,5.010000000000000000e+02
-9.724777352390424312e+01,-1.271358460505178982e+02,-4.623587487779479943e+01,-6.581705897513029413e+01,-1.068877537025969104e+02,-1.144385065022888739e+02,-6.995351338400269015e+00,-4.754884093662576561e+01,9.561484336853027344e+00,-8.796565532684326172e-01,-6.884268522262573242e-01,5.020000000000000000e+02
-9.574710594792134088e+01,-1.256598177290769627e+02,-4.345131519587653202e+01,-6.311315456325189643e+01,-1.035776327326746014e+02,-1.137755783769919162e+02,-5.011396339833709135e+00,-4.659019145461456901e+01,9.561484336853027344e+00,-8.796565532684326172e-01,-6.884268522262573242e-01,5.030000000000000000e+02
-9.422347994712458785e+01,-1.237019850283319329e+02,-4.119380180689438475e+01,-6.076013282005544625e+01,-1.007956699174716277e+02,-1.131437647237731881e+02,-4.332780978395135207e+00,-4.615570709472058297e+01,9.561484336853027344e+00,-8.796565532684326172e-01,-6.884268522262573242e-01,5.040000000000000000e+02
-9.285739898249732960e+01,-1.223945036698987678e+02,-3.984348465850683851e+01,-5.952503070140107866e+01,-9.924017286537025484e+01,-1.127722238390085749e+02,-5.082055649933295172e+00,-4.683325102353160219e+01,9.561484336853027344e+00,-8.796565532684326172e-01,-6.884268522262573242e-01,5.050000000000000000e+02
-9.172486727399206075e+01,-1.224986520152209550e+02,-3.936518711342705501e+01,-5.943343685277591248e+01,-9.897679672499953085e+01,-1.124573936028241405e+02,-6.538467377659458180e+00,-4.843673497518778959e+01,9.561484336853027344e+00,-8.796565532684326172e-01,-6.884268522262573242e-01,5.060000000000000000e+02
-9.085956800476662920e+01,-1.239001862959828486e+02,-3.949503710776758680e+01,-5.994359902015878561e+01,-9.950751475820266023e+01,-1.117229319119944648e+02,-7.669625997984780952e+00,-5.000256582280076145e+01,9.561484336853027344e+00,-8.796565532684326172e-01,-6.884268522262573242e-01,5.070000000000000000e+02
-9.032740404368166764e+01,-1.257646778115370125e+02,-3.993983833060735833e+01,-6.038991726158184292e+01,-1.000966472453873166e+02,-1.102580477710290552e+02,-7.765533884779472373e+00,-5.041379285908482188e+01,9.561484336853027344e+00,-8.796565532684326172e-01,-6.884268522262573242e-01,5.080000000000000000e+02
-9.022119393633454365e+01,-1.271106695189882316e+02,-4.048119331305588275e+01,-6.032875042122424247e+01,-1.001885469285820989e+02,-1.082589401881701576e+02,-6.789049467870853505e+00,-4.923709806621241114e+01,9.561484336853027344e+00,-8.796565532684326172e-01,-6.884268522262573242e-01,5.090000000000000000e+02
-9.053091632976716596e+01,-1.272844476783801326e+02,-4.097247561487751000e+01,-5.962753371570956062e+01,-9.965846077100795242e+01,-1.063512846155667120e+02,-5.290263802403529780e+00,-4.706877165768814564e+01,9.561484336853027344e+00,-8.796565532684326172e-01,-6.884268522262573242e-01,5.100000000000000000e+02
-9.098909212753423503e+01,-1.260938832265818803e+02,-4.129035497280141698e+01,-5.838734965490318984e+01,-9.874245537208139467e+01,-1.051357094907729390e+02,-4.019083557100380233e+00,-4.506574255247436867e+01,9.561484336853027344e+00,-8.796565532684326172e-01,-6.884268522262573242e-01,5.110000000000000000e+02
-9.106939584530233844e+01,-1.237459642597814593e+02,-4.130818653964671228e+01,-5.685224383035686913e+01,-9.774125665900771764e+01,-1.047444426900714518e+02,-3.505541267599909361e+00,-4.406525596824219804e+01,9.561484336853027344e+00,-8.796565532684326172e-01,-6.884268522262573242e-01,5.120000000000000000e+02
-9.023092849686881323e+01,-1.207762702352723636e+02,-4.093370278706589716e+01,-5.533692613421084161e+01,-9.678647007030491523e+01,-1.047884141390322839e+02,-3.832757267711770055e+00,-4.406143433222513295e+01,9.561484336853027344e+00,-8.796565532684326172e-01,-6.884268522262573242e-01,5.130000000000000000e+02
-8.827990364864393769e+01,-1.179314538420903773e+02,-4.017083720976575023e+01,-5.410775550183245741e+01,-9.586412151594061015e+01,-1.047154124486473279e+02,-4.674166286877039056e+00,-4.442258231908016342e+01,9.561484336853027344e+00,-8.796565532684326172e-01,-6.884268522262573242e-01,5.140000000000000000e+02
-8.555678568228358927e+01,-1.158546531760823655e+02,-3.912774885672143910e+01,-5.322317982202639541e+01,-9.498415662860713837e+01,-1.042279790325123372e+02,-5.510982346965761280e+00,-4.450404986704336352e+01,9.561484336853027344e+00,-8.796565532684326172e-01,-6.884268522262573242e-01,5.150000000000000000e+02
-8.273402522822016181e+01,-1.146609949392028511e+02,-3.792794447497686861e+01,-5.245347725070428169e+01,-9.421469546704145159e+01,-1.033822556930276733e+02,-5.863722562675320660e+00,-4.399923794256289966e+01,9.561484336853027344e+00,-8.796565532684326172e-01,-6.884268522262573242e-01,5.160000000000000000e+02
-8.032931061162844344e+01,-1.137817479094917417e+02,-3.657291429928113757e+01,-5.139708573208235975e+01,-9.348841586551247929e+01,-1.023255090018678857e+02,-5.422925869485197836e+00,-4.278371748815391129e+01,9.561484336853027344e+00,-8.796565532684326172e-01,-6.884268522262573242e-01,5.170000000000000000e+02
-7.833045878014854679e+01,-1.123578460320063641e+02,-3.489683128670696988e+01,-4.976138902026582400e+01,-9.242541098701894953e+01,-1.010044256730573125e+02,-4.075158118223612291e+00,-4.063161273405489737e+01,9.561484336853027344e+00,-8.796565532684326172e-01,-6.884268522262573242e-01,5.180000000000000000e+02
-7.627731201251106086e+01,-1.099627983497499599e+02,-3.270095205882137179e+01,-4.761235861452507834e+01,-9.050243359402998067e+01,-9.919219880205980644e+01,-1.887104801035548007e+00,-3.730699253945431337e+01,9.561484336853027344e+00,-8.796565532684326172e-01,-6.884268522262573242e-01,5.190000000000000000e+02
-7.376520517308017588e+01,-1.070257047367065297e+02,-2.999024895096658838e+01,-4.538310574577099032e+01,-8.753663380093939850e+01,-9.682256754571130841e+01,8.964235698454103840e-01,-3.301252040009535449e+01,9.561484336853027344e+00,-8.796565532684326172e-01,-6.884268522262573242e-01,5.200000000000000000e+02
-7.094702934109000125e+01,-1.045121088577377577e+02,-2.713136372718304301e+01,-4.360863962437952068e+01,-8.404040553711320172e+01,-9.426534268629347935e+01,3.839606092775284196e+00,-2.866088630922649827e+01,9.446745872497558594e+00,-8.414105772972106934e-01,-7.649186849594116211e-01,5.210000000000000000e+02
-6.857498148492368273e+01,-1.031157566032186423e+02,-2.479256519482873955e+01,-4.258450807577355590e+01,-8.103966055634850818e+01,-9.220440892219949092e+01,6.338248469590553213e+00,-2.553268618750826136e+01,9.446745872497558594e+00,-8.414105772972106934e-01,-7.649186849594116211e-01,5.220000000000000000e+02
-6.751167183636971458e+01,-1.027116297691550244e+02,-2.367927181316144924e+01,-4.220973337392842950e+01,-7.944233804633904583e+01,-9.116849346023741418e+01,7.727692680466816455e+00,-2.450411140644155239e+01,9.446745872497558594e+00,-8.414105772972106934e-01,-7.649186849594116211e-01,5.230000000000000000e+02
-6.811188315556842099e+01,-1.025727532929411154e+02,-2.421300705040448520e+01,-4.211412500431492845e+01,-7.949187251617854599e+01,-9.112277415922426371e+01,7.490562890155160858e+00,-2.549733055869819509e+01,9.446745872497558594e+00,-8.414105772972106934e-01,-7.649186849594116211e-01,5.240000000000000000e+02
-6.997670373616165307e+01,-1.021051127283189999e+02,-2.630049723732054190e+01,-4.194884465436621213e+01,-8.075245902366032169e+01,-9.148969505998456953e+01,5.506925676830860539e+00,-2.760423940197347292e+01,9.446745872497558594e+00,-8.414105772972106934e-01,-7.649186849594116211e-01,5.250000000000000000e+02
-7.223745341301855660e+01,-1.013607605104716640e+02,-2.927727809900920874e+01,-4.161206898887894567e+01,-8.253000039126595766e+01,-9.157330969907388862e+01,2.220858823545313498e+00,-2.969578605084507217e+01,9.446745872497558594e+00,-8.414105772972106934e-01,-7.649186849594116211e-01,5.260000000000000000e+02
-7.408174775902489273e+01,-1.008491466988300544e+02,-3.207193770769799812e+01,-4.125615570470858984e+01,-8.425559168232803131e+01,-9.101056810607678926e+01,-1.399962619802636254e+00,-3.094471423898357898e+01,9.446745872497558594e+00,-8.414105772972106934e-01,-7.649186849594116211e-01,5.270000000000000000e+02
-7.509318226262257667e+01,-1.008825048237913506e+02,-3.358915520161644963e+01,-4.109357282503992792e+01,-8.552369190608715144e+01,-8.988954110093027339e+01,-4.163481664566916152e+00,-3.092280346292591275e+01,9.446745872497558594e+00,-8.414105772972106934e-01,-7.649186849594116211e-01,5.280000000000000000e+02
-7.522717460054946059e+01,-1.011363595577577144e+02,-3.321926993222314195e+01,-4.116413116542639727e+01,-8.595605299973749425e+01,-8.851673341031255404e+01,-5.129212294533317618e+00,-2.946437755803162872e+01,9.446745872497558594e+00,-8.414105772972106934e-01,-7.649186849594116211e-01,5.290000000000000000e+02
-7.458839312462669113e+01,-1.008575826602132111e+02,-3.120457117567730165e+01,-4.122697762972575219e+01,-8.524121916495641926e+01,-8.709543794636419989e+01,-4.024871118390819902e+00,-2.665488019310441814e+01,9.446745872497558594e+00,-8.414105772972106934e-01,-7.649186849594116211e-01,5.300000000000000000e+02
-7.329275840878244708e+01,-9.951634946718831998e+01,-2.856646152786970561e+01,-4.086251379284612995e+01,-8.341272837635233373e+01,-8.559308063616344953e+01,-1.376333780787717842e+00,-2.298467392576276325e+01,9.446745872497558594e+00,-8.414105772972106934e-01,-7.649186849594116211e-01,5.310000000000000000e+02
-7.151342953640596534e+01,-9.731130366640672946e+01,-2.655388797645127852e+01,-3.975962858336879435e+01,-8.104302030371036381e+01,-8.387273989812547370e+01,1.710445393032387074e+00,-1.937341964703546182e+01,9.446745872497558594e+00,-8.414105772972106934e-01,-7.649186849594116211e-01,5.320000000000000000e+02
-6.957683968818537323e+01,-9.512328697488555918e+01,-2.596019994714333734e+01,-3.805921554160977394e+01,-7.904220481089669192e+01,-8.195538190885054064e+01,3.984466706464900199e+00,-1.684649777733420706e+01,9.446745872497558594e+00,-8.414105772972106934e-01,-7.649186849594116211e-01,5.330000000000000000e+02
-6.794670645790120034e+01,-9.399990287548962442e+01,-2.681136561279299713e+01,-3.652262738838498990e+01,-7.817856848286828608e+01,-8.020204935023502912e+01,4.485035829555272358e+00,-1.604850787520763333e+01,9.446745872497558594e+00,-8.414105772972106934e-01,-7.649186849594116211e-01,5.340000000000000000e+02
-6.706860898939930848e+01,-9.455637521612652563e+01,-2.862119270996481646e+01,-3.628631368925880452e+01,-7.873629022350269224e+01,-7.926345182298427972e+01,2.829188539591996232e+00,-1.700172528237362712e+01,9.446745872497558594e+00,-8.414105772972106934e-01,-7.649186849594116211e-01,5.350000000000000000e+02
-6.717954649452804006e+01,-9.663719623942188264e+01,-3.091046684871116668e+01,-3.820328317278472241e+01,-8.056273027102861306e+01,-7.978194213913411659e+01,-6.930487491017629509e-01,-1.929428506701424340e+01,9.446745872497558594e+00,-8.414105772972106934e-01,-7.649186849594116211e-01,5.360000000000000000e+02
-6.817442702799280596e+01,-9.935990372928881698e+01,-3.345950053652859424e+01,-4.211955857736802500e+01,-8.332409068035940436e+01,-8.197677023883215952e+01,-5.197185759458534449e+00,-2.244127796930524710e+01,9.446745872497558594e+00,-8.414105772972106934e-01,-7.649186849594116211e-01,5.370000000000000000e+02
-6.958106790522379015e+01,-1.014822890749360340e+02,-3.608175129408618886e+01,-4.665808663375855758e+01,-8.660730976831791850e+01,-8.536970911564822018e+01,-9.460853842252618051e+00,-2.602510633935253281e+01,9.446745872497558594e+00,-8.414105772972106934e-01,-7.649186849594116211e-01,5.380000000000000000e+02
-7.067522626768368355e+01,-1.019595281949559649e+02,-3.825306869674795962e+01,-4.984093402790858818e+01,-8.979052383895395906e+01,-8.889269254839382484e+01,-1.234140613547924659e+01,-2.953942843641380023e+01,9.446745872497558594e+00,-8.414105772972106934e-01,-7.649186849594116211e-01,5.390000000000000000e+02
-7.076045716345925030e+01,-1.004740308652562817e+02,-3.912462679990858305e+01,-5.024936680639029873e+01,-9.196295196225219115e+01,-9.137254828054574318e+01,-1.320446339945283398e+01,-3.222858219467980234e+01,9.446745872497558594e+00,-8.414105772972106934e-01,-7.649186849594116211e-01,5.400000000000000000e+02
-6.954409728788323264e+01,-9.763135328603857488e+01,-3.805088292737809752e+01,-4.790375879235307366e+01,-9.218644849453539791e+01,-9.208951765137135226e+01,-1.212999916710305115e+01,-3.322188428517438297e+01,9.446745872497558594e+00,-8.414105772972106934e-01,-7.649186849594116211e-01,5.410000000000000000e+02
-6.738784497373580962e+01,-9.462181373063231149e+01,-3.517960473664152232e+01,-4.415519936473992857e+01,-9.001346369858310936e+01,-9.102536781850722036e+01,-9.752517692173569230e+00,-3.194231215947002056e+01,9.446745872497558594e+00,-8.796565532684326172e-01,-7.649186849594116211e-01,5.420000000000000000e+02
-6.518122422681153694e+01,-9.249491746266176051e+01,-3.150052509717488647e+01,-4.065827624763187487e+01,-8.582671545083212550e+01,-8.867004982912658306e+01,-6.840047677613256383e+00,-2.846270710339740617e+01,9.446745872497558594e+00,-8.796565532684326172e-01,-7.649186849594116211e-01,5.430000000000000000e+02
-6.381067199879180407e+01,-9.152938078180068260e+01,-2.822823608958560726e+01,-3.826426924676343333e+01,-8.067489936374295212e+01,-8.563164115127074183e+01,-3.914770178391336231e+00,-2.353612902226723236e+01,9.446745872497558594e+00,-8.796565532684326172e-01,-7.649186849594116211e-01,5.440000000000000000e+02
-6.357378949961002945e+01,-9.118032328100798622e+01,-2.605170454229664756e+01,-3.673006100648126449e+01,-7.572748240317287127e+01,-8.241422877588138363e+01,-1.177773476286347432e+00,-1.832935854866263981e+01,9.446745872497558594e+00,-8.796565532684326172e-01,-7.649186849594116211e-01,5.450000000000000000e+02
-6.400197631514038221e+01,-9.063585700611474749e+01,-2.489198221919650678e+01,-3.536960088793784962e+01,-7.177142965926941542e+01,-7.946325511724717217e+01,1.283153004278574372e+00,-1.405694107638737478e+01,9.446745872497558594e+00,-8.796565532684326172e-01,-7.649186849594116211e-01,5.460000000000000000e+02
-6.426280350085471582e+01,-8.950834711436709767e+01,-2.429974621929704881e+01,-3.390690256514790235e+01,-6.906293624565023492e+01,-7.723508531616789696e+01,3.282061210752544866e+00,-1.161432424370650551e+01,9.446745872497558594e+00,-8.796565532684326172e-01,-7.649186849594116211e-01,5.470000000000000000e+02
-6.382072215087282530e+01,-8.809051123355675372e+01,-2.400691201373501826e+01,-3.268629613215944119e+01,-6.748224049011514580e+01,-7.603043118322148075e+01,4.558818151516788930e+00,-1.122536087376556679e+01,9.446745872497558594e+00,-8.796565532684326172e-01,-7.649186849594116211e-01,5.480000000000000000e+02
-6.279579357593593159e+01,-8.700909144934757933e+01,-2.405441212281766639e+01,-3.211333538912549557e+01,-6.672451069605813245e+01,-7.566749120803433470e+01,5.025624396189414256e+00,-1.220630667665773217e+01,9.446745872497558594e+00,-8.796565532684326172e-01,-7.649186849594116211e-01,5.490000000000000000e+02
-6.174470841249421937e+01,-8.663530880125290423e+01,-2.442730614197898831e+01,-3.201567418505783280e+01,-6.636877148637267965e+01,-7.538235345561315626e+01,4.982033191111440829e+00,-1.312054020119830966e+01,9.446745872497558594e+00,-8.796565532684326172e-01,-7.649186849594116211e-01,5.500000000000000000e+02
-6.112622661766363308e+01,-8.678853395222813560e+01,-2.471216646343782486e+01,-3.169377968502067233e+01,-6.592688000915131852e+01,-7.424333501929049817e+01,5.019720957288882346e+00,-1.250087735499619157e+01,9.446745872497558594e+00,-8.796565532684326172e-01,-7.649186849594116211e-01,5.510000000000000000e+02
-6.098363313346726500e+01,-8.695567931510868220e+01,-2.428821344262905768e+01,-3.066682603587196354e+01,-6.504392340232243441e+01,-7.188033267772516410e+01,5.606322334509059147e+00,-9.841036837150568317e+00,9.446745872497558594e+00,-8.796565532684326172e-01,-7.649186849594116211e-01,5.520000000000000000e+02
-6.111858027808466431e+01,-8.677379944807034917e+01,-2.297242896547140845e+01,-2.933164226981261891e+01,-6.378970142411435518e+01,-6.892719339135237533e+01,6.642881719283650455e+00,-6.114258641468950373e+00,9.446745872497558594e+00,-8.796565532684326172e-01,-7.649186849594116211e-01,5.530000000000000000e+02
-6.150090518800789141e+01,-8.634145094067207538e+01,-2.146704752360983548e+01,-2.878679683674818079e+01,-6.275702159524280432e+01,-6.671051010095288802e+01,7.384652839964473969e+00,-3.247927428271395911e+00,9.446745872497558594e+00,-8.796565532684326172e-01,-7.649186849594116211e-01,5.540000000000000000e+02
-6.239810694649167999e+01,-8.610636552388041309e+01,-2.102716646120461519e+01,-2.989503963589504565e+01,-6.272692482007278159e+01,-6.633330897823816485e+01,6.894295110483653843e+00,-2.798615064552905096e+00,9.446745872497558594e+00,-8.796565532684326172e-01,-7.649186849594116211e-01,5.550000000000000000e+02
-6.403474321237899858e+01,-8.647497949750231783e+01,-2.249450835361767531e+01,-3.246688210283173248e+01,-6.406110928457201226e+01,-6.786444989244228054e+01,4.758488458687679667e+00,-4.851199784005075344e+00,9.446745872497558594e+00,-8.796565532684326172e-01,-7.649186849594116211e-01,5.560000000000000000e+02
-6.614151911465614830e+01,-8.749555145923568489e+01,-2.551991908102081652e+01,-3.536464527607313357e+01,-6.633294157067575725e+01,-7.030424312278228172e+01,1.534367201953500626e+00,-8.081009346015889605e+00,9.446745872497558594e+00,-8.796565532684326172e-01,-7.649186849594116211e-01,5.570000000000000000e+02
-6.793984387028285710e+01,-8.886022118750952359e+01,-2.873228235833357758e+01,-3.745425776149022568e+01,-6.861230453398638929e+01,-7.238277518576433067e+01,-1.491132899306649051e+00,-1.095580586081177898e+01,9.446745872497558594e+00,-8.796565532684326172e-01,-7.649186849594116211e-01,5.580000000000000000e+02
-6.870730905479376815e+01,-9.017436919402825879e+01,-3.078721881338879029e+01,-3.853221631370433897e+01,-7.025454343001547386e+01,-7.355127929781156126e+01,-3.158085523730733257e+00,-1.302931774802164000e+01,9.446745872497558594e+00,-8.796565532684326172e-01,-7.649186849594116211e-01,5.590000000000000000e+02
-6.843211860724750295e+01,-9.123383885895600542e+01,-3.141793727748245146e+01,-3.939510131483802979e+01,-7.150688704570711707e+01,-7.434566614669711271e+01,-3.303943137663736707e+00,-1.516953145779370971e+01,9.446745872497558594e+00,-8.796565532684326172e-01,-7.649186849594116211e-01,5.600000000000000000e+02
-6.789385223678436887e+01,-9.207734274609902059e+01,-3.157721696776479803e+01,-4.103487584781760233e+01,-7.329042828242199903e+01,-7.581792976620090485e+01,-2.933406273143191356e+00,-1.852208148281169997e+01,9.446745872497558594e+00,-8.796565532684326172e-01,-7.649186849594116211e-01,5.610000000000000000e+02
-6.801451737005299947e+01,-9.279977567407513561e+01,-3.254314812890152098e+01,-4.371444111907385377e+01,-7.623139881341921864e+01,-7.851722892416728428e+01,-3.474204322816149215e+00,-2.317843022448323609e+01,9.446745872497558594e+00,-8.796565532684326172e-01,-7.649186849594116211e-01,5.620000000000000000e+02
-6.903656275165121770e+01,-9.333531939922977472e+01,-3.476917946919729729e+01,-4.670139791050496569e+01,-7.977661151991196675e+01,-8.187027311219935655e+01,-5.649634132605569903e+00,-2.777547849579241301e+01,9.446745872497558594e+00,-8.796565532684326172e-01,-7.649186849594116211e-01,5.630000000000000000e+02
-7.030170645888392755e+01,-9.343492675301240524e+01,-3.744209576832327002e+01,-4.878436586721545609e+01,-8.226738457619831024e+01,-8.447244005867469241e+01,-8.854889868018290144e+00,-3.037458585573767778e+01,9.446745872497558594e+00,-8.796565532684326172e-01,-7.649186849594116211e-01,5.640000000000000000e+02
-7.085248277896971558e+01,-9.286614464870581287e+01,-3.905140017698431620e+01,-4.904447526007970737e+01,-8.202688174025934131e+01,-8.502672167316995910e+01,-1.153892331275164906e+01,-2.980541675556924019e+01,9.446745872497558594e+00,-8.796565532684326172e-01,-7.649186849594116211e-01,5.650000000000000000e+02
-7.028565917359264859e+01,-9.163918150087374670e+01,-3.843523211602041556e+01,-4.729740322693942289e+01,-7.859417127091546718e+01,-8.317002935457094281e+01,-1.228391569161067309e+01,-2.633082154971452837e+01,9.446745872497558594e+00,-8.796565532684326172e-01,-7.649186849594116211e-01,5.660000000000000000e+02
-6.906090085094547248e+01,-9.006111481745938363e+01,-3.550735283862923097e+01,-4.408076989426444925e+01,-7.310053339231308200e+01,-7.962639815666443610e+01,-1.077454805283377937e+01,-2.124350130300263118e+01,9.484992027282714844e+00,-8.796565532684326172e-01,-7.266727685928344727e-01,5.670000000000000000e+02
-6.800140285950510588e+01,-8.858490089531915146e+01,-3.125955187131330604e+01,-4.041605942742535262e+01,-6.752604161357521662e+01,-7.570409552220735350e+01,-7.973841605054985848e+00,-1.597132774975216307e+01,9.484992027282714844e+00,-8.796565532684326172e-01,-7.266727685928344727e-01,5.680000000000000000e+02
-6.751588425660702342e+01,-8.759400496068155917e+01,-2.721349893506157969e+01,-3.752907394521753304e+01,-6.351778728920362482e+01,-7.262083209539559903e+01,-5.465090781559410971e+00,-1.152817542504089943e+01,9.484992027282714844e+00,-8.796565532684326172e-01,-7.266727685928344727e-01,5.690000000000000000e+02
-6.730351044374401681e+01,-8.727613639475384844e+01,-2.473359529839581228e+01,-3.647944179781916318e+01,-6.168559221194482234e+01,-7.109426012285985053e+01,-4.503280955374066252e+00,-8.546881728094376740e+00,9.484992027282714844e+00,-8.796565532684326172e-01,-7.266727685928344727e-01,5.700000000000000000e+02
-6.677122321985734743e+01,-8.761082466321386164e+01,-2.448935129936944577e+01,-3.765712097872346931e+01,-6.171312010153451411e+01,-7.125518599033057399e+01,-5.396696645078918664e+00,-7.448621298381112865e+00,9.484992027282714844e+00,-8.796565532684326172e-01,-7.266727685928344727e-01,5.710000000000000000e+02
-6.567943638768156234e+01,-8.838637399434446706e+01,-2.618862516718218103e+01,-4.040262340356639470e+01,-6.290061559264904645e+01,-7.270316302841274592e+01,-7.495612380655074958e+00,-8.303844356069021160e+00,9.484992027282714844e+00,-8.796565532684326172e-01,-7.266727685928344727e-01,5.720000000000000000e+02
-6.436557263750364655e+01,-8.921403363757053739e+01,-2.871099362752102024e+01,-4.318569425484020030e+01,-6.459340553096626536e+01,-7.462746014414187812e+01,-9.671648145311337430e+00,-1.053875691704888595e+01,9.484992027282714844e+00,-8.796565532684326172e-01,-7.266727685928344727e-01,5.730000000000000000e+02
-6.338119738711066020e+01,-8.961514769812492887e+01,-3.070552489925830741e+01,-4.445254904124703899e+01,-6.632189003402345406e+01,-7.608661793698775000e+01,-1.096092744215638959e+01,-1.302208763586713758e+01,9.484992027282714844e+00,-8.796565532684326172e-01,-7.266727685928344727e-01,5.740000000000000000e+02
-6.297682575749968237e+01,-8.925286828126809269e+01,-3.143258487691309710e+01,-4.363448090318706818e+01,-6.783537391012214357e+01,-7.647226039823544852e+01,-1.105197084460996848e+01,-1.472834072551995632e+01,9.484992027282714844e+00,-8.796565532684326172e-01,-7.266727685928344727e-01,5.750000000000000000e+02
-6.296168726347059419e+01,-8.820021162347802601e+01,-3.128107141143118497e+01,-4.152101850113831460e+01,-6.916453604105299746e+01,-7.589337820494438347e+01,-1.039713315124936344e+01,-1.546320478727830050e+01,9.484992027282714844e+00,-8.796565532684326172e-01,-7.266727685928344727e-01,5.760000000000000000e+02
-6.299673849940700165e+01,-8.697700519331010582e+01,-3.144665803952011629e+01,-3.964544084044246119e+01,-7.058679424291767646e+01,-7.512202320856158622e+01,-9.874916987591859652e+00,-1.590656404651053890e+01,9.484992027282714844e+00,-8.796565532684326172e-01,-7.266727685928344727e-01,5.770000000000000000e+02
-6.293424192613929335e+01,-8.621949388703069417e+01,-3.290033182079787366e+01,-3.917166474382975139e+01,-7.235005357309091778e+01,-7.505024555526870245e+01,-1.019608141094977327e+01,-1.685389792450223467e+01,9.484992027282714844e+00,-8.796565532684326172e-01,-7.266727685928344727e-01,5.780000000000000000e+02
-6.284561346982263785e+01,-8.620112692299335322e+01,-3.546082845177261333e+01,-4.021184995534349582e+01,-7.431545621620898601e+01,-7.607589503665440134e+01,-1.145077007290456095e+01,-1.837272063779528253e+01,9.484992027282714844e+00,-8.796565532684326172e-01,-7.266727685928344727e-01,5.790000000000000000e+02
-6.278016323006340826e+01,-8.661919699849386234e+01,-3.778846016994975798e+01,-4.205958478863794880e+01,-7.587503881623342750e+01,-7.791701846995601954e+01,-1.312220137088115735e+01,-1.969344177643142757e+01,9.484992027282714844e+00,-8.796565532684326172e-01,-7.266727685928344727e-01,5.800000000000000000e+02
-6.260787899010938418e+01,-8.687075965678013745e+01,-3.837053822241978196e+01,-4.397121815782338672e+01,-7.630734757754544262e+01,-7.995210145165583526e+01,-1.455184418773933430e+01,-1.992634494359845121e+01,9.484992027282714844e+00,-8.796565532684326172e-01,-7.266727685928344727e-01,5.810000000000000000e+02
-6.215598048233914596e+01,-8.659215998771105660e+01,-3.669255442632493214e+01,-4.568642255503800698e+01,-7.530832238031143788e+01,-8.170406219742289977e+01,-1.546270875237860309e+01,-1.887306916753186670e+01,9.484992027282714844e+00,-8.796565532684326172e-01,-7.266727685928344727e-01,5.820000000000000000e+02
-6.144782777948239527e+01,-8.595545939285693748e+01,-3.361432224913187383e+01,-4.725568863793523633e+01,-7.322650493569381069e+01,-8.301589252732810564e+01,-1.607279532157372159e+01,-1.713258755536298850e+01,9.484992027282714844e+00,-8.796565532684326172e-01,-7.266727685928344727e-01,5.830000000000000000e+02
-6.072140349884102761e+01,-8.543420777378923958e+01,-3.069416199903571396e+01,-4.851070412123590359e+01,-7.081262312371109147e+01,-8.385604580960352905e+01,-1.669648711723129964e+01,-1.545944676295584941e+01,9.484992027282714844e+00,-8.796565532684326172e-01,-7.266727685928344727e-01,5.840000000000000000e+02
-6.018081080206138722e+01,-8.527603315485430358e+01,-2.910176465914264554e+01,-4.886681712537028943e+01,-6.872696277820068644e+01,-8.407805808227567468e+01,-1.723176627822795126e+01,-1.406965507044697006e+01,9.484992027282714844e+00,-8.796565532684326172e-01,-7.266727685928344727e-01,5.850000000000000000e+02
-5.976590799734367465e+01,-8.520888441624811094e+01,-2.899282125712306879e+01,-4.773165296940169355e+01,-6.720500278796316707e+01,-8.342983137135161087e+01,-1.704956407500867499e+01,-1.255735086895947461e+01,9.484992027282714844e+00,-8.796565532684326172e-01,-7.266727685928344727e-01,5.860000000000000000e+02
-5.923837807808195066e+01,-8.466748760078189662e+01,-2.968149938353417383e+01,-4.510228011731123843e+01,-6.606138865781031200e+01,-8.176194960661450750e+01,-1.543941059665303328e+01,-1.038863582308476907e+01,9.484992027282714844e+00,-8.796565532684326172e-01,-7.266727685928344727e-01,5.870000000000000000e+02
-5.852035120071195706e+01,-8.331684146001134650e+01,-3.025812000978839933e+01,-4.173174897697572305e+01,-6.491741205360449385e+01,-7.917599313582104514e+01,-1.225621443013005774e+01,-7.399722539877984673e+00,9.484992027282714844e+00,-8.796565532684326172e-01,-7.266727685928344727e-01,5.880000000000000000e+02
-5.789228495894894877e+01,-8.135307940247002989e+01,-3.007945135639420187e+01,-3.867160818451884552e+01,-6.344181344794560573e+01,-7.597336947003714158e+01,-8.205234036162437405e+00,-3.858488850011781324e+00,9.484992027282714844e+00,-8.796565532684326172e-01,-7.266727685928344727e-01,5.890000000000000000e+02
-5.777639906186595908e+01,-7.929616278593312018e+01,-2.890874869119033974e+01,-3.660393649195793841e+01,-6.150498673119000159e+01,-7.252316367635285133e+01,-4.494140363509359304e+00,-2.076772619038820267e-01,9.484992027282714844e+00,-8.796565532684326172e-01,-7.266727685928344727e-01,5.900000000000000000e+02
-5.828517345276850392e+01,-7.749838555124733830e+01,-2.687164921836847498e+01,-3.553947913063348096e+01,-5.924994059246091638e+01,-6.921521305211717845e+01,-2.105352226877585053e+00,3.115580790137755685e+00,9.484992027282714844e+00,-8.796565532684326172e-01,-7.266727685928344727e-01,5.910000000000000000e+02
-5.902044591756566660e+01,-7.587088850073996582e+01,-2.442302014617416717e+01,-3.505170633929265023e+01,-5.706283911734135472e+01,-6.646811121845530579e+01,-1.238343376608099788e+00,5.657220236811554059e+00,9.484992027282714844e+00,-8.796565532684326172e-01,-7.266727685928344727e-01,5.920000000000000000e+02
-5.939051696982642170e+01,-7.408719698501226958e+01,-2.227991658812788955e+01,-3.471102024223364424e+01,-5.539456888153654290e+01,-6.461744445931253722e+01,-1.304089250035758596e+00,6.982009416693472303e+00,9.484992027282714844e+00,-8.796565532684326172e-01,-7.266727685928344727e-01,5.930000000000000000e+02
-5.916918294005154166e+01,-7.203898187970844447e+01,-2.116252405255727354e+01,-3.429640095313516213e+01,-5.449036342434192193e+01,-6.367060206718451809e+01,-1.410764370994002093e+00,6.991084230827254942e+00,9.523238182067871094e+00,-8.796565532684326172e-01,-7.266727685928344727e-01,5.940000000000000000e+02
-5.874570850281088497e+01,-7.007824674827134004e+01,-2.138327652578482230e+01,-3.370401316383140511e+01,-5.422097043223402579e+01,-6.316610526206932263e+01,-9.514607816745410673e-01,6.284791413352650125e+00,9.523238182067871094e+00,-8.796565532684326172e-01,-7.266727685928344727e-01,5.950000000000000000e+02
-5.879418631770749926e+01,-6.879219014291084022e+01,-2.259919954193537706e+01,-3.282871573902593809e+01,-5.419470397382610827e+01,-6.240067052775702905e+01,7.483333493291866034e-02,6.049453846106189303e+00,9.523238182067871094e+00,-8.796565532684326172e-01,-7.266727685928344727e-01,5.960000000000000000e+02
-5.966377477745481883e+01,-6.851807207781530451e+01,-2.402271911366551649e+01,-3.166767898374018841e+01,-5.411032975479247398e+01,-6.097485717893505353e+01,1.122907764794945251e+00,7.280808008737949422e+00,9.523238182067871094e+00,-8.796565532684326172e-01,-7.266727685928344727e-01,5.970000000000000000e+02
-6.107351239639319829e+01,-6.906270335503359092e+01,-2.500177917096152669e+01,-3.056460541235355777e+01,-5.407333193966405815e+01,-5.923886035416944651e+01,1.416969229401729535e+00,9.869616780117212329e+00,9.523238182067871094e+00,-8.796565532684326172e-01,-7.266727685928344727e-01,5.980000000000000000e+02
-6.238382592467678478e+01,-6.988400425086729228e+01,-2.550401727057760581e+01,-3.025120414832053939e+01,-5.458025323957554065e+01,-5.820027798454611911e+01,3.364771145534177776e-01,1.241851042631606106e+01,9.523238182067871094e+00,-8.796565532684326172e-01,-7.266727685928344727e-01,5.990000000000000000e+02
-6.312793644475095789e+01,-7.054921284433294204e+01,-2.605300930346129462e+01,-3.145281451578557608e+01,-5.610660435035242699e+01,-5.886287983469082974e+01,-2.244010801172407810e+00,1.315857725534806377e+01,9.523238182067871094e+00,-8.796565532684326172e-01,-7.266727685928344727e-01,6.000000000000000000e+02
-6.326563808565697400e+01,-7.102677097824562225e+01,-2.713313155700598145e+01,-3.425624858577066334e+01,-5.856648308980948059e+01,-6.143896505618977244e+01,-5.763478281962306937e+00,1.136516313940592227e+01,9.523238182067871094e+00,-8.796565532684326172e-01,-7.266727685928344727e-01,6.010000000000000000e+02
-6.297891419600273366e+01,-7.156088791980073438e+01,-2.859195746888508438e+01,-3.777548576593471807e+01,-6.108797437003522646e+01,-6.502697391273250105e+01,-9.071868054637889145e+00,8.113276321775629185e+00,9.523238182067871094e+00,-8.796565532684326172e-01,-7.266727685928344727e-01,6.020000000000000000e+02
-6.234408984475157922e+01,-7.230335666774772108e+01,-2.960971469460855587e+01,-4.051605817225572537e+01,-6.238452979722205782e+01,-6.804403414770058589e+01,-1.090188514399051201e+01,5.648431014011293883e+00,9.523238182067871094e+00,-8.796565532684326172e-01,-7.266727685928344727e-01,6.030000000000000000e+02
-6.132524227738758782e+01,-7.311151991661245120e+01,-2.933984329617305775e+01,-4.131519355593991349e+01,-6.158482406935945619e+01,-6.917610944233092596e+01,-1.058546619042681414e+01,5.752789540318190120e+00,9.523238182067871094e+00,-8.796565532684326172e-01,-7.266727685928344727e-01,6.040000000000000000e+02
-6.009679628349476843e+01,-7.372884549938316923e+01,-2.771234496739270980e+01,-4.020774054441790213e+01,-5.897101268983169575e+01,-6.822990531270988868e+01,-8.590064475400140509e+00,8.345199142815545201e+00,9.523238182067871094e+00,-8.796565532684326172e-01,-7.266727685928344727e-01,6.050000000000000000e+02
-5.923343793597086915e+01,-7.413314447711309185e+01,-2.568078852616963559e+01,-3.850216292325785616e+01,-5.600428917198951240e+01,-6.629290157392824767e+01,-6.395351420283986954e+00,1.144090872369997669e+01,9.523238182067871094e+00,-8.796565532684326172e-01,-7.266727685928344727e-01,6.060000000000000000e+02
-5.938017510648205644e+01,-7.461858618167752866e+01,-2.462423043709713966e+01,-3.789245200654477230e+01,-5.446088250678440090e+01,-6.503870281325725955e+01,-5.625022229436581256e+00,1.255533168133115396e+01,9.523238182067871094e+00,-8.796565532684326172e-01,-7.266727685928344727e-01,6.070000000000000000e+02
-6.060955575806656270e+01,-7.543919687863672152e+01,-2.532839805016556056e+01,-3.921337326804132317e+01,-5.520836599995163851e+01,-6.561597302386144293e+01,-6.959690002146089682e+00,1.050185407350727473e+01,9.523238182067871094e+00,-8.796565532684326172e-01,-7.266727685928344727e-01,6.080000000000000000e+02
-6.213863778984523378e+01,-7.635534942451704410e+01,-2.736648947019784828e+01,-4.182136488771357108e+01,-5.755875204822223168e+01,-6.789656074451340828e+01,-9.660572418313677190e+00,6.208234028112201486e+00,9.523238182067871094e+00,-8.796565532684326172e-01,-7.266727685928344727e-01,6.090000000000000000e+02
-6.284048746126427432e+01,-7.662751601733543794e+01,-2.942249435346820974e+01,-4.414361226625987911e+01,-5.978219100393107510e+01,-7.064208723669798928e+01,-1.214752519462490454e+01,1.937646556769323070e+00,9.523238182067871094e+00,-8.796565532684326172e-01,-7.266727685928344727e-01,6.100000000000000000e+02
-6.219003569544656784e+01,-7.562453751937209745e+01,-3.032107137614002568e+01,-4.499010624620859744e+01,-6.044747523002661183e+01,-7.247933017316609039e+01,-1.322737840821355348e+01,-4.504285341827198863e-01,9.523238182067871094e+00,-8.796565532684326172e-01,-7.266727685928344727e-01,6.110000000000000000e+02
-6.077113830264715943e+01,-7.355255040583142545e+01,-2.992023698214325123e+01,-4.453192298603244126e+01,-5.950508062156222877e+01,-7.290997149659960996e+01,-1.297918007256157580e+01,-8.014086990988289472e-01,9.523238182067871094e+00,-8.796565532684326172e-01,-7.266727685928344727e-01,6.120000000000000000e+02
-5.980957456218675361e+01,-7.155239061783140642e+01,-2.913022288144566119e+01,-4.409217728108706069e+01,-5.820211198391189100e+01,-7.254074780181326787e+01,-1.254093869829739560e+01,-5.204737183921679389e-01,9.523238182067871094e+00,-8.796565532684326172e-01,-7.266727685928344727e-01,6.130000000000000000e+02
