F3,F4,C3,C4,P3,P4,Cz,Pz,Accel_x,Accel_y,Accel_z,Sample
-4.092726157978177071e-11,-5.638867150992155075e-11,-4.365574568510055542e-11,-4.183675628155469894e-11,-6.548361852765083313e-11,-5.093170329928398132e-11,-4.638422979041934013e-11,-4.183675628155469894e-11,9.561484336853027344e+00,-8.414105772972106934e-01,-6.884268522262573242e-01,2.010000000000000000e+02
-1.187983791917940835e+01,-1.602265830381566047e+01,-9.546375901752071513e+00,-1.035581449387063913e+01,-2.495940640293338220e+01,-2.150787186352499702e+01,-7.537218807488898165e+00,-1.375591145414273342e+01,9.561484336853027344e+00,-8.414105772972106934e-01,-6.884268522262573242e-01,2.020000000000000000e+02
-2.395920054219004669e+01,-3.244760489663894987e+01,-1.756270076636246813e+01,-2.030036881277555949e+01,-4.423476042215588677e+01,-3.971087312684903736e+01,-1.325963496318127000e+01,-2.671124820131080924e+01,9.561484336853027344e+00,-8.414105772972106934e-01,-6.884268522262573242e-01,2.030000000000000000e+02
-3.624872286029221868e+01,-4.916173551525662333e+01,-2.373438234532750357e+01,-2.955982102864891203e+01,-5.664468395556468749e+01,-5.399418083616910735e+01,-1.652543009718738176e+01,-3.807597909582364082e+01,9.561484336853027344e+00,-8.414105772972106934e-01,-6.884268522262573242e-01,2.040000000000000000e+02
-4.845268303304965229e+01,-6.548750828216634545e+01,-2.901713510390345618e+01,-3.806552112305053015e+01,-6.584986887387276511e+01,-6.655671157790857251e+01,-1.817093609833955270e+01,-4.737696174872598931e+01,9.561484336853027344e+00,-8.414105772972106934e-01,-6.884268522262573242e-01,2.050000000000000000e+02
-6.007125426812854130e+01,-8.062600703300631722e+01,-3.462298911320158368e+01,-4.595593410308629245e+01,-7.658210044115730852e+01,-8.007956071490661998e+01,-1.983349835092667490e+01,-5.492538616319507128e+01,9.561484336853027344e+00,-8.414105772972106934e-01,-6.884268522262573242e-01,2.060000000000000000e+02
-7.077887774109603924e+01,-9.419763576007153461e+01,-4.109480859881659853e+01,-5.355022275242845353e+01,-9.072962901891969523e+01,-9.546791787727488554e+01,-2.292391251058324997e+01,-6.195375243035960011e+01,9.561484336853027344e+00,-8.414105772972106934e-01,-6.884268522262573242e-01,2.070000000000000000e+02
-8.081890069737710292e+01,-1.064373502718208329e+02,-4.829837808007960120e+01,-6.125987239053119993e+01,-1.068283567396847502e+02,-1.117575161692720940e+02,-2.795831998086578096e+01,-7.004824464834473474e+01,9.446745872497558594e+00,-8.414105772972106934e-01,-7.266727685928344727e-01,2.080000000000000000e+02
-9.098356497742770443e+01,-1.179594234850692374e+02,-5.598109910908624443e+01,-6.938626230751742696e+01,-1.226280707645837538e+02,-1.277553638583440261e+02,-3.449872495043837262e+01,-8.012434045320696896e+01,9.446745872497558594e+00,-8.414105772972106934e-01,-7.266727685928344727e-01,2.090000000000000000e+02
-1.020425674111638727e+02,-1.294023405755351632e+02,-6.397727376057900983e+01,-7.790986662060640811e+01,-1.374672959427634851e+02,-1.433095599850703366e+02,-4.153520646177730669e+01,-9.175726660781310784e+01,9.446745872497558594e+00,-8.414105772972106934e-01,-7.266727685928344727e-01,2.100000000000000000e+02
-1.140357679482058302e+02,-1.412687757143794443e+02,-7.180802134104487777e+01,-8.649622053760958806e+01,-1.521168778522451248e+02,-1.589714729971465204e+02,-4.804760103566877660e+01,-1.035174065964793044e+02,9.446745872497558594e+00,-8.414105772972106934e-01,-7.266727685928344727e-01,2.110000000000000000e+02
-1.261007743800355456e+02,-1.539329612958372309e+02,-7.841812219886651292e+01,-9.478568874324537319e+01,-1.669670015840129054e+02,-1.748706472931935423e+02,-5.350241453908711264e+01,-1.140957752179620002e+02,9.446745872497558594e+00,-8.414105772972106934e-01,-7.266727685928344727e-01,2.120000000000000000e+02
-1.370820817818112118e+02,-1.675549341498917784e+02,-8.276428308530739741e+01,-1.027065181869384105e+02,-1.810844667115088669e+02,-1.903587544119045560e+02,-5.801518473912437912e+01,-1.232280377489332750e+02,9.446745872497558594e+00,-8.414105772972106934e-01,-7.266727685928344727e-01,2.130000000000000000e+02
-1.464215041417974135e+02,-1.817965558601608791e+02,-8.488162448680122907e+01,-1.104158037762881577e+02,-1.931815044316781496e+02,-2.047280712023639353e+02,-6.198032678238905646e+01,-1.315433598851495844e+02,9.446745872497558594e+00,-8.414105772972106934e-01,-7.266727685928344727e-01,2.140000000000000000e+02
-1.545513844831439201e+02,-1.956274234121219706e+02,-8.627411697233037557e+01,-1.178284484442574467e+02,-2.031044152992299132e+02,-2.178794073626013414e+02,-6.540084929346994613e+01,-1.394950922690577499e+02,9.446745872497558594e+00,-8.414105772972106934e-01,-7.266727685928344727e-01,2.150000000000000000e+02
-1.624936119023195715e+02,-2.076521560971632425e+02,-8.900966438025534444e+01,-1.242484553874601261e+02,-2.120080880865507424e+02,-2.300109890405037731e+02,-6.760834680950119946e+01,-1.465047560740094923e+02,9.446745872497558594e+00,-8.414105772972106934e-01,-7.266727685928344727e-01,2.160000000000000000e+02
-1.711017557248505909e+02,-2.169892887989944938e+02,-9.422602365957209258e+01,-1.287078610747412313e+02,-2.211557869774687788e+02,-2.408649784576391539e+02,-6.787518882203767134e+01,-1.513154106660267644e+02,9.446745872497558594e+00,-8.414105772972106934e-01,-7.266727685928344727e-01,2.170000000000000000e+02
-1.806075072585363159e+02,-2.240729011076909956e+02,-1.013889390443173397e+02,-1.309372765480638918e+02,-2.308674621225418377e+02,-2.497595671950730321e+02,-6.652029764648614218e+01,-1.533184161633880649e+02,9.446745872497558594e+00,-8.414105772972106934e-01,-7.266727685928344727e-01,2.180000000000000000e+02
-1.907035040845785261e+02,-2.305756979156167290e+02,-1.088860725520908090e+02,-1.320837654951255900e+02,-2.407246174420415628e+02,-2.566256951813520573e+02,-6.534166560454650607e+01,-1.535306916018462289e+02,9.446745872497558594e+00,-8.414105772972106934e-01,-7.266727685928344727e-01,2.190000000000000000e+02
-2.008569754342479428e+02,-2.383182567368658056e+02,-1.152706739320556153e+02,-1.342946737109432433e+02,-2.504598326032701152e+02,-2.628160665251616592e+02,-6.661094435442373651e+01,-1.541196625474949542e+02,9.446745872497558594e+00,-8.414105772972106934e-01,-7.266727685928344727e-01,2.200000000000000000e+02
-2.105059267922706567e+02,-2.479716972615915438e+02,-1.200004241641172484e+02,-1.392586142641885090e+02,-2.602219972347347721e+02,-2.704516662050000377e+02,-7.126995222990626644e+01,-1.567482147514065218e+02,9.446745872497558594e+00,-8.414105772972106934e-01,-7.266727685928344727e-01,2.210000000000000000e+02
-2.191439272334782800e+02,-2.586731556727763746e+02,-1.232660175857645299e+02,-1.469003912796370059e+02,-2.699520477438591115e+02,-2.807061190445365355e+02,-7.798644565431095543e+01,-1.612508537781804989e+02,9.446745872497558594e+00,-8.414105772972106934e-01,-7.266727685928344727e-01,2.220000000000000000e+02
-2.265081658290391715e+02,-2.689390300458953789e+02,-1.254812881714788091e+02,-1.554650911335875207e+02,-2.789180565445985849e+02,-2.927684570913106654e+02,-8.411553398509568069e+01,-1.659159016887879261e+02,9.446745872497558594e+00,-8.414105772972106934e-01,-7.266727685928344727e-01,2.230000000000000000e+02
-2.328521351267863793e+02,-2.780568656878467664e+02,-1.271377740388816164e+02,-1.630042823651638173e+02,-2.863164510319411420e+02,-3.046512782197369233e+02,-8.779418477273429744e+01,-1.691501565502894664e+02,9.446745872497558594e+00,-8.414105772972106934e-01,-7.266727685928344727e-01,2.240000000000000000e+02
-2.389665984645871504e+02,-2.866444676589944720e+02,-1.290238704470139055e+02,-1.689579702874871145e+02,-2.924393306675447093e+02,-3.150901198134324659e+02,-8.922700481787069293e+01,-1.709932125088416797e+02,9.446745872497558594e+00,-8.414105772972106934e-01,-7.266727685928344727e-01,2.250000000000000000e+02
-2.457329522593236106e+02,-2.958227996809282558e+02,-1.322353360798033464e+02,-1.744026400584734802e+02,-2.989905947649358495e+02,-3.246156323549093941e+02,-8.998882137697091821e+01,-1.731046874192115865e+02,9.446745872497558594e+00,-8.414105772972106934e-01,-7.266727685928344727e-01,2.260000000000000000e+02
-2.535063464833374383e+02,-3.058069625470016035e+02,-1.376497780403215074e+02,-1.807792368310765596e+02,-3.079266307952511852e+02,-3.347671278755242383e+02,-9.116372457189208944e+01,-1.772993118554568355e+02,9.446745872497558594e+00,-8.414105772972106934e-01,-7.266727685928344727e-01,2.270000000000000000e+02
-2.618977511024249907e+02,-3.153350717118210014e+02,-1.452319090243345272e+02,-1.883224666436044572e+02,-3.198060427138298110e+02,-3.463414855910250481e+02,-9.228900128557961580e+01,-1.839961887945773924e+02,9.446745872497558594e+00,-8.414105772972106934e-01,-7.266727685928344727e-01,2.280000000000000000e+02
-2.701858408603648058e+02,-3.226068626601763754e+02,-1.538510649592553818e+02,-1.956702072236830645e+02,-3.332590288992614660e+02,-3.585014613102484873e+02,-9.217319464881074964e+01,-1.919385596930987958e+02,9.446745872497558594e+00,-8.414105772972106934e-01,-7.266727685928344727e-01,2.290000000000000000e+02
-2.779490496367980086e+02,-3.269374499469822695e+02,-1.618552662781085019e+02,-2.009914428977745047e+02,-3.460989807249025034e+02,-3.695691578433434188e+02,-9.065822278100404219e+01,-1.993109032520496839e+02,9.446745872497558594e+00,-8.414105772972106934e-01,-7.266727685928344727e-01,2.300000000000000000e+02
-2.852809611114034851e+02,-3.295726635922719652e+02,-1.679602298339823392e+02,-2.035647748430428692e+02,-3.569702946588522536e+02,-3.785869954939498712e+02,-8.938924765274896345e+01,-2.051518829109045328e+02,9.446745872497558594e+00,-8.414105772972106934e-01,-7.266727685928344727e-01,2.310000000000000000e+02
-2.924381252930243136e+02,-3.328357960182374882e+02,-1.717694593706364685e+02,-2.043774310227445312e+02,-3.659863679147720177e+02,-3.860690298330600854e+02,-9.067292674031705246e+01,-2.098219967873956193e+02,9.446745872497558594e+00,-8.414105772972106934e-01,-7.266727685928344727e-01,2.320000000000000000e+02
-2.994019956034608185e+02,-3.383143605011873660e+02,-1.736224280749684112e+02,-2.052516795915807961e+02,-3.739069251992159479e+02,-3.932953060184972855e+02,-9.546412121099365322e+01,-2.142277800078118162e+02,9.523238182067871094e+00,-7.649186849594116211e-01,-7.649186849594116211e-01,2.330000000000000000e+02
-3.058973003591427187e+02,-3.457096925598279995e+02,-1.740668886451012440e+02,-2.073369327976179193e+02,-3.808423369587171692e+02,-4.009434660737470040e+02,-1.024049260593164945e+02,-2.185825854848771996e+02,9.523238182067871094e+00,-7.649186849594116211e-01,-7.649186849594116211e-01,2.340000000000000000e+02
-3.118169527111849675e+02,-3.533693620251160610e+02,-1.734717410637526882e+02,-2.103088768181596606e+02,-3.858348029721146304e+02,-4.083868828064414629e+02,-1.088001503520845290e+02,-2.218300160200860773e+02,9.523238182067871094e+00,-7.649186849594116211e-01,-7.649186849594116211e-01,2.350000000000000000e+02
-3.174747947890728028e+02,-3.599494556718582317e+02,-1.720396055065089058e+02,-2.129083183598195319e+02,-3.877271687135644243e+02,-4.142479245810354769e+02,-1.125656496184428761e+02,-2.222672037667853147e+02,9.523238182067871094e+00,-7.649186849594116211e-01,-7.649186849594116211e-01,2.360000000000000000e+02
-3.232681864856240281e+02,-3.656213270293092137e+02,-1.700730176195538661e+02,-2.142402313347001837e+02,-3.864859334677576044e+02,-4.176368863722836977e+02,-1.133838053123108693e+02,-2.189097667296127838e+02,9.523238182067871094e+00,-7.649186849594116211e-01,-7.649186849594116211e-01,2.370000000000000000e+02
-3.290569583274145771e+02,-3.717098888790087585e+02,-1.681683707501019853e+02,-2.146679598002979219e+02,-3.837688961456842662e+02,-4.190329049915590076e+02,-1.122697270075314009e+02,-2.125904423229494569e+02,9.523238182067871094e+00,-7.649186849594116211e-01,-7.649186849594116211e-01,2.380000000000000000e+02
-3.340246029945255941e+02,-3.791731389593187487e+02,-1.671421568861360356e+02,-2.155937312870969436e+02,-3.822392067728151233e+02,-4.201825456268261405e+02,-1.103470410475738390e+02,-2.059773153954438385e+02,9.523238182067871094e+00,-7.649186849594116211e-01,-7.649186849594116211e-01,2.390000000000000000e+02
-3.373694387210407513e+02,-3.874372816986115140e+02,-1.677461904414153651e+02,-2.183944303173007029e+02,-3.841652470299914057e+02,-4.231610874362531831e+02,-1.082112108766596066e+02,-2.024121046736763674e+02,9.523238182067871094e+00,-7.649186849594116211e-01,-7.649186849594116211e-01,2.400000000000000000e+02
-3.392622303412467772e+02,-3.947466249825401974e+02,-1.703821732739079380e+02,-2.234279340998209591e+02,-3.903345144767681631e+02,-4.292505362658639569e+02,-1.063563354766383782e+02,-2.042450650451792171e+02,9.523238182067871094e+00,-7.649186849594116211e-01,-7.649186849594116211e-01,2.410000000000000000e+02
-3.410968602422176446e+02,-3.997182714711739209e+02,-1.749812277409682792e+02,-2.298443681784219734e+02,-3.999411750424351339e+02,-4.383029371038192039e+02,-1.058108374363227995e+02,-2.116330961077392203e+02,9.523238182067871094e+00,-7.649186849594116211e-01,-7.649186849594116211e-01,2.420000000000000000e+02
-3.446330357650513179e+02,-4.026328378912799053e+02,-1.810750988172794678e+02,-2.362142499196229437e+02,-4.113250679002539982e+02,-4.488949722803718032e+02,-1.078756353342105285e+02,-2.224737045710226084e+02,9.523238182067871094e+00,-7.649186849594116211e-01,-7.649186849594116211e-01,2.430000000000000000e+02
-3.506674568949911190e+02,-4.052572209243062389e+02,-1.879425998328338210e+02,-2.413908045611806301e+02,-4.228872691637534444e+02,-4.591343932282752576e+02,-1.129401043622847283e+02,-2.334661424222222195e+02,9.523238182067871094e+00,-7.649186849594116211e-01,-7.649186849594116211e-01,2.440000000000000000e+02
-3.583679410088425357e+02,-4.093678307159775613e+02,-1.947138825177230501e+02,-2.449862991536078880e+02,-4.335348108482839962e+02,-4.676018775990914946e+02,-1.195645609491652976e+02,-2.416369447688666696e+02,9.523238182067871094e+00,-7.649186849594116211e-01,-7.649186849594116211e-01,2.450000000000000000e+02
-3.658442044292296487e+02,-4.152991417983967040e+02,-2.004327330936757789e+02,-2.472622435442572169e+02,-4.425200003370055128e+02,-4.738404246515701743e+02,-1.249928298701806852e+02,-2.454623889612817038e+02,9.523238182067871094e+00,-7.649186849594116211e-01,-7.649186849594116211e-01,2.460000000000000000e+02
-3.714619276234634526e+02,-4.217606715504575732e+02,-2.041918082322285954e+02,-2.487004407399763295e+02,-4.491153665445399383e+02,-4.781778406624889612e+02,-1.269262473266758207e+02,-2.450764044340489818e+02,9.523238182067871094e+00,-7.649186849594116211e-01,-7.649186849594116211e-01,2.470000000000000000e+02
-3.748410631117599223e+02,-4.269930513457434245e+02,-2.054268154729265916e+02,-2.496670889544061538e+02,-4.526645948731829776e+02,-4.812041511311144859e+02,-1.250958827462286536e+02,-2.416937631090554532e+02,9.523238182067871094e+00,-7.649186849594116211e-01,-7.649186849594116211e-01,2.480000000000000000e+02
-3.768437988388868689e+02,-4.301785362029713724e+02,-2.042609143883169054e+02,-2.503653875571435492e+02,-4.530880146308650183e+02,-4.834254797907901775e+02,-1.212449972655304009e+02,-2.368204188684867404e+02,9.523238182067871094e+00,-7.649186849594116211e-01,-7.649186849594116211e-01,2.490000000000000000e+02
-3.787552486670911094e+02,-4.319409082821748598e+02,-2.016418523969218768e+02,-2.509993183921069431e+02,-4.513715490205950118e+02,-4.853371801372004484e+02,-1.176109407851386095e+02,-2.317931948460536660e+02,9.523238182067871094e+00,-7.649186849594116211e-01,-7.649186849594116211e-01,2.500000000000000000e+02
-3.814500325846292981e+02,-4.337167550181611659e+02,-1.991144822030123578e+02,-2.519550153550535470e+02,-4.494931180070816481e+02,-4.876848247907933001e+02,-1.154346192874518238e+02,-2.278114909752571293e+02,9.523238182067871094e+00,-7.649186849594116211e-01,-7.649186849594116211e-01,2.510000000000000000e+02
-3.851492468945034489e+02,-4.367349826302361180e+02,-1.983174967069880950e+02,-2.538532422345551822e+02,-4.497019819532843030e+02,-4.914741566152570158e+02,-1.148858213139255895e+02,-2.261794361629786181e+02,9.523238182067871094e+00,-7.649186849594116211e-01,-7.649186849594116211e-01,2.520000000000000000e+02
-3.897276704473038080e+02,-4.414704579991762330e+02,-2.004764074277481996e+02,-2.574317770101024507e+02,-4.536169106712100074e+02,-4.975744517148314117e+02,-1.162211327061127122e+02,-2.283023826714975257e+02,9.523238182067871094e+00,-7.649186849594116211e-01,-7.649186849594116211e-01,2.530000000000000000e+02
-3.950945238084805169e+02,-4.477954201743232261e+02,-2.061183355502839731e+02,-2.633035294867281664e+02,-4.617380242908266155e+02,-5.062364253596765593e+02,-1.206391674365031577e+02,-2.352361531405717869e+02,9.523238182067871094e+00,-7.649186849594116211e-01,-7.649186849594116211e-01,2.540000000000000000e+02
-4.012772314104208817e+02,-4.553991682046430469e+02,-2.150235579705699820e+02,-2.716762032772717248e+02,-4.735745252552219426e+02,-5.169813703202662509e+02,-1.295887119411022468e+02,-2.470118950162609508e+02,9.523238182067871094e+00,-7.649186849594116211e-01,-7.649186849594116211e-01,2.550000000000000000e+02
-4.082826063188563239e+02,-4.639997237996558397e+02,-2.263417119257092054e+02,-2.821867580841135350e+02,-4.881139485141743535e+02,-5.289818174687197825e+02,-1.430204307675439850e+02,-2.622625309799241222e+02,9.523238182067871094e+00,-7.649186849594116211e-01,-7.649186849594116211e-01,2.560000000000000000e+02
-4.160402816398259347e+02,-4.732905261594783042e+02,-2.388465590330415580e+02,-2.939953597197804811e+02,-5.042108116740591868e+02,-5.415878915590556062e+02,-1.584333563072386823e+02,-2.785667355592745480e+02,9.523238182067871094e+00,-7.649186849594116211e-01,-7.649186849594116211e-01,2.570000000000000000e+02
-4.245351713987029143e+02,-4.828964466399570483e+02,-2.513287368438295744e+02,-3.061388529982386899e+02,-5.207166317814230752e+02,-5.545344901162311544e+02,-1.720336183748431722e+02,-2.934379540961526800e+02,9.523238182067871094e+00,-7.649186849594116211e-01,-7.649186849594116211e-01,2.580000000000000000e+02
-4.339171303041948704e+02,-4.925016379828684876e+02,-2.630376883930885015e+02,-3.179546983971786176e+02,-5.365205964388660504e+02,-5.677118663793221458e+02,-1.813286201215605615e+02,-3.053980211338071058e+02,9.523238182067871094e+00,-7.649186849594116211e-01,-7.649186849594116211e-01,2.590000000000000000e+02
-4.443512397193180732e+02,-5.020095519949968548e+02,-2.739289113131253544e+02,-3.293001821864022531e+02,-5.507274513322413441e+02,-5.808337734328883926e+02,-1.869690972955172583e+02,-3.144780521655820849e+02,9.523238182067871094e+00,-8.796565532684326172e-01,-8.031646609306335449e-01,2.600000000000000000e+02
-4.556541066408262850e+02,-5.114980578848067125e+02,-2.844972773813728963e+02,-3.404150544865565280e+02,-5.629807318055386531e+02,-5.934143199552045189e+02,-1.921760135980957784e+02,-3.218863836262680707e+02,9.523238182067871094e+00,-8.796565532684326172e-01,-8.031646609306335449e-01,2.610000000000000000e+02
-4.670810493288622638e+02,-5.209784704754260929e+02,-2.952663478126769405e+02,-3.515430654451765804e+02,-5.736908365349518135e+02,-6.050942011547977017e+02,-2.001839766499347206e+02,-3.291476106694149166e+02,9.523238182067871094e+00,-8.796565532684326172e-01,-8.031646609306335449e-01,2.620000000000000000e+02
-4.775751850069418651e+02,-5.302237306729884949e+02,-3.062989416450855060e+02,-3.626053834309723243e+02,-5.838842112717074997e+02,-6.159596039519647093e+02,-2.118221551091064612e+02,-3.373085381777109433e+02,9.523238182067871094e+00,-8.796565532684326172e-01,-8.031646609306335449e-01,2.630000000000000000e+02
-4.863652874939096478e+02,-5.388614649324827042e+02,-3.170933663508886866e+02,-3.731741135294726064e+02,-5.946317580471026076e+02,-6.264852914417234615e+02,-2.251247662458931700e+02,-3.466176846823352662e+02,9.523238182067871094e+00,-8.796565532684326172e-01,-8.031646609306335449e-01,2.640000000000000000e+02
-4.934365195862910696e+02,-5.466231393372301000e+02,-3.268898553317138749e+02,-3.827439824686579186e+02,-6.063494897959932359e+02,-6.371087430692181215e+02,-2.370379981943735856e+02,-3.566729199475728365e+02,9.523238182067871094e+00,-8.796565532684326172e-01,-8.031646609306335449e-01,2.650000000000000000e+02
-4.994556218545679940e+02,-5.534669229034674345e+02,-3.350654122260930308e+02,-3.910464092539833700e+02,-6.184143460852367298e+02,-6.478101931500248156e+02,-2.456102427441081772e+02,-3.667406702355600601e+02,9.523238182067871094e+00,-8.796565532684326172e-01,-8.031646609306335449e-01,2.660000000000000000e+02
-5.051921838124536634e+02,-5.594605097170099270e+02,-3.412929103705270109e+02,-3.981118802867617887e+02,-6.293834748742735883e+02,-6.580474416913639288e+02,-2.509453594324800179e+02,-3.759811284269557063e+02,9.523238182067871094e+00,-8.796565532684326172e-01,-8.031646609306335449e-01,2.670000000000000000e+02
-5.109083931377613794e+02,-5.646049258466947549e+02,-3.454416013171176019e+02,-4.040054564867373301e+02,-6.376992661357440966e+02,-6.670358777009545292e+02,-2.544773774438259579e+02,-3.835536708186838268e+02,9.523238182067871094e+00,-8.796565532684326172e-01,-8.031646609306335449e-01,2.680000000000000000e+02
-5.162016283866796584e+02,-5.688294178743539078e+02,-3.474771609815663851e+02,-4.084859503784564367e+02,-6.424441291170641080e+02,-6.740819752192247734e+02,-2.575021838514730916e+02,-3.887481634989275108e+02,9.523238182067871094e+00,-8.796565532684326172e-01,-8.031646609306335449e-01,2.690000000000000000e+02
-5.203809478274124558e+02,-5.721511178196537912e+02,-3.475604279442419511e+02,-4.109756759539601489e+02,-6.437031332892621549e+02,-6.787492010569653758e+02,-2.602405278722574167e+02,-3.912201420516438475e+02,9.523238182067871094e+00,-8.796565532684326172e-01,-8.031646609306335449e-01,2.700000000000000000e+02
-5.230251873609789754e+02,-5.747498753595757535e+02,-3.462300043120478676e+02,-4.109965270381580922e+02,-6.423901793741694064e+02,-6.809025360226145267e+02,-2.619773240090222544e+02,-3.911997521141302059e+02,9.523238182067871094e+00,-8.796565532684326172e-01,-8.031646609306335449e-01,2.710000000000000000e+02
-5.242737452565124840e+02,-5.768115483159315318e+02,-3.443623476654411206e+02,-4.087970723616906525e+02,-6.397665092593350664e+02,-6.808027544072043611e+02,-2.618938475443389962e+02,-3.894634848285271573e+02,9.523238182067871094e+00,-8.796565532684326172e-01,-8.031646609306335449e-01,2.720000000000000000e+02
-5.246666367178925157e+02,-5.782983028685616773e+02,-3.427649788070714294e+02,-4.056020907837166760e+02,-6.369801420271070356e+02,-6.792347998439605590e+02,-2.598009956774536704e+02,-3.870021883175980975e+02,9.523238182067871094e+00,-8.796565532684326172e-01,-8.031646609306335449e-01,2.730000000000000000e+02
-5.247227632410972546e+02,-5.789451832939095084e+02,-3.416643488900674583e+02,-4.031102413131736739e+02,-6.347899149688860234e+02,-6.774077238752640824e+02,-2.562762781364556304e+02,-3.845576377084465776e+02,9.523238182067871094e+00,-8.796565532684326172e-01,-8.031646609306335449e-01,2.740000000000000000e+02
-5.246082064630458035e+02,-5.785545942768831083e+02,-3.405515145074728025e+02,-4.024767845620539219e+02,-6.334405928262084444e+02,-6.764552600294407512e+02,-2.522470820515237619e+02,-3.823284397872530462e+02,9.523238182067871094e+00,-8.796565532684326172e-01,-8.031646609306335449e-01,2.750000000000000000e+02
-5.241441346019148568e+02,-5.773011075398368348e+02,-3.386097000274264701e+02,-4.035502954281220127e+02,-6.326601755504455014e+02,-6.767781019874697677e+02,-2.484385342801710976e+02,-3.800527062518344792e+02,9.523238182067871094e+00,-8.796565532684326172e-01,-8.031646609306335449e-01,2.760000000000000000e+02
-5.231209243149401118e+02,-5.756982810675219753e+02,-3.354408581073848836e+02,-4.050182004929129107e+02,-6.318494756392681211e+02,-6.777664135762104252e+02,-2.451206622032548239e+02,-3.773794581565631461e+02,9.523238182067871094e+00,-8.796565532684326172e-01,-8.031646609306335449e-01,2.770000000000000000e+02
-5.216414162262524314e+02,-5.742245904528094798e+02,-3.314837020302514929e+02,-4.053882187524063738e+02,-6.304704318470975295e+02,-6.782193162119132239e+02,-2.422702518373334897e+02,-3.742100180531023170e+02,9.523238182067871094e+00,-8.796565532684326172e-01,-8.031646609306335449e-01,2.780000000000000000e+02
-5.201831039942111374e+02,-5.729828013570576104e+02,-3.277502181017969178e+02,-4.040063310352984445e+02,-6.284196868165099659e+02,-6.771751314490259119e+02,-2.399158167475635537e+02,-3.707323589481970885e+02,9.523238182067871094e+00,-8.796565532684326172e-01,-8.031646609306335449e-01,2.790000000000000000e+02
-5.192769334096100238e+02,-5.717363225727408462e+02,-3.250866608479412889e+02,-4.012955559605863982e+02,-6.260565869380930053e+02,-6.744861163301980014e+02,-2.382710409550095392e+02,-3.671494483069699299e+02,9.523238182067871094e+00,-8.796565532684326172e-01,-8.031646609306335449e-01,2.800000000000000000e+02
-5.190387963522632617e+02,-5.702714514240794870e+02,-3.235799079610648050e+02,-3.981360374452369797e+02,-6.238059263793466016e+02,-6.707215346758231362e+02,-2.374834850416044674e+02,-3.634023753464994115e+02,9.523238182067871094e+00,-8.796565532684326172e-01,-8.031646609306335449e-01,2.810000000000000000e+02
-5.189804415052024069e+02,-5.686981213705754499e+02,-3.226023501826754227e+02,-3.950881486532691724e+02,-6.217135276320159392e+02,-6.666324056654673313e+02,-2.372455602477259617e+02,-3.592177169149093743e+02,9.523238182067871094e+00,-8.796565532684326172e-01,-8.031646609306335449e-01,2.820000000000000000e+02
-5.183405987896937859e+02,-5.673674474858894428e+02,-3.214006046337735825e+02,-3.921944487338843146e+02,-6.194260456335248364e+02,-6.627401932092052448e+02,-2.367024053374285586e+02,-3.544775502867330488e+02,9.523238182067871094e+00,-8.796565532684326172e-01,-8.031646609306335449e-01,2.830000000000000000e+02
-5.167158809459518807e+02,-5.664938720605875915e+02,-3.196453159010833360e+02,-3.893883859063508908e+02,-6.166341767166018144e+02,-6.593403123189268626e+02,-2.348636942003712420e+02,-3.495360984732293446e+02,9.523238182067871094e+00,-8.796565532684326172e-01,-8.031646609306335449e-01,2.840000000000000000e+02
-5.144468155664320648e+02,-5.658745384839902499e+02,-3.174492508462875549e+02,-3.868730378951125886e+02,-6.134697148985578679e+02,-6.566837204523899345e+02,-2.312427074772317610e+02,-3.450928764390085917e+02,9.523238182067871094e+00,-8.796565532684326172e-01,-8.031646609306335449e-01,2.850000000000000000e+02
-5.123847429273046146e+02,-5.649610734074212814e+02,-3.149403173756380738e+02,-3.849156331958608916e+02,-6.103493974748672599e+02,-6.549323621393141366e+02,-2.261976405988697252e+02,-3.416353157848228648e+02,9.523238182067871094e+00,-8.796565532684326172e-01,-8.031646609306335449e-01,2.860000000000000000e+02
-5.112239957978222265e+02,-5.631805508031181944e+02,-3.119401973192904052e+02,-3.832581952229718354e+02,-6.073859451293571965e+02,-6.538662764598111607e+02,-2.206893016152502014e+02,-3.389365506759374966e+02,9.523238182067871094e+00,-8.796565532684326172e-01,-8.031646609306335449e-01,2.870000000000000000e+02
-5.110041737634338119e+02,-5.602094848402733760e+02,-3.081616073606994632e+02,-3.808912685934828914e+02,-6.040535545811344491e+02,-6.527340529857289084e+02,-2.156622772261218870e+02,-3.361214139360466788e+02,9.523238182067871094e+00,-8.796565532684326172e-01,-8.031646609306335449e-01,2.880000000000000000e+02
-5.112174772132601674e+02,-5.560227417232922562e+02,-3.037173432543343097e+02,-3.766272264672842311e+02,-5.996045974044861850e+02,-6.505551697387417107e+02,-2.115404343256554967e+02,-3.322997790822033721e+02,9.523238182067871094e+00,-8.796565532684326172e-01,-8.031646609306335449e-01,2.890000000000000000e+02
-5.113523633434353428e+02,-5.508067403530130832e+02,-2.993272816487628916e+02,-3.700623565741119592e+02,-5.939195264551142373e+02,-6.467029978204610643e+02,-2.081606068140681600e+02,-3.272272509696177849e+02,9.523238182067871094e+00,-8.796565532684326172e-01,-8.031646609306335449e-01,2.900000000000000000e+02
-5.112774813141228947e+02,-5.449138131202871591e+02,-2.958749030657779713e+02,-3.620299708540950974e+02,-5.879005822736328355e+02,-6.412514487594773982e+02,-2.050694777409900098e+02,-3.214093735522792485e+02,9.484992027282714844e+00,-7.649186849594116211e-01,-7.649186849594116211e-01,2.910000000000000000e+02
-5.110828892410988828e+02,-5.388776491861751765e+02,-2.936507618624557949e+02,-3.540858233788094935e+02,-5.828808982316542142e+02,-6.347983745856770383e+02,-2.018632176223352417e+02,-3.155877190707734599e+02,9.484992027282714844e+00,-7.649186849594116211e-01,-7.649186849594116211e-01,2.920000000000000000e+02
-5.106362691503474025e+02,-5.333540764722147287e+02,-2.920188435791964139e+02,-3.474959922649535997e+02,-5.795098346593634915e+02,-6.280191267077577777e+02,-1.983491834281722959e+02,-3.101315132985054106e+02,9.484992027282714844e+00,-7.649186849594116211e-01,-7.649186849594116211e-01,2.930000000000000000e+02
-5.094451162536599895e+02,-5.289096555750732023e+02,-2.898801907227719994e+02,-3.426254072941860613e+02,-5.771522835577096657e+02,-6.214006596289068511e+02,-1.945365244595316199e+02,-3.048832452016370098e+02,9.484992027282714844e+00,-7.649186849594116211e-01,-7.649186849594116211e-01,2.940000000000000000e+02
-5.070656381401497015e+02,-5.257689530141144587e+02,-2.865402481086886155e+02,-3.391478626212457357e+02,-5.743873338813974669e+02,-6.152933453971234030e+02,-1.905525169500521088e+02,-2.994842578881597319e+02,9.484992027282714844e+00,-7.649186849594116211e-01,-7.649186849594116211e-01,2.950000000000000000e+02
-5.036527195283052265e+02,-5.237384044533731640e+02,-2.822021483466735958e+02,-3.366808943279346522e+02,-5.701594883899218758e+02,-6.100090968951581090e+02,-1.865585422722267595e+02,-2.937441418423090909e+02,9.484992027282714844e+00,-7.649186849594116211e-01,-7.649186849594116211e-01,2.960000000000000000e+02
-5.000225510204455759e+02,-5.223859216152989120e+02,-2.776909696218682484e+02,-3.351465557188685125e+02,-5.645517915001571509e+02,-6.057011693986585215e+02,-1.826866924164256716e+02,-2.876920228131409658e+02,9.484992027282714844e+00,-7.649186849594116211e-01,-7.649186849594116211e-01,2.970000000000000000e+02
-4.970889187132627285e+02,-5.213246415707133110e+02,-2.737565079724982979e+02,-3.345941479974727599e+02,-5.585700702567182816e+02,-6.021449237596359580e+02,-1.790242864851912827e+02,-2.814121139089866119e+02,9.484992027282714844e+00,-7.649186849594116211e-01,-7.649186849594116211e-01,2.980000000000000000e+02
-4.951921426401482904e+02,-5.203574749057106601e+02,-2.706422267019466972e+02,-3.348378157532252999e+02,-5.532716148751088667e+02,-5.987874916792511613e+02,-1.756746908969781771e+02,-2.750438981893838672e+02,9.484992027282714844e+00,-7.649186849594116211e-01,-7.649186849594116211e-01,2.990000000000000000e+02
-4.939553160588209266e+02,-5.194006911929795933e+02,-2.682355395827437405e+02,-3.353884791357952508e+02,-5.491061185954791881e+02,-5.951949279054588260e+02,-1.728459883090791891e+02,-2.690653340787060870e+02,9.484992027282714844e+00,-7.649186849594116211e-01,-7.649186849594116211e-01,3.000000000000000000e+02
-4.927617321548727887e+02,-5.183307252895936017e+02,-2.665008313810928939e+02,-3.357343741605474179e+02,-5.459816905275387171e+02,-5.915313428035727839e+02,-1.708526785504693635e+02,-2.644838009188465549e+02,9.484992027282714844e+00,-7.649186849594116211e-01,-7.649186849594116211e-01,3.010000000000000000e+02
-4.913368577553176237e+02,-5.169377313812735792e+02,-2.656741392148139198e+02,-3.356229800902768829e+02,-5.437971024165852896e+02,-5.885464698083014810e+02,-1.699710374651905340e+02,-2.624801060507326156e+02,9.484992027282714844e+00,-7.649186849594116211e-01,-7.649186849594116211e-01,3.020000000000000000e+02
-4.898801478111442975e+02,-5.150406971376794445e+02,-2.660418140706083250e+02,-3.350709492282542215e+02,-5.427822209866435514e+02,-5.869865275377588887e+02,-1.702522251068679680e+02,-2.635908802736358894e+02,9.484992027282714844e+00,-7.649186849594116211e-01,-7.649186849594116211e-01,3.030000000000000000e+02
-4.887061628524297703e+02,-5.126508989692226805e+02,-2.675644872309547395e+02,-3.342021388869798102e+02,-5.432641671041312748e+02,-5.869250500345633554e+02,-1.714628851697012806e+02,-2.670941631685999482e+02,9.484992027282714844e+00,-7.649186849594116211e-01,-7.649186849594116211e-01,3.040000000000000000e+02
-4.878350279632784918e+02,-5.100149338234870129e+02,-2.697024876380124851e+02,-3.331815069654153376e+02,-5.451012086907810499e+02,-5.876219791567973516e+02,-1.731870967370981589e+02,-2.712245125934634871e+02,9.484992027282714844e+00,-7.649186849594116211e-01,-7.649186849594116211e-01,3.050000000000000000e+02
-4.869399492071979694e+02,-5.074927732987654281e+02,-2.715650547422659997e+02,-3.323020310389223368e+02,-5.473809726148535901e+02,-5.880411650142719964e+02,-1.749638815674904890e+02,-2.741580227439411601e+02,9.484992027282714844e+00,-7.649186849594116211e-01,-7.649186849594116211e-01,3.060000000000000000e+02
-4.856237645792832609e+02,-5.053605372872360135e+02,-2.722392136019773830e+02,-3.319568706229817963e+02,-5.487369370777423683e+02,-5.875400789959949179e+02,-1.763213744061915804e+02,-2.749846937278143741e+02,9.484992027282714844e+00,-7.649186849594116211e-01,-7.649186849594116211e-01,3.070000000000000000e+02
-4.836868879374028438e+02,-5.036508379042854813e+02,-2.711085056192941920e+02,-3.322847675633216795e+02,-5.480747958087149527e+02,-5.861017604914070489e+02,-1.767349720569228566e+02,-2.738793926944932764e+02,9.484992027282714844e+00,-7.649186849594116211e-01,-7.649186849594116211e-01,3.080000000000000000e+02
-4.811696509828636295e+02,-5.021049862233818430e+02,-2.680801734274448336e+02,-3.327250496036870118e+02,-5.451361451516179386e+02,-5.839530101352528391e+02,-1.756856544194962453e+02,-2.714246635509125554e+02,9.484992027282714844e+00,-7.649186849594116211e-01,-7.649186849594116211e-01,3.090000000000000000e+02
-4.782652574891460517e+02,-5.002659824109666715e+02,-2.636748620446473979e+02,-3.320352837345870967e+02,-5.404753164988067056e+02,-5.810108183075363968e+02,-1.729186923495545898e+02,-2.678244773376211469e+02,9.484992027282714844e+00,-7.649186849594116211e-01,-7.649186849594116211e-01,3.100000000000000000e+02
-4.752796629913552806e+02,-4.976896359769991705e+02,-2.588706883939382806e+02,-3.290133840758516044e+02,-5.349327523938065951e+02,-5.767429366582016428e+02,-1.687257706521685350e+02,-2.627782329891130075e+02,9.484992027282714844e+00,-7.649186849594116211e-01,-7.649186849594116211e-01,3.110000000000000000e+02
-4.726305216571339542e+02,-4.942019552549191985e+02,-2.546520346133129920e+02,-3.234666095962062968e+02,-5.290767756767579613e+02,-5.706120026288508598e+02,-1.639468262830763479e+02,-2.560555511019600772e+02,9.484992027282714844e+00,-8.414105772972106934e-01,-7.266727685928344727e-01,3.120000000000000000e+02
-4.707218844562935374e+02,-4.900714548168289184e+02,-2.514678341464812092e+02,-3.165880102390281081e+02,-5.230618731356632907e+02,-5.626975420779654087e+02,-1.595855093020763888e+02,-2.481094361007684483e+02,9.484992027282714844e+00,-8.414105772972106934e-01,-7.266727685928344727e-01,3.130000000000000000e+02
-4.696597287283818787e+02,-4.859495330401611000e+02,-2.490105638247912339e+02,-3.102935143614678850e+02,-5.169237144168095028e+02,-5.538945334463944619e+02,-1.562900163532327724e+02,-2.400562425788037899e+02,9.484992027282714844e+00,-8.414105772972106934e-01,-7.266727685928344727e-01,3.140000000000000000e+02
-4.690484578988628073e+02,-4.825628385114256389e+02,-2.465739736319692383e+02,-3.059845374178710244e+02,-5.109454205368051589e+02,-5.454774735033538491e+02,-1.541082503346588055e+02,-2.330370382340572633e+02,9.484992027282714844e+00,-8.414105772972106934e-01,-7.266727685928344727e-01,3.150000000000000000e+02
-4.681396450143365655e+02,-4.803243311283119965e+02,-2.437427503382162968e+02,-3.037649764941675130e+02,-5.057181003183522989e+02,-5.384139329545578221e+02,-1.526953113515889981e+02,-2.276134115780726006e+02,9.484992027282714844e+00,-8.414105772972106934e-01,-7.266727685928344727e-01,3.160000000000000000e+02
-4.663150570540667559e+02,-4.791247807693309824e+02,-2.408142527478649413e+02,-3.027550919911950587e+02,-5.018418466304769936e+02,-5.330143234442748508e+02,-1.517471918702094626e+02,-2.237631967973106839e+02,9.484992027282714844e+00,-8.414105772972106934e-01,-7.266727685928344727e-01,3.170000000000000000e+02
-4.635397745579740558e+02,-4.784535585517039635e+02,-2.385615977240436223e+02,-3.021326123121077671e+02,-4.995394160528037446e+02,-5.291319825574549895e+02,-1.512496610510568189e+02,-2.213588155994837052e+02,9.484992027282714844e+00,-8.414105772972106934e-01,-7.266727685928344727e-01,3.180000000000000000e+02
-4.604002265043664011e+02,-4.777514132885470417e+02,-2.375347741441452172e+02,-3.018730104603425843e+02,-4.984907502701304338e+02,-5.265819996102770801e+02,-1.513400293198244526e+02,-2.204907292989845473e+02,9.484992027282714844e+00,-8.414105772972106934e-01,-7.266727685928344727e-01,3.190000000000000000e+02
-4.576844696366628114e+02,-4.767154323719313425e+02,-2.375288202721606012e+02,-3.024774156106700502e+02,-4.979660417777809016e+02,-5.252564612462264222e+02,-1.519448270389992786e+02,-2.211883059271283400e+02,9.484992027282714844e+00,-8.414105772972106934e-01,-7.266727685928344727e-01,3.200000000000000000e+02
-4.558242755239956523e+02,-4.753283789163618849e+02,-2.376901694898742790e+02,-3.040045519837617576e+02,-4.971132437962596669e+02,-5.248180238378433842e+02,-1.525516980528449267e+02,-2.228210284534999346e+02,9.484992027282714844e+00,-8.414105772972106934e-01,-7.266727685928344727e-01,3.210000000000000000e+02
-4.546171198193985674e+02,-4.736470355020273928e+02,-2.371398707555140390e+02,-3.054767635817211158e+02,-4.952548482053216503e+02,-5.244306972706012857e+02,-1.523771783612698982e+02,-2.239607929910062012e+02,9.484992027282714844e+00,-8.414105772972106934e-01,-7.266727685928344727e-01,3.220000000000000000e+02
-4.533900322055337710e+02,-4.715981494148852562e+02,-2.355380444615630040e+02,-3.053902520059899643e+02,-4.921275707105321544e+02,-5.230314696989648837e+02,-1.508696929495649783e+02,-2.231211850476572636e+02,9.484992027282714844e+00,-8.414105772972106934e-01,-7.266727685928344727e-01,3.230000000000000000e+02
-4.514368306854483990e+02,-4.689991053841423536e+02,-2.331465307339276478e+02,-3.029547143243341907e+02,-4.880108932937168902e+02,-5.200691076186329838e+02,-1.481987930676077667e+02,-2.198661349273804717e+02,9.484992027282714844e+00,-8.414105772972106934e-01,-7.266727685928344727e-01,3.240000000000000000e+02
-4.484329823973662315e+02,-4.657822289908198172e+02,-2.304497288928123453e+02,-2.988796743245823109e+02,-4.836251145438666299e+02,-5.160131913399459336e+02,-1.453347904423172849e+02,-2.152538204422635317e+02,9.484992027282714844e+00,-8.414105772972106934e-01,-7.266727685928344727e-01,3.250000000000000000e+02
-4.446208236137208587e+02,-4.621917162170279880e+02,-2.277788123957692505e+02,-2.948735171391354015e+02,-4.797429098572252997e+02,-5.120195376806758532e+02,-1.435568793224082356e+02,-2.110699424327726774e+02,9.484992027282714844e+00,-8.414105772972106934e-01,-7.266727685928344727e-01,3.260000000000000000e+02
-4.406853266197788344e+02,-4.587320015520870129e+02,-2.252614392915926373e+02,-2.922465219521355948e+02,-4.766987968708347125e+02,-5.089399655158606492e+02,-1.436068639760609358e+02,-2.084140693080855726e+02,9.484992027282714844e+00,-8.414105772972106934e-01,-7.266727685928344727e-01,3.270000000000000000e+02
-4.373797248510037434e+02,-4.558646782841733511e+02,-2.229976562787105649e+02,-2.908891353153233013e+02,-4.741593569007269480e+02,-5.065809743655287321e+02,-1.450074166141171190e+02,-2.068696503806226019e+02,9.484992027282714844e+00,-8.414105772972106934e-01,-7.266727685928344727e-01,3.280000000000000000e+02
-4.350804195896200781e+02,-4.536629708088249799e+02,-2.211283378817327048e+02,-2.895411360184166369e+02,-4.713866078673111133e+02,-5.039310822131615168e+02,-1.460782320721502856e+02,-2.049904763428041861e+02,9.484992027282714844e+00,-8.414105772972106934e-01,-7.266727685928344727e-01,3.290000000000000000e+02
-4.335213180747848583e+02,-4.516770891004787245e+02,-2.196593369092669263e+02,-2.870388584019067366e+02,-4.678140260674474575e+02,-5.001374536992864250e+02,-1.448059043715508096e+02,-2.016318459444978544e+02,9.484992027282714844e+00,-8.414105772972106934e-01,-7.266727685928344727e-01,3.300000000000000000e+02
-4.319216682837021608e+02,-4.491370280307922940e+02,-2.182808508060895747e+02,-2.833481365617245729e+02,-4.634735859474330937e+02,-4.952843051062907307e+02,-1.401578340740163640e+02,-1.969152667758862663e+02,9.484992027282714844e+00,-8.414105772972106934e-01,-7.266727685928344727e-01,3.310000000000000000e+02
-4.294920420992946219e+02,-4.454021097662913462e+02,-2.165159230236938583e+02,-2.794861649922847846e+02,-4.589392236940304883e+02,-4.902478107749658420e+02,-1.330138885882571458e+02,-1.920289024299071343e+02,9.484992027282714844e+00,-8.414105772972106934e-01,-7.266727685928344727e-01,3.320000000000000000e+02
-4.259987052959220364e+02,-4.404072436604924405e+02,-2.141879337602470059e+02,-2.765586707133707023e+02,-4.548878865580741149e+02,-4.858704703105931912e+02,-1.259930449689933312e+02,-1.882091504074755903e+02,9.484992027282714844e+00,-8.414105772972106934e-01,-7.266727685928344727e-01,3.330000000000000000e+02
-4.219676834370243341e+02,-4.348243923754392881e+02,-2.117759579901905909e+02,-2.749507789143749505e+02,-4.516965542990167251e+02,-4.823687111473636833e+02,-1.221202195800158279e+02,-1.859416231349511008e+02,9.484992027282714844e+00,-8.414105772972106934e-01,-7.266727685928344727e-01,3.340000000000000000e+02
-4.183389706980213987e+02,-4.297795360343191078e+02,-2.101995270982749844e+02,-2.743810839383236271e+02,-4.493654434187127436e+02,-4.795226224756447664e+02,-1.230566564880675742e+02,-1.850076309644858839e+02,9.484992027282714844e+00,-8.414105772972106934e-01,-7.266727685928344727e-01,3.350000000000000000e+02
-4.157966902138679188e+02,-4.262168960467829493e+02,-2.100589492829245728e+02,-2.745262658111075780e+02,-4.476834708054229850e+02,-4.772673455052931786e+02,-1.279964720261499451e+02,-1.850398397845007139e+02,9.484992027282714844e+00,-8.414105772972106934e-01,-7.266727685928344727e-01,3.360000000000000000e+02
-4.142782533666985501e+02,-4.242906327297778262e+02,-2.109466576058900955e+02,-2.753763095331636350e+02,-4.463622492039360168e+02,-4.758714571028237970e+02,-1.339949781282160757e+02,-1.858049947749694866e+02,9.523238182067871094e+00,-8.414105772972106934e-01,-6.501809358596801758e-01,3.370000000000000000e+02
-4.130363825611683524e+02,-4.232279626962576913e+02,-2.115035079837468857e+02,-2.769073143491490328e+02,-4.450043756744485108e+02,-4.754177954066701659e+02,-1.375949331866539751e+02,-1.869265066971105398e+02,9.523238182067871094e+00,-8.414105772972106934e-01,-6.501809358596801758e-01,3.380000000000000000e+02
-4.112115415727881782e+02,-4.218431051833962329e+02,-2.103236116263907434e+02,-2.785489181806586885e+02,-4.430784743046833682e+02,-4.752172808784332574e+02,-1.367869011249907771e+02,-1.875729071270269515e+02,9.523238182067871094e+00,-8.414105772972106934e-01,-6.501809358596801758e-01,3.390000000000000000e+02
-4.084892539282584494e+02,-4.193957818238850450e+02,-2.070547945352235502e+02,-2.792176854865731457e+02,-4.401240734496686855e+02,-4.739936256582859642e+02,-1.321076387109690131e+02,-1.867622176111326553e+02,9.523238182067871094e+00,-8.414105772972106934e-01,-6.501809358596801758e-01,3.400000000000000000e+02
-4.053406239161213307e+02,-4.161269906163602172e+02,-2.027703625452975302e+02,-2.780335550040794033e+02,-4.361211963708306030e+02,-4.708715866687095968e+02,-1.261851364711293400e+02,-1.841764721539486800e+02,9.523238182067871094e+00,-8.414105772972106934e-01,-6.501809358596801758e-01,3.410000000000000000e+02
-4.026457239853521060e+02,-4.129957080918716201e+02,-1.992129258779793872e+02,-2.750207988854873520e+02,-4.316606677436425343e+02,-4.662476543608263455e+02,-1.220053003325938334e+02,-1.806131551022347139e+02,9.523238182067871094e+00,-8.414105772972106934e-01,-6.501809358596801758e-01,3.420000000000000000e+02
-4.009679768717987827e+02,-4.107913742683313103e+02,-1.974623901941715758e+02,-2.710392013764699186e+02,-4.276319346307452633e+02,-4.615674745725523280e+02,-1.210097460897884503e+02,-1.774024986708741380e+02,9.523238182067871094e+00,-8.414105772972106934e-01,-6.501809358596801758e-01,3.430000000000000000e+02
-4.000359079704151100e+02,-4.093714541542331062e+02,-1.971316277631727871e+02,-2.670062202432397953e+02,-4.245968541612583067e+02,-4.580922698571453111e+02,-1.222947910300013064e+02,-1.752210976343421862e+02,9.523238182067871094e+00,-8.414105772972106934e-01,-6.501809358596801758e-01,3.440000000000000000e+02
-3.988686694275759237e+02,-4.077142665394858341e+02,-1.968030147598240092e+02,-2.632256505356677962e+02,-4.223985119161839066e+02,-4.558020033068994508e+02,-1.234614354107600320e+02,-1.735106817613195744e+02,9.523238182067871094e+00,-8.414105772972106934e-01,-6.501809358596801758e-01,3.450000000000000000e+02
-3.965071356127016315e+02,-4.047723580943620618e+02,-1.953550873833094101e+02,-2.595084096706067385e+02,-4.204026027109457573e+02,-4.535285254942455140e+02,-1.224862406006111542e+02,-1.711927040481614313e+02,9.523238182067871094e+00,-8.414105772972106934e-01,-6.501809358596801758e-01,3.460000000000000000e+02
-3.928075885471994297e+02,-4.003712129199006995e+02,-1.930019718434086826e+02,-2.558528480172906256e+02,-4.181722669266034700e+02,-4.502229967727434996e+02,-1.192011810239737315e+02,-1.679986583336208241e+02,9.523238182067871094e+00,-8.414105772972106934e-01,-6.501809358596801758e-01,3.470000000000000000e+02
-3.886367341398911321e+02,-3.953294274610934735e+02,-1.910609394544836732e+02,-2.527971115103118791e+02,-4.158896024599866905e+02,-4.460943938070070089e+02,-1.152318025714630494e+02,-1.649557098575080545e+02,9.523238182067871094e+00,-8.414105772972106934e-01,-6.501809358596801758e-01,3.480000000000000000e+02
-3.852392707989085920e+02,-3.906958052571258122e+02,-1.905910324130322806e+02,-2.509203462677153311e+02,-4.140268807845613992e+02,-4.424442650211110504e+02,-1.124769989418848581e+02,-1.633501848017024258e+02,9.523238182067871094e+00,-8.414105772972106934e-01,-6.501809358596801758e-01,3.490000000000000000e+02
-3.832560083739742822e+02,-3.868373169270510061e+02,-1.911539255136797237e+02,-2.499928449861652098e+02,-4.125326580623357131e+02,-4.403125338266524977e+02,-1.114569620011909592e+02,-1.631344287076481123e+02,9.523238182067871094e+00,-8.414105772972106934e-01,-6.501809358596801758e-01,3.500000000000000000e+02
-3.822236509380684311e+02,-3.832506336898964037e+02,-1.909522992810739197e+02,-2.488085128041298049e+02,-4.104128640328272013e+02,-4.392811063204549100e+02,-1.109934220760073913e+02,-1.625213443445516077e+02,9.523238182067871094e+00,-8.414105772972106934e-01,-6.501809358596801758e-01,3.510000000000000000e+02
-3.810137008563579002e+02,-3.792568063305375290e+02,-1.883801756282412043e+02,-2.461207521011310746e+02,-4.063422865857960460e+02,-4.376954492902718812e+02,-1.094932235543819843e+02,-1.594621931344090626e+02,9.523238182067871094e+00,-8.414105772972106934e-01,-6.501809358596801758e-01,3.520000000000000000e+02
-3.788286985662127790e+02,-3.748576290724886348e+02,-1.836430729932985741e+02,-2.419072115363346711e+02,-3.999344100421697021e+02,-4.341736511322412753e+02,-1.066250862248261910e+02,-1.537544435465065362e+02,9.523238182067871094e+00,-8.414105772972106934e-01,-6.501809358596801758e-01,3.530000000000000000e+02
-3.758416521659814862e+02,-3.708689696484170781e+02,-1.788916841440229746e+02,-2.376943779483062826e+02,-3.924862216843193892e+02,-4.289728905012545965e+02,-1.037904287093529092e+02,-1.476957520545888656e+02,9.523238182067871094e+00,-8.414105772972106934e-01,-6.501809358596801758e-01,3.540000000000000000e+02
-3.728939293922692286e+02,-3.681600713580951378e+02,-1.765977590253537528e+02,-2.354777347698118319e+02,-3.863360105742947326e+02,-4.238857271930291972e+02,-1.029107508885062998e+02,-1.444473837875507343e+02,9.523238182067871094e+00,-8.414105772972106934e-01,-6.501809358596801758e-01,3.550000000000000000e+02
-3.705718188985488268e+02,-3.667264296177170309e+02,-1.775178444571383807e+02,-2.361051167365887977e+02,-3.832130638435223773e+02,-4.207351249160631141e+02,-1.046409050378620123e+02,-1.454611826180682783e+02,9.523238182067871094e+00,-8.414105772972106934e-01,-6.501809358596801758e-01,3.560000000000000000e+02
-3.686060695208416291e+02,-3.655080222600836350e+02,-1.800506478825832346e+02,-2.385369800160283376e+02,-3.829665761171809208e+02,-4.198587602416280333e+02,-1.076626290217964197e+02,-1.492836500911153053e+02,9.523238182067871094e+00,-8.414105772972106934e-01,-6.501809358596801758e-01,3.570000000000000000e+02
-3.662082979132842411e+02,-3.631711581742470116e+02,-1.815658706512524532e+02,-2.406059689743165109e+02,-3.837998894527688662e+02,-4.199300314693939526e+02,-1.096885489040437278e+02,-1.527872087447508420e+02,9.523238182067871094e+00,-8.414105772972106934e-01,-6.501809358596801758e-01,3.580000000000000000e+02
-3.629831318468811787e+02,-3.591795558114158666e+02,-1.804908170154483287e+02,-2.405412455588830198e+02,-3.837466581048693115e+02,-4.191475179147278141e+02,-1.092079034188038804e+02,-1.536277879873723577e+02,9.523238182067871094e+00,-8.414105772972106934e-01,-6.501809358596801758e-01,3.590000000000000000e+02
-3.594492751832199247e+02,-3.542371984936003173e+02,-1.773226709539237618e+02,-2.379593457370854139e+02,-3.820159660806245938e+02,-4.165908495376600058e+02,-1.064172101534741159e+02,-1.517020981699577078e+02,9.523238182067871094e+00,-8.414105772972106934e-01,-6.501809358596801758e-01,3.600000000000000000e+02
-3.565959392205584209e+02,-3.497730156657969474e+02,-1.738040237328309559e+02,-2.336896714632166550e+02,-3.790786665475507107e+02,-4.125691471611851284e+02,-1.026976965169606046e+02,-1.485015054267860251e+02,9.523238182067871094e+00,-8.414105772972106934e-01,-6.501809358596801758e-01,3.610000000000000000e+02
-3.549011518321940457e+02,-3.469626722066002458e+02,-1.712211541024587405e+02,-2.289234655680756987e+02,-3.756833996445336652e+02,-4.079247070019991952e+02,-9.938670686590512560e+01,-1.453261567475410629e+02,9.523238182067871094e+00,-8.414105772972106934e-01,-6.501809358596801758e-01,3.620000000000000000e+02
-3.538009528103848425e+02,-3.460579322639832753e+02,-1.694488322334759687e+02,-2.245889586857776976e+02,-3.719659896237137673e+02,-4.032024980431463064e+02,-9.701852904629549812e+01,-1.422096504306196039e+02,9.523238182067871094e+00,-8.414105772972106934e-01,-6.501809358596801758e-01,3.630000000000000000e+02
-3.521624575877756342e+02,-3.464081295922728714e+02,-1.674581343252557417e+02,-2.213110717451272649e+02,-3.675165312621847988e+02,-3.984880211512117967e+02,-9.546149900125010390e+01,-1.384155436588425800e+02,9.561484336853027344e+00,-9.179025292396545410e-01,-6.884268522262573242e-01,3.640000000000000000e+02
-3.493043447075490349e+02,-3.469614902225375772e+02,-1.645590108669514393e+02,-2.195516681914050423e+02,-3.621381969490030315e+02,-3.938345915847266951e+02,-9.442574431711705074e+01,-1.336870463145119174e+02,9.561484336853027344e+00,-9.179025292396545410e-01,-6.884268522262573242e-01,3.650000000000000000e+02
-3.455751179342635169e+02,-3.467958399729395751e+02,-1.610918301850185799e+02,-2.194540138789104731e+02,-3.563419570651026334e+02,-3.896029307309713658e+02,-9.368500083083836216e+01,-1.288233810950832776e+02,9.561484336853027344e+00,-9.179025292396545410e-01,-6.884268522262573242e-01,3.660000000000000000e+02
-3.419790620416415550e+02,-3.454111154831421118e+02,-1.580379583818369156e+02,-2.205199238352865905e+02,-3.510486591101816884e+02,-3.862964238780321011e+02,-9.299128420877377721e+01,-1.250732754430500790e+02,9.561484336853027344e+00,-9.179025292396545410e-01,-6.884268522262573242e-01,3.670000000000000000e+02
-3.392854033943149261e+02,-3.427978930615047375e+02,-1.561478299451155181e+02,-2.216692293709336354e+02,-3.469144249839393979e+02,-3.841442859347412195e+02,-9.212252309265204531e+01,-1.231160153046960204e+02,9.561484336853027344e+00,-9.179025292396545410e-01,-6.884268522262573242e-01,3.680000000000000000e+02
-3.374923257508762617e+02,-3.393571845297865366e+02,-1.554993273335237518e+02,-2.218893327177590891e+02,-3.440376789761387499e+02,-3.829330901831940537e+02,-9.119969590407231408e+01,-1.226793851942948095e+02,9.561484336853027344e+00,-9.179025292396545410e-01,-6.884268522262573242e-01,3.690000000000000000e+02
-3.360664671329122939e+02,-3.356756314267004200e+02,-1.557559453713906805e+02,-2.209538915638192975e+02,-3.422416613654145294e+02,-3.822050616561659808e+02,-9.083071127840617009e+01,-1.230018569482235762e+02,9.561484336853027344e+00,-9.179025292396545410e-01,-6.884268522262573242e-01,3.700000000000000000e+02
-3.345738324185847432e+02,-3.321927716210252584e+02,-1.566263151422363080e+02,-2.194588988244822758e+02,-3.414143076395523622e+02,-3.814893960028182391e+02,-9.164116182943416788e+01,-1.234600834790198860e+02,9.561484336853027344e+00,-9.179025292396545410e-01,-6.884268522262573242e-01,3.710000000000000000e+02
-3.330011428670486566e+02,-3.289452504178602794e+02,-1.579590553143566467e+02,-2.180580015641769478e+02,-3.414137505582150425e+02,-3.802917040762340548e+02,-9.348444513269464551e+01,-1.237179973993420390e+02,9.561484336853027344e+00,-9.179025292396545410e-01,-6.884268522262573242e-01,3.720000000000000000e+02
-3.315080754250582231e+02,-3.256227829237873266e+02,-1.594820664050953383e+02,-2.166723511237382809e+02,-3.417221158024615306e+02,-3.780236255267295746e+02,-9.521474877846094387e+01,-1.235164052540899320e+02,9.561484336853027344e+00,-9.179025292396545410e-01,-6.884268522262573242e-01,3.730000000000000000e+02
-3.299993358434192032e+02,-3.219495337552050387e+02,-1.606641176347422970e+02,-2.145573136325615451e+02,-3.414657514126722617e+02,-3.742340234061205138e+02,-9.550670691507775700e+01,-1.226600256909232485e+02,9.561484336853027344e+00,-9.179025292396545410e-01,-6.884268522262573242e-01,3.740000000000000000e+02
-3.280589045928236374e+02,-3.180754713010423984e+02,-1.609891372938054701e+02,-2.112174469397962184e+02,-3.400135390254258709e+02,-3.690917286834662718e+02,-9.408770442138325052e+01,-1.213360886160903647e+02,9.561484336853027344e+00,-9.179025292396545410e-01,-6.884268522262573242e-01,3.750000000000000000e+02
-3.253556201787039299e+02,-3.146080564587100525e+02,-1.603897525964912347e+02,-2.072212172433223714e+02,-3.375941229840889264e+02,-3.635933106696770665e+02,-9.216516441546718852e+01,-1.202683350641389097e+02,9.561484336853027344e+00,-9.179025292396545410e-01,-6.884268522262573242e-01,3.760000000000000000e+02
-3.220751921828968989e+02,-3.122273494907115037e+02,-1.593545107329232451e+02,-2.039873130383136868e+02,-3.351753789713379774e+02,-3.590601888431792759e+02,-9.150106441199659457e+01,-1.202304128905611833e+02,9.561484336853027344e+00,-9.179025292396545410e-01,-6.884268522262573242e-01,3.770000000000000000e+02
-3.188829159085134961e+02,-3.112179339823337614e+02,-1.585493015684264719e+02,-2.026414176140101517e+02,-3.335632563407489215e+02,-3.561831149689805898e+02,-9.290916513784532071e+01,-1.212083086977797848e+02,9.561484336853027344e+00,-9.179025292396545410e-01,-6.884268522262573242e-01,3.780000000000000000e+02
-3.163877070113296668e+02,-3.113185962913280491e+02,-1.582798478719473678e+02,-2.030344974471506703e+02,-3.325551923854241068e+02,-3.544531687313701696e+02,-9.555983326367004338e+01,-1.221061862164360718e+02,9.561484336853027344e+00,-9.179025292396545410e-01,-6.884268522262573242e-01,3.790000000000000000e+02
-3.145619568734914537e+02,-3.119562794360494991e+02,-1.582478066372580088e+02,-2.038981948423293034e+02,-3.310116749794342468e+02,-3.525834003970030608e+02,-9.770500882489272954e+01,-1.215121671714498461e+02,9.561484336853027344e+00,-9.179025292396545410e-01,-6.884268522262573242e-01,3.800000000000000000e+02
-3.126560962189787460e+02,-3.125855260894181811e+02,-1.577694079231757769e+02,-2.040082956558253500e+02,-3.278358543194176491e+02,-3.496144550786784748e+02,-9.807307486678064379e+01,-1.189701798451671948e+02,9.561484336853027344e+00,-9.179025292396545410e-01,-6.884268522262573242e-01,3.810000000000000000e+02
-3.097319902617230127e+02,-3.128472803946713157e+02,-1.562479322085273452e+02,-2.032333922310613161e+02,-3.229545126525172236e+02,-3.457277285911559375e+02,-9.664229250408925509e+01,-1.155661782078568649e+02,9.561484336853027344e+00,-9.179025292396545410e-01,-6.884268522262573242e-01,3.820000000000000000e+02
-3.054086098168459102e+02,-3.125282732239336383e+02,-1.535669472760573626e+02,-2.024797578297775544e+02,-3.173952639775798161e+02,-3.420314851532521061e+02,-9.425604914084715347e+01,-1.132128583616768083e+02,9.561484336853027344e+00,-9.179025292396545410e-01,-6.884268522262573242e-01,3.830000000000000000e+02
-3.002356912365357857e+02,-3.115367797804126440e+02,-1.502153062911479537e+02,-2.026474691480821093e+02,-3.124596465158419960e+02,-3.395378715398655913e+02,-9.170982289967150791e+01,-1.132478034745072364e+02,9.561484336853027344e+00,-9.179025292396545410e-01,-6.884268522262573242e-01,3.840000000000000000e+02
-2.953992602903144871e+02,-3.100022551316226327e+02,-1.471283170589385918e+02,-2.036515735677985504e+02,-3.088204128735505947e+02,-3.382797748782691087e+02,-8.928611290982189530e+01,-1.156052860568033793e+02,9.561484336853027344e+00,-9.179025292396545410e-01,-6.884268522262573242e-01,3.850000000000000000e+02
-2.919612637667046329e+02,-3.083411026216424489e+02,-1.453053716040685686e+02,-2.044322013611649709e+02,-3.063321177544316924e+02,-3.373373823730266849e+02,-8.701809814262969667e+01,-1.192029427059169393e+02,9.561484336853027344e+00,-9.179025292396545410e-01,-6.884268522262573242e-01,3.860000000000000000e+02
-2.901956281303662308e+02,-3.070871709620155343e+02,-1.453299902393482625e+02,-2.038733149316985873e+02,-3.045521375057519435e+02,-3.356896329106634767e+02,-8.512288272223622698e+01,-1.229964398327406343e+02,9.561484336853027344e+00,-9.179025292396545410e-01,-6.884268522262573242e-01,3.870000000000000000e+02
-2.894870638757167853e+02,-3.065350688477142285e+02,-1.470060048775176256e+02,-2.017051877240719477e+02,-3.032745648992899987e+02,-3.330690466485530123e+02,-8.398010965947560180e+01,-1.266186846555860939e+02,9.561484336853027344e+00,-9.179025292396545410e-01,-6.884268522262573242e-01,3.880000000000000000e+02
-2.888204017719288004e+02,-3.065214774508854134e+02,-1.493821162161607390e+02,-1.986015167645900874e+02,-3.025113835762340386e+02,-3.300751228801468642e+02,-8.372827027637367792e+01,-1.301373616637943087e+02,9.561484336853027344e+00,-9.179025292396545410e-01,-6.884268522262573242e-01,3.890000000000000000e+02
-2.874578876112705075e+02,-3.065982564355849718e+02,-1.512431250954398365e+02,-1.955347125910616342e+02,-3.020715241744360355e+02,-3.275409858581306253e+02,-8.407979526810549942e+01,-1.334759368225440994e+02,9.561484336853027344e+00,-9.179025292396545410e-01,-6.884268522262573242e-01,3.900000000000000000e+02
-2.852911990343795878e+02,-3.064439667235401430e+02,-1.517885167524127610e+02,-1.931015851809506785e+02,-3.013661441936678784e+02,-3.257971735246378557e+02,-8.466501227383150763e+01,-1.363074945729063074e+02,9.561484336853027344e+00,-9.179025292396545410e-01,-6.884268522262573242e-01,3.910000000000000000e+02
-2.826689557777219761e+02,-3.060897191767685399e+02,-1.510202957353385500e+02,-1.913806059392591123e+02,-2.997761133545759549e+02,-3.244757074066878886e+02,-8.549555106355637690e+01,-1.385168809256460918e+02,9.561484336853027344e+00,-9.179025292396545410e-01,-6.884268522262573242e-01,3.920000000000000000e+02
-2.799594966500294504e+02,-3.057199238372572836e+02,-1.495507724494339072e+02,-1.902298191048555509e+02,-2.972085131778585492e+02,-3.229225043758769971e+02,-8.690619569804721323e+01,-1.405455971754627171e+02,9.561484336853027344e+00,-9.179025292396545410e-01,-6.884268522262573242e-01,3.930000000000000000e+02
-2.772855420287201014e+02,-3.052797737244736709e+02,-1.480027812485895993e+02,-1.895279747420042895e+02,-2.941827190511598928e+02,-3.207258111410810670e+02,-8.892098698783138389e+01,-1.430169371788874741e+02,9.561484336853027344e+00,-9.179025292396545410e-01,-6.884268522262573242e-01,3.940000000000000000e+02
-2.746268392943397885e+02,-3.043698850421365023e+02,-1.465090203289846613e+02,-1.890825569900523533e+02,-2.912644359688606528e+02,-3.178619457578238325e+02,-9.073420827198879124e+01,-1.459146827420645423e+02,9.408499717712402344e+00,-8.796565532684326172e-01,-7.266727685928344727e-01,3.950000000000000000e+02
-2.720913673043273775e+02,-3.026347967559972858e+02,-1.447265643027151327e+02,-1.884551933093091520e+02,-2.884381519221788039e+02,-3.144462254307463809e+02,-9.103491880587307605e+01,-1.482550677014369285e+02,9.408499717712402344e+00,-8.796565532684326172e-01,-7.266727685928344727e-01,3.960000000000000000e+02
-2.699837458651281850e+02,-3.002825483649353373e+02,-1.423181082332796450e+02,-1.870894470575019568e+02,-2.851603972738221273e+02,-3.104738231869491756e+02,-8.905663858229036123e+01,-1.487963763269949595e+02,9.408499717712402344e+00,-8.796565532684326172e-01,-7.266727685928344727e-01,3.970000000000000000e+02
-2.685468744122554199e+02,-2.981462063656972532e+02,-1.394473807747863248e+02,-1.847352749036547266e+02,-2.811271046943215879e+02,-3.058735884789557531e+02,-8.539483910756507612e+01,-1.472313436078784434e+02,9.408499717712402344e+00,-8.796565532684326172e-01,-7.266727685928344727e-01,3.980000000000000000e+02
-2.676412838079741050e+02,-2.971001386900197758e+02,-1.368413538843437891e+02,-1.817386193606319011e+02,-2.769685068858711929e+02,-3.007868954368673258e+02,-8.174570743745607615e+01,-1.447027366490597160e+02,9.408499717712402344e+00,-8.796565532684326172e-01,-7.266727685928344727e-01,3.990000000000000000e+02
-2.667341688910551056e+02,-2.972874369811224824e+02,-1.353345107139466563e+02,-1.788244550940307818e+02,-2.740366131345826943e+02,-2.957017497518922937e+02,-7.970840135511480185e+01,-1.430526296059874767e+02,9.408499717712402344e+00,-8.796565532684326172e-01,-7.266727685928344727e-01,4.000000000000000000e+02
-2.652766704323839804e+02,-2.978758624070360383e+02,-1.352480961170831506e+02,-1.765361852614691998e+02,-2.733340351876618115e+02,-2.912451944585409365e+02,-7.968796415537190114e+01,-1.434456298342947775e+02,9.408499717712402344e+00,-8.796565532684326172e-01,-7.266727685928344727e-01,4.010000000000000000e+02
-2.631252806150391734e+02,-2.976265886782648522e+02,-1.360804338643783922e+02,-1.748848755015173992e+02,-2.745467175026001314e+02,-2.878379369984422738e+02,-8.083025845844258583e+01,-1.456252102936932715e+02,9.408499717712402344e+00,-8.796565532684326172e-01,-7.266727685928344727e-01,4.020000000000000000e+02
-2.605844611969669131e+02,-2.958315530057020624e+02,-1.367369704205623293e+02,-1.735745688152205730e+02,-2.761207408703080546e+02,-2.855764148868133816e+02,-8.192129273432055925e+01,-1.484223781672008045e+02,9.408499717712402344e+00,-8.796565532684326172e-01,-7.266727685928344727e-01,4.030000000000000000e+02
-2.580122251569760010e+02,-2.928418426533653474e+02,-1.361304322831704212e+02,-1.725417711719996987e+02,-2.763473834922924652e+02,-2.844245251392021601e+02,-8.231768374449802650e+01,-1.509096151326166364e+02,9.408499717712402344e+00,-8.796565532684326172e-01,-7.266727685928344727e-01,4.040000000000000000e+02
-2.553985310735711209e+02,-2.897594128878463380e+02,-1.337595540323522982e+02,-1.721778682843819297e+02,-2.744741997803394042e+02,-2.844115847186380961e+02,-8.208998513245569484e+01,-1.530224886119317489e+02,9.408499717712402344e+00,-8.796565532684326172e-01,-7.266727685928344727e-01,4.050000000000000000e+02
-2.523849417634091878e+02,-2.875838485170647800e+02,-1.299326125890390813e+02,-1.729146132717546607e+02,-2.709218759053842405e+02,-2.855106811453292721e+02,-8.146587182980192665e+01,-1.551361583503544352e+02,9.408499717712402344e+00,-8.796565532684326172e-01,-7.266727685928344727e-01,4.060000000000000000e+02
-2.487393846789664167e+02,-2.865187435155512503e+02,-1.255666224666720154e+02,-1.745422618073434933e+02,-2.666225006600693632e+02,-2.872916155398852425e+02,-8.035323248997110568e+01,-1.572041031665858100e+02,9.408499717712402344e+00,-8.796565532684326172e-01,-7.266727685928344727e-01,4.070000000000000000e+02
-2.447983666699933565e+02,-2.859291626927197285e+02,-1.217426306225565895e+02,-1.759692418620224998e+02,-2.622810589188720769e+02,-2.887942720241198913e+02,-7.850106363826262168e+01,-1.584673885803417761e+02,9.408499717712402344e+00,-8.796565532684326172e-01,-7.266727685928344727e-01,4.080000000000000000e+02
-2.413567281269838531e+02,-2.848797107492287068e+02,-1.192572710949887096e+02,-1.757654923447516921e+02,-2.582213486913883571e+02,-2.889276861864964303e+02,-7.604510171355423154e+01,-1.580723844252443087e+02,9.408499717712402344e+00,-8.796565532684326172e-01,-7.266727685928344727e-01,4.090000000000000000e+02
-2.390175430351509931e+02,-2.827890779454837684e+02,-1.183485404149394071e+02,-1.731275805023014982e+02,-2.547047840692853242e+02,-2.871722179072098697e+02,-7.372088294260629482e+01,-1.559556800590830790e+02,9.408499717712402344e+00,-8.796565532684326172e-01,-7.266727685928344727e-01,4.100000000000000000e+02
-2.375817159227431148e+02,-2.797423377687459833e+02,-1.186525100614562689e+02,-1.684988020031746601e+02,-2.521065443852198769e+02,-2.839821026867493856e+02,-7.239194746763905641e+01,-1.530722943037694677e+02,9.408499717712402344e+00,-8.796565532684326172e-01,-7.266727685928344727e-01,4.110000000000000000e+02
-2.360944003675435852e+02,-2.763234881674684402e+02,-1.193772564190248886e+02,-1.633338400513653141e+02,-2.506335993226985011e+02,-2.804850558915636611e+02,-7.230956857618639333e+01,-1.507129257039300683e+02,9.408499717712402344e+00,-8.796565532684326172e-01,-7.266727685928344727e-01,4.120000000000000000e+02
-2.335771578912258519e+02,-2.731647910525448424e+02,-1.196305980466431720e+02,-1.591743522767596914e+02,-2.499277935732557125e+02,-2.776836425337710352e+02,-7.284431194984927060e+01,-1.495365389452504132e+02,9.408499717712402344e+00,-8.796565532684326172e-01,-7.266727685928344727e-01,4.130000000000000000e+02
-2.298227488937341150e+02,-2.705449328849704216e+02,-1.187982680173031440e+02,-1.567276378422366179e+02,-2.491149597991552582e+02,-2.758160056817973782e+02,-7.297240682070469120e+01,-1.491790890727866099e+02,9.408499717712402344e+00,-8.796565532684326172e-01,-7.266727685928344727e-01,4.140000000000000000e+02
-2.255538210931681533e+02,-2.682819110985547013e+02,-1.168206837860225278e+02,-1.555916281745994638e+02,-2.473882278513774509e+02,-2.743731011780860172e+02,-7.207388246575601443e+01,-1.487138943045856649e+02,9.408499717712402344e+00,-8.796565532684326172e-01,-7.266727685928344727e-01,4.150000000000000000e+02
-2.218251080446739252e+02,-2.659592598465687843e+02,-1.142309299597263816e+02,-1.547485542170584267e+02,-2.446233588032000625e+02,-2.726750367522081433e+02,-7.033468915478761119e+01,-1.474892632880150813e+02,9.484992027282714844e+00,-8.414105772972106934e-01,-8.031646609306335449e-01,4.160000000000000000e+02
-2.192233770699563138e+02,-2.632951002906816029e+02,-1.119024181763966226e+02,-1.533957701613812787e+02,-2.414708930916835925e+02,-2.704675154086708062e+02,-6.847713185575412354e+01,-1.456371277118450962e+02,9.484992027282714844e+00,-8.414105772972106934e-01,-8.031646609306335449e-01,4.170000000000000000e+02
-2.175458704267221037e+02,-2.603624718147329986e+02,-1.105954835831034870e+02,-1.514877986413516737e+02,-2.388709779323980911e+02,-2.680496536540181296e+02,-6.716267801935237003e+01,-1.439133428476466179e+02,9.484992027282714844e+00,-8.414105772972106934e-01,-8.031646609306335449e-01,4.180000000000000000e+02
-2.161407329217677216e+02,-2.574800450317538889e+02,-1.105314624662210008e+02,-1.496178208750684462e+02,-2.374235480357956476e+02,-2.659004915270038509e+02,-6.660569860501891526e+01,-1.430938427237970245e+02,9.484992027282714844e+00,-8.414105772972106934e-01,-8.031646609306335449e-01,4.190000000000000000e+02
-2.144953795011897455e+02,-2.548913223637473493e+02,-1.112417475684405872e+02,-1.483949544132010487e+02,-2.370676683522224266e+02,-2.641991459547466548e+02,-6.661633218578572269e+01,-1.434195018938876274e+02,9.484992027282714844e+00,-8.414105772972106934e-01,-8.031646609306335449e-01,4.200000000000000000e+02
-2.125180721853853356e+02,-2.525660269984623483e+02,-1.117917378871306937e+02,-1.478605208822214081e+02,-2.371701317125780406e+02,-2.626727641980860426e+02,-6.686356407930634305e+01,-1.444406862657715465e+02,9.484992027282714844e+00,-8.414105772972106934e-01,-8.031646609306335449e-01,4.210000000000000000e+02
-2.103616196602688433e+02,-2.503377580599426437e+02,-1.112570071427835501e+02,-1.474366671338739252e+02,-2.368402307261849273e+02,-2.608741209674185484e+02,-6.706069669997759775e+01,-1.452966404222015626e+02,9.484992027282714844e+00,-8.414105772972106934e-01,-8.031646609306335449e-01,4.220000000000000000e+02
-2.081200181828253335e+02,-2.482405769707402214e+02,-1.091872035017008784e+02,-1.464533971372702581e+02,-2.352956449669723042e+02,-2.586097423892501865e+02,-6.699588947412712514e+01,-1.452151465610936611e+02,9.484992027282714844e+00,-8.414105772972106934e-01,-8.031646609306335449e-01,4.230000000000000000e+02
-2.057763686179814613e+02,-2.466316785604194592e+02,-1.058205823580997276e+02,-1.447624009207665949e+02,-2.322011079631147368e+02,-2.561071157929031870e+02,-6.653683788363969143e+01,-1.439159377192504508e+02,9.484992027282714844e+00,-8.414105772972106934e-01,-8.031646609306335449e-01,4.240000000000000000e+02
-2.034250538361484359e+02,-2.458627701559480556e+02,-1.019712629021255452e+02,-1.428508839691685353e+02,-2.278789676628507550e+02,-2.537624302390131561e+02,-6.569899550872833061e+01,-1.416653592093871339e+02,9.484992027282714844e+00,-8.414105772972106934e-01,-8.031646609306335449e-01,4.250000000000000000e+02
-2.014420281796992640e+02,-2.457632209966304799e+02,-9.868059070610070194e+01,-1.413286078315591112e+02,-2.232197424504975061e+02,-2.517132141333813706e+02,-6.470118557932528347e+01,-1.389689250985029503e+02,9.484992027282714844e+00,-8.414105772972106934e-01,-8.031646609306335449e-01,4.260000000000000000e+02
-2.003115369635816023e+02,-2.454963017996856252e+02,-9.679220416731868681e+01,-1.402651675192964831e+02,-2.192280591209673730e+02,-2.496557799922220511e+02,-6.388036831640920354e+01,-1.361588765735564266e+02,9.484992027282714844e+00,-8.414105772972106934e-01,-8.031646609306335449e-01,4.270000000000000000e+02
-2.001802438623740272e+02,-2.440647859459973006e+02,-9.657117146406062602e+01,-1.390251141975631981e+02,-2.164266440914002487e+02,-2.471171070786867858e+02,-6.346563668938824776e+01,-1.332257628710690369e+02,9.484992027282714844e+00,-8.414105772972106934e-01,-8.031646609306335449e-01,4.280000000000000000e+02
-2.005240064052895832e+02,-2.410857755814054144e+02,-9.747076380304724808e+01,-1.367806971361183059e+02,-2.145294493434980723e+02,-2.439348586463511310e+02,-6.337576135259860166e+01,-1.300162668370858228e+02,9.484992027282714844e+00,-8.414105772972106934e-01,-8.031646609306335449e-01,4.290000000000000000e+02
-2.002851365003198225e+02,-2.371205088850351785e+02,-9.820799219378022826e+01,-1.332460217931143234e+02,-2.126582202929216692e+02,-2.404800291728961383e+02,-6.322548885676724240e+01,-1.265794249252571717e+02,9.484992027282714844e+00,-8.414105772972106934e-01,-8.031646609306335449e-01,4.300000000000000000e+02
-1.984951954794041740e+02,-2.332296378755345359e+02,-9.729697907606578156e+01,-1.289610001007781648e+02,-2.099741472974287717e+02,-2.373889917508399776e+02,-6.258363324122547056e+01,-1.232948476875485539e+02,9.484992027282714844e+00,-8.414105772972106934e-01,-8.031646609306335449e-01,4.310000000000000000e+02
-1.949886658350555990e+02,-2.301709859786283232e+02,-9.393273659174019485e+01,-1.248908192917442648e+02,-2.062700573054048618e+02,-2.350366366001917413e+02,-6.131180493105603091e+01,-1.206187981206912809e+02,9.484992027282714844e+00,-8.414105772972106934e-01,-8.031646609306335449e-01,4.320000000000000000e+02
-1.906724255294088834e+02,-2.279934996164906806e+02,-8.870392110160355514e+01,-1.217344152271152780e+02,-2.020975260231384709e+02,-2.332232645259819037e+02,-5.972657789602999401e+01,-1.186715076485625104e+02,9.484992027282714844e+00,-8.414105772972106934e-01,-8.031646609306335449e-01,4.330000000000000000e+02
-1.870608024768357609e+02,-2.263354455945641348e+02,-8.349065081364233265e+01,-1.195636805382678176e+02,-1.983602641509196474e+02,-2.313434271318201354e+02,-5.844481593439650169e+01,-1.170767741590625519e+02,9.484992027282714844e+00,-8.414105772972106934e-01,-8.031646609306335449e-01,4.340000000000000000e+02
-1.852907073450510325e+02,-2.249826440157089564e+02,-8.036539250671239643e+01,-1.180321290130405032e+02,-1.956866418554495795e+02,-2.288490036481639436e+02,-5.796560642930035101e+01,-1.152281291914050598e+02,9.484992027282714844e+00,-8.414105772972106934e-01,-8.031646609306335449e-01,4.350000000000000000e+02
-1.852708091796039298e+02,-2.239889572091192349e+02,-8.014355707723052546e+01,-1.168363318583360524e+02,-1.940171393360692491e+02,-2.255919778281577237e+02,-5.823535186103481465e+01,-1.127395025966052344e+02,9.484992027282714844e+00,-8.414105772972106934e-01,-8.031646609306335449e-01,4.360000000000000000e+02
-1.856468580746586667e+02,-2.232250206718822483e+02,-8.170596905662432619e+01,-1.159415339411862078e+02,-1.926771774390404062e+02,-2.218187610045315523e+02,-5.853093350545532303e+01,-1.096651747998275823e+02,9.484992027282714844e+00,-8.414105772972106934e-01,-8.031646609306335449e-01,4.370000000000000000e+02
-1.847304092003896585e+02,-2.219655125050126117e+02,-8.274509714797477500e+01,-1.154078560025759543e+02,-1.908566550726354762e+02,-2.179316909624021719e+02,-5.782182255518819147e+01,-1.063151599434695527e+02,9.484992027282714844e+00,-8.414105772972106934e-01,-8.031646609306335449e-01,4.380000000000000000e+02
-1.817674171131066032e+02,-2.191797761815673766e+02,-8.144937385457956225e+01,-1.150736829978222886e+02,-1.881512850359968070e+02,-2.142709955768459622e+02,-5.543089827945414072e+01,-1.028961525145459746e+02,9.484992027282714844e+00,-8.414105772972106934e-01,-8.031646609306335449e-01,4.390000000000000000e+02
-1.775423389753514130e+02,-2.144418616866291813e+02,-7.780212911277453713e+01,-1.144647975769089498e+02,-1.847961594881494420e+02,-2.110217519487900972e+02,-5.156296005227250134e+01,-9.936249457118719874e+01,9.484992027282714844e+00,-8.414105772972106934e-01,-8.031646609306335449e-01,4.400000000000000000e+02
-1.737868881261929346e+02,-2.085962659063307001e+02,-7.347818457262087577e+01,-1.130639761997017558e+02,-1.814765751064974211e+02,-2.081969777258191243e+02,-4.732202261470411031e+01,-9.563775123087543761e+01,9.446745872497558594e+00,-8.031646609306335449e-01,-7.649186849594116211e-01,4.410000000000000000e+02
-1.718449962994550333e+02,-2.034003835845542199e+02,-7.050103199058867176e+01,-1.107405223434384425e+02,-1.789135079363454679e+02,-2.056618168061913821e+02,-4.416505521681710889e+01,-9.198642201257007400e+01,9.446745872497558594e+00,-8.031646609306335449e-01,-7.649186849594116211e-01,4.420000000000000000e+02
-1.717032033842897363e+02,-2.003122328811577972e+02,-6.983465076225638768e+01,-1.080010262172877447e+02,-1.775298014039417467e+02,-2.032512575673099491e+02,-4.311639758787487153e+01,-8.913389097078834311e+01,9.446745872497558594e+00,-8.031646609306335449e-01,-7.649186849594116211e-01,4.430000000000000000e+02
-1.721811154451893344e+02,-1.994404975333281982e+02,-7.099569627767755264e+01,-1.058430698975262203e+02,-1.773591681164589318e+02,-2.009745996627539171e+02,-4.421916795622837526e+01,-8.792833345928875133e+01,9.446745872497558594e+00,-8.031646609306335449e-01,-7.649186849594116211e-01,4.440000000000000000e+02
-1.720277329630316672e+02,-1.995738870067502830e+02,-7.275741609684882860e+01,-1.052357441444983124e+02,-1.781163735281102163e+02,-1.991214655564513123e+02,-4.653252854097399904e+01,-8.873455106911751500e+01,9.446745872497558594e+00,-8.031646609306335449e-01,-7.649186849594116211e-01,4.450000000000000000e+02
-1.708746192613152743e+02,-1.992286022607777340e+02,-7.411094528257626735e+01,-1.064937119059991346e+02,-1.792825395826616841e+02,-1.980708112369211449e+02,-4.864385699550939535e+01,-9.101227211353807434e+01,9.446745872497558594e+00,-8.031646609306335449e-01,-7.649186849594116211e-01,4.460000000000000000e+02
-1.692229600837704311e+02,-1.977512276248962735e+02,-7.464027785869325271e+01,-1.089309713855550399e+02,-1.801769637987413262e+02,-1.978728810836018965e+02,-4.939157825666916324e+01,-9.344053141905533266e+01,9.446745872497558594e+00,-8.031646609306335449e-01,-7.649186849594116211e-01,4.470000000000000000e+02
-1.676523284079376026e+02,-1.955587735678295758e+02,-7.426727853462375606e+01,-1.110877713400786888e+02,-1.801222587574088720e+02,-1.979880869958269614e+02,-4.842500900964387256e+01,-9.458699209868018443e+01,9.446745872497558594e+00,-8.031646609306335449e-01,-7.649186849594116211e-01,4.480000000000000000e+02
-1.661685682719530632e+02,-1.934689641571685570e+02,-7.295567806919370923e+01,-1.114935691537750699e+02,-1.787450323551088331e+02,-1.975166666401014481e+02,-4.633038312639109790e+01,-9.371939820938951016e+01,9.446745872497558594e+00,-8.031646609306335449e-01,-7.649186849594116211e-01,4.490000000000000000e+02
-1.643601077399735004e+02,-1.918923775541043142e+02,-7.081261007737521140e+01,-1.095149776226996892e+02,-1.762404748741041658e+02,-1.958010830630350938e+02,-4.426726685222683955e+01,-9.121407908396304265e+01,9.446745872497558594e+00,-8.031646609306335449e-01,-7.649186849594116211e-01,4.500000000000000000e+02
-1.620942145357930713e+02,-1.906252398269443802e+02,-6.838885584299600850e+01,-1.056926800530191031e+02,-1.733399607902942989e+02,-1.928786496291818366e+02,-4.328564067930938108e+01,-8.826019953478453317e+01,9.446745872497558594e+00,-8.031646609306335449e-01,-7.649186849594116211e-01,4.510000000000000000e+02
-1.598903972914868064e+02,-1.892752098787109389e+02,-6.663036891574324727e+01,-1.013109081553889155e+02,-1.709198358905691748e+02,-1.893738157713023611e+02,-4.368650434560231588e+01,-8.605833911222407551e+01,9.446745872497558594e+00,-8.031646609306335449e-01,-7.649186849594116211e-01,4.520000000000000000e+02
-1.584894341908675415e+02,-1.877505222931836215e+02,-6.628979668827901151e+01,-9.754903477834545811e+01,-1.695032983337578116e+02,-1.859591672520627981e+02,-4.482720330404526976e+01,-8.508793551967619351e+01,9.446745872497558594e+00,-8.031646609306335449e-01,-7.649186849594116211e-01,4.530000000000000000e+02
-1.580440490772866724e+02,-1.863081389675771788e+02,-6.726940805917229227e+01,-9.490738638128323146e+01,-1.690137947499106303e+02,-1.829307917506025660e+02,-4.554103835181422255e+01,-8.495687750939305261e+01,9.446745872497558594e+00,-8.031646609306335449e-01,-7.649186849594116211e-01,4.540000000000000000e+02
-1.578073429650789876e+02,-1.852095020284350539e+02,-6.855610305737945964e+01,-9.331087972293016719e+01,-1.689176917975419201e+02,-1.802687810382403768e+02,-4.493032351450597162e+01,-8.487940987487718303e+01,9.446745872497558594e+00,-8.031646609306335449e-01,-7.649186849594116211e-01,4.550000000000000000e+02
-1.567099812236988328e+02,-1.844325916311781839e+02,-6.891851163146998260e+01,-9.264352031229236673e+01,-1.685941563148435307e+02,-1.780119581688427388e+02,-4.300729716138812364e+01,-8.434969719840728430e+01,9.446745872497558594e+00,-8.031646609306335449e-01,-7.649186849594116211e-01,4.560000000000000000e+02
-1.543108195647771481e+02,-1.837427946779178001e+02,-6.783535798148795948e+01,-9.308867389554234251e+01,-1.676615298739607169e+02,-1.764613292170056411e+02,-4.072525125316860795e+01,-8.346957948010663131e+01,9.446745872497558594e+00,-8.031646609306335449e-01,-7.649186849594116211e-01,4.570000000000000000e+02
-1.512352546250999694e+02,-1.829759223322571415e+02,-6.588944759982859978e+01,-9.490446644277517407e+01,-1.661017458364972299e+02,-1.759515852231547797e+02,-3.935389698727681207e+01,-8.272660106876719510e+01,9.446745872497558594e+00,-8.031646609306335449e-01,-7.649186849594116211e-01,4.580000000000000000e+02
-1.487130894615490888e+02,-1.821710870177466859e+02,-6.431046305987047162e+01,-9.789759500422292149e+01,-1.642001495491172136e+02,-1.764427782215630032e+02,-3.962892172758324705e+01,-8.249720371549301490e+01,9.446745872497558594e+00,-8.031646609306335449e-01,-7.649186849594116211e-01,4.590000000000000000e+02
-1.476442897074839493e+02,-1.814075077283137034e+02,-6.404096440087346309e+01,-1.011874395372096842e+02,-1.623654122618527254e+02,-1.773749340653939726e+02,-4.126119455984235174e+01,-8.272487373132503308e+01,9.446745872497558594e+00,-8.031646609306335449e-01,-7.649186849594116211e-01,4.600000000000000000e+02
-1.479697267589895091e+02,-1.805673497315244731e+02,-6.504631798070136028e+01,-1.035545301064928481e+02,-1.608860708721313131e+02,-1.779424627654123015e+02,-4.311441508792449895e+01,-8.298617567837823117e+01,9.446745872497558594e+00,-8.031646609306335449e-01,-7.649186849594116211e-01,4.610000000000000000e+02
-1.487817410224067771e+02,-1.793384348373106150e+02,-6.634363721516342594e+01,-1.040849206838065584e+02,-1.597249065684816287e+02,-1.775283388629950423e+02,-4.388609490913677291e+01,-8.279879102511108613e+01,9.446745872497558594e+00,-8.031646609306335449e-01,-7.649186849594116211e-01,4.620000000000000000e+02
-1.489550723608094813e+02,-1.774801759675117410e+02,-6.665148352507526397e+01,-1.025547328220668533e+02,-1.584851667024522612e+02,-1.759187360081546103e+02,-4.280069820850462747e+01,-8.185660430456027825e+01,9.446745872497558594e+00,-8.031646609306335449e-01,-7.649186849594116211e-01,4.630000000000000000e+02
-1.477685008464854945e+02,-1.750656837777787587e+02,-6.517807516641573784e+01,-9.932191010572842060e+01,-1.566430657725495621e+02,-1.732256756471199424e+02,-3.990222371606387242e+01,-8.006710743403459674e+01,9.446745872497558594e+00,-8.031646609306335449e-01,-7.649186849594116211e-01,4.640000000000000000e+02
-1.451778999398329688e+02,-1.724324758608020147e+02,-6.206813590887850296e+01,-9.499391088445804598e+01,-1.539562772700478490e+02,-1.697505236293591224e+02,-3.589227307886199014e+01,-7.752141092084752927e+01,9.446745872497558594e+00,-8.031646609306335449e-01,-7.649186849594116211e-01,4.650000000000000000e+02
-1.417312825020383116e+02,-1.698916466440614386e+02,-5.831012164538105935e+01,-9.026555266223840590e+01,-1.507688341123071041e+02,-1.659879478127520542e+02,-3.176408381712826667e+01,-7.455003831303906736e+01,9.446745872497558594e+00,-8.031646609306335449e-01,-7.649186849594116211e-01,4.660000000000000000e+02
-1.382771227387147519e+02,-1.675069656467439927e+02,-5.521945226515595095e+01,-8.595666448229530943e+01,-1.479506342808165300e+02,-1.626527427845921920e+02,-2.849286191381042954e+01,-7.179301741264453085e+01,9.446745872497558594e+00,-8.031646609306335449e-01,-7.649186849594116211e-01,4.670000000000000000e+02
-1.356000721132263607e+02,-1.651737050699127849e+02,-5.379788441330083515e+01,-8.291420227065987092e+01,-1.464404596992403640e+02,-1.604621338910878876e+02,-2.682603183507967515e+01,-7.004594997430490366e+01,9.484992027282714844e+00,-8.414105772972106934e-01,-8.031646609306335449e-01,4.680000000000000000e+02
-1.340719394489578917e+02,-1.628820873026650133e+02,-5.428188706626269777e+01,-8.156913916181156310e+01,-1.466478785156248250e+02,-1.596587418904002789e+02,-2.705358630892283145e+01,-6.979550312010337620e+01,9.484992027282714844e+00,-8.414105772972106934e-01,-8.031646609306335449e-01,4.690000000000000000e+02
-1.334687293270401369e+02,-1.608539613071768599e+02,-5.607266619492384052e+01,-8.146389241898896216e+01,-1.481007941422058138e+02,-1.596672028923112521e+02,-2.874770562471553603e+01,-7.071776233092464281e+01,9.484992027282714844e+00,-8.414105772972106934e-01,-8.031646609306335449e-01,4.700000000000000000e+02
-1.331195911290076310e+02,-1.593907392007504313e+02,-5.805827057582951056e+01,-8.134532817491003698e+01,-1.495879185518626855e+02,-1.593298437340902183e+02,-3.071316563423715706e+01,-7.162367699307719704e+01,9.484992027282714844e+00,-8.414105772972106934e-01,-8.031646609306335449e-01,4.710000000000000000e+02
-1.323517896632906741e+02,-1.585854610394605970e+02,-5.915794275001451297e+01,-8.002468048548314528e+01,-1.497476231450993964e+02,-1.577081680319215593e+02,-3.144609710720601470e+01,-7.108985291513067750e+01,9.484992027282714844e+00,-8.414105772972106934e-01,-8.031646609306335449e-01,4.720000000000000000e+02
-1.309440089355813370e+02,-1.582090177686170591e+02,-5.882706392788259109e+01,-7.743395598083577624e+01,-1.477784975299441612e+02,-1.548590204458839708e+02,-3.005341175114267571e+01,-6.844366039412648206e+01,9.484992027282714844e+00,-8.414105772972106934e-01,-8.031646609306335449e-01,4.730000000000000000e+02
-1.292502007973592981e+02,-1.578867350902689850e+02,-5.728540377445858667e+01,-7.493068848686459660e+01,-1.438815081301174814e+02,-1.518957269748798353e+02,-2.705918691772535567e+01,-6.437658257203372614e+01,9.484992027282714844e+00,-8.414105772972106934e-01,-8.031646609306335449e-01,4.740000000000000000e+02
-1.278968686367823011e+02,-1.573743947223713349e+02,-5.537370327852943319e+01,-7.442507033806964500e+01,-1.391965338878260354e+02,-1.502181204763842288e+02,-2.435500645442482437e+01,-6.065328434023172122e+01,9.484992027282714844e+00,-8.414105772972106934e-01,-8.031646609306335449e-01,4.750000000000000000e+02
-1.272965154249625357e+02,-1.566444281784349641e+02,-5.411280021095637949e+01,-7.690578151807358154e+01,-1.352618069985118154e+02,-1.505166201086435649e+02,-2.405334972655066395e+01,-5.903249952361511532e+01,9.484992027282714844e+00,-8.414105772972106934e-01,-8.031646609306335449e-01,4.760000000000000000e+02
-1.273587302060050206e+02,-1.557165971351773806e+02,-5.417241172827743867e+01,-8.152229074863180358e+01,-1.332804812486286892e+02,-1.523514997211790387e+02,-2.690338405489387696e+01,-6.012954894002041328e+01,9.484992027282714844e+00,-8.414105772972106934e-01,-8.031646609306335449e-01,4.770000000000000000e+02
-1.275810205298276969e+02,-1.544588834057490203e+02,-5.549855938023290491e+01,-8.597983322104619219e+01,-1.335581885177139156e+02,-1.545684380013394730e+02,-3.146729409968304481e+01,-6.300818816994194549e+01,9.484992027282714844e+00,-8.414105772972106934e-01,-8.031646609306335449e-01,4.780000000000000000e+02
-1.273844982873903291e+02,-1.526376996614658310e+02,-5.730645260343885639e+01,-8.796407463086484313e+01,-1.353670948989897624e+02,-1.560850467100754031e+02,-3.486331626461765154e+01,-6.575602078662507211e+01,9.484992027282714844e+00,-8.414105772972106934e-01,-8.031646609306335449e-01,4.790000000000000000e+02
-1.264241232950977860e+02,-1.502278206129485625e+02,-5.849014858251689475e+01,-8.654899388455100961e+01,-1.372933086743317972e+02,-1.563741684021084666e+02,-3.473086212983531595e+01,-6.661940564248243390e+01,9.484992027282714844e+00,-8.414105772972106934e-01,-8.031646609306335449e-01,4.800000000000000000e+02
-1.247071360548022767e+02,-1.476645819551370096e+02,-5.824984316809837992e+01,-8.262920286874594922e+01,-1.378940305469257055e+02,-1.554015452453224384e+02,-3.101606616752280843e+01,-6.493324502877175064e+01,9.484992027282714844e+00,-8.414105772972106934e-01,-8.031646609306335449e-01,4.810000000000000000e+02
-1.225406193763694773e+02,-1.457186993297765412e+02,-5.656125374138815687e+01,-7.821370291208870640e+01,-1.363711645797252459e+02,-1.533572617240007503e+02,-2.619012459779219171e+01,-6.131789376346472409e+01,9.484992027282714844e+00,-8.414105772972106934e-01,-8.031646609306335449e-01,4.820000000000000000e+02
-1.203930909566211653e+02,-1.450086134371083801e+02,-5.415818219706807213e+01,-7.519317456420594681e+01,-1.329417496704069208e+02,-1.505899846664735833e+02,-2.363123118507112963e+01,-5.714712877726003626e+01,9.484992027282714844e+00,-8.414105772972106934e-01,-8.031646609306335449e-01,4.830000000000000000e+02
-1.187109669647569774e+02,-1.455295761500342451e+02,-5.201524788573173907e+01,-7.439458955261501671e+01,-1.287026875190250621e+02,-1.477268424154168827e+02,-2.530798737810047783e+01,-5.372026403239351566e+01,9.484992027282714844e+00,-8.414105772972106934e-01,-8.031646609306335449e-01,4.840000000000000000e+02
-1.177152188939179780e+02,-1.466176278547885090e+02,-5.070657938528536590e+01,-7.538546567038423518e+01,-1.250372146234007005e+02,-1.455971883525291446e+02,-3.045989817501568098e+01,-5.165138374301727708e+01,9.484992027282714844e+00,-8.414105772972106934e-01,-8.031646609306335449e-01,4.850000000000000000e+02
-1.172627571810049005e+02,-1.474000296746442586e+02,-5.012094265110651747e+01,-7.694856723175797697e+01,-1.228869491473051880e+02,-1.447491540586161136e+02,-3.619554703585551181e+01,-5.073338151049486555e+01,9.484992027282714844e+00,-8.414105772972106934e-01,-8.031646609306335449e-01,4.860000000000000000e+02
-1.169144076200350071e+02,-1.473715344364964039e+02,-4.971955757036798218e+01,-7.783054835258911908e+01,-1.223237020037556988e+02,-1.449078845126626618e+02,-3.946670297973486186e+01,-5.022453229957574194e+01,9.484992027282714844e+00,-8.414105772972106934e-01,-8.031646609306335449e-01,4.870000000000000000e+02
-1.162173768820924806e+02,-1.466206598052507388e+02,-4.903767953826297799e+01,-7.730902374488721307e+01,-1.226278133802261436e+02,-1.449487569674045631e+02,-3.888816695014105562e+01,-4.927786099509933138e+01,9.484992027282714844e+00,-8.414105772972106934e-01,-8.031646609306335449e-01,4.880000000000000000e+02
-1.150244717719390337e+02,-1.455661566211257423e+02,-4.796485483429574970e+01,-7.533455431190748186e+01,-1.227457433431637241e+02,-1.435651865639507037e+02,-3.515926270197144277e+01,-4.725963417924435817e+01,9.484992027282714844e+00,-8.414105772972106934e-01,-8.031646609306335449e-01,4.890000000000000000e+02
-1.135911089350789780e+02,-1.445016864805837713e+02,-4.660954146865304892e+01,-7.230743153561365943e+01,-1.217940434651690111e+02,-1.401479419985006416e+02,-3.006412676382461768e+01,-4.388447861420399931e+01,9.484992027282714844e+00,-8.414105772972106934e-01,-8.031646609306335449e-01,4.900000000000000000e+02
-1.123598125735335316e+02,-1.433813856522674541e+02,-4.501430824416070209e+01,-6.877296521012408448e+01,-1.193826742975106754e+02,-1.351891084413812223e+02,-2.511623125341714058e+01,-3.926097269995921124e+01,9.484992027282714844e+00,-8.414105772972106934e-01,-8.031646609306335449e-01,4.910000000000000000e+02
-1.116132491246895597e+02,-1.419998294764643560e+02,-4.311686838345144679e+01,-6.529600763096391347e+01,-1.157386233463586223e+02,-1.299553582648563861e+02,-2.095656672447455549e+01,-3.393815294043542963e+01,9.484992027282714844e+00,-8.414105772972106934e-01,-8.031646609306335449e-01,4.920000000000000000e+02
-1.112795026863509520e+02,-1.403079878697100185e+02,-4.099653562102366777e+01,-6.250941369790643876e+01,-1.116608804673830946e+02,-1.257752139625158634e+02,-1.770713638063079998e+01,-2.889734571562917154e+01,9.484992027282714844e+00,-8.414105772972106934e-01,-8.031646609306335449e-01,4.930000000000000000e+02
-1.110271782786402355e+02,-1.384996786351457558e+02,-3.905504463753470645e+01,-6.107295997706410162e+01,-1.082610287340548894e+02,-1.234725216450515290e+02,-1.557928791409199221e+01,-2.531761246775840846e+01,9.484992027282714844e+00,-8.414105772972106934e-01,-8.031646609306335449e-01,4.940000000000000000e+02
-1.105258812225802103e+02,-1.367775101978031671e+02,-3.779392814189282035e+01,-6.131837528352025402e+01,-1.064300100347365969e+02,-1.231523386711023704e+02,-1.494329098922457888e+01,-2.402756820561080531e+01,9.484992027282714844e+00,-8.414105772972106934e-01,-8.031646609306335449e-01,4.950000000000000000e+02
-1.096555257711981994e+02,-1.350834953988551206e+02,-3.733476349106717862e+01,-6.277348963121380621e+01,-1.062347666767282135e+02,-1.242132463265272690e+02,-1.580887455793094887e+01,-2.487568474539466479e+01,9.484992027282714844e+00,-8.414105772972106934e-01,-8.031646609306335449e-01,4.960000000000000000e+02
-1.085506001067103625e+02,-1.331422605238010419e+02,-3.721386075468012677e+01,-6.412372112487992126e+01,-1.067332345686434110e+02,-1.254950101363751855e+02,-1.740255544372962504e+01,-2.652784561042471978e+01,9.484992027282714844e+00,-8.414105772972106934e-01,-8.031646609306335449e-01,4.970000000000000000e+02
-1.075150138193955627e+02,-1.308178051705749567e+02,-3.676992754137882002e+01,-6.393539965690979443e+01,-1.065323546937900119e+02,-1.256559184843017647e+02,-1.846293036512042818e+01,-2.704961756266197881e+01,9.484992027282714844e+00,-8.414105772972106934e-01,-8.031646609306335449e-01,4.980000000000000000e+02
-1.068813310748219010e+02,-1.284048323938197882e+02,-3.579827501373119958e+01,-6.173889872917561661e+01,-1.047965037468209175e+02,-1.238166820691276371e+02,-1.812023795428990525e+01,-2.506109020493590833e+01,9.523238182067871094e+00,-8.414105772972106934e-01,-7.649186849594116211e-01,4.990000000000000000e+02
-1.068404253890491873e+02,-1.264902119360463075e+02,-3.479245083639216318e+01,-5.856269935291265938e+01,-1.019187330921679404e+02,-1.201655995216747215e+02,-1.656852856795126172e+01,-2.071637739114476062e+01,9.523238182067871094e+00,-8.414105772972106934e-01,-7.649186849594116211e-01,5.000000000000000000e+02
-1.072633874212881437e+02,-1.254464378153857069e+02,-3.444335126775808931e+01,-5.629307731100561796e+01,-9.921588444540884666e+01,-1.159846110197913731e+02,-1.485855556329738647e+01,-1.570876470544521908e+01,9.523238182067871094e+00,-8.414105772972106934e-01,-7.649186849594116211e-01,5.010000000000000000e+02
-1.076249329750346533e+02,-1.250369525277378671e+02,-3.484241550115189057e+01,-5.624253828832206636e+01,-9.783587369346241758e+01,-1.128889849763540951e+02,-1.396021603810504530e+01,-1.217136339342368956e+01,9.523238182067871094e+00,-8.414105772972106934e-01,-7.649186849594116211e-01,5.020000000000000000e+02
-1.071876299639225181e+02,-1.245526337878718550e+02,-3.522260280587261150e+01,-5.810072950712628881e+01,-9.779172108581815337e+01,-1.117534575529475660e+02,-1.393429134979351147e+01,-1.121247451536646622e+01,9.523238182067871094e+00,-8.414105772972106934e-01,-7.649186849594116211e-01,5.030000000000000000e+02
-1.054377756097710517e+02,-1.234000775285480813e+02,-3.458019614315435319e+01,-6.019331989591864840e+01,-9.795175919204575621e+01,-1.121556264965420269e+02,-1.395301916635389716e+01,-1.216056720833239524e+01,9.523238182067871094e+00,-8.414105772972106934e-01,-7.649186849594116211e-01,5.040000000000000000e+02
-1.025010033556936833e+02,-1.215983133854092557e+02,-3.261969634211664015e+01,-6.082745665965194348e+01,-9.697219201737698313e+01,-1.127781758919200001e+02,-1.312346693771678474e+01,-1.308986393313716690e+01,9.523238182067871094e+00,-8.414105772972106934e-01,-7.649186849594116211e-01,5.050000000000000000e+02
-9.917793510327328477e+01,-1.197120075111811275e+02,-3.010506476112232122e+01,-5.953351370083237271e+01,-9.434081495532245754e+01,-1.123969366349133452e+02,-1.134054824648683280e+01,-1.221696987241057286e+01,9.523238182067871094e+00,-8.414105772972106934e-01,-7.649186849594116211e-01,5.060000000000000000e+02
-9.648634901671766784e+01,-1.182859153189651806e+02,-2.825163110618996143e+01,-5.716076750632828407e+01,-9.068006333195307889e+01,-1.106298697094753152e+02,-9.395624294032131729e+00,-9.100693871131625201e+00,9.523238182067871094e+00,-8.414105772972106934e-01,-7.649186849594116211e-01,5.070000000000000000e+02
-9.500748172598423480e+01,-1.173220904715644792e+02,-2.770417517751229752e+01,-5.487418204547930145e+01,-8.715638335903531697e+01,-1.079110581603395076e+02,-8.257569953571874066e+00,-4.771061966244815267e+00,9.523238182067871094e+00,-8.414105772972106934e-01,-7.649186849594116211e-01,5.080000000000000000e+02
-9.453308552327780490e+01,-1.162857514603006166e+02,-2.802979836415670434e+01,-5.309426460967506500e+01,-8.459535117059840559e+01,-1.048955931498198879e+02,-8.180120998039456026e+00,-7.947842321791540598e-01,9.523238182067871094e+00,-8.414105772972106934e-01,-7.649186849594116211e-01,5.090000000000000000e+02
-9.429299565544670259e+01,-1.145987532812087011e+02,-2.816180908167734742e+01,-5.136356217592992834e+01,-8.304650439277929763e+01,-1.019557532809421900e+02,-8.431242620035845903e+00,1.877398995311523322e+00,9.523238182067871094e+00,-8.414105772972106934e-01,-7.649186849594116211e-01,5.100000000000000000e+02
-9.358396389592871856e+01,-1.121553823155027203e+02,-2.735677900589007550e+01,-4.915276242696745612e+01,-8.205655140606450004e+01,-9.920490103540714699e+01,-7.904645015246842377e+00,3.350104195336371049e+00,9.523238182067871094e+00,-8.414105772972106934e-01,-7.649186849594116211e-01,5.110000000000000000e+02
-9.230613106156124559e+01,-1.094275155857626487e+02,-2.581512326672782365e+01,-4.670948162280092220e+01,-8.129094689977000598e+01,-9.687184632378011884e+01,-6.120293214328285103e+00,4.278735353961110377e+00,9.523238182067871094e+00,-8.414105772972106934e-01,-7.649186849594116211e-01,5.120000000000000000e+02
-9.100327091672443203e+01,-1.071074407040127880e+02,-2.447303794562822077e+01,-4.507047410934455911e+01,-8.090599673355791310e+01,-9.547703373695730988e+01,-3.759878694097096741e+00,5.030207168935248774e+00,9.523238182067871094e+00,-8.414105772972106934e-01,-7.649186849594116211e-01,5.130000000000000000e+02
-9.041553406868479215e+01,-1.056196706584069034e+02,-2.422067466824501025e+01,-4.521553152309070356e+01,-8.136551811474419083e+01,-9.551605172779363784e+01,-2.252788014250199922e+00,5.339686689270820352e+00,9.523238182067871094e+00,-8.414105772972106934e-01,-7.649186849594116211e-01,5.140000000000000000e+02
-9.091383648622513647e+01,-1.048640908234183371e+02,-2.523099085792773622e+01,-4.715772674144500343e+01,-8.288327979844871152e+01,-9.691174306201901345e+01,-2.699212650903973554e+00,4.747478077548294095e+00,9.523238182067871094e+00,-8.414105772972106934e-01,-7.649186849594116211e-01,5.150000000000000000e+02
-9.222644319841583638e+01,-1.043177781943240916e+02,-2.689078102873190801e+01,-4.980400071314534216e+01,-8.498766438602615381e+01,-9.880635095245725097e+01,-4.970317605424497742e+00,3.321457990376075031e+00,9.523238182067871094e+00,-8.414105772972106934e-01,-7.649186849594116211e-01,5.160000000000000000e+02
-9.362797249491450202e+01,-1.033877213353316620e+02,-2.828552655928569948e+01,-5.170147252173956076e+01,-8.661544822452924564e+01,-1.000027970726187050e+02,-7.719417151865854976e+00,1.893055812980492192e+00,9.523238182067871094e+00,-8.414105772972106934e-01,-7.649186849594116211e-01,5.170000000000000000e+02
-9.441820635140720697e+01,-1.018107640814769184e+02,-2.879059545621748839e+01,-5.203875506217991642e+01,-8.672404080257001624e+01,-9.976108643680890964e+01,-9.315608710477135901e+00,1.517500070054666139e+00,9.523238182067871094e+00,-8.414105772972106934e-01,-7.649186849594116211e-01,5.180000000000000000e+02
-9.432473672235209960e+01,-9.988481091552785074e+01,-2.833446307449867163e+01,-5.110538254261336988e+01,-8.497758092719232081e+01,-9.829035794834453554e+01,-8.958964710605869186e+00,2.637789452404831536e+00,9.523238182067871094e+00,-8.414105772972106934e-01,-7.649186849594116211e-01,5.190000000000000000e+02
-9.356025102352123213e+01,-9.836203976168781082e+01,-2.722988182370954746e+01,-4.990618000068025140e+01,-8.195960235426446161e+01,-9.650530758463173697e+01,-7.120461410822827020e+00,4.739666068591759540e+00,9.484992027282714844e+00,-8.031646609306335449e-01,-7.649186849594116211e-01,5.200000000000000000e+02
-9.255335340188594273e+01,-9.800042716040934465e+01,-2.583021821699912834e+01,-4.932870736959739588e+01,-7.875463875168861705e+01,-9.526008126697524858e+01,-5.048190939155574597e+00,6.815904385621252004e+00,9.484992027282714844e+00,-8.031646609306335449e-01,-7.649186849594116211e-01,5.210000000000000000e+02
-9.161146722357079852e+01,-9.902577259887220862e+01,-2.434523258598710527e+01,-4.955457857326109661e+01,-7.625535062918606855e+01,-9.472894131564680720e+01,-3.841799045735569962e+00,8.183818097866605967e+00,9.484992027282714844e+00,-8.031646609306335449e-01,-7.649186849594116211e-01,5.220000000000000000e+02
-9.078711345560168411e+01,-1.009084058991311394e+02,-2.294696728049711965e+01,-5.011894337167996127e+01,-7.475314155010346440e+01,-9.444601014830914210e+01,-3.859628768907896301e+00,8.894006651971722022e+00,9.484992027282714844e+00,-8.031646609306335449e-01,-7.649186849594116211e-01,5.230000000000000000e+02
-9.000982153530185315e+01,-1.026819538351837764e+02,-2.198628446618477028e+01,-5.046526900206390565e+01,-7.407313320215871499e+01,-9.389385635442340572e+01,-4.811914099297609937e+00,9.407311750813278195e+00,9.484992027282714844e+00,-8.031646609306335449e-01,-7.649186849594116211e-01,5.240000000000000000e+02
-8.929849092865151761e+01,-1.035778876145905087e+02,-2.198754863370413659e+01,-5.045203734353799518e+01,-7.398730258641626278e+01,-9.302822344821470324e+01,-6.228028464138333220e+00,9.951335409713465197e+00,9.484992027282714844e+00,-8.031646609306335449e-01,-7.649186849594116211e-01,5.250000000000000000e+02
-8.880315508099647559e+01,-1.034584154940785083e+02,-2.328873323311108834e+01,-5.037699723683908815e+01,-7.444661310890387540e+01,-9.224858715686059440e+01,-7.752544039984059054e+00,1.024361245282852906e+01,9.484992027282714844e+00,-8.031646609306335449e-01,-7.649186849594116211e-01,5.260000000000000000e+02
-8.862835317341341579e+01,-1.027193268145629190e+02,-2.559022715827086358e+01,-5.056382259139172675e+01,-7.544779865715827327e+01,-9.190631356721405609e+01,-9.083936880178953288e+00,9.841786503538060060e+00,9.484992027282714844e+00,-8.031646609306335449e-01,-7.649186849594116211e-01,5.270000000000000000e+02
-8.863696766833345464e+01,-1.018292138607757806e+02,-2.786980097389641742e+01,-5.094213573674278450e+01,-7.675937761308705376e+01,-9.187241987569359480e+01,-9.820416947425655962e+00,8.727454661296178529e+00,9.484992027282714844e+00,-8.031646609306335449e-01,-7.649186849594116211e-01,5.280000000000000000e+02
-8.848763544137455028e+01,-1.009962977045361185e+02,-2.889557835162395349e+01,-5.103741386119145318e+01,-7.786446470855753432e+01,-9.158006649624076090e+01,-9.547027399138642068e+00,7.523969705958734266e+00,9.484992027282714844e+00,-8.031646609306335449e-01,-7.649186849594116211e-01,5.290000000000000000e+02
-8.792355784872597724e+01,-1.002408994999796050e+02,-2.804602129571048863e+01,-5.038632800347477314e+01,-7.820024093717529468e+01,-9.045984117579064332e+01,-8.150639768887231185e+00,7.148016459920654597e+00,9.484992027282714844e+00,-8.031646609306335449e-01,-7.649186849594116211e-01,5.300000000000000000e+02
-8.703271875592054130e+01,-9.963994043443835835e+01,-2.577340528638251271e+01,-4.896477083023546584e+01,-7.744240929406441865e+01,-8.833432687915410497e+01,-6.009644329145885422e+00,8.245347002203743614e+00,9.484992027282714844e+00,-8.031646609306335449e-01,-7.649186849594116211e-01,5.310000000000000000e+02
-8.619782381829008955e+01,-9.931542006607196527e+01,-2.328728685907663021e+01,-4.721350840395643900e+01,-7.559244244496403553e+01,-8.546437052820328972e+01,-3.810411965996536310e+00,1.088037487909969059e+01,9.484992027282714844e+00,-8.031646609306335449e-01,-7.649186849594116211e-01,5.320000000000000000e+02
-8.573869805959020596e+01,-9.911821329416852677e+01,-2.167654551751365943e+01,-4.564810453449626948e+01,-7.288505246923887171e+01,-8.231623167877296510e+01,-2.137816991982617765e+00,1.461695511977814022e+01,9.484992027282714844e+00,-8.031646609306335449e-01,-7.649186849594116211e-01,5.330000000000000000e+02
-8.558459128050981235e+01,-9.844218533582170494e+01,-2.119406143271316978e+01,-4.445662698649812228e+01,-6.972416124684968963e+01,-7.934294704217427352e+01,-1.222789276776893530e+00,1.874999205492167675e+01,9.484992027282714844e+00,-8.031646609306335449e-01,-7.649186849594116211e-01,5.340000000000000000e+02
-8.532384871933390968e+01,-9.657922551772026054e+01,-2.129526816480847629e+01,-4.348601507702824165e+01,-6.672429855166774360e+01,-7.693193981431795692e+01,-1.016051917715230957e+00,2.244950025689286122e+01,9.484992027282714844e+00,-8.031646609306335449e-01,-7.649186849594116211e-01,5.350000000000000000e+02
-8.462251827324325859e+01,-9.343705786640930455e+01,-2.133767633395927987e+01,-4.259912365278341895e+01,-6.468713913013561978e+01,-7.541809297678082658e+01,-1.394749633767787600e+00,2.487546135049706209e+01,9.484992027282714844e+00,-8.031646609306335449e-01,-7.649186849594116211e-01,5.360000000000000000e+02
-8.363439905933955743e+01,-8.990858226927048236e+01,-2.125815349509139196e+01,-4.198068552622680727e+01,-6.432069403468085511e+01,-7.501987723975071276e+01,-2.213330933258475852e+00,2.545174015425254765e+01,9.484992027282714844e+00,-8.031646609306335449e-01,-7.649186849594116211e-01,5.370000000000000000e+02
-8.298573111408768455e+01,-8.738293653929940774e+01,-2.159375141309919854e+01,-4.201991112157338648e+01,-6.577927579778042855e+01,-7.571542026351380628e+01,-3.173523605630180100e+00,2.426840094422186667e+01,9.484992027282714844e+00,-8.031646609306335449e-01,-7.649186849594116211e-01,5.380000000000000000e+02
-8.329607041962117364e+01,-8.671834681572727277e+01,-2.285197059158235788e+01,-4.285970967620414740e+01,-6.839251932987826876e+01,-7.720320732120489993e+01,-3.789175695917947451e+00,2.225699214995256625e+01,9.484992027282714844e+00,-8.031646609306335449e-01,-7.649186849594116211e-01,5.390000000000000000e+02
-8.462372884392243577e+01,-8.758732540465280181e+01,-2.485835659917756857e+01,-4.408763738526431553e+01,-7.089502423485464533e+01,-7.901506142579455627e+01,-3.638916629928644397e+00,2.081727378149298602e+01,9.484992027282714844e+00,-8.031646609306335449e-01,-7.649186849594116211e-01,5.400000000000000000e+02
-8.631187437273911200e+01,-8.880029264586664794e+01,-2.672487850686229649e+01,-4.493522055230459955e+01,-7.209669115814176621e+01,-8.068932129521090246e+01,-2.725997211897265515e+00,2.102822656050921069e+01,9.484992027282714844e+00,-8.031646609306335449e-01,-7.649186849594116211e-01,5.410000000000000000e+02
-8.738167854285165959e+01,-8.927921079264888249e+01,-2.748964954358598334e+01,-4.484212976792878180e+01,-7.155723777801176766e+01,-8.188587967361308984e+01,-1.550777143838786287e+00,2.299998300444531196e+01,9.484992027282714844e+00,-8.031646609306335449e-01,-7.649186849594116211e-01,5.420000000000000000e+02
-8.715662021204661869e+01,-8.874303433526074514e+01,-2.685868675909841841e+01,-4.386276843959421967e+01,-6.979638415637600701e+01,-8.243243893518592813e+01,-7.338543276418931782e-01,2.587657557689453824e+01,9.484992027282714844e+00,-8.031646609306335449e-01,-7.649186849594116211e-01,5.430000000000000000e+02
-8.564772714197897585e+01,-8.751412570733191387e+01,-2.540880571896559559e+01,-4.254135947406939522e+01,-6.790421867432451108e+01,-8.236399464215719490e+01,-5.064653623976482777e-01,2.846360282010209630e+01,9.484992027282714844e+00,-8.031646609306335449e-01,-7.649186849594116211e-01,5.440000000000000000e+02
-8.346396242876107863e+01,-8.582100528969931474e+01,-2.411196257622032135e+01,-4.141295105172503099e+01,-6.683599362837958324e+01,-8.195384650788400904e+01,-5.758462000994768459e-01,2.995743029716868477e+01,9.446745872497558594e+00,-8.031646609306335449e-01,-7.649186849594116211e-01,5.450000000000000000e+02
-8.138794687049448839e+01,-8.347725942960823886e+01,-2.361955388608839712e+01,-4.063009747041905939e+01,-6.685722632419492584e+01,-8.162144464627999696e+01,-5.027599600962275872e-01,3.027054670968391292e+01,9.446745872497558594e+00,-8.031646609306335449e-01,-7.649186849594116211e-01,5.460000000000000000e+02
-7.994885795941627293e+01,-8.033503450609350693e+01,-2.387483533520207857e+01,-4.002947363020757621e+01,-6.745764138140293653e+01,-8.165618700268714747e+01,-1.755336408659786684e-01,2.988083344315055001e+01,9.446745872497558594e+00,-8.031646609306335449e-01,-7.649186849594116211e-01,5.470000000000000000e+02
-7.922747380857435928e+01,-7.695548537703507463e+01,-2.426344363140924543e+01,-3.946223288255350781e+01,-6.771594408415512589e+01,-8.192141872890533705e+01,1.609539725486683892e-01,2.950147026652484783e+01,9.446745872497558594e+00,-8.031646609306335449e-01,-7.649186849594116211e-01,5.480000000000000000e+02
-7.891647082573945227e+01,-7.459016682811306964e+01,-2.407481435329827946e+01,-3.898250134659974719e+01,-6.684805441273965698e+01,-8.184579167921037879e+01,3.683736609855259303e-01,2.982089043562700681e+01,9.446745872497558594e+00,-8.031646609306335449e-01,-7.649186849594116211e-01,5.490000000000000000e+02
-7.853149222058345913e+01,-7.425838622318406124e+01,-2.290775928936636774e+01,-3.872011317620854243e+01,-6.463417527799356321e+01,-8.082824963139137253e+01,8.211271772561303806e-01,3.129865447075644624e+01,9.446745872497558594e+00,-8.031646609306335449e-01,-7.649186849594116211e-01,5.500000000000000000e+02
-7.767006259803019930e+01,-7.573673340283858124e+01,-2.082758255544104031e+01,-3.864985154084570240e+01,-6.153273797316796845e+01,-7.877753444209884037e+01,2.187765927115833620e+00,3.392668099696311401e+01,9.446745872497558594e+00,-8.031646609306335449e-01,-7.649186849594116211e-01,5.510000000000000000e+02
-7.621925350487435935e+01,-7.750877602244145237e+01,-1.830241627081159095e+01,-3.856533658161424682e+01,-5.844496466232703824e+01,-7.630431385903466435e+01,4.672365007230837364e+00,3.707375299741943309e+01,9.446745872497558594e+00,-8.031646609306335449e-01,-7.649186849594116211e-01,5.520000000000000000e+02
-7.440917388134585053e+01,-7.787148929954673804e+01,-1.600696599406546738e+01,-3.829480321653136343e+01,-5.624140349168919784e+01,-7.433182544870214770e+01,7.462056025493438938e+00,3.969091533755272394e+01,9.446745872497558594e+00,-8.031646609306335449e-01,-7.649186849594116211e-01,5.530000000000000000e+02
-7.265982924755553540e+01,-7.625848566228160053e+01,-1.453854119265997724e+01,-3.788887030044861604e+01,-5.527659983032935997e+01,-7.340625848721174407e+01,9.069488897255723714e+00,4.094346036634124175e+01,9.446745872497558594e+00,-8.031646609306335449e-01,-7.649186849594116211e-01,5.540000000000000000e+02
-7.130190305140786222e+01,-7.357629268435266567e+01,-1.411638245018730231e+01,-3.754342763105159975e+01,-5.516450636863737600e+01,-7.328356319767226523e+01,8.450708937854869873e+00,4.086983502493785636e+01,9.446745872497558594e+00,-8.031646609306335449e-01,-7.649186849594116211e-01,5.550000000000000000e+02
-7.040022268977372732e+01,-7.128169775825699617e+01,-1.445234713382706104e+01,-3.736331273631731165e+01,-5.501830771319691848e+01,-7.317385954494238831e+01,5.950174383186094929e+00,4.044899684372103366e+01,9.446745872497558594e+00,-8.031646609306335449e-01,-7.649186849594116211e-01,5.560000000000000000e+02
-6.984306470093179087e+01,-7.011172039910707099e+01,-1.494914253787646885e+01,-3.726360736175229249e+01,-5.407698909462487791e+01,-7.243653950445150258e+01,3.176900323040172225e+00,4.089087104332793388e+01,9.446745872497558594e+00,-8.031646609306335449e-01,-7.649186849594116211e-01,5.570000000000000000e+02
-6.959444076016188774e+01,-6.965767105728809838e+01,-1.514598156589272548e+01,-3.714033228743755899e+01,-5.231479324560859823e+01,-7.111769907293273718e+01,1.838256366045243340e+00,4.266624209790097666e+01,9.446745872497558594e+00,-8.031646609306335449e-01,-7.649186849594116211e-01,5.580000000000000000e+02
-6.979312780759028101e+01,-6.907905685441437527e+01,-1.506352976909147401e+01,-3.709524806083936710e+01,-5.053843935038457857e+01,-6.987202455607621232e+01,2.492820662740996340e+00,4.509908717129110300e+01,9.446745872497558594e+00,-8.031646609306335449e-01,-7.649186849594116211e-01,5.590000000000000000e+02
-7.051394080436148215e+01,-6.811449361318227602e+01,-1.512400643814544310e+01,-3.739815872526742169e+01,-4.979541390560189029e+01,-6.935662863512334297e+01,4.270487589716140064e+00,4.690612406677246327e+01,9.446745872497558594e+00,-8.031646609306335449e-01,-7.649186849594116211e-01,5.600000000000000000e+02
-7.141996578483121993e+01,-6.731954485268215649e+01,-1.568481525306924595e+01,-3.816777350407573977e+01,-5.050709613326398539e+01,-6.965913018584979000e+01,5.741309569679287961e+00,4.723729742914292729e+01,9.446745872497558594e+00,-8.031646609306335449e-01,-7.649186849594116211e-01,5.610000000000000000e+02
-7.175944047074153787e+01,-6.732372064897936070e+01,-1.659966370115216705e+01,-3.910976189038774464e+01,-5.204269700419536093e+01,-7.025729389078696840e+01,6.113941864379739854e+00,4.633842992362770019e+01,9.446745872497558594e+00,-8.031646609306335449e-01,-7.649186849594116211e-01,5.620000000000000000e+02
-7.089230756570759695e+01,-6.796968817677043262e+01,-1.723314185748131422e+01,-3.964947437501541572e+01,-5.313909913572206278e+01,-7.050520248332759365e+01,5.728270613060885807e+00,4.530486256657604827e+01,9.446745872497558594e+00,-8.031646609306335449e-01,-7.649186849594116211e-01,5.630000000000000000e+02
-6.894023709686371149e+01,-6.830838210485308082e+01,-1.694265625297339284e+01,-3.939723015279741958e+01,-5.283976438172976486e+01,-7.017163377550969017e+01,5.538475903060316341e+00,4.519485811673803255e+01,9.446745872497558594e+00,-8.031646609306335449e-01,-7.649186849594116211e-01,5.640000000000000000e+02
-6.689365079039635020e+01,-6.750411002251712489e+01,-1.562649026961480558e+01,-3.851054402475892857e+01,-5.115655330604568007e+01,-6.954513083319034195e+01,6.166713333135703579e+00,4.626011318308883347e+01,9.446745872497558594e+00,-8.031646609306335449e-01,-7.649186849594116211e-01,5.650000000000000000e+02
-6.593397335582631058e+01,-6.572886068883963162e+01,-1.387988344026780396e+01,-3.759694976904211217e+01,-4.892063075262922212e+01,-6.906873437273679883e+01,7.379096307027793955e+00,4.786125070475463872e+01,9.446745872497558594e+00,-8.031646609306335449e-01,-7.649186849594116211e-01,5.660000000000000000e+02
-6.648035304171935422e+01,-6.411017974687638343e+01,-1.262191214130507433e+01,-3.723694268541657948e+01,-4.700049676779235597e+01,-6.889068003780994331e+01,8.364477093491586857e+00,4.903880393670624471e+01,9.446745872497558594e+00,-8.031646609306335449e-01,-7.649186849594116211e-01,5.670000000000000000e+02
-6.781766802491256385e+01,-6.375501712343611871e+01,-1.247104398398005287e+01,-3.756048583795200102e+01,-4.560242347652092576e+01,-6.875284458153328160e+01,8.454626007860497339e+00,4.921965190747141605e+01,9.446745872497558594e+00,-8.031646609306335449e-01,-7.649186849594116211e-01,5.680000000000000000e+02
-6.866991290247460711e+01,-6.480996958290415932e+01,-1.331181641587318154e+01,-3.823834081070890534e+01,-4.423526902873709332e+01,-6.828267472660809290e+01,7.628969459754443960e+00,4.853500438889386714e+01,9.446745872497558594e+00,-8.031646609306335449e-01,-7.649186849594116211e-01,5.690000000000000000e+02
-6.821376970628989511e+01,-6.645798395028396044e+01,-1.435026294005001546e+01,-3.883097342873588786e+01,-4.229285655067360494e+01,-6.737225784738257062e+01,6.445729799415857997e+00,4.758859114630104159e+01,9.446745872497558594e+00,-8.031646609306335449e-01,-7.649186849594116211e-01,5.700000000000000000e+02
-6.663338425070833182e+01,-6.778311141420272179e+01,-1.464238779992592754e+01,-3.913156756755051902e+01,-3.971833808468363713e+01,-6.630527526845617103e+01,5.553880737454164773e+00,4.689289652721708990e+01,9.446745872497558594e+00,-8.031646609306335449e-01,-7.649186849594116211e-01,5.710000000000000000e+02
-6.478254517216555541e+01,-6.856792864965973422e+01,-1.377808367114266730e+01,-3.920588537311778055e+01,-3.722252866707640351e+01,-6.555059950212307740e+01,5.245915672585397260e+00,4.639352381109347334e+01,9.408499717712402344e+00,-8.414105772972106934e-01,-7.649186849594116211e-01,5.720000000000000000e+02
-6.337402315039435052e+01,-6.923452070755956811e+01,-1.225536253460450098e+01,-3.914806725231755991e+01,-3.590701285309478408e+01,-6.540746249657240696e+01,5.404120135553966975e+00,4.544736723433743464e+01,9.408499717712402344e+00,-8.414105772972106934e-01,-7.649186849594116211e-01,5.730000000000000000e+02
-6.248628534326780937e+01,-7.009244383106124587e+01,-1.120610247037257068e+01,-3.883766552467932343e+01,-3.654796224930032622e+01,-6.576303331428425736e+01,5.815761728008510545e+00,4.332174356020550476e+01,9.408499717712402344e+00,-8.414105772972106934e-01,-7.649186849594116211e-01,5.740000000000000000e+02
-6.175352196608218946e+01,-7.080842177807789994e+01,-1.156838332532424829e+01,-3.796333940899785375e+01,-3.899041151445999276e+01,-6.611031656009072321e+01,6.525211802902049385e+00,3.987848600398865528e+01,9.408499717712402344e+00,-8.414105772972106934e-01,-7.649186849594116211e-01,5.750000000000000000e+02
-6.088724338463725871e+01,-7.075592858982781763e+01,-1.328978908238423173e+01,-3.632460421726864297e+01,-4.206213270627631573e+01,-6.582311920067877509e+01,7.860323363289353438e+00,3.588014466098684352e+01,9.408499717712402344e+00,-8.414105772972106934e-01,-7.649186849594116211e-01,5.760000000000000000e+02
-5.993447206785276649e+01,-6.989689165915115154e+01,-1.525741553952320828e+01,-3.416950950542377541e+01,-4.417155461545553408e+01,-6.456348329889442539e+01,1.005620738580910256e+01,3.254106091420544544e+01,9.408499717712402344e+00,-8.414105772972106934e-01,-7.649186849594116211e-01,5.770000000000000000e+02
-5.908185519694598042e+01,-6.920085573414326063e+01,-1.614339245203518658e+01,-3.224690055891915108e+01,-4.431357675017716247e+01,-6.258341905562701868e+01,1.280125861063788761e+01,3.055451912162970984e+01,9.408499717712402344e+00,-8.414105772972106934e-01,-7.649186849594116211e-01,5.780000000000000000e+02
-5.833948853169567883e+01,-7.000491201894328697e+01,-1.553120432205105317e+01,-3.142232614045860828e+01,-4.279884416056302143e+01,-6.066804244693412329e+01,1.518312988995603519e+01,2.938651870971079916e+01,9.408499717712402344e+00,-8.414105772972106934e-01,-7.649186849594116211e-01,5.790000000000000000e+02
-5.751588696705584880e+01,-7.279936295698280446e+01,-1.432341261035617208e+01,-3.205445128817882505e+01,-4.107022756852529710e+01,-5.966000056965276599e+01,1.622485621057785465e+01,2.754479741673276294e+01,9.408499717712402344e+00,-8.414105772972106934e-01,-7.649186849594116211e-01,5.800000000000000000e+02
-5.648627740301526501e+01,-7.658255295217895764e+01,-1.398726381128653884e+01,-3.359880122654794832e+01,-4.061804916994151426e+01,-5.984944727841138956e+01,1.565380893178007682e+01,2.373797596004806110e+01,9.408499717712402344e+00,-8.414105772972106934e-01,-7.649186849594116211e-01,5.810000000000000000e+02
-5.539131668374466244e+01,-7.947574624676781241e+01,-1.524144705661092303e+01,-3.483825998348766007e+01,-4.179928776515225763e+01,-6.071349951361116837e+01,1.423921717785560759e+01,1.800990506534071756e+01,9.408499717712402344e+00,-8.414105772972106934e-01,-7.649186849594116211e-01,5.820000000000000000e+02
-5.450155926015941077e+01,-8.014190748964028899e+01,-1.736603679378094967e+01,-3.471026291473026504e+01,-4.357223465825882158e+01,-6.128698204962711316e+01,1.330260753494803794e+01,1.183675514855713118e+01,9.408499717712402344e+00,-8.414105772972106934e-01,-7.649186849594116211e-01,5.830000000000000000e+02
-5.390066573030708241e+01,-7.880203171601533541e+01,-1.880217630273909890e+01,-3.315912176415804424e+01,-4.443486677313558175e+01,-6.091911788345896639e+01,1.371663186011210200e+01,7.019090975238214014e+00,9.408499717712402344e+00,-8.414105772972106934e-01,-7.649186849594116211e-01,5.840000000000000000e+02
-5.335524262708349852e+01,-7.697644661627055029e+01,-1.850513786617375445e+01,-3.125926421031181235e+01,-4.374630247097957181e+01,-5.976367774912796449e+01,1.523194252434404916e+01,4.293184653786738636e+00,9.408499717712402344e+00,-8.414105772972106934e-01,-7.649186849594116211e-01,5.850000000000000000e+02
-5.253654298046967597e+01,-7.621128607986975112e+01,-1.682953253301093355e+01,-3.039445374305432779e+01,-4.224709702845939319e+01,-5.857874987990726368e+01,1.671980280057687196e+01,2.830991953243938042e+00,9.408499717712402344e+00,-8.414105772972106934e-01,-7.649186849594116211e-01,5.860000000000000000e+02
-5.134932982695681858e+01,-7.689756316027342109e+01,-1.517315296352535370e+01,-3.108974675694480538e+01,-4.132137944634814630e+01,-5.804021346331865061e+01,1.711813824796627159e+01,1.022669856873108074e+00,9.408499717712402344e+00,-8.414105772972106934e-01,-7.649186849594116211e-01,5.870000000000000000e+02
