F3,F4,C3,C4,P3,P4,Cz,Pz,Accel_x,Accel_y,Accel_z,Sample
-5.366018740460276604e-11,-6.639311322942376137e-11,-2.910383045673370361e-11,-4.820321919396519661e-11,-4.365574568510055542e-11,-3.637978807091712952e-11,-4.365574568510055542e-11,-3.274180926382541656e-11,9.484992027282714844e+00,-8.414105772972106934e-01,-8.031646609306335449e-01,1.760000000000000000e+02
-1.167803652271322790e+01,-1.598279940386419185e+01,-1.021369141274954018e+01,-1.297113074078242789e+01,-2.009530912146692572e+01,-2.183271352588963055e+01,-8.213279445604712237e+00,-9.530861445973641821e+00,9.484992027282714844e+00,-8.414105772972106934e-01,-8.031646609306335449e-01,1.770000000000000000e+02
-2.563037581216030958e+01,-3.117626293682315008e+01,-1.974499211247893982e+01,-2.322533296228539257e+01,-3.853354034243784554e+01,-4.160023319085848925e+01,-1.362230583248401672e+01,-1.618617733103837963e+01,9.484992027282714844e+00,-8.414105772972106934e-01,-8.031646609306335449e-01,1.780000000000000000e+02
-4.219940031485930376e+01,-4.517200839542329049e+01,-2.818370829914056230e+01,-2.987176593451385997e+01,-5.469051037740064203e+01,-5.826429967143303656e+01,-1.531858354614269047e+01,-1.914747652774622111e+01,9.484992027282714844e+00,-8.414105772972106934e-01,-8.031646609306335449e-01,1.790000000000000000e+02
-5.957177646432410256e+01,-5.814416804738266364e+01,-3.548411960083285521e+01,-3.429571263693560468e+01,-6.913413292408858979e+01,-7.223888818648083543e+01,-1.473011895839226781e+01,-2.001495462900402345e+01,9.484992027282714844e+00,-8.414105772972106934e-01,-8.031646609306335449e-01,1.800000000000000000e+02
-7.536409149881728808e+01,-7.074494277653320751e+01,-4.187944207162763632e+01,-3.899317099944619258e+01,-8.287046415021268331e+01,-8.499772252606453549e+01,-1.438919293385879428e+01,-2.128667392094848765e+01,9.523238182067871094e+00,-9.179025292396545410e-01,-7.649186849594116211e-01,1.810000000000000000e+02
-8.849420097402889951e+01,-8.372456528646762308e+01,-4.776566315627587755e+01,-4.583281745740714541e+01,-9.648647649105714663e+01,-9.818981266337232228e+01,-1.615189582256152789e+01,-2.439026877773085289e+01,9.523238182067871094e+00,-9.179025292396545410e-01,-7.649186849594116211e-01,1.820000000000000000e+02
-9.970223713251198205e+01,-9.747749949580884277e+01,-5.361976460808091360e+01,-5.507331844704549439e+01,-1.099586155104034333e+02,-1.128392899581258462e+02,-2.021998451622221182e+01,-2.893357046911569341e+01,9.523238182067871094e+00,-9.179025292396545410e-01,-7.649186849594116211e-01,1.830000000000000000e+02
-1.104804601751256996e+02,-1.117937547459132475e+02,-5.986263006922672503e+01,-6.563859195281474967e+01,-1.231101445452322878e+02,-1.290631166016937641e+02,-2.541746893461822765e+01,-3.357484684519477014e+01,9.523238182067871094e+00,-9.179025292396545410e-01,-7.649186849594116211e-01,1.840000000000000000e+02
-1.216276204396708636e+02,-1.259676459804968545e+02,-6.659770802890579944e+01,-7.609499231348399917e+01,-1.360463227121717864e+02,-1.463071959609778787e+02,-3.015456310691661201e+01,-3.744028416726087016e+01,9.523238182067871094e+00,-9.179025292396545410e-01,-7.649186849594116211e-01,1.850000000000000000e+02
-1.327924512990202857e+02,-1.391653928407704370e+02,-7.338745803219444497e+01,-8.542218423379199521e+01,-1.490445445052864670e+02,-1.637545323878075578e+02,-3.325203994223556947e+01,-4.071069841322332650e+01,9.523238182067871094e+00,-9.179025292396545410e-01,-7.649186849594116211e-01,1.860000000000000000e+02
-1.432212274549792710e+02,-1.507856797201175141e+02,-7.938965831660243566e+01,-9.317486657421977725e+01,-1.620995882596289448e+02,-1.806029134383888959e+02,-3.428929599828097707e+01,-4.402880706614541850e+01,9.523238182067871094e+00,-9.179025292396545410e-01,-7.649186849594116211e-01,1.870000000000000000e+02
-1.527564249340548486e+02,-1.606278038247655786e+02,-8.391900146445277642e+01,-9.931249231548190437e+01,-1.747348788288500145e+02,-1.961809079086588099e+02,-3.362587148638067447e+01,-4.757187474754391587e+01,9.523238182067871094e+00,-9.179025292396545410e-01,-7.649186849594116211e-01,1.880000000000000000e+02
-1.620624945193785607e+02,-1.688871895553211289e+02,-8.706659347564436757e+01,-1.041514230779293939e+02,-1.863953267856986713e+02,-2.100878658024157630e+02,-3.230991827721572918e+01,-5.086617484429734759e+01,9.523238182067871094e+00,-9.179025292396545410e-01,-7.649186849594116211e-01,1.890000000000000000e+02
-1.719825508903641094e+02,-1.761165010303411691e+02,-8.982938846774140984e+01,-1.084934855165383851e+02,-1.970613014091240984e+02,-2.224306825382982424e+02,-3.182883094667340629e+01,-5.352155443282208580e+01,9.523238182067871094e+00,-9.179025292396545410e-01,-7.649186849594116211e-01,1.900000000000000000e+02
-1.828022376603676094e+02,-1.831963209389959957e+02,-9.354967529615532840e+01,-1.135820586718464256e+02,-2.074428626561302735e+02,-2.339542833008163143e+02,-3.358321188514946698e+01,-5.605527910692853766e+01,9.523238182067871094e+00,-9.179025292396545410e-01,-7.649186849594116211e-01,1.910000000000000000e+02
-1.941391489825136887e+02,-1.911781784854465513e+02,-9.905119239479245152e+01,-1.206043643474113196e+02,-2.185213682822932242e+02,-2.458006419785706385e+02,-3.821931612031949044e+01,-5.983275180101281876e+01,9.523238182067871094e+00,-9.179025292396545410e-01,-7.649186849594116211e-01,1.920000000000000000e+02
-2.054227969299709002e+02,-2.008742279450889328e+02,-1.061257914064053693e+02,-1.299267767703604477e+02,-2.308088159798544439e+02,-2.588782940801647783e+02,-4.520890260004853189e+01,-6.600153076801234420e+01,9.523238182067871094e+00,-9.179025292396545410e-01,-7.649186849594116211e-01,1.930000000000000000e+02
-2.163605642477850779e+02,-2.123481468576783300e+02,-1.137353020664459109e+02,-1.406585805062022700e+02,-2.439292952654932378e+02,-2.732333474164488507e+02,-5.300156351340137917e+01,-7.430927854078527162e+01,9.523238182067871094e+00,-9.179025292396545410e-01,-7.649186849594116211e-01,1.940000000000000000e+02
-2.269450680417839976e+02,-2.247207584587185920e+02,-1.207177978215295298e+02,-1.510105476458493285e+02,-2.568276139520658035e+02,-2.879427332523237055e+02,-5.972293729474586144e+01,-8.290124293153621693e+01,9.523238182067871094e+00,-9.179025292396545410e-01,-7.649186849594116211e-01,1.950000000000000000e+02
-2.371524987712728034e+02,-2.365948760111641604e+02,-1.264381514705801237e+02,-1.593127290025277034e+02,-2.684038861399685629e+02,-3.016859164330535350e+02,-6.403618608763190423e+01,-8.939927733597778570e+01,9.523238182067871094e+00,-9.179025292396545410e-01,-7.649186849594116211e-01,1.960000000000000000e+02
-2.467963942263404533e+02,-2.469088168258713267e+02,-1.309810542703908141e+02,-1.650107987999190300e+02,-2.781388286208948557e+02,-3.136107506507096332e+02,-6.570132950321203680e+01,-9.250105719450220931e+01,9.523238182067871094e+00,-9.179025292396545410e-01,-7.649186849594116211e-01,1.970000000000000000e+02
-2.557333581683142256e+02,-2.555762019815983876e+02,-1.348717500095617652e+02,-1.689232522209840681e+02,-2.863635376524380263e+02,-3.238413325594910930e+02,-6.554278877366868983e+01,-9.287684369353610236e+01,9.523238182067871094e+00,-9.179025292396545410e-01,-7.649186849594116211e-01,1.980000000000000000e+02
-2.641247094063328404e+02,-2.633786420454389372e+02,-1.386328597799147246e+02,-1.725902219945528486e+02,-2.940683006326444229e+02,-3.332724966489240614e+02,-6.489577710210051009e+01,-9.269529777850766550e+01,9.523238182067871094e+00,-9.179025292396545410e-01,-7.649186849594116211e-01,1.990000000000000000e+02
-2.723712091549550678e+02,-2.712008596124142059e+02,-1.424862835370131506e+02,-1.772157972955319565e+02,-3.023414158056830274e+02,-3.428588362506798148e+02,-6.486583219569638459e+01,-9.413165461408061674e+01,9.523238182067871094e+00,-9.179025292396545410e-01,-7.649186849594116211e-01,2.000000000000000000e+02
-2.807365643203784202e+02,-2.792854118473214839e+02,-1.463361653175124957e+02,-1.829917812298090212e+02,-3.117209972386290247e+02,-3.529781683358905866e+02,-6.584650366086134454e+01,-9.796111016872146138e+01,9.523238182067871094e+00,-9.179025292396545410e-01,-7.649186849594116211e-01,2.010000000000000000e+02
-2.890772413841423258e+02,-2.871578043456465821e+02,-1.499798194097847954e+02,-1.892305647867242442e+02,-3.218789059073078533e+02,-3.633365489111538409e+02,-6.755622032839983149e+01,-1.032170765647433655e+02,9.523238182067871094e+00,-9.179025292396545410e-01,-7.649186849594116211e-01,2.020000000000000000e+02
-2.970316442645071220e+02,-2.942271087894114316e+02,-1.533489086917570603e+02,-1.950489028921301724e+02,-3.318980185024156526e+02,-3.733743021944619613e+02,-6.944697368137894955e+01,-1.080464244201384645e+02,9.523238182067871094e+00,-9.179025292396545410e-01,-7.649186849594116211e-01,2.030000000000000000e+02
-3.045167419329936820e+02,-3.004346036261704285e+02,-1.565939676882990170e+02,-1.999609167253775013e+02,-3.409866919851574494e+02,-3.827478127896929436e+02,-7.107607926231139572e+01,-1.110359185132865605e+02,9.523238182067871094e+00,-9.179025292396545410e-01,-7.649186849594116211e-01,2.040000000000000000e+02
-3.119904785139142405e+02,-3.063495225629258130e+02,-1.599426590113525890e+02,-2.039668334054877050e+02,-3.490697209046429634e+02,-3.914932646721035781e+02,-7.216608229838766420e+01,-1.120479772808030248e+02,9.523238182067871094e+00,-9.179025292396545410e-01,-7.649186849594116211e-01,2.050000000000000000e+02
-3.201251822657686716e+02,-3.127011388013270334e+02,-1.634543361632813685e+02,-2.072754515605802226e+02,-3.567452130353130997e+02,-3.998425697743832643e+02,-7.248364204048630199e+01,-1.120860959778710821e+02,9.523238182067871094e+00,-9.179025292396545410e-01,-7.649186849594116211e-01,2.060000000000000000e+02
-3.291327229664657352e+02,-3.198637400293118844e+02,-1.669159753715007355e+02,-2.101206330184886610e+02,-3.646600775661481748e+02,-4.079888202137526605e+02,-7.190160135225869453e+01,-1.124641555481184696e+02,9.523238182067871094e+00,-9.179025292396545410e-01,-7.649186849594116211e-01,2.070000000000000000e+02
-3.383837657333233437e+02,-3.277456005042304241e+02,-1.700186523790307547e+02,-2.128830161239338850e+02,-3.729092988482516375e+02,-4.160560838124647489e+02,-7.074321074750241678e+01,-1.139727696323152486e+02,9.484992027282714844e+00,-8.796565532684326172e-01,-8.414105772972106934e-01,2.080000000000000000e+02
-3.467501582194781804e+02,-3.360216357023755336e+02,-1.726842719722835682e+02,-2.162327746004229994e+02,-3.810456562087128987e+02,-4.242217684125353117e+02,-7.000478916482370551e+01,-1.165855529547634433e+02,9.484992027282714844e+00,-8.796565532684326172e-01,-8.414105772972106934e-01,2.090000000000000000e+02
-3.534404991550372870e+02,-3.443075581259627143e+02,-1.752121997937438209e+02,-2.208790244903575513e+02,-3.886437066230291748e+02,-4.327242860928527080e+02,-7.094276676464505726e+01,-1.197397092414885265e+02,9.484992027282714844e+00,-8.796565532684326172e-01,-8.414105772972106934e-01,2.100000000000000000e+02
-3.586334135296328895e+02,-3.520986332513784873e+02,-1.780703074700286379e+02,-2.269623478970584074e+02,-3.957878287987095973e+02,-4.416427206936750736e+02,-7.410395609179249732e+01,-1.228292370042972834e+02,9.484992027282714844e+00,-8.796565532684326172e-01,-8.414105772972106934e-01,2.110000000000000000e+02
-3.633749684441950194e+02,-3.587459345951037903e+02,-1.815271604766735436e+02,-2.336923750962646409e+02,-4.029966853680152781e+02,-4.506972687549441616e+02,-7.863020030088682688e+01,-1.255548520622332944e+02,9.484992027282714844e+00,-8.796565532684326172e-01,-8.414105772972106934e-01,2.120000000000000000e+02
-3.688409566275295219e+02,-3.638152321710804245e+02,-1.854945786667713037e+02,-2.397856953791747401e+02,-4.107222216729333013e+02,-4.593997867069901986e+02,-8.267595859714947437e+01,-1.280131396651531759e+02,9.484992027282714844e+00,-8.796565532684326172e-01,-8.414105772972106934e-01,2.130000000000000000e+02
-3.755942878386053962e+02,-3.676765647743095542e+02,-1.897493344679810434e+02,-2.445177599685675887e+02,-4.190059550917494562e+02,-4.675333105004456229e+02,-8.484114523013249709e+01,-1.306132171455137723e+02,9.484992027282714844e+00,-8.796565532684326172e-01,-8.414105772972106934e-01,2.140000000000000000e+02
-3.834041354572950695e+02,-3.716848811312183898e+02,-1.942745144138443720e+02,-2.484596610844937459e+02,-4.276158132155296698e+02,-4.755096913239340211e+02,-8.544832999561822362e+01,-1.339077260413032491e+02,9.484992027282714844e+00,-8.796565532684326172e-01,-8.414105772972106934e-01,2.150000000000000000e+02
-3.916539874345562566e+02,-3.774814077314817951e+02,-1.992697816798763597e+02,-2.530726158139509607e+02,-4.363567319075245905e+02,-4.841180061888944692e+02,-8.640961451538623805e+01,-1.383210177050477796e+02,9.484992027282714844e+00,-8.796565532684326172e-01,-8.414105772972106934e-01,2.160000000000000000e+02
-3.998704870353521983e+02,-3.857876730424331981e+02,-2.047365521430847366e+02,-2.593786407892616808e+02,-4.450729119709831139e+02,-4.937538935833254072e+02,-8.962678615276854543e+01,-1.438069240143659044e+02,9.484992027282714844e+00,-8.796565532684326172e-01,-8.414105772972106934e-01,2.170000000000000000e+02
-4.078808114621174354e+02,-3.957056047304340609e+02,-2.100630620959614134e+02,-2.668836401171324724e+02,-4.533282749876552771e+02,-5.038305711021184834e+02,-9.527613097217727045e+01,-1.496457483234235042e+02,9.484992027282714844e+00,-8.796565532684326172e-01,-8.414105772972106934e-01,2.180000000000000000e+02
-4.155291443847504524e+02,-4.052241461008798069e+02,-2.141575953037745421e+02,-2.738087701029044183e+02,-4.603160356270118427e+02,-5.130238538608919043e+02,-1.015414485638743827e+02,-1.546381923474891664e+02,9.484992027282714844e+00,-8.796565532684326172e-01,-8.414105772972106934e-01,2.190000000000000000e+02
-4.223385317980278160e+02,-4.125853961756833996e+02,-2.161988612422210281e+02,-2.785080504364168519e+02,-4.654052144054476230e+02,-5.202591950106616423e+02,-1.060729010715199365e+02,-1.577278700928472972e+02,9.484992027282714844e+00,-8.796565532684326172e-01,-8.414105772972106934e-01,2.200000000000000000e+02
-4.275748790231891689e+02,-4.173754172128528808e+02,-2.164009570612552125e+02,-2.808159356081491751e+02,-4.689450477091336325e+02,-5.255913992083956146e+02,-1.078524472853569023e+02,-1.587004428628501955e+02,9.484992027282714844e+00,-8.796565532684326172e-01,-8.414105772972106934e-01,2.210000000000000000e+02
-4.307818235919417020e+02,-4.204789671369489952e+02,-2.160819761974644280e+02,-2.821315873856756298e+02,-4.724523994586488698e+02,-5.301736396844735282e+02,-1.078281355597932816e+02,-1.584279993472923707e+02,9.484992027282714844e+00,-8.796565532684326172e-01,-8.414105772972106934e-01,2.220000000000000000e+02
-4.323596436318489395e+02,-4.231119949790299870e+02,-2.168973601344951021e+02,-2.842377050409932053e+02,-4.777295068213024933e+02,-5.353375120785945001e+02,-1.078808340536161268e+02,-1.583870644294183876e+02,9.484992027282714844e+00,-8.796565532684326172e-01,-8.414105772972106934e-01,2.230000000000000000e+02
-4.336372671607327902e+02,-4.259497331139214111e+02,-2.198119342794511795e+02,-2.879959118000792841e+02,-4.854931507995634092e+02,-5.416130871291884432e+02,-1.092205532616262644e+02,-1.597473586752412302e+02,9.484992027282714844e+00,-8.796565532684326172e-01,-8.414105772972106934e-01,2.240000000000000000e+02
-4.362479239315821360e+02,-4.291134197511619277e+02,-2.245932150775938680e+02,-2.930486943507253272e+02,-4.946896515473099498e+02,-5.485328221285767540e+02,-1.116839289661784278e+02,-1.627050328600648754e+02,9.484992027282714844e+00,-8.796565532684326172e-01,-8.414105772972106934e-01,2.250000000000000000e+02
-4.411771523137367694e+02,-4.327839147424065231e+02,-2.301169181148793541e+02,-2.985735366518388219e+02,-5.031535076896061582e+02,-5.552722498890120733e+02,-1.143691718567806674e+02,-1.665502637806230268e+02,9.484992027282714844e+00,-8.796565532684326172e-01,-8.414105772972106934e-01,2.260000000000000000e+02
-4.481668439487098112e+02,-4.375715552318838490e+02,-2.351253005603480233e+02,-3.041388646053383127e+02,-5.091072511313909672e+02,-5.614355081987728227e+02,-1.167411661016276412e+02,-1.703649843239145412e+02,9.484992027282714844e+00,-8.796565532684326172e-01,-8.414105772972106934e-01,2.270000000000000000e+02
-4.559240271875160033e+02,-4.440989257451083176e+02,-2.388364983754618152e+02,-3.097799869841087457e+02,-5.122848817413441793e+02,-5.672741746938750111e+02,-1.190193391552866160e+02,-1.737278171797470350e+02,9.484992027282714844e+00,-8.796565532684326172e-01,-8.414105772972106934e-01,2.280000000000000000e+02
-4.629481532729769242e+02,-4.521647645740367807e+02,-2.410754058946267833e+02,-3.153697188113560514e+02,-5.138319723891922877e+02,-5.732469060195794555e+02,-1.215581093859127577e+02,-1.768257094934983797e+02,9.484992027282714844e+00,-8.796565532684326172e-01,-8.414105772972106934e-01,2.290000000000000000e+02
-4.683415405071855275e+02,-4.603747103086634525e+02,-2.420608357616083595e+02,-3.201442397898754280e+02,-5.152323480770446622e+02,-5.794538295009192552e+02,-1.240385361530711634e+02,-1.799453529173943025e+02,9.484992027282714844e+00,-8.796565532684326172e-01,-8.414105772972106934e-01,2.300000000000000000e+02
-4.720664175094698294e+02,-4.667382496135455767e+02,-2.421818519502112395e+02,-3.230633176496939996e+02,-5.172753246112979468e+02,-5.855065945599499173e+02,-1.254656018412306366e+02,-1.829173251441684442e+02,9.484992027282714844e+00,-8.796565532684326172e-01,-8.414105772972106934e-01,2.310000000000000000e+02
-4.746248509081751763e+02,-4.698777702467127710e+02,-2.419120459854161709e+02,-3.237527495908971105e+02,-5.198581109546853440e+02,-5.909032349240856092e+02,-1.250669229171621737e+02,-1.851220698751940290e+02,9.484992027282714844e+00,-8.796565532684326172e-01,-8.414105772972106934e-01,2.320000000000000000e+02
-4.765819482427496041e+02,-4.699491625301989188e+02,-2.417870869241987748e+02,-3.230940002818465473e+02,-5.225879114813528759e+02,-5.955091903051138615e+02,-1.232047998172715779e+02,-1.861180383453174727e+02,9.484992027282714844e+00,-8.796565532684326172e-01,-8.414105772972106934e-01,2.330000000000000000e+02
-4.783276314192653444e+02,-4.686183678336547018e+02,-2.423157540818770030e+02,-3.228036069066297387e+02,-5.254679001208469344e+02,-5.996959593192414104e+02,-1.213403712306708258e+02,-1.863004281186867956e+02,9.484992027282714844e+00,-8.796565532684326172e-01,-8.414105772972106934e-01,2.340000000000000000e+02
-4.800967572315698817e+02,-4.681371392199876027e+02,-2.437978798182180071e+02,-3.242728657122816003e+02,-5.289971015346618515e+02,-6.040249729697784460e+02,-1.209824116784916441e+02,-1.868878578978242331e+02,9.484992027282714844e+00,-8.796565532684326172e-01,-8.414105772972106934e-01,2.350000000000000000e+02
-4.820029453547472258e+02,-4.701411387493762959e+02,-2.461680881601282636e+02,-3.276292263450395694e+02,-5.336544551850352036e+02,-6.087650525952149110e+02,-1.225273898047225885e+02,-1.891251322749885730e+02,9.484992027282714844e+00,-8.796565532684326172e-01,-8.414105772972106934e-01,2.360000000000000000e+02
-4.839681851179457226e+02,-4.748988185260691353e+02,-2.490031012756694508e+02,-3.317888733772001615e+02,-5.393144074660153819e+02,-6.136500271666186563e+02,-1.250192709053330873e+02,-1.933458553791497252e+02,9.484992027282714844e+00,-8.796565532684326172e-01,-8.414105772972106934e-01,2.370000000000000000e+02
-4.857238722603992755e+02,-4.813898028500098007e+02,-2.517382867542451095e+02,-3.354041214310350369e+02,-5.451767977319814236e+02,-6.180840025219786185e+02,-1.270393338171656978e+02,-1.987260736593693764e+02,9.484992027282714844e+00,-8.796565532684326172e-01,-8.414105772972106934e-01,2.380000000000000000e+02
-4.870893492032787435e+02,-4.880919513246800534e+02,-2.540029634027216616e+02,-3.378808509407182328e+02,-5.502960127988714021e+02,-6.216365682540513262e+02,-1.279351880573246945e+02,-2.039773135223890677e+02,9.446745872497558594e+00,-8.414105772972106934e-01,-7.649186849594116211e-01,2.390000000000000000e+02
-4.883663505115292764e+02,-4.939510274967101964e+02,-2.558748456811912320e+02,-3.396511762825355163e+02,-5.542503585480594666e+02,-6.244059696755552977e+02,-1.283165118129670645e+02,-2.083814846091468098e+02,9.446745872497558594e+00,-8.414105772972106934e-01,-7.649186849594116211e-01,2.400000000000000000e+02
-4.903870648989391725e+02,-4.988824038260899556e+02,-2.578559238999674790e+02,-3.415631077774165760e+02,-5.573719214716464876e+02,-6.269033417646180624e+02,-1.294260765232756967e+02,-2.122626051410755963e+02,9.446745872497558594e+00,-8.414105772972106934e-01,-7.649186849594116211e-01,2.410000000000000000e+02
-4.939728892227594201e+02,-5.034687310912747762e+02,-2.605157479883864653e+02,-3.439735955424745271e+02,-5.603414525319265067e+02,-6.295083918445193376e+02,-1.319736354224231718e+02,-2.165014123302605640e+02,9.446745872497558594e+00,-8.414105772972106934e-01,-7.649186849594116211e-01,2.420000000000000000e+02
-4.991658166254726439e+02,-5.081255557316379736e+02,-2.640038835688245626e+02,-3.463193054722140687e+02,-5.635184184941309695e+02,-6.319729910108305830e+02,-1.354456101464144240e+02,-2.215758488501786587e+02,9.446745872497558594e+00,-8.414105772972106934e-01,-7.649186849594116211e-01,2.430000000000000000e+02
-5.049597404755263028e+02,-5.124785441068081582e+02,-2.677829793752803198e+02,-3.474963093354504053e+02,-5.665908596856420445e+02,-6.334686763692709519e+02,-1.384387497074058047e+02,-2.270184673117090597e+02,9.446745872497558594e+00,-8.414105772972106934e-01,-7.649186849594116211e-01,2.440000000000000000e+02
-5.098982052639670997e+02,-5.155681379925272267e+02,-2.708273939722728301e+02,-3.467184452715488305e+02,-5.688242181077769146e+02,-6.332211531007266103e+02,-1.396775085139499879e+02,-2.317534800238871640e+02,9.446745872497558594e+00,-8.414105772972106934e-01,-7.649186849594116211e-01,2.450000000000000000e+02
-5.130723859458139486e+02,-5.167778387152964115e+02,-2.721865715930896386e+02,-3.441613353893512794e+02,-5.696562469365022707e+02,-6.312156035766764717e+02,-1.388432506507851940e+02,-2.349620150609789562e+02,9.446745872497558594e+00,-8.414105772972106934e-01,-7.649186849594116211e-01,2.460000000000000000e+02
-5.146347219649824183e+02,-5.166500603231934292e+02,-2.715240023507177511e+02,-3.409076125219278310e+02,-5.691277447938084606e+02,-6.283260895645685196e+02,-1.366005848101896163e+02,-2.366756266590682571e+02,9.446745872497558594e+00,-8.414105772972106934e-01,-7.649186849594116211e-01,2.470000000000000000e+02
-5.153936316787480791e+02,-5.167694346465335684e+02,-2.692791408910691189e+02,-3.382879919232477732e+02,-5.678425010427828283e+02,-6.257451161123724432e+02,-1.339743481699320000e+02,-2.376487473846860894e+02,9.446745872497558594e+00,-8.414105772972106934e-01,-7.649186849594116211e-01,2.480000000000000000e+02
-5.159433283932219183e+02,-5.187014554946047156e+02,-2.664163234288378135e+02,-3.371483491472456535e+02,-5.665779396467371498e+02,-6.242275239839041205e+02,-1.317302862294274064e+02,-2.387577848905775681e+02,9.446745872497558594e+00,-8.414105772972106934e-01,-7.649186849594116211e-01,2.490000000000000000e+02
-5.162170423034282294e+02,-5.228591927602089982e+02,-2.640258570738516255e+02,-3.375741745068704631e+02,-5.659381791463300715e+02,-6.238384567151456395e+02,-1.302647846037023101e+02,-2.405595458921327463e+02,9.446745872497558594e+00,-8.414105772972106934e-01,-7.649186849594116211e-01,2.500000000000000000e+02
-5.158711926808725821e+02,-5.282725397135197909e+02,-2.630384496270696673e+02,-3.392006345319086904e+02,-5.662955406943858634e+02,-6.243858890833078021e+02,-1.299143739900537184e+02,-2.433614104342232167e+02,9.446745872497558594e+00,-8.414105772972106934e-01,-7.649186849594116211e-01,2.510000000000000000e+02
-5.150093664042575483e+02,-5.334133699505596269e+02,-2.640498621920179403e+02,-3.417335685612457610e+02,-5.679060107122181762e+02,-6.260158130526651803e+02,-1.311538076653090457e+02,-2.475316142233693881e+02,9.446745872497558594e+00,-8.414105772972106934e-01,-7.649186849594116211e-01,2.520000000000000000e+02
-5.144034971062183104e+02,-5.372779179353447034e+02,-2.671002932088217676e+02,-3.451439434504875408e+02,-5.708995784988502464e+02,-6.292744990625818673e+02,-1.342939649179697881e+02,-2.534807571215347934e+02,9.446745872497558594e+00,-8.414105772972106934e-01,-7.649186849594116211e-01,2.530000000000000000e+02
-5.149245629270697009e+02,-5.397768306424626417e+02,-2.714209708075699155e+02,-3.493306254099290982e+02,-5.750333254040052680e+02,-6.344723984296164190e+02,-1.388702808537956344e+02,-2.611232267719574338e+02,9.446745872497558594e+00,-8.414105772972106934e-01,-7.649186849594116211e-01,2.540000000000000000e+02
-5.167379559050683611e+02,-5.412452447126953530e+02,-2.754606232975382909e+02,-3.535851571040145700e+02,-5.794573775546609795e+02,-6.409159998871357402e+02,-1.433500995593753942e+02,-2.692923865207397967e+02,9.446745872497558594e+00,-8.414105772972106934e-01,-7.649186849594116211e-01,2.550000000000000000e+02
-5.190644594263981162e+02,-5.417598277658653387e+02,-2.774809535766617046e+02,-3.564793822788867601e+02,-5.828740005364714989e+02,-6.468050623968420041e+02,-1.456522147228066615e+02,-2.758558495439142462e+02,9.446745872497558594e+00,-8.414105772972106934e-01,-7.649186849594116211e-01,2.560000000000000000e+02
-5.207422421238334209e+02,-5.410510891046451434e+02,-2.765426448243592858e+02,-3.565190371471641129e+02,-5.841796315316515802e+02,-6.500731507855036853e+02,-1.443074990904140122e+02,-2.787788006832704468e+02,9.446745872497558594e+00,-8.414105772972106934e-01,-7.649186849594116211e-01,2.570000000000000000e+02
-5.210628286280771135e+02,-5.390755895994035427e+02,-2.732106290858320108e+02,-3.532188034416255960e+02,-5.832064268480094142e+02,-6.496437611910015448e+02,-1.395014498541173680e+02,-2.775105677536032545e+02,9.446745872497558594e+00,-8.414105772972106934e-01,-7.649186849594116211e-01,2.580000000000000000e+02
-5.201677770751900880e+02,-5.365651621410972894e+02,-2.693295466789744523e+02,-3.477499954179565975e+02,-5.809536963631026083e+02,-6.461556188871188624e+02,-1.332196087261196453e+02,-2.735949473977540265e+02,9.446745872497558594e+00,-8.414105772972106934e-01,-7.649186849594116211e-01,2.590000000000000000e+02
-5.187913633713218360e+02,-5.348549300301118592e+02,-2.668997327581713535e+02,-3.424864048739681266e+02,-5.790223835462647912e+02,-6.415734000087057893e+02,-1.283103917101989282e+02,-2.698754646168497402e+02,9.523238182067871094e+00,-9.179025292396545410e-01,-8.031646609306335449e-01,2.600000000000000000e+02
-5.177159203471828732e+02,-5.350283705768641767e+02,-2.668425667359321096e+02,-3.395920829090164261e+02,-5.785830212570499498e+02,-6.379438744410181243e+02,-1.270144666996792466e+02,-2.687401736583176444e+02,9.523238182067871094e+00,-9.179025292396545410e-01,-8.031646609306335449e-01,2.610000000000000000e+02
-5.174034843029088506e+02,-5.371614379873949474e+02,-2.685829954609076822e+02,-3.396757823845235862e+02,-5.796389501213182029e+02,-6.362218483305931613e+02,-1.298681181796027886e+02,-2.706825787856331544e+02,9.523238182067871094e+00,-9.179025292396545410e-01,-8.031646609306335449e-01,2.620000000000000000e+02
-5.179161298089319416e+02,-5.403685594929329454e+02,-2.706828869564202478e+02,-3.415673432640215879e+02,-5.811430637642380361e+02,-6.359967844484142461e+02,-1.355763341082407578e+02,-2.742394937231509857e+02,9.523238182067871094e+00,-9.179025292396545410e-01,-8.031646609306335449e-01,2.630000000000000000e+02
-5.189314376321526652e+02,-5.435555697217052966e+02,-2.718742834686433980e+02,-3.433682500213709545e+02,-5.818180993983299913e+02,-6.361855250706610150e+02,-1.417754235422660258e+02,-2.772502796888372814e+02,9.523238182067871094e+00,-9.179025292396545410e-01,-8.031646609306335449e-01,2.640000000000000000e+02
-5.197674837330249602e+02,-5.461403672963307372e+02,-2.716521059666064275e+02,-3.438897273406565773e+02,-5.810089707113695567e+02,-6.360169551440087616e+02,-1.461611294665596006e+02,-2.783855317898451176e+02,9.523238182067871094e+00,-9.179025292396545410e-01,-8.031646609306335449e-01,2.650000000000000000e+02
-5.195796177175343473e+02,-5.480984031152833040e+02,-2.701673085556685692e+02,-3.433091704280035401e+02,-5.789725999391155256e+02,-6.354942967883334859e+02,-1.474141669532037895e+02,-2.778085221124624695e+02,9.523238182067871094e+00,-9.179025292396545410e-01,-8.031646609306335449e-01,2.660000000000000000e+02
-5.178686430786686969e+02,-5.494330609876078597e+02,-2.678787632931673102e+02,-3.426364282236315830e+02,-5.765699676288355704e+02,-6.350882610012473606e+02,-1.456175687866196995e+02,-2.766989518977912894e+02,9.523238182067871094e+00,-9.179025292396545410e-01,-8.031646609306335449e-01,2.670000000000000000e+02
-5.150149644636201174e+02,-5.497909932203068593e+02,-2.654707050481227952e+02,-3.426533087340043267e+02,-5.747719400343376037e+02,-6.351282980806857950e+02,-1.421095435640391997e+02,-2.762944191013089039e+02,9.523238182067871094e+00,-9.179025292396545410e-01,-8.031646609306335449e-01,2.680000000000000000e+02
-5.122669835029250862e+02,-5.487566730799455854e+02,-2.639444859602945144e+02,-3.433648025246137649e+02,-5.743203110632921380e+02,-6.355293935003945762e+02,-1.388436847029304317e+02,-2.772689399285357013e+02,9.523238182067871094e+00,-9.179025292396545410e-01,-8.031646609306335449e-01,2.690000000000000000e+02
-5.109597143053256900e+02,-5.465744440409797562e+02,-2.643811829706449998e+02,-3.443628277490640812e+02,-5.755561578832982832e+02,-6.360526488015120776e+02,-1.374632641173129741e+02,-2.796950993262031488e+02,9.523238182067871094e+00,-9.179025292396545410e-01,-8.031646609306335449e-01,2.700000000000000000e+02
-5.114781685641261220e+02,-5.444765551335663076e+02,-2.671939786191647954e+02,-3.455409068250992277e+02,-5.782704323480177209e+02,-6.367176640479337948e+02,-1.384966144345296470e+02,-2.832373048222966645e+02,9.523238182067871094e+00,-9.179025292396545410e-01,-8.031646609306335449e-01,2.710000000000000000e+02
-5.128864652348427171e+02,-5.440664599224619451e+02,-2.714589233273776472e+02,-3.473030541865309715e+02,-5.816292816135330668e+02,-6.378643501128372009e+02,-1.411778688290257833e+02,-2.872219548013738404e+02,9.523238182067871094e+00,-9.179025292396545410e-01,-8.031646609306335449e-01,2.720000000000000000e+02
-5.136666536068186133e+02,-5.461150699021314949e+02,-2.751676308982238197e+02,-3.500302795439861256e+02,-5.844259310047673353e+02,-6.397827771982657623e+02,-1.440876363750206792e+02,-2.906791856587498160e+02,9.523238182067871094e+00,-9.179025292396545410e-01,-8.031646609306335449e-01,2.730000000000000000e+02
-5.129935147085325298e+02,-5.497925511907621967e+02,-2.764919141957626607e+02,-3.533964404397961516e+02,-5.856993925733715969e+02,-6.422947706073377958e+02,-1.461989504206341053e+02,-2.926682122456703610e+02,9.523238182067871094e+00,-9.179025292396545410e-01,-8.031646609306335449e-01,2.740000000000000000e+02
-5.114072754057902443e+02,-5.530915928879446710e+02,-2.750952177065872775e+02,-3.563071504426595766e+02,-5.853085897540820497e+02,-6.447127431183678254e+02,-1.475316953312876649e+02,-2.928626211623490008e+02,9.523238182067871094e+00,-9.179025292396545410e-01,-8.031646609306335449e-01,2.750000000000000000e+02
-5.102376630478978541e+02,-5.541911665149714281e+02,-2.722960732611279582e+02,-3.575896295149285606e+02,-5.839245820320693383e+02,-6.462051772715560674e+02,-1.488907065501687157e+02,-2.918795578314317254e+02,9.523238182067871094e+00,-9.179025292396545410e-01,-8.031646609306335449e-01,2.760000000000000000e+02
-5.102993753630328797e+02,-5.526701877303247556e+02,-2.698861672746976410e+02,-3.568037208681340644e+02,-5.823882963032990574e+02,-6.462373656074357768e+02,-1.509451834709921059e+02,-2.908875720800332374e+02,9.523238182067871094e+00,-9.179025292396545410e-01,-8.031646609306335449e-01,2.770000000000000000e+02
-5.110894021348820502e+02,-5.495905565654103384e+02,-2.686889568838131481e+02,-3.544687014516118779e+02,-5.810329614590186793e+02,-6.447730374248551470e+02,-1.534966616239207724e+02,-2.907072132862030003e+02,9.523238182067871094e+00,-9.179025292396545410e-01,-8.031646609306335449e-01,2.780000000000000000e+02
-5.112345750567995424e+02,-5.464552778205734285e+02,-2.681699669198425227e+02,-3.515806410936953625e+02,-5.796181857701992612e+02,-6.421863480920446818e+02,-1.555795101726480425e+02,-2.911868561955807309e+02,9.523238182067871094e+00,-9.179025292396545410e-01,-8.031646609306335449e-01,2.790000000000000000e+02
-5.097417689941477761e+02,-5.439976588498091132e+02,-2.673388588169500508e+02,-3.489199541480218159e+02,-5.778679314525090831e+02,-6.390419128620206948e+02,-1.562300135843264570e+02,-2.914475876703197628e+02,9.523238182067871094e+00,-9.179025292396545410e-01,-8.031646609306335449e-01,2.800000000000000000e+02
-5.068588476368340139e+02,-5.418204191371322622e+02,-2.659144606696233950e+02,-3.467118372137595088e+02,-5.759460713560692966e+02,-6.358699661560419827e+02,-1.551624983620803278e+02,-2.907520579686801057e+02,9.523238182067871094e+00,-9.179025292396545410e-01,-8.031646609306335449e-01,2.810000000000000000e+02
-5.037625015675659483e+02,-5.390711013459678043e+02,-2.645379255497149416e+02,-3.447548721798176530e+02,-5.742927062826494193e+02,-6.329576646316501183e+02,-1.527893571345406372e+02,-2.891315758664077293e+02,9.523238182067871094e+00,-9.179025292396545410e-01,-8.031646609306335449e-01,2.820000000000000000e+02
-5.014381998553253652e+02,-5.354223646067576965e+02,-2.638906580059871203e+02,-3.427059591837947892e+02,-5.729883264063630577e+02,-6.301986062090932137e+02,-1.497311154241469922e+02,-2.871644024664319659e+02,9.523238182067871094e+00,-9.179025292396545410e-01,-8.031646609306335449e-01,2.830000000000000000e+02
-4.998619844068341536e+02,-5.314219811717068751e+02,-2.637213040468909639e+02,-3.402135118565172434e+02,-5.713735643461170639e+02,-6.271111967374786218e+02,-1.463863847065485970e+02,-2.851690887073714293e+02,9.523238182067871094e+00,-9.179025292396545410e-01,-8.031646609306335449e-01,2.840000000000000000e+02
-4.982271909542856747e+02,-5.279462143167726254e+02,-2.628697246876780582e+02,-3.369356324196016885e+02,-5.684199894416731240e+02,-6.231079821482770740e+02,-1.429489614268227342e+02,-2.827002815256103077e+02,9.484992027282714844e+00,-8.796565532684326172e-01,-8.414105772972106934e-01,2.850000000000000000e+02
-4.958987941448907009e+02,-5.253602574501317122e+02,-2.602935048749078533e+02,-3.326676770630388091e+02,-5.635540602885093904e+02,-6.179055707899658501e+02,-1.396794336917699866e+02,-2.789134440962885719e+02,9.484992027282714844e+00,-8.796565532684326172e-01,-8.414105772972106934e-01,2.860000000000000000e+02
-4.931010562552258421e+02,-5.232104211523349022e+02,-2.560811193767791565e+02,-3.276280676179778766e+02,-5.571788427466192388e+02,-6.118054813138162444e+02,-1.369960434023153084e+02,-2.734877702922489107e+02,9.484992027282714844e+00,-8.796565532684326172e-01,-8.414105772972106934e-01,2.870000000000000000e+02
-4.906892042037002284e+02,-5.207224576014062905e+02,-2.514977763945221909e+02,-3.226572055510404198e+02,-5.504775594299663908e+02,-6.056508826106164634e+02,-1.352671925814019005e+02,-2.672498426793478075e+02,9.484992027282714844e+00,-8.796565532684326172e-01,-8.414105772972106934e-01,2.880000000000000000e+02
-4.893052824785927442e+02,-5.175958067070586139e+02,-2.480632416836015182e+02,-3.190187893445885834e+02,-5.447570903840658048e+02,-6.004848152945348829e+02,-1.345936940003529116e+02,-2.619046675393764190e+02,9.484992027282714844e+00,-8.796565532684326172e-01,-8.414105772972106934e-01,2.890000000000000000e+02
-4.888022652822623968e+02,-5.143270423273424967e+02,-2.465457233544532869e+02,-3.177940875874038511e+02,-5.409062130034001257e+02,-5.971212009065729944e+02,-1.348807575359319344e+02,-2.590786396308154735e+02,9.484992027282714844e+00,-8.796565532684326172e-01,-8.414105772972106934e-01,2.900000000000000000e+02
-4.884791347253697040e+02,-5.117742047237350107e+02,-2.467091347830616996e+02,-3.192437990349636721e+02,-5.392553698122515016e+02,-5.958424936624402335e+02,-1.361095010859552303e+02,-2.594143738821622946e+02,9.484992027282714844e+00,-8.796565532684326172e-01,-8.414105772972106934e-01,2.910000000000000000e+02
-4.878295055686436399e+02,-5.104044744933861466e+02,-2.478392962933087915e+02,-3.225972746725815341e+02,-5.396876170928410374e+02,-5.963241031499679821e+02,-1.384317239804252040e+02,-2.623153234050108722e+02,9.484992027282714844e+00,-8.796565532684326172e-01,-8.414105772972106934e-01,2.920000000000000000e+02
-4.870085024473328303e+02,-5.099431748939590534e+02,-2.493837330199874032e+02,-3.264395149408890120e+02,-5.417424486819421645e+02,-5.977890678542853493e+02,-1.418793418452196420e+02,-2.663798841782046338e+02,9.484992027282714844e+00,-8.796565532684326172e-01,-8.414105772972106934e-01,2.930000000000000000e+02
-4.865470562081645767e+02,-5.097089286511264845e+02,-2.510965025100649655e+02,-3.294418452767483814e+02,-5.446575789511853145e+02,-5.993191483610598880e+02,-1.459441902335784107e+02,-2.700950266970082794e+02,9.484992027282714844e+00,-8.796565532684326172e-01,-8.414105772972106934e-01,2.940000000000000000e+02
-4.866165153418660339e+02,-5.092519751838109414e+02,-2.526926570054133663e+02,-3.309416674261865410e+02,-5.474522554114050763e+02,-6.001724844599311837e+02,-1.495049658821957337e+02,-2.723362922078960082e+02,9.484992027282714844e+00,-8.796565532684326172e-01,-8.414105772972106934e-01,2.950000000000000000e+02
-4.866025088159858569e+02,-5.086485604132586786e+02,-2.535092409481871982e+02,-3.310307288284518563e+02,-5.490832333858345464e+02,-5.999272417522684009e+02,-1.512826134008419103e+02,-2.725155136275168388e+02,9.484992027282714844e+00,-8.796565532684326172e-01,-8.414105772972106934e-01,2.960000000000000000e+02
-4.854631825456799561e+02,-5.081879222243186405e+02,-2.526299453257718142e+02,-3.301825560986324035e+02,-5.486170253238142323e+02,-5.983845430947444584e+02,-1.505265983381181059e+02,-2.705018854496896665e+02,9.484992027282714844e+00,-8.796565532684326172e-01,-8.414105772972106934e-01,2.970000000000000000e+02
-4.825860847885229532e+02,-5.078142890437657115e+02,-2.494525986888991156e+02,-3.287583367442094868e+02,-5.454114670337780808e+02,-5.953970279743326728e+02,-1.474244016990425052e+02,-2.665228461221045109e+02,9.484992027282714844e+00,-8.796565532684326172e-01,-8.414105772972106934e-01,2.980000000000000000e+02
-4.783700613814186227e+02,-5.069273881533043777e+02,-2.442346273078555896e+02,-3.267444899098039741e+02,-5.393628086387550411e+02,-5.908741434629786227e+02,-1.429384972443754123e+02,-2.611213554400937937e+02,9.484992027282714844e+00,-8.796565532684326172e-01,-8.414105772972106934e-01,2.990000000000000000e+02
-4.739919000376891063e+02,-5.047855708887830133e+02,-2.381560102874595941e+02,-3.238668110653293297e+02,-5.311813267147693978e+02,-5.850243517342729547e+02,-1.382339145820862996e+02,-2.551204820271067319e+02,9.484992027282714844e+00,-8.796565532684326172e-01,-8.414105772972106934e-01,3.000000000000000000e+02
-4.705231717494974646e+02,-5.011491975255241869e+02,-2.328097035826160663e+02,-3.199567405840906531e+02,-5.224299620208726083e+02,-5.785711337098427975e+02,-1.341166735649037491e+02,-2.495014318788103083e+02,9.484992027282714844e+00,-8.796565532684326172e-01,-8.414105772972106934e-01,3.010000000000000000e+02
-4.681269768547912236e+02,-4.965495964224201089e+02,-2.294132301116500230e+02,-3.152643341093931895e+02,-5.150309882359487119e+02,-5.725804101271670561e+02,-1.307979547571920875e+02,-2.451375135978103117e+02,9.484992027282714844e+00,-8.796565532684326172e-01,-8.414105772972106934e-01,3.020000000000000000e+02
-4.660070378154268838e+02,-4.919278418015865100e+02,-2.282425261883748817e+02,-3.104790119870381204e+02,-5.103679125379652533e+02,-5.678820121327362358e+02,-1.280521485609905312e+02,-2.424773973126144710e+02,9.484992027282714844e+00,-8.796565532684326172e-01,-8.414105772972106934e-01,3.030000000000000000e+02
-4.631357450428109814e+02,-4.879834241255878169e+02,-2.286405083995566656e+02,-3.064272616943183039e+02,-5.085796830678027618e+02,-5.645334620118076145e+02,-1.255881418780194281e+02,-2.413728187508061183e+02,9.484992027282714844e+00,-8.796565532684326172e-01,-8.414105772972106934e-01,3.040000000000000000e+02
-4.591555545887779317e+02,-4.848039187051034560e+02,-2.295620151363242485e+02,-3.036294562207881427e+02,-5.086282317570384066e+02,-5.618470125500299446e+02,-1.233567138808281243e+02,-2.411929367096366832e+02,9.484992027282714844e+00,-8.796565532684326172e-01,-8.414105772972106934e-01,3.050000000000000000e+02
-4.547173696393147111e+02,-4.820424230492671995e+02,-2.302682842028061714e+02,-3.020103002020434815e+02,-5.091042763681118686e+02,-5.590320033571156273e+02,-1.215990363466515873e+02,-2.411870384321980509e+02,9.484992027282714844e+00,-8.796565532684326172e-01,-8.414105772972106934e-01,3.060000000000000000e+02
-4.509982020607894810e+02,-4.793936703078788923e+02,-2.306848997271688404e+02,-3.009773226822275092e+02,-5.091039176301120506e+02,-5.558982269515762482e+02,-1.206308652097670802e+02,-2.408640605639383239e+02,9.484992027282714844e+00,-8.796565532684326172e-01,-8.414105772972106934e-01,3.070000000000000000e+02
-4.488081278187546559e+02,-4.768918114835732922e+02,-2.312099351607099607e+02,-2.998485036046502046e+02,-5.085093304353424628e+02,-5.529881120187110355e+02,-1.205678206354135682e+02,-2.401556706885052108e+02,9.484992027282714844e+00,-8.796565532684326172e-01,-8.414105772972106934e-01,3.080000000000000000e+02
-4.479893203785618425e+02,-4.747990493108150076e+02,-2.321871223978158696e+02,-2.983484736262455499e+02,-5.076112103556155262e+02,-5.510303872092081292e+02,-1.212508876926352741e+02,-2.393130023214829407e+02,9.484992027282714844e+00,-8.796565532684326172e-01,-8.414105772972106934e-01,3.090000000000000000e+02
-4.475336644281792360e+02,-4.732658563936463452e+02,-2.334845378829697893e+02,-2.968023365528338218e+02,-5.065922960736902496e+02,-5.502320553844376718e+02,-1.224503775842694040e+02,-2.386791961587349533e+02,9.484992027282714844e+00,-8.796565532684326172e-01,-8.414105772972106934e-01,3.100000000000000000e+02
-4.462855034996073300e+02,-4.721188476433133019e+02,-2.345083018474581422e+02,-2.958420921653195137e+02,-5.053730016186123066e+02,-5.500450649147569493e+02,-1.241227886320550624e+02,-2.385034581178491635e+02,9.484992027282714844e+00,-8.796565532684326172e-01,-8.414105772972106934e-01,3.110000000000000000e+02
-4.436874166935801895e+02,-4.709522299736227069e+02,-2.345969097459756085e+02,-2.958210206351845954e+02,-5.038068332029528165e+02,-5.495624317695810532e+02,-1.263903255065406483e+02,-2.388384781680330207e+02,9.523238182067871094e+00,-8.796565532684326172e-01,-8.031646609306335449e-01,3.120000000000000000e+02
-4.400474582493841353e+02,-4.693912076612990631e+02,-2.334321795366470269e+02,-2.963982599804905931e+02,-5.018377743046294199e+02,-5.481237433400538066e+02,-1.291698268609280831e+02,-2.394694559175785571e+02,9.523238182067871094e+00,-8.796565532684326172e-01,-8.031646609306335449e-01,3.130000000000000000e+02
-4.362112364834714526e+02,-4.672755902531137053e+02,-2.311580111976162470e+02,-2.966668205003231833e+02,-4.993941334085113795e+02,-5.456025063730555758e+02,-1.317992501858688001e+02,-2.398908208514363878e+02,9.523238182067871094e+00,-8.796565532684326172e-01,-8.031646609306335449e-01,3.140000000000000000e+02
-4.329356429386366472e+02,-4.646504716446371503e+02,-2.281954991401572670e+02,-2.957741300130148829e+02,-4.962271002835573199e+02,-5.422471935082139680e+02,-1.331442460333582858e+02,-2.394524219389464861e+02,9.523238182067871094e+00,-8.796565532684326172e-01,-8.031646609306335449e-01,3.150000000000000000e+02
-4.304081639075616295e+02,-4.616619231424077725e+02,-2.249977671664363470e+02,-2.935607677337067116e+02,-4.920361374918572892e+02,-5.383785582199193414e+02,-1.322923121661526693e+02,-2.377184815577202244e+02,9.523238182067871094e+00,-8.796565532684326172e-01,-8.031646609306335449e-01,3.160000000000000000e+02
-4.281995116698890342e+02,-4.584850028182370352e+02,-2.219590648312585017e+02,-2.906874523371712939e+02,-4.868744657717406881e+02,-5.342633203250995848e+02,-1.293414622766758839e+02,-2.348322172057410171e+02,9.523238182067871094e+00,-8.796565532684326172e-01,-8.031646609306335449e-01,3.170000000000000000e+02
-4.256014744607418834e+02,-4.552848731852993751e+02,-2.194256565118487288e+02,-2.881179998335744585e+02,-4.813934602873755466e+02,-5.301553630879091088e+02,-1.255392492281710020e+02,-2.315178177488355686e+02,9.523238182067871094e+00,-8.796565532684326172e-01,-8.031646609306335449e-01,3.180000000000000000e+02
-4.220730214125075008e+02,-4.521325505711745336e+02,-2.176168499993788146e+02,-2.863534632643346640e+02,-4.765346107159803068e+02,-5.262757515754133237e+02,-1.224877353112356104e+02,-2.285802161678138873e+02,9.523238182067871094e+00,-8.796565532684326172e-01,-8.031646609306335449e-01,3.190000000000000000e+02
-4.175118988137899123e+02,-4.488871541404662366e+02,-2.164321237856137259e+02,-2.850435337655158037e+02,-4.728488181913671724e+02,-5.226517424978371764e+02,-1.209708980260727458e+02,-2.262582083108891311e+02,9.523238182067871094e+00,-8.796565532684326172e-01,-8.031646609306335449e-01,3.200000000000000000e+02
-4.122611006220840864e+02,-4.452144627315062735e+02,-2.154014180483087557e+02,-2.833246720121829867e+02,-4.701052330441204958e+02,-5.190392624885582791e+02,-1.204100179262168240e+02,-2.240632979499068824e+02,9.523238182067871094e+00,-8.796565532684326172e-01,-8.031646609306335449e-01,3.210000000000000000e+02
-4.069520202972330480e+02,-4.408701985909538053e+02,-2.140351492388964516e+02,-2.806510974247518106e+02,-4.676610242561373525e+02,-5.151915475696564499e+02,-1.195129800853060260e+02,-2.213845946026208367e+02,9.523238182067871094e+00,-8.796565532684326172e-01,-8.031646609306335449e-01,3.220000000000000000e+02
-4.023180607534491173e+02,-4.361055037190485564e+02,-2.124087556232460656e+02,-2.774483788267225464e+02,-4.652899899885146624e+02,-5.113347002338171023e+02,-1.176075396547107630e+02,-2.183633879078256541e+02,9.523238182067871094e+00,-8.796565532684326172e-01,-8.031646609306335449e-01,3.230000000000000000e+02
-3.989883057869533332e+02,-4.317924900139560123e+02,-2.113819114039038141e+02,-2.749918534682121845e+02,-4.635808911706110393e+02,-5.082960300211243521e+02,-1.154293085609597256e+02,-2.161111285114029670e+02,9.523238182067871094e+00,-8.796565532684326172e-01,-8.031646609306335449e-01,3.240000000000000000e+02
-3.971994360744795358e+02,-4.289758871863261902e+02,-2.119873164923779996e+02,-2.744888718418822009e+02,-4.633334852356019837e+02,-5.069077204538082242e+02,-1.145353124867690440e+02,-2.158412313869980608e+02,9.523238182067871094e+00,-8.796565532684326172e-01,-8.031646609306335449e-01,3.250000000000000000e+02
-3.965069676233551945e+02,-4.280696642209175025e+02,-2.143116884864529084e+02,-2.760237302993700723e+02,-4.644219510031075515e+02,-5.070509912982627156e+02,-1.157724083375510418e+02,-2.175723702665568453e+02,9.523238182067871094e+00,-8.796565532684326172e-01,-8.031646609306335449e-01,3.260000000000000000e+02
-3.957725841199644492e+02,-4.283579903297563760e+02,-2.169065632645789492e+02,-2.782468972403230509e+02,-4.653094396221131319e+02,-5.072816570734119068e+02,-1.182102143406559662e+02,-2.196741230197421828e+02,9.523238182067871094e+00,-8.796565532684326172e-01,-8.031646609306335449e-01,3.270000000000000000e+02
-3.936660791821082057e+02,-4.283250190769510937e+02,-2.175347600621071251e+02,-2.791802630982915616e+02,-4.639458040038243780e+02,-5.056506913501034433e+02,-1.196480904254453890e+02,-2.199043177839300824e+02,9.523238182067871094e+00,-8.796565532684326172e-01,-8.031646609306335449e-01,3.280000000000000000e+02
-3.895049188750981557e+02,-4.266685601342735481e+02,-2.148798523758971442e+02,-2.776072650848323065e+02,-4.594242995027175311e+02,-5.012244552907975503e+02,-1.183873167457286399e+02,-2.171840391789573914e+02,9.523238182067871094e+00,-8.796565532684326172e-01,-8.031646609306335449e-01,3.290000000000000000e+02
-3.838177891811405971e+02,-4.231886612422499638e+02,-2.097692571409402262e+02,-2.739273453755313312e+02,-4.528625064917646341e+02,-4.949562777558444395e+02,-1.147051830697860169e+02,-2.125039722388182781e+02,9.523238182067871094e+00,-8.796565532684326172e-01,-8.031646609306335449e-01,3.300000000000000000e+02
-3.780814899867016265e+02,-4.187788912684461593e+02,-2.046725826129932102e+02,-2.697201663008120249e+02,-4.465438037989665645e+02,-4.889677148928765291e+02,-1.106498241980802959e+02,-2.080372280614949432e+02,9.523238182067871094e+00,-8.796565532684326172e-01,-8.031646609306335449e-01,3.310000000000000000e+02
-3.737061507578309829e+02,-4.145330099854083983e+02,-2.017293405816526501e+02,-2.663450196596777459e+02,-4.419732569368725308e+02,-4.847423209998139555e+02,-1.082879292513102882e+02,-2.052013179081554881e+02,9.523238182067871094e+00,-8.796565532684326172e-01,-8.031646609306335449e-01,3.320000000000000000e+02
-3.710631400186532574e+02,-4.108066186498519983e+02,-2.010358657074928033e+02,-2.638010332802496123e+02,-4.386589319621439245e+02,-4.818634869659001652e+02,-1.079890965492409123e+02,-2.034795135363856389e+02,9.523238182067871094e+00,-8.796565532684326172e-01,-8.031646609306335449e-01,3.330000000000000000e+02
-3.694085148117674180e+02,-4.071252514820182569e+02,-2.008125584832982895e+02,-2.609128510123748583e+02,-4.348280979438652594e+02,-4.785343816543124831e+02,-1.083201969622200522e+02,-2.011556632977285517e+02,9.523238182067871094e+00,-8.796565532684326172e-01,-8.031646609306335449e-01,3.340000000000000000e+02
-3.677604789648378301e+02,-4.029963442627879431e+02,-1.993352867732210143e+02,-2.567171766064257099e+02,-4.294227485967785469e+02,-4.734552632356233062e+02,-1.075956864974987184e+02,-1.972602068464238982e+02,9.523238182067871094e+00,-8.796565532684326172e-01,-8.031646609306335449e-01,3.350000000000000000e+02
-3.658717980187775538e+02,-3.987550707274826891e+02,-1.967734783313499065e+02,-2.517548244576146317e+02,-4.234242952107097153e+02,-4.672859331875069984e+02,-1.055580924591363328e+02,-1.927990721941796437e+02,9.523238182067871094e+00,-8.796565532684326172e-01,-8.031646609306335449e-01,3.360000000000000000e+02
-3.643231984680087407e+02,-3.954909985166932529e+02,-1.950873128304210695e+02,-2.479496668077426875e+02,-4.191445661371997176e+02,-4.622409276868872894e+02,-1.035770062001333827e+02,-1.899909168734811828e+02,9.523238182067871094e+00,-8.796565532684326172e-01,-8.031646609306335449e-01,3.370000000000000000e+02
-3.636451554430573196e+02,-3.940131762605390122e+02,-1.959900006170212237e+02,-2.470241022040654570e+02,-4.180919848376142909e+02,-4.601305072892762382e+02,-1.032228087051776129e+02,-1.901862276486049268e+02,9.523238182067871094e+00,-8.796565532684326172e-01,-8.031646609306335449e-01,3.380000000000000000e+02
-3.633866791234945595e+02,-3.938421747532595418e+02,-1.989228477859428494e+02,-2.488215255757363593e+02,-4.194191156552162738e+02,-4.606476662716804640e+02,-1.046450637440989340e+02,-1.924496992110350675e+02,9.523238182067871094e+00,-8.796565532684326172e-01,-8.031646609306335449e-01,3.390000000000000000e+02
-3.621586855122991437e+02,-3.933113960804062117e+02,-2.010688454518378876e+02,-2.511076399122366638e+02,-4.204012380157946609e+02,-4.614723800972180925e+02,-1.063243592941507814e+02,-1.941629896634185570e+02,9.523238182067871094e+00,-8.796565532684326172e-01,-8.031646609306335449e-01,3.400000000000000000e+02
-3.587414422277915946e+02,-3.908393493031060189e+02,-1.995457077450396355e+02,-2.511555199675080985e+02,-4.184987122300210558e+02,-4.600800737224369641e+02,-1.064071962182770221e+02,-1.930893893526199463e+02,9.523238182067871094e+00,-8.796565532684326172e-01,-8.031646609306335449e-01,3.410000000000000000e+02
-3.532553098216828857e+02,-3.862855686563711970e+02,-1.938572907127547751e+02,-2.478254418909682499e+02,-4.131665769420137622e+02,-4.556348918831631636e+02,-1.043317752668979210e+02,-1.890121334235373070e+02,9.523238182067871094e+00,-8.796565532684326172e-01,-8.031646609306335449e-01,3.420000000000000000e+02
-3.472595048219691307e+02,-3.811482470672312957e+02,-1.864111858226897311e+02,-2.423886915288276214e+02,-4.059518903434259300e+02,-4.493963080508794974e+02,-1.012539595867160642e+02,-1.835695186215925787e+02,9.484992027282714844e+00,-8.796565532684326172e-01,-8.031646609306335449e-01,3.430000000000000000e+02
-3.426181439733343268e+02,-3.773743228339164943e+02,-1.806647587586812733e+02,-2.374306841199272640e+02,-3.990558563593704093e+02,-4.434854119902763614e+02,-9.898509861698858003e+01,-1.786685726996602170e+02,9.484992027282714844e+00,-8.796565532684326172e-01,-8.031646609306335449e-01,3.440000000000000000e+02
-3.401138160212981347e+02,-3.758165338164826608e+02,-1.785531005831658149e+02,-2.348288178388195320e+02,-3.937856112314159418e+02,-4.392430883182285015e+02,-9.851979753853038346e+01,-1.750643810967565059e+02,9.484992027282714844e+00,-8.796565532684326172e-01,-8.031646609306335449e-01,3.450000000000000000e+02
-3.389895687910850484e+02,-3.756626088902009997e+02,-1.793478531657269741e+02,-2.345158689063050588e+02,-3.901128999931165708e+02,-4.365435562208058400e+02,-9.946807256144347775e+01,-1.722752913508411439e+02,9.484992027282714844e+00,-8.796565532684326172e-01,-8.031646609306335449e-01,3.460000000000000000e+02
-3.377273412653407831e+02,-3.752291083682159751e+02,-1.806887970903262612e+02,-2.349082461922535003e+02,-3.873463988310954846e+02,-4.343699303102675913e+02,-1.007047075092884825e+02,-1.695594059720726818e+02,9.484992027282714844e+00,-8.796565532684326172e-01,-8.031646609306335449e-01,3.470000000000000000e+02
-3.352927178270779223e+02,-3.733005402839664839e+02,-1.806466653333402519e+02,-2.344111317443525877e+02,-3.850132352199016168e+02,-4.318782209089465596e+02,-1.014279025178109350e+02,-1.667789518613649307e+02,9.484992027282714844e+00,-8.796565532684326172e-01,-8.031646609306335449e-01,3.480000000000000000e+02
-3.317938219648362974e+02,-3.698448080867037788e+02,-1.790152625388700471e+02,-2.326178928548997646e+02,-3.831463539681317343e+02,-4.289807264200974259e+02,-1.016280668914751004e+02,-1.643810049844689729e+02,9.484992027282714844e+00,-8.796565532684326172e-01,-8.031646609306335449e-01,3.490000000000000000e+02
-3.281544405850913790e+02,-3.656762366275254408e+02,-1.769822730802425212e+02,-2.303068697870082815e+02,-3.819487236004767965e+02,-4.261361155642791800e+02,-1.017197337338100169e+02,-1.628037098064432939e+02,9.484992027282714844e+00,-8.796565532684326172e-01,-8.031646609306335449e-01,3.500000000000000000e+02
-3.252941767452007298e+02,-3.616445043150788479e+02,-1.758299681533580952e+02,-2.285197064467765813e+02,-3.813804611235991615e+02,-4.237830110984912153e+02,-1.019407960626276690e+02,-1.621267284027428559e+02,9.484992027282714844e+00,-8.796565532684326172e-01,-8.031646609306335449e-01,3.510000000000000000e+02
-3.235858807908023209e+02,-3.581945147387107227e+02,-1.759505013824493744e+02,-2.277135004421047597e+02,-3.811072639917840661e+02,-4.220074247243931040e+02,-1.022024153582544841e+02,-1.622771875560090393e+02,9.484992027282714844e+00,-8.796565532684326172e-01,-8.031646609306335449e-01,3.520000000000000000e+02
-3.229042236849070378e+02,-3.555288019371321298e+02,-1.768627359666770644e+02,-2.276741795287468904e+02,-3.807530272650808456e+02,-4.206262104544753129e+02,-1.024324091465675792e+02,-1.633243779197196091e+02,9.484992027282714844e+00,-8.796565532684326172e-01,-8.031646609306335449e-01,3.530000000000000000e+02
-3.229734619195260166e+02,-3.538981748233622966e+02,-1.778819143153541518e+02,-2.280103261591798400e+02,-3.801136579258400161e+02,-4.194234000065232522e+02,-1.028709344455073733e+02,-1.653069006805346817e+02,9.484992027282714844e+00,-8.796565532684326172e-01,-8.031646609306335449e-01,3.540000000000000000e+02
-3.235528093167411043e+02,-3.534948154340515885e+02,-1.786367260579802405e+02,-2.285426877854272334e+02,-3.791119890707436753e+02,-4.182154978661274072e+02,-1.038777644352235257e+02,-1.677068521545231761e+02,9.484992027282714844e+00,-8.796565532684326172e-01,-8.031646609306335449e-01,3.550000000000000000e+02
-3.243446052992321711e+02,-3.540245165295768857e+02,-1.790411441624537474e+02,-2.291830249863000972e+02,-3.775944177369676709e+02,-4.167078631018175656e+02,-1.054357180858396532e+02,-1.692665046502220321e+02,9.484992027282714844e+00,-8.796565532684326172e-01,-8.031646609306335449e-01,3.560000000000000000e+02
-3.248727908789687717e+02,-3.545325508100863772e+02,-1.789850785455821551e+02,-2.295622274900968023e+02,-3.752371074266843607e+02,-4.143955418199607266e+02,-1.069251565987399317e+02,-1.685899163629469513e+02,9.484992027282714844e+00,-8.796565532684326172e-01,-8.031646609306335449e-01,3.570000000000000000e+02
-3.245778493087268544e+02,-3.538381652433465661e+02,-1.782248062248024780e+02,-2.289704578391092582e+02,-3.717175250643290383e+02,-4.107556984978950823e+02,-1.074843231380814359e+02,-1.651243588136358085e+02,9.484992027282714844e+00,-8.796565532684326172e-01,-8.031646609306335449e-01,3.580000000000000000e+02
-3.230825248751941672e+02,-3.512659848940941174e+02,-1.766005264873042506e+02,-2.268070371143312514e+02,-3.670208695120581979e+02,-4.056437518749571609e+02,-1.066350224052296198e+02,-1.596101907982820194e+02,9.484992027282714844e+00,-8.796565532684326172e-01,-8.031646609306335449e-01,3.590000000000000000e+02
-3.203683565032561091e+02,-3.470079194467043635e+02,-1.742646001377092944e+02,-2.231304455537670037e+02,-3.616006320539099761e+02,-3.995306130878716431e+02,-1.045577078971532501e+02,-1.535366139474240299e+02,9.484992027282714844e+00,-8.796565532684326172e-01,-8.031646609306335449e-01,3.600000000000000000e+02
-3.167133828999135403e+02,-3.417892748284243680e+02,-1.715977244642347159e+02,-2.187254568871910578e+02,-3.562172707053023260e+02,-3.933092698670475329e+02,-1.017638861996085780e+02,-1.480953016293319706e+02,9.484992027282714844e+00,-8.796565532684326172e-01,-8.031646609306335449e-01,3.610000000000000000e+02
-3.125102199140478660e+02,-3.362182078754074155e+02,-1.688805141851878489e+02,-2.145721876815982796e+02,-3.515433035599612595e+02,-3.877775888339815538e+02,-9.857175601604694748e+01,-1.435872692193813691e+02,9.484992027282714844e+00,-8.796565532684326172e-01,-8.031646609306335449e-01,3.620000000000000000e+02
-3.081785542456261737e+02,-3.304900494432465621e+02,-1.660864914974963540e+02,-2.111866913810608821e+02,-3.478185985782915850e+02,-3.832305220711168658e+02,-9.498572968967346242e+01,-1.397214075830024740e+02,9.484992027282714844e+00,-8.796565532684326172e-01,-8.031646609306335449e-01,3.630000000000000000e+02
-3.042057341495476521e+02,-3.246779238431536214e+02,-1.630404244798892250e+02,-2.084318913336139758e+02,-3.447909869880872975e+02,-3.794999026188115749e+02,-9.109899291477449879e+01,-1.363285254670495306e+02,9.484992027282714844e+00,-9.179025292396545410e-01,-8.031646609306335449e-01,3.640000000000000000e+02
-3.011337456689727787e+02,-3.191769788134342889e+02,-1.597842810449299122e+02,-2.059140564137192086e+02,-3.419589773262359813e+02,-3.763312519940191123e+02,-8.750626066894255928e+01,-1.336661812711517996e+02,9.484992027282714844e+00,-9.179025292396545410e-01,-8.031646609306335449e-01,3.650000000000000000e+02
-2.993383321427154442e+02,-3.147086133879301997e+02,-1.567460619734829379e+02,-2.035030105722617009e+02,-3.389109211916324966e+02,-3.736541289357287496e+02,-8.513238746952265501e+01,-1.320259780658589079e+02,9.484992027282714844e+00,-9.179025292396545410e-01,-8.031646609306335449e-01,3.660000000000000000e+02
-2.987316311364470494e+02,-3.117932025002633054e+02,-1.545041806470894699e+02,-2.014168121023772073e+02,-3.355256421129311093e+02,-3.714564759994145788e+02,-8.448890035975546198e+01,-1.311491704509944611e+02,9.484992027282714844e+00,-9.179025292396545410e-01,-8.031646609306335449e-01,3.670000000000000000e+02
-2.986892882912125060e+02,-3.102060598425182434e+02,-1.533389109445713530e+02,-1.998027760072614001e+02,-3.319473479809316814e+02,-3.694505730895734814e+02,-8.503932327973734573e+01,-1.301601738241424755e+02,9.484992027282714844e+00,-9.179025292396545410e-01,-8.031646609306335449e-01,3.680000000000000000e+02
-2.983453086207350680e+02,-3.089991198728903328e+02,-1.529467460264702368e+02,-1.983018913929201972e+02,-3.283869929291804510e+02,-3.669898500036888436e+02,-8.535895520815984128e+01,-1.281395937633214999e+02,9.484992027282714844e+00,-9.179025292396545410e-01,-8.031646609306335449e-01,3.690000000000000000e+02
-2.970534398750521632e+02,-3.071353103131486932e+02,-1.525269482343896925e+02,-1.961197384094618883e+02,-3.248770175458535050e+02,-3.634468914315575603e+02,-8.406002022219445280e+01,-1.247637286169060644e+02,9.484992027282714844e+00,-9.179025292396545410e-01,-8.031646609306335449e-01,3.700000000000000000e+02
-2.946606463839443677e+02,-3.041884925753461175e+02,-1.511633777745482803e+02,-1.926200907721697604e+02,-3.211370672215080049e+02,-3.587291200969225429e+02,-8.074075309284262403e+01,-1.203964590102004877e+02,9.484992027282714844e+00,-9.179025292396545410e-01,-8.031646609306335449e-01,3.710000000000000000e+02
-2.914479648560586611e+02,-3.005184986250496877e+02,-1.482683013414869038e+02,-1.879222449747817336e+02,-3.166876254026242350e+02,-3.533928222785098114e+02,-7.619686948414118888e+01,-1.156368112473637666e+02,9.484992027282714844e+00,-9.179025292396545410e-01,-8.031646609306335449e-01,3.720000000000000000e+02
-2.879144857438236613e+02,-2.968440008567285986e+02,-1.439088425214981726e+02,-1.829555309439506345e+02,-3.112359260637449552e+02,-3.482069443111245164e+02,-7.180148263750334081e+01,-1.108847399206397313e+02,9.484992027282714844e+00,-9.179025292396545410e-01,-8.031646609306335449e-01,3.730000000000000000e+02
-2.846532964426005492e+02,-2.936652997342484923e+02,-1.389146676008870145e+02,-1.789165397748033683e+02,-3.051149248427350358e+02,-3.435892198612664288e+02,-6.865287325835788579e+01,-1.063755642207179335e+02,9.484992027282714844e+00,-9.179025292396545410e-01,-8.031646609306335449e-01,3.740000000000000000e+02
-2.823220408957558902e+02,-2.910289668955010711e+02,-1.346673128798029211e+02,-1.765762046773074871e+02,-2.993822237412950926e+02,-3.394665355400638873e+02,-6.714653963260661840e+01,-1.025173866029672354e+02,9.484992027282714844e+00,-9.179025292396545410e-01,-8.031646609306335449e-01,3.750000000000000000e+02
-2.815015166686443990e+02,-2.887290875692092413e+02,-1.325240856123252797e+02,-1.759553200466768885e+02,-2.953239567768823690e+02,-3.356461067449013171e+02,-6.710996593317258885e+01,-9.996834747860657444e+01,9.484992027282714844e+00,-9.179025292396545410e-01,-8.031646609306335449e-01,3.760000000000000000e+02
-2.823365516657854641e+02,-2.866259023092015923e+02,-1.330474810880996301e+02,-1.764878193574365923e+02,-2.935710364975120683e+02,-3.322121388525788461e+02,-6.810821806313333582e+01,-9.916498866205301965e+01,9.484992027282714844e+00,-9.179025292396545410e-01,-8.031646609306335449e-01,3.770000000000000000e+02
-2.842220360889386939e+02,-2.847591803156960850e+02,-1.355136072955438067e+02,-1.774183800047123896e+02,-2.935066738496216203e+02,-3.294637679703664617e+02,-6.956385759621753095e+01,-9.971805568983245394e+01,9.484992027282714844e+00,-9.179025292396545410e-01,-8.031646609306335449e-01,3.780000000000000000e+02
-2.859384412362487637e+02,-2.832364460773460451e+02,-1.381625867966904480e+02,-1.781223662762422464e+02,-2.935551729318026446e+02,-3.274694038789452861e+02,-7.075040700007593841e+01,-1.004052368056973137e+02,9.484992027282714844e+00,-9.179025292396545410e-01,-8.031646609306335449e-01,3.790000000000000000e+02
-2.863150747086770025e+02,-2.821093579928501640e+02,-1.391888596567735021e+02,-1.782632331827826420e+02,-2.922595722430260139e+02,-3.258000692104133122e+02,-7.097175532086021121e+01,-9.999922148871155514e+01,9.484992027282714844e+00,-9.179025292396545410e-01,-8.031646609306335449e-01,3.800000000000000000e+02
-2.849740113255174947e+02,-2.813865040903210684e+02,-1.378669132703362266e+02,-1.778640720846365184e+02,-2.893422126108125667e+02,-3.238522525265748300e+02,-7.000965382678987226e+01,-9.831310655828701783e+01,9.484992027282714844e+00,-9.179025292396545410e-01,-8.031646609306335449e-01,3.810000000000000000e+02
-2.825350618325364849e+02,-2.810775667495131529e+02,-1.349730855640891605e+02,-1.772833576335119687e+02,-2.858610814807029783e+02,-3.214829159117834934e+02,-6.845369749572591900e+01,-9.648028055201211828e+01,9.484992027282714844e+00,-9.179025292396545410e-01,-8.031646609306335449e-01,3.820000000000000000e+02
-2.800948434013039332e+02,-2.810964021093582232e+02,-1.321520586060719324e+02,-1.769612443730666200e+02,-2.833088168056647191e+02,-3.192376972500851480e+02,-6.743351154253514323e+01,-9.605555704543803586e+01,9.484992027282714844e+00,-9.179025292396545410e-01,-8.031646609306335449e-01,3.830000000000000000e+02
-2.784310555358979400e+02,-2.810550647508775910e+02,-1.307203188198645876e+02,-1.769626313452818067e+02,-2.824234114519085779e+02,-3.178125113826727102e+02,-6.779172486111383478e+01,-9.761969178497156463e+01,9.484992027282714844e+00,-9.179025292396545410e-01,-8.031646609306335449e-01,3.840000000000000000e+02
-2.775884318304038061e+02,-2.802090088806148742e+02,-1.308363805372641764e+02,-1.766546355868817955e+02,-2.827018340087406614e+02,-3.171981017551565856e+02,-6.932981475012365991e+01,-1.001050167844032330e+02,9.484992027282714844e+00,-9.179025292396545410e-01,-8.031646609306335449e-01,3.850000000000000000e+02
-2.770932715083245057e+02,-2.777655402240498006e+02,-1.316015597444159084e+02,-1.749362271269646953e+02,-2.829279085436387504e+02,-3.163814569156547805e+02,-7.081829264132784374e+01,-1.014985551811382720e+02,9.484992027282714844e+00,-9.179025292396545410e-01,-8.031646609306335449e-01,3.860000000000000000e+02
-2.764604058145851013e+02,-2.734410816592107949e+02,-1.318724399351690408e+02,-1.710471029262089360e+02,-2.821372534428883228e+02,-3.140277906833157431e+02,-7.086697516939966590e+01,-1.003966003707100754e+02,9.484992027282714844e+00,-9.179025292396545410e-01,-8.031646609306335449e-01,3.870000000000000000e+02
-2.754708058064497891e+02,-2.678260775317330626e+02,-1.310315650843381263e+02,-1.653658250320545449e+02,-2.801414013481967231e+02,-3.096015925099845845e+02,-6.895963142748541941e+01,-9.708459724833528526e+01,9.484992027282714844e+00,-9.179025292396545410e-01,-8.031646609306335449e-01,3.880000000000000000e+02
-2.740766066838314146e+02,-2.621524724858286390e+02,-1.291505881317816602e+02,-1.594214439311731439e+02,-2.772522507238959406e+02,-3.038869633209160384e+02,-6.578760824921027961e+01,-9.319633391705156100e+01,9.484992027282714844e+00,-9.179025292396545410e-01,-7.649186849594116211e-01,3.890000000000000000e+02
-2.722220960724903307e+02,-2.575307878550574969e+02,-1.266275328662457014e+02,-1.549230013797046013e+02,-2.736451519683587321e+02,-2.983709917746264182e+02,-6.262340159037694320e+01,-9.024388596748985947e+01,9.484992027282714844e+00,-9.179025292396545410e-01,-7.649186849594116211e-01,3.900000000000000000e+02
-2.698960323867490843e+02,-2.542156042505794176e+02,-1.238222087035701406e+02,-1.525314949979256198e+02,-2.691025248698974792e+02,-2.940173787724916110e+02,-6.032176781873431537e+01,-8.832507253262929225e+01,9.484992027282714844e+00,-9.179025292396545410e-01,-7.649186849594116211e-01,3.910000000000000000e+02
-2.673587483422666082e+02,-2.515006357191905408e+02,-1.210575415920857267e+02,-1.514420199671340015e+02,-2.634150687486621791e+02,-2.905527804497255602e+02,-5.882448421319895715e+01,-8.615915110591595294e+01,9.484992027282714844e+00,-9.179025292396545410e-01,-7.649186849594116211e-01,3.920000000000000000e+02
-2.651734866286597025e+02,-2.483519775112149546e+02,-1.188114967328842795e+02,-1.501706649823559019e+02,-2.569921932412398746e+02,-2.869036292205628342e+02,-5.751678508342183704e+01,-8.239340089518918830e+01,9.484992027282714844e+00,-9.179025292396545410e-01,-7.649186849594116211e-01,3.930000000000000000e+02
-2.638315016122019188e+02,-2.442761470637046841e+02,-1.176469766903226173e+02,-1.478473962227753873e+02,-2.509735003710034107e+02,-2.823393942478733152e+02,-5.598113558078557617e+01,-7.699126056762679582e+01,9.484992027282714844e+00,-9.179025292396545410e-01,-7.649186849594116211e-01,3.940000000000000000e+02
-2.632379068778964211e+02,-2.397244680682242688e+02,-1.177443776139139118e+02,-1.448511569593542845e+02,-2.465865197908146911e+02,-2.772411048318172107e+02,-5.438695274910696753e+01,-7.144650223866528904e+01,9.484992027282714844e+00,-9.179025292396545410e-01,-7.649186849594116211e-01,3.950000000000000000e+02
-2.625763147213192497e+02,-2.357297873192128463e+02,-1.184523475764967770e+02,-1.422768296583171832e+02,-2.442465943695087844e+02,-2.728285707462168830e+02,-5.320653839250235251e+01,-6.766312326158731594e+01,9.484992027282714844e+00,-9.179025292396545410e-01,-7.649186849594116211e-01,3.960000000000000000e+02
-2.607878135825781101e+02,-2.331182251365553384e+02,-1.184343688369722258e+02,-1.408485511116114139e+02,-2.432074163485417557e+02,-2.701680606303048080e+02,-5.264276838834439332e+01,-6.652750873856530234e+01,9.484992027282714844e+00,-9.179025292396545410e-01,-7.649186849594116211e-01,3.970000000000000000e+02
-2.573326911073459087e+02,-2.319616514399294829e+02,-1.164936850628387219e+02,-1.403745618364064285e+02,-2.421197661577966755e+02,-2.693943505924448800e+02,-5.238992121582532491e+01,-6.739988959137735947e+01,9.484992027282714844e+00,-9.179025292396545410e-01,-7.649186849594116211e-01,3.980000000000000000e+02
-2.526125704039832272e+02,-2.316684641726028531e+02,-1.124657250241589281e+02,-1.401843549606960551e+02,-2.400385854081901016e+02,-2.697552354189183461e+02,-5.193665058102624243e+01,-6.884210455622132940e+01,9.484992027282714844e+00,-9.179025292396545410e-01,-7.649186849594116211e-01,3.990000000000000000e+02
-2.477166818447653895e+02,-2.315270827831541283e+02,-1.074023626721200344e+02,-1.399459483080672726e+02,-2.370240564773430378e+02,-2.702619201853481172e+02,-5.104356273049006631e+01,-6.976548946095408610e+01,9.484992027282714844e+00,-9.179025292396545410e-01,-7.649186849594116211e-01,4.000000000000000000e+02
-2.437324837529808974e+02,-2.311685936220928852e+02,-1.028459017168179344e+02,-1.399228170533319826e+02,-2.338610658764323489e+02,-2.702584042648500144e+02,-4.988809454156307766e+01,-6.993773856668349254e+01,9.484992027282714844e+00,-9.179025292396545410e-01,-7.649186849594116211e-01,4.010000000000000000e+02
-2.411895546433102027e+02,-2.305816711234579088e+02,-9.980292262836746886e+01,-1.404180406619352652e+02,-2.312391039167350755e+02,-2.694915011942575802e+02,-4.877759909329097354e+01,-6.957453134687966667e+01,9.484992027282714844e+00,-9.179025292396545410e-01,-7.649186849594116211e-01,4.020000000000000000e+02
-2.400076587936491705e+02,-2.297849217684079122e+02,-9.828346997698054111e+01,-1.411002289442740221e+02,-2.292065068545575741e+02,-2.678768750739627649e+02,-4.781732916092369123e+01,-6.868843236603925106e+01,9.484992027282714844e+00,-9.179025292396545410e-01,-7.649186849594116211e-01,4.030000000000000000e+02
-2.398181794790657477e+02,-2.285747677670087796e+02,-9.770579356055804965e+01,-1.410452541917161398e+02,-2.273734001243119565e+02,-2.653772279895524662e+02,-4.692326038916917241e+01,-6.700290088557812851e+01,9.484992027282714844e+00,-9.179025292396545410e-01,-7.649186849594116211e-01,4.040000000000000000e+02
-2.402497339641095095e+02,-2.266410062317595475e+02,-9.764052737551401151e+01,-1.395315609910076091e+02,-2.255447400750058478e+02,-2.621202797386567909e+02,-4.612330417233533808e+01,-6.448976512288072627e+01,9.484992027282714844e+00,-9.179025292396545410e-01,-7.649186849594116211e-01,4.050000000000000000e+02
-2.409504340451439930e+02,-2.239380769972531198e+02,-9.812124170816241531e+01,-1.367666844466980365e+02,-2.240386365469016710e+02,-2.585032277860673275e+02,-4.573447176196850705e+01,-6.180877127556277628e+01,9.484992027282714844e+00,-9.179025292396545410e-01,-7.649186849594116211e-01,4.060000000000000000e+02
-2.414866492660667063e+02,-2.209333830163172934e+02,-9.927614823690191770e+01,-1.337513921720928920e+02,-2.233060833228146294e+02,-2.550236481795054715e+02,-4.610984034571765733e+01,-5.997577432592561308e+01,9.484992027282714844e+00,-9.179025292396545410e-01,-7.649186849594116211e-01,4.070000000000000000e+02
-2.413867167276735017e+02,-2.184324618621226364e+02,-1.007665339850912005e+02,-1.313787039114390609e+02,-2.232330139590931140e+02,-2.519299522106143741e+02,-4.713331930649019341e+01,-5.942535914894824600e+01,9.484992027282714844e+00,-9.179025292396545410e-01,-7.649186849594116211e-01,4.080000000000000000e+02
-2.403915525733104914e+02,-2.170626166981069218e+02,-1.017130459421787236e+02,-1.296599888568784991e+02,-2.228876276998144021e+02,-2.490429766700408436e+02,-4.799676338695053346e+01,-5.938035288372384457e+01,9.484992027282714844e+00,-9.179025292396545410e-01,-7.649186849594116211e-01,4.090000000000000000e+02
-2.386808410901544448e+02,-2.168038352738017238e+02,-1.012781628481816369e+02,-1.278342232558161413e+02,-2.210737878794984681e+02,-2.459438420456913263e+02,-4.761423546079367952e+01,-5.827388769398248769e+01,9.484992027282714844e+00,-9.179025292396545410e-01,-7.649186849594116211e-01,4.100000000000000000e+02
-2.367850838016443049e+02,-2.169391605248051746e+02,-9.936378302502930637e+01,-1.252075085651013069e+02,-2.172587757892492846e+02,-2.423510341646669985e+02,-4.542932189171051505e+01,-5.498624117664894584e+01,9.484992027282714844e+00,-9.179025292396545410e-01,-7.649186849594116211e-01,4.110000000000000000e+02
-2.351898781532017892e+02,-2.164726008993088726e+02,-9.674344262096064995e+01,-1.218530688880487105e+02,-2.120689868449926507e+02,-2.383396098998000525e+02,-4.195983119495940628e+01,-4.984545902144554930e+01,9.484992027282714844e+00,-9.179025292396545410e-01,-7.649186849594116211e-01,4.120000000000000000e+02
-2.339765389923850307e+02,-2.147384320543392278e+02,-9.450940159232254700e+01,-1.185174481788744743e+02,-2.069223845153765069e+02,-2.342616494285884983e+02,-3.859438905578190315e+01,-4.450535780355130555e+01,9.484992027282714844e+00,-9.179025292396545410e-01,-7.649186849594116211e-01,4.130000000000000000e+02
-2.328363101816917151e+02,-2.118114848931027154e+02,-9.334230367110399129e+01,-1.159253347281496644e+02,-2.031059286431982400e+02,-2.305196416538424273e+02,-3.674952707032070975e+01,-4.080352629510389306e+01,9.484992027282714844e+00,-9.179025292396545410e-01,-7.649186849594116211e-01,4.140000000000000000e+02
-2.314380153810989214e+02,-2.084619247458099380e+02,-9.321073201728745516e+01,-1.142465739997278433e+02,-2.010330994935084163e+02,-2.274233833616817719e+02,-3.700120479913766758e+01,-3.957811278066583327e+01,9.484992027282714844e+00,-9.179025292396545410e-01,-7.649186849594116211e-01,4.150000000000000000e+02
-2.297801226287688223e+02,-2.056940934271192418e+02,-9.366335073235745767e+01,-1.132283122195476608e+02,-2.002159102782579794e+02,-2.251980146251144106e+02,-3.882250154930170538e+01,-4.039162731783017080e+01,9.446745872497558594e+00,-8.796565532684326172e-01,-8.031646609306335449e-01,4.160000000000000000e+02
-2.281830136761795984e+02,-2.041663050826905419e+02,-9.434073926101518737e+01,-1.127346954106128578e+02,-1.998847268548188367e+02,-2.240258050884663135e+02,-4.106910431593269095e+01,-4.224217808559797049e+01,9.446745872497558594e+00,-8.796565532684326172e-01,-8.031646609306335449e-01,4.170000000000000000e+02
-2.269368185494713543e+02,-2.038428702297374002e+02,-9.521053364550243714e+01,-1.130179755577755714e+02,-1.996965899732681464e+02,-2.240032649192030476e+02,-4.279068672923176564e+01,-4.447820888556998398e+01,9.446745872497558594e+00,-8.796565532684326172e-01,-8.031646609306335449e-01,4.180000000000000000e+02
-2.259571767363781873e+02,-2.040771018191003350e+02,-9.638425944563664416e+01,-1.143962036455945963e+02,-1.999504625694462447e+02,-2.250253687988501952e+02,-4.374455895947903628e+01,-4.707454612100082159e+01,9.446745872497558594e+00,-8.796565532684326172e-01,-8.031646609306335449e-01,4.190000000000000000e+02
-2.247902924050281399e+02,-2.040543400589508565e+02,-9.779530848836429868e+01,-1.166990086313476240e+02,-2.011568364429399480e+02,-2.267040678655407646e+02,-4.428372443343414488e+01,-5.016208302719223866e+01,9.446745872497558594e+00,-8.796565532684326172e-01,-8.031646609306335449e-01,4.200000000000000000e+02
-2.229744663114784089e+02,-2.033111242476843472e+02,-9.911225511793099940e+01,-1.191292679174773639e+02,-2.033479202100438670e+02,-2.284224854042608968e+02,-4.482761430198343078e+01,-5.345384644990326706e+01,9.446745872497558594e+00,-8.796565532684326172e-01,-8.031646609306335449e-01,4.210000000000000000e+02
-2.204518003744569796e+02,-2.020103964841600828e+02,-9.998651419244470162e+01,-1.207684438900350870e+02,-2.057526250150117448e+02,-2.295498007824749038e+02,-4.543892943147147889e+01,-5.624431765224062474e+01,9.446745872497558594e+00,-8.796565532684326172e-01,-8.031646609306335449e-01,4.220000000000000000e+02
-2.176899781236420495e+02,-2.008041889122141583e+02,-1.003823719120637179e+02,-1.212558118277693211e+02,-2.071842415534279098e+02,-2.297209083812076642e+02,-4.585258929830115449e+01,-5.799069295344179409e+01,9.446745872497558594e+00,-8.796565532684326172e-01,-8.031646609306335449e-01,4.230000000000000000e+02
-2.154152921106119720e+02,-2.003645564867752000e+02,-1.006364139541610712e+02,-1.209525250007468458e+02,-2.068662862766686885e+02,-2.289902233435063863e+02,-4.582931236497506688e+01,-5.883600971299665616e+01,9.446745872497558594e+00,-8.796565532684326172e-01,-8.031646609306335449e-01,4.240000000000000000e+02
-2.141534663997967982e+02,-2.008731959103033660e+02,-1.011417341105791365e+02,-1.204020641866277401e+02,-2.049848439500119639e+02,-2.276893479559644220e+02,-4.540551988603101563e+01,-5.947003418916847295e+01,9.446745872497558594e+00,-8.796565532684326172e-01,-8.031646609306335449e-01,4.250000000000000000e+02
-2.138772549193868144e+02,-2.018188349803654091e+02,-1.019028453217838432e+02,-1.196247116362437737e+02,-2.024207775051322642e+02,-2.260174634010913906e+02,-4.476923079362768476e+01,-6.040660143760896972e+01,9.446745872497558594e+00,-8.796565532684326172e-01,-8.031646609306335449e-01,4.260000000000000000e+02
-2.139717306083196036e+02,-2.022775034584806235e+02,-1.023667865332224665e+02,-1.179929961895534234e+02,-1.998501665073886215e+02,-2.236889168900679579e+02,-4.394302489337724182e+01,-6.139617029994815312e+01,9.446745872497558594e+00,-8.796565532684326172e-01,-8.031646609306335449e-01,4.270000000000000000e+02
-2.135492897442150024e+02,-2.015349342284775958e+02,-1.017504529927630301e+02,-1.148961840994165868e+02,-1.970669778019810110e+02,-2.200571679973254504e+02,-4.271707147019651529e+01,-6.162947327439269429e+01,9.446745872497558594e+00,-8.796565532684326172e-01,-8.031646609306335449e-01,4.280000000000000000e+02
-2.119477057331525884e+02,-1.996347363052013861e+02,-9.965167595062143846e+01,-1.105871876568548942e+02,-1.932269022268642402e+02,-2.147636743919124456e+02,-4.098817459418501130e+01,-6.062784596899882672e+01,9.446745872497558594e+00,-8.796565532684326172e-01,-8.031646609306335449e-01,4.290000000000000000e+02
-2.091260548562950135e+02,-1.974428304503885556e+02,-9.645442699559066568e+01,-1.063548360248273639e+02,-1.878442341339505219e+02,-2.084147617375988375e+02,-3.914655401588606765e+01,-5.900787720994048868e+01,9.446745872497558594e+00,-8.796565532684326172e-01,-8.031646609306335449e-01,4.300000000000000000e+02
-2.057028683614155398e+02,-1.961316416953886801e+02,-9.316785326584727045e+01,-1.037423469382799794e+02,-1.816080869393654211e+02,-2.025905325876560710e+02,-3.799715871147668622e+01,-5.835201677741792992e+01,9.446745872497558594e+00,-8.796565532684326172e-01,-8.031646609306335449e-01,4.310000000000000000e+02
-2.025813280310605933e+02,-1.964041350491665980e+02,-9.080005707289069505e+01,-1.034319607680092759e+02,-1.761814272942356183e+02,-1.989707163591178869e+02,-3.815157144430918379e+01,-6.019163826595445244e+01,9.446745872497558594e+00,-8.796565532684326172e-01,-8.031646609306335449e-01,4.320000000000000000e+02
-2.003988777207737257e+02,-1.979943848292205075e+02,-8.977107978531307708e+01,-1.047551947653821571e+02,-1.730849053441606884e+02,-1.981823768120516434e+02,-3.943373813619291468e+01,-6.489669698105535645e+01,9.446745872497558594e+00,-8.796565532684326172e-01,-8.031646609306335449e-01,4.330000000000000000e+02
-1.991783081787168612e+02,-1.998146451209661336e+02,-8.981956822438360177e+01,-1.062457977227504671e+02,-1.726269476765478430e+02,-1.993175762530727297e+02,-4.092724322584467700e+01,-7.136573513505300070e+01,9.446745872497558594e+00,-8.796565532684326172e-01,-8.031646609306335449e-01,4.340000000000000000e+02
-1.984246427088539804e+02,-2.006606878715567746e+02,-9.041641929286561208e+01,-1.067416634839526068e+02,-1.737987424913428640e+02,-2.005707386054557446e+02,-4.171253793052096626e+01,-7.773834117982096359e+01,9.446745872497558594e+00,-8.796565532684326172e-01,-8.031646609306335449e-01,4.350000000000000000e+02
-1.975554881527448288e+02,-1.999691320721281045e+02,-9.124749944331915685e+01,-1.061085316136011443e+02,-1.751515039210826217e+02,-2.004855391646497083e+02,-4.161381283671471465e+01,-8.253529580056260784e+01,9.446745872497558594e+00,-8.796565532684326172e-01,-8.031646609306335449e-01,4.360000000000000000e+02
-1.962890149954776007e+02,-1.981118178057952264e+02,-9.231350980258275740e+01,-1.050933265102548830e+02,-1.758155155276367623e+02,-1.988195318935920568e+02,-4.121682539597895811e+01,-8.538080782026213456e+01,9.446745872497558594e+00,-8.796565532684326172e-01,-8.031646609306335449e-01,4.370000000000000000e+02
-1.946992104971775461e+02,-1.960649935699464095e+02,-9.360587676425188874e+01,-1.046190174591042705e+02,-1.758248901541821851e+02,-1.964434524350137963e+02,-4.114109054644995922e+01,-8.690015057049095049e+01,9.446745872497558594e+00,-8.796565532684326172e-01,-8.031646609306335449e-01,4.380000000000000000e+02
-1.929769599878050030e+02,-1.947240245678447081e+02,-9.475980801767173034e+01,-1.052065451592384306e+02,-1.756507033259247237e+02,-1.945267674613617146e+02,-4.133980561844987278e+01,-8.805506294929591604e+01,9.446745872497558594e+00,-8.796565532684326172e-01,-8.031646609306335449e-01,4.390000000000000000e+02
-1.912011332356034927e+02,-1.943507958691652675e+02,-9.512155546978556231e+01,-1.069038013078045424e+02,-1.755588041801529471e+02,-1.937528384789136453e+02,-4.121047856924678854e+01,-8.952258195322224310e+01,9.446745872497558594e+00,-8.796565532684326172e-01,-8.031646609306335449e-01,4.400000000000000000e+02
-1.893493158679734734e+02,-1.944943505223418470e+02,-9.424018041677004476e+01,-1.095155003610486801e+02,-1.754229132579530415e+02,-1.940818403395896894e+02,-4.044019440021702394e+01,-9.152540835872855496e+01,9.446745872497558594e+00,-8.796565532684326172e-01,-8.031646609306335449e-01,4.410000000000000000e+02
-1.874791657057967313e+02,-1.943750030366763895e+02,-9.234968623637610108e+01,-1.127157548467428114e+02,-1.750505218210730618e+02,-1.950019588020859374e+02,-3.967465647954918495e+01,-9.404634663780507253e+01,9.446745872497558594e+00,-8.796565532684326172e-01,-8.031646609306335449e-01,4.420000000000000000e+02
-1.858202135140718383e+02,-1.934221232994980255e+02,-9.035265420865880515e+01,-1.159501236826069999e+02,-1.745484497483498671e+02,-1.958842300805279137e+02,-4.017735845484867241e+01,-9.704938795350335567e+01,9.446745872497558594e+00,-8.796565532684326172e-01,-8.031646609306335449e-01,4.430000000000000000e+02
-1.846200541197367784e+02,-1.915807355566450951e+02,-8.920739816571040137e+01,-1.183972487833391369e+02,-1.742643681146555537e+02,-1.961648487078593917e+02,-4.260767119875413300e+01,-1.004053085647719854e+02,9.446745872497558594e+00,-8.796565532684326172e-01,-8.031646609306335449e-01,4.440000000000000000e+02
-1.838769932611226068e+02,-1.892004369870890059e+02,-8.915955993223815312e+01,-1.192359792451811700e+02,-1.743332548182502251e+02,-1.953790355210962844e+02,-4.602171952963408330e+01,-1.035977219900942146e+02,9.446745872497558594e+00,-8.796565532684326172e-01,-8.031646609306335449e-01,4.450000000000000000e+02
-1.832394600914028615e+02,-1.866511572443687328e+02,-8.945275738069949512e+01,-1.180970127510233851e+02,-1.743093610068888211e+02,-1.932110525638408944e+02,-4.817498300008605838e+01,-1.056143241861484512e+02,9.446745872497558594e+00,-8.796565532684326172e-01,-8.031646609306335449e-01,4.460000000000000000e+02
-1.822232507911692210e+02,-1.840306821308556664e+02,-8.883097768200593691e+01,-1.153192644887560618e+02,-1.733354172948002088e+02,-1.896349966989089353e+02,-4.710337567280089388e+01,-1.053682621662044312e+02,9.523238182067871094e+00,-9.179025292396545410e-01,-7.266727685928344727e-01,4.470000000000000000e+02
-1.805851828697472001e+02,-1.812466207843426673e+02,-8.653087724182546481e+01,-1.118168017375944601e+02,-1.708409079628561358e+02,-1.850820559653509463e+02,-4.276875004596990948e+01,-1.025561440939595741e+02,9.523238182067871094e+00,-9.179025292396545410e-01,-7.266727685928344727e-01,4.480000000000000000e+02
-1.785236583682972196e+02,-1.784002240799261472e+02,-8.300243163533082225e+01,-1.087072952693367824e+02,-1.672126491324652307e+02,-1.804802396060476894e+02,-3.734667638558426006e+01,-9.831421669717485656e+01,9.523238182067871094e+00,-9.179025292396545410e-01,-7.266727685928344727e-01,4.490000000000000000e+02
-1.765189608222137849e+02,-1.760667295513868567e+02,-7.971790964698664084e+01,-1.069841295586298884e+02,-1.637813036354988299e+02,-1.770338544493096151e+02,-3.377888719342934110e+01,-9.494204055130808229e+01,9.523238182067871094e+00,-9.179025292396545410e-01,-7.266727685928344727e-01,4.500000000000000000e+02
-1.749438894365723627e+02,-1.750879594241334871e+02,-7.811472250629958580e+01,-1.073021041362753749e+02,-1.619724311598272379e+02,-1.757230666808407022e+02,-3.365438628233960117e+01,-9.458152979896885881e+01,9.523238182067871094e+00,-9.179025292396545410e-01,-7.266727685928344727e-01,4.510000000000000000e+02
-1.737589353349131898e+02,-1.759213269413920671e+02,-7.844565843548332396e+01,-1.097560112213124057e+02,-1.622083524088683362e+02,-1.767202656258123170e+02,-3.607678181755079549e+01,-9.767686957843363871e+01,9.523238182067871094e+00,-9.179025292396545410e-01,-7.266727685928344727e-01,4.520000000000000000e+02
-1.725378273614981026e+02,-1.780698899743578068e+02,-7.948557851845873756e+01,-1.136360619327664381e+02,-1.634739103514527869e+02,-1.791138798869404809e+02,-3.840328672705777535e+01,-1.024480899583705877e+02,9.523238182067871094e+00,-9.179025292396545410e-01,-7.266727685928344727e-01,4.530000000000000000e+02
-1.707923284163071003e+02,-1.801650248623295738e+02,-7.941743259796430721e+01,-1.174293023907230236e+02,-1.640022352609723839e+02,-1.812576150073824692e+02,-3.825052473213816029e+01,-1.059801150235701925e+02,9.523238182067871094e+00,-9.179025292396545410e-01,-7.266727685928344727e-01,4.540000000000000000e+02
-1.683382402496135910e+02,-1.807669382253782260e+02,-7.724149340748346049e+01,-1.193660748403377738e+02,-1.626044315566647356e+02,-1.816570200865216975e+02,-3.519076716767392554e+01,-1.062316384572935135e+02,9.523238182067871094e+00,-9.179025292396545410e-01,-7.266727685928344727e-01,4.550000000000000000e+02
-1.654423891472634978e+02,-1.793002658740175548e+02,-7.356501482257465341e+01,-1.183713227198376217e+02,-1.595618366858035415e+02,-1.798253795993424546e+02,-3.087866474992097210e+01,-1.034069003664974957e+02,9.523238182067871094e+00,-9.179025292396545410e-01,-7.266727685928344727e-01,4.560000000000000000e+02
-1.626637379110779307e+02,-1.763753830770365880e+02,-7.010866723145744572e+01,-1.147826051277892248e+02,-1.563144408393300182e+02,-1.764648966681054389e+02,-2.763364376248341614e+01,-9.957037524853762989e+01,9.523238182067871094e+00,-9.179025292396545410e-01,-7.266727685928344727e-01,4.570000000000000000e+02
-1.605121534852331706e+02,-1.732432268795512016e+02,-6.834576466623769875e+01,-1.102073710341900892e+02,-1.542227748556027791e+02,-1.728307020336224866e+02,-2.669096147459825374e+01,-9.685367537975292862e+01,9.523238182067871094e+00,-9.179025292396545410e-01,-7.266727685928344727e-01,4.580000000000000000e+02
-1.591525735541438280e+02,-1.708584233262192242e+02,-6.842628931288973604e+01,-1.065366640788443249e+02,-1.534957804028492205e+02,-1.698165769589215870e+02,-2.747874150917795077e+01,-9.582761694489806814e+01,9.523238182067871094e+00,-9.179025292396545410e-01,-7.266727685928344727e-01,4.590000000000000000e+02
-1.583302383164681828e+02,-1.693120602383215214e+02,-6.925854420453534033e+01,-1.048429638122302663e+02,-1.532041766510891989e+02,-1.675225984455526316e+02,-2.834730327805995387e+01,-9.542426280424945162e+01,9.523238182067871094e+00,-9.179025292396545410e-01,-7.266727685928344727e-01,4.600000000000000000e+02
-1.575320503918370605e+02,-1.680009272592114939e+02,-6.957674239713307429e+01,-1.049795723551695232e+02,-1.522843987143762661e+02,-1.655810025175186411e+02,-2.798648212435792004e+01,-9.435242108610363232e+01,9.523238182067871094e+00,-9.179025292396545410e-01,-7.266727685928344727e-01,4.610000000000000000e+02
-1.562696593207623721e+02,-1.662694500786079175e+02,-6.898895734269325430e+01,-1.060893206582622099e+02,-1.505536580288401183e+02,-1.638103196746377819e+02,-2.634897619863323825e+01,-9.259784097585585982e+01,9.523238182067871094e+00,-9.179025292396545410e-01,-7.266727685928344727e-01,4.620000000000000000e+02
-1.543096157286526591e+02,-1.639332294738456426e+02,-6.809952666402855925e+01,-1.074566030578610025e+02,-1.488048828027245349e+02,-1.625092483440922706e+02,-2.444978157356706561e+01,-9.156146928327734713e+01,9.523238182067871094e+00,-9.179025292396545410e-01,-7.266727685928344727e-01,4.630000000000000000e+02
-1.517219060344300487e+02,-1.613267926923556388e+02,-6.770426188769624787e+01,-1.089337089359038941e+02,-1.479522513043859249e+02,-1.621084879584390706e+02,-2.337649959262574839e+01,-9.270818977836881913e+01,9.523238182067871094e+00,-9.179025292396545410e-01,-7.266727685928344727e-01,4.640000000000000000e+02
-1.487595665448544651e+02,-1.589758614989779062e+02,-6.791309108198822742e+01,-1.106756156065974892e+02,-1.480907224683165850e+02,-1.625698477800888213e+02,-2.341853062655729900e+01,-9.602358103462944428e+01,9.523238182067871094e+00,-9.179025292396545410e-01,-7.266727685928344727e-01,4.650000000000000000e+02
-1.457049031318019843e+02,-1.572302769099776469e+02,-6.803192117870719358e+01,-1.125822120647884503e+02,-1.483558541168704323e+02,-1.631527709784363651e+02,-2.398051692373098831e+01,-9.973348299311066967e+01,9.523238182067871094e+00,-9.179025292396545410e-01,-7.266727685928344727e-01,4.660000000000000000e+02
-1.428145529967698621e+02,-1.560925811853453524e+02,-6.725588185448009426e+01,-1.140538868897110660e+02,-1.476735029150150922e+02,-1.627935503472588152e+02,-2.421320994370717017e+01,-1.015532526920269447e+02,9.523238182067871094e+00,-9.179025292396545410e-01,-7.266727685928344727e-01,4.670000000000000000e+02
-1.403519560958910688e+02,-1.552560933958186524e+02,-6.545255944903362888e+01,-1.142961444837148974e+02,-1.456648748440195504e+02,-1.607739817762694656e+02,-2.373550545544799206e+01,-1.003524599336592473e+02,9.523238182067871094e+00,-8.414105772972106934e-01,-7.649186849594116211e-01,4.680000000000000000e+02
-1.385545798907187418e+02,-1.542666245932991842e+02,-6.326652485906345191e+01,-1.128620815580096632e+02,-1.428684615731601752e+02,-1.571160969030615888e+02,-2.284169334167586385e+01,-9.680410930255970925e+01,9.523238182067871094e+00,-8.414105772972106934e-01,-7.649186849594116211e-01,4.690000000000000000e+02
-1.374325697530960042e+02,-1.527455365084451842e+02,-6.147435318621910483e+01,-1.099535657691030792e+02,-1.401441190639202432e+02,-1.524550056457756000e+02,-2.211041190238597665e+01,-9.259764559945642759e+01,9.523238182067871094e+00,-8.414105772972106934e-01,-7.649186849594116211e-01,4.700000000000000000e+02
-1.365159714850697128e+02,-1.506195836362367118e+02,-6.025103244683191406e+01,-1.062892452159264849e+02,-1.378818562091273634e+02,-1.476186481982126679e+02,-2.183696577805312700e+01,-8.906475248411493340e+01,9.523238182067871094e+00,-8.414105772972106934e-01,-7.649186849594116211e-01,4.710000000000000000e+02
-1.348578092859092976e+02,-1.482177827045597951e+02,-5.906342538683020393e+01,-1.027382995692619261e+02,-1.357624501759264604e+02,-1.433044476246977865e+02,-2.179957245054947634e+01,-8.643303969282351318e+01,9.523238182067871094e+00,-8.414105772972106934e-01,-7.649186849594116211e-01,4.720000000000000000e+02
-1.314910707724206986e+02,-1.460964665300202796e+02,-5.727472027543694821e+01,-1.000331594071392374e+02,-1.332390178841483248e+02,-1.400180647501163094e+02,-2.152370311626259536e+01,-8.417687668317876160e+01,9.523238182067871094e+00,-8.414105772972106934e-01,-7.649186849594116211e-01,4.730000000000000000e+02
-1.261114197953593248e+02,-1.446553578642906359e+02,-5.482962097331346740e+01,-9.865635879156866395e+01,-1.301905483977643598e+02,-1.381016391384478084e+02,-2.073552249731574193e+01,-8.186791400375477679e+01,9.523238182067871094e+00,-8.414105772972106934e-01,-7.649186849594116211e-01,4.740000000000000000e+02
-1.194392935919081538e+02,-1.438331572670113019e+02,-5.234017012302683725e+01,-9.878878400618123123e+01,-1.270839164966937460e+02,-1.376320044190154022e+02,-1.957831231745649347e+01,-7.960962549736677829e+01,9.523238182067871094e+00,-8.414105772972106934e-01,-7.649186849594116211e-01,4.750000000000000000e+02
-1.128749514391022331e+02,-1.431515805751087100e+02,-5.051255315065509421e+01,-1.002154949271798614e+02,-1.245248898423369610e+02,-1.382195018151314798e+02,-1.842998956701171664e+01,-7.773390068355593030e+01,9.523238182067871094e+00,-8.414105772972106934e-01,-7.649186849594116211e-01,4.760000000000000000e+02
-1.076334574393881667e+02,-1.420812295807436385e+02,-4.950530000559751898e+01,-1.022562732138796946e+02,-1.227001966492880456e+02,-1.389716052787966873e+02,-1.752861260854206193e+01,-7.623494652026784024e+01,9.523238182067871094e+00,-8.414105772972106934e-01,-7.649186849594116211e-01,4.770000000000000000e+02
-1.040290022209210292e+02,-1.404110879679642494e+02,-4.885176576997446318e+01,-1.038958074927484176e+02,-1.212772474818616502e+02,-1.388134094033798647e+02,-1.675791826570275589e+01,-7.460302700823922351e+01,9.523238182067871094e+00,-8.414105772972106934e-01,-7.649186849594116211e-01,4.780000000000000000e+02
-1.014641970170418972e+02,-1.383021145545762920e+02,-4.796400128465984380e+01,-1.041549269542165348e+02,-1.197830551934525829e+02,-1.370213810252389521e+02,-1.574993513087292740e+01,-7.218465026348212632e+01,9.523238182067871094e+00,-8.414105772972106934e-01,-7.649186849594116211e-01,4.790000000000000000e+02
-9.906422563188789354e+01,-1.360115940981595486e+02,-4.663566421248606275e+01,-1.025055097474669310e+02,-1.179778198035455716e+02,-1.335866418960840747e+02,-1.414283615797239690e+01,-6.863670759028036628e+01,9.523238182067871094e+00,-8.414105772972106934e-01,-7.649186849594116211e-01,4.800000000000000000e+02
-9.633821539525706612e+01,-1.335875273280180409e+02,-4.500481456140914815e+01,-9.905277408483925683e+01,-1.158006638207752985e+02,-1.291229050828646905e+02,-1.172188157876689729e+01,-6.401558669620771980e+01,9.523238182067871094e+00,-8.414105772972106934e-01,-7.649186849594116211e-01,4.810000000000000000e+02
-9.332830866891299593e+01,-1.308492386184607312e+02,-4.310476381470425622e+01,-9.440066831272088166e+01,-1.130586276397939400e+02,-1.244374381683569482e+02,-8.391144329931194079e+00,-5.856658930068624613e+01,9.523238182067871094e+00,-8.414105772972106934e-01,-7.649186849594116211e-01,4.820000000000000000e+02
-9.028745788598325817e+01,-1.276802727377798874e+02,-4.066166969435880674e+01,-8.935907401688382379e+01,-1.094239593723132202e+02,-1.201451619752374427e+02,-4.173461949022566841e+00,-5.263499011410476669e+01,9.523238182067871094e+00,-8.414105772972106934e-01,-7.649186849594116211e-01,4.830000000000000000e+02
-8.735542828153256778e+01,-1.243449289748609772e+02,-3.752727948736719554e+01,-8.471397311391274343e+01,-1.049575227255722893e+02,-1.165851452498982326e+02,6.044225730706784816e-01,-4.686555434114143281e+01,9.523238182067871094e+00,-8.414105772972106934e-01,-7.649186849594116211e-01,4.840000000000000000e+02
-8.457767140798432592e+01,-1.215199387233992638e+02,-3.433319825300804951e+01,-8.112563819050546954e+01,-1.006476995294151493e+02,-1.139591401255438541e+02,5.081739032216319174e+00,-4.235573082764494757e+01,9.523238182067871094e+00,-8.414105772972106934e-01,-7.649186849594116211e-01,4.850000000000000000e+02
-8.212269161601625456e+01,-1.199445634150911246e+02,-3.250317295640797965e+01,-7.902183883707084533e+01,-9.817894386618627323e+01,-1.123891475690797961e+02,7.970596777875016414e+00,-4.028744093234217871e+01,9.523238182067871094e+00,-8.414105772972106934e-01,-7.649186849594116211e-01,4.860000000000000000e+02
-8.028475190657900384e+01,-1.198833432770952641e+02,-3.328318698502243933e+01,-7.839631909658146469e+01,-9.878827786473038941e+01,-1.117601881702148603e+02,8.194386637669140327e+00,-4.109015597915549733e+01,9.523238182067871094e+00,-8.414105772972106934e-01,-7.649186849594116211e-01,4.870000000000000000e+02
-7.915399527117506295e+01,-1.207577816907528359e+02,-3.651126245563727934e+01,-7.863473531352792634e+01,-1.020810000706251230e+02,-1.115466893026405160e+02,5.732199023093016876e+00,-4.382415795189035634e+01,9.523238182067871094e+00,-8.414105772972106934e-01,-7.649186849594116211e-01,4.880000000000000000e+02
-7.831974209132204123e+01,-1.212482795666901438e+02,-4.032930603846580198e+01,-7.862839660381905560e+01,-1.059438150043179121e+02,-1.109208236429376484e+02,1.962671641025735880e+00,-4.649023359739385342e+01,9.523238182067871094e+00,-8.414105772972106934e-01,-7.649186849594116211e-01,4.890000000000000000e+02
-7.704605642715387148e+01,-1.199383930603880799e+02,-4.233195032475305197e+01,-7.729163204287351618e+01,-1.078464206843636930e+02,-1.091903239804223631e+02,-9.760284560579748359e-01,-4.721710468278160988e+01,9.523238182067871094e+00,-8.414105772972106934e-01,-7.649186849594116211e-01,4.900000000000000000e+02
-7.487095923603737901e+01,-1.162135669931649318e+02,-4.129906454392857995e+01,-7.424494524398778594e+01,-1.065614602811392615e+02,-1.062671591900189014e+02,-1.510124772235030832e+00,-4.544794135129450297e+01,9.523238182067871094e+00,-8.414105772972106934e-01,-7.649186849594116211e-01,4.910000000000000000e+02
-7.206031364422506158e+01,-1.108366070525971736e+02,-3.801324132640365860e+01,-7.017333259935958267e+01,-1.028904464744646248e+02,-1.027757170895847594e+02,3.445097690173497540e-01,-4.215654716283370362e+01,9.523238182067871094e+00,-8.414105772972106934e-01,-7.649186849594116211e-01,4.920000000000000000e+02
-6.941648407057618897e+01,-1.056983767177935079e+02,-3.444860562112489788e+01,-6.651394933240953833e+01,-9.882562318986947503e+01,-9.969387578065561684e+01,3.102596131579048233e+00,-3.894188472408495727e+01,9.484992027282714844e+00,-9.561483860015869141e-01,-7.266727685928344727e-01,4.930000000000000000e+02
-6.754168808431404614e+01,-1.027390474762378290e+02,-3.208448053009396972e+01,-6.459126923087569594e+01,-9.590206787647275632e+01,-9.776845865605992003e+01,5.040789170633615868e+00,-3.679256138978416857e+01,9.484992027282714844e+00,-9.561483860015869141e-01,-7.266727685928344727e-01,4.940000000000000000e+02
-6.623137036537355016e+01,-1.027036259389233237e+02,-3.086539580132830451e+01,-6.474959493707592628e+01,-9.413617550008711987e+01,-9.709375768306017562e+01,5.552814002293416706e+00,-3.553117922483579605e+01,9.484992027282714844e+00,-9.561483860015869141e-01,-7.266727685928344727e-01,4.950000000000000000e+02
-6.460748836496168224e+01,-1.046514147553489238e+02,-2.967213314813307079e+01,-6.609279006274937274e+01,-9.235922465776457102e+01,-9.710944089067743334e+01,5.479314435184278409e+00,-3.430018653749539226e+01,9.484992027282714844e+00,-9.561483860015869141e-01,-7.266727685928344727e-01,4.960000000000000000e+02
-6.192185515676555951e+01,-1.066588159820221335e+02,-2.772362046230136912e+01,-6.705238122810624191e+01,-8.952406594362037140e+01,-9.699909470331931516e+01,6.125256828585406765e+00,-3.255396381575519626e+01,9.484992027282714844e+00,-9.561483860015869141e-01,-7.266727685928344727e-01,4.970000000000000000e+02
-5.831483414312697278e+01,-1.072266792332184195e+02,-2.549695905294538534e+01,-6.642763186518641305e+01,-8.579767408284624253e+01,-9.622966652739160054e+01,7.848084025193202251e+00,-3.065847753957496025e+01,9.484992027282714844e+00,-9.561483860015869141e-01,-7.266727685928344727e-01,4.980000000000000000e+02
-5.484231686598923261e+01,-1.062911804606837904e+02,-2.431758200029344152e+01,-6.419580120983300731e+01,-8.253889485258150671e+01,-9.489807384245614230e+01,9.521900209764680767e+00,-2.962009050362576090e+01,9.484992027282714844e+00,-9.561483860015869141e-01,-7.266727685928344727e-01,4.990000000000000000e+02
-5.273547366966613481e+01,-1.050558518408806776e+02,-2.509707258823800657e+01,-6.153783820366334112e+01,-8.125169674042263068e+01,-9.364780179071749444e+01,9.413095501240604790e+00,-3.022349650902469875e+01,9.484992027282714844e+00,-9.561483860015869141e-01,-7.266727685928344727e-01,5.000000000000000000e+02
-5.251268018756491074e+01,-1.048571755794728233e+02,-2.746662982503494277e+01,-6.005554160154406418e+01,-8.241324100125711993e+01,-9.317924750347265217e+01,6.713429863470082637e+00,-3.231011956852307776e+01,9.484992027282714844e+00,-9.561483860015869141e-01,-7.266727685928344727e-01,5.010000000000000000e+02
-5.365328067695099890e+01,-1.060609993504276645e+02,-3.009302437331552937e+01,-6.073480005716373853e+01,-8.511988692022259784e+01,-9.370846842614992056e+01,2.341223161974085087e+00,-3.477359929716931219e+01,9.484992027282714844e+00,-9.561483860015869141e-01,-7.266727685928344727e-01,5.020000000000000000e+02
-5.503759816419460549e+01,-1.078873087583215238e+02,-3.179382333168996411e+01,-6.337224370140302199e+01,-8.778528973941683944e+01,-9.483169672393887595e+01,-1.721289615778914595e+00,-3.628527935628790146e+01,9.484992027282714844e+00,-9.561483860015869141e-01,-7.266727685928344727e-01,5.030000000000000000e+02
-5.572330652905566239e+01,-1.091729374365049807e+02,-3.236312942144104454e+01,-6.680130273030408716e+01,-8.927075841533041967e+01,-9.593563227622871636e+01,-3.929167857782886131e+00,-3.620708601592286868e+01,9.484992027282714844e+00,-9.561483860015869141e-01,-7.266727685928344727e-01,5.040000000000000000e+02
-5.543935234082618990e+01,-1.092916042601173103e+02,-3.241409705023124843e+01,-6.966236461808694003e+01,-8.954289761148265825e+01,-9.679466943955503666e+01,-4.138400315221588244e+00,-3.500334331708563695e+01,9.484992027282714844e+00,-9.561483860015869141e-01,-7.266727685928344727e-01,5.050000000000000000e+02
-5.450422353744761494e+01,-1.084354194502939208e+02,-3.252201230303762713e+01,-7.109147614804624027e+01,-8.938286441187483433e+01,-9.774887607719938387e+01,-3.224345203155280615e+00,-3.381556869577616453e+01,9.484992027282714844e+00,-9.561483860015869141e-01,-7.266727685928344727e-01,5.060000000000000000e+02
-5.336806483739565010e+01,-1.071601054853817914e+02,-3.256189287933284504e+01,-7.087569711462947453e+01,-8.948099781562632415e+01,-9.921549387603408832e+01,-1.877643425812493660e+00,-3.350511764297334594e+01,9.484992027282714844e+00,-9.561483860015869141e-01,-7.266727685928344727e-01,5.070000000000000000e+02
-5.224019952775688580e+01,-1.057708830005640266e+02,-3.185200791524403030e+01,-6.915041934538203350e+01,-8.975663137998890306e+01,-1.009851557690890331e+02,1.185218349792194203e-01,-3.392326511756982654e+01,9.484992027282714844e+00,-9.561483860015869141e-01,-7.266727685928344727e-01,5.080000000000000000e+02
-5.108516385274651839e+01,-1.041534506059924752e+02,-2.988008722214181034e+01,-6.607722658528746251e+01,-8.947220597984232882e+01,-1.020458902257851150e+02,3.393467774747477961e+00,-3.402012114783065044e+01,9.484992027282714844e+00,-9.561483860015869141e-01,-7.266727685928344727e-01,5.090000000000000000e+02
-4.988087564044417377e+01,-1.021101835621975624e+02,-2.687989119911708258e+01,-6.184453660629969818e+01,-8.797436963389736775e+01,-1.012284456794004655e+02,7.859388835835488862e+00,-3.271924597846373217e+01,9.484992027282714844e+00,-9.561483860015869141e-01,-7.266727685928344727e-01,5.100000000000000000e+02
-4.879961263725090248e+01,-9.975422174388222629e+01,-2.374228463695908431e+01,-5.692305292018409091e+01,-8.535441925837949384e+01,-9.816651222563996271e+01,1.222066776648898667e+01,-2.982039012253699184e+01,9.484992027282714844e+00,-9.561483860015869141e-01,-7.266727685928344727e-01,5.110000000000000000e+02
-4.807932427681225818e+01,-9.750037190852344793e+01,-2.138394070138747338e+01,-5.217535926145319536e+01,-8.242797247063936084e+01,-9.368932931257404562e+01,1.476874163380671234e+01,-2.613791936838788388e+01,9.484992027282714844e+00,-9.561483860015869141e-01,-7.266727685928344727e-01,5.120000000000000000e+02
-4.769943855759265716e+01,-9.567487398261982889e+01,-2.015476828439841483e+01,-4.855632928070008347e+01,-8.009702138005741290e+01,-8.926582881340436870e+01,1.477896630870600347e+01,-2.277869100055431772e+01,9.484992027282714844e+00,-9.561483860015869141e-01,-7.266727685928344727e-01,5.130000000000000000e+02
-4.722878792113078816e+01,-9.418690913567661482e+01,-1.975266652022310154e+01,-4.658166885445825756e+01,-7.871164221851722687e+01,-8.601040905214904342e+01,1.315581011293761549e+01,-2.026817139602462703e+01,9.484992027282714844e+00,-9.561483860015869141e-01,-7.266727685928344727e-01,5.140000000000000000e+02
-4.607624080579626025e+01,-9.262043792923759611e+01,-1.961512204132486659e+01,-4.602700293398447684e+01,-7.797508994191593956e+01,-8.412778830274692154e+01,1.167235697370779235e+01,-1.834850181487308873e+01,9.484992027282714844e+00,-9.561483860015869141e-01,-7.266727685928344727e-01,5.150000000000000000e+02
-4.398770906773097522e+01,-9.067420463689086318e+01,-1.939331190844859520e+01,-4.616333191584271844e+01,-7.737195882829109905e+01,-8.319206187851159484e+01,1.149737884451496939e+01,-1.658237575290149834e+01,9.484992027282714844e+00,-9.561483860015869141e-01,-7.266727685928344727e-01,5.160000000000000000e+02
-4.134898827285178413e+01,-8.852294941582840693e+01,-1.911501757233418175e+01,-4.634937215892750828e+01,-7.663218794093154429e+01,-8.282086101072673046e+01,1.236844982840557350e+01,-1.506145235356962075e+01,9.484992027282714844e+00,-9.561483860015869141e-01,-7.266727685928344727e-01,5.170000000000000000e+02
-3.897235414544047671e+01,-8.673743916656712827e+01,-1.897210173983694403e+01,-4.646814949855797749e+01,-7.580306469322385965e+01,-8.299551413803237665e+01,1.310459314696890942e+01,-1.441774230490591435e+01,9.484992027282714844e+00,-9.561483860015869141e-01,-7.266727685928344727e-01,5.180000000000000000e+02
-3.750263610665933811e+01,-8.580694088479685888e+01,-1.899571037391069694e+01,-4.682761597983699176e+01,-7.496093492765066912e+01,-8.376083236244085128e+01,1.285333114483910322e+01,-1.508485010445838270e+01,9.484992027282714844e+00,-9.561483860015869141e-01,-7.266727685928344727e-01,5.190000000000000000e+02
-3.696641875037312275e+01,-8.567042281825342798e+01,-1.894645156927617791e+01,-4.763898667877583648e+01,-7.395559804597542097e+01,-8.475498731338666403e+01,1.184121003080508672e+01,-1.659338548350024212e+01,9.484992027282714844e+00,-8.796565532684326172e-01,-7.266727685928344727e-01,5.200000000000000000e+02
-3.688744293729541823e+01,-8.567812528827562346e+01,-1.852930677166295936e+01,-4.857140755052023451e+01,-7.248788413823785959e+01,-8.519121106033162505e+01,1.099924916811869480e+01,-1.770042076761274075e+01,9.484992027282714844e+00,-8.796565532684326172e-01,-7.266727685928344727e-01,5.210000000000000000e+02
-3.685466613388052792e+01,-8.504397076281384216e+01,-1.773634511123600532e+01,-4.880512844603799749e+01,-7.043575919223076198e+01,-8.438152671636453306e+01,1.097982450506242458e+01,-1.729858525334748265e+01,9.484992027282714844e+00,-8.796565532684326172e-01,-7.266727685928344727e-01,5.220000000000000000e+02
-3.697314366922000772e+01,-8.343826124792758492e+01,-1.698693636602729384e+01,-4.756762719404468953e+01,-6.807703516904621210e+01,-8.227868092941935174e+01,1.161937956680412753e+01,-1.523050300474096730e+01,9.484992027282714844e+00,-8.796565532684326172e-01,-7.266727685928344727e-01,5.230000000000000000e+02
-3.770526693870851886e+01,-8.124978509265019966e+01,-1.686573677115302416e+01,-4.472476521612952638e+01,-6.593889757137003471e+01,-7.947106848712610372e+01,1.235109557687246706e+01,-1.221405067051455262e+01,9.484992027282714844e+00,-8.796565532684326172e-01,-7.266727685928344727e-01,5.240000000000000000e+02
-3.922657772325510450e+01,-7.932512023657727696e+01,-1.761781068356503965e+01,-4.098263555489211285e+01,-6.439267766373450286e+01,-7.666153299775032792e+01,1.302391975237696897e+01,-9.034388225563816377e+00,9.484992027282714844e+00,-8.796565532684326172e-01,-7.266727685928344727e-01,5.250000000000000000e+02
-4.095404594629326311e+01,-7.839571247539061005e+01,-1.883021322435160982e+01,-3.757724049901298713e+01,-6.337861314160363690e+01,-7.419880665826349286e+01,1.417536763663702004e+01,-5.918904874377403758e+00,9.484992027282714844e+00,-8.796565532684326172e-01,-7.266727685928344727e-01,5.260000000000000000e+02
-4.181066814485348004e+01,-7.861635031489458925e+01,-1.963063285286079918e+01,-3.567739651375450194e+01,-6.253092312112676154e+01,-7.212205073571021785e+01,1.641487342628715851e+01,-2.754487445630729781e+00,9.484992027282714844e+00,-8.796565532684326172e-01,-7.266727685928344727e-01,5.270000000000000000e+02
-4.109833240083207784e+01,-7.950997424811794190e+01,-1.931566205420676852e+01,-3.583880224521999480e+01,-6.160620824391116912e+01,-7.056335147474419500e+01,1.954139218200543837e+01,1.921717328186787199e-01,9.484992027282714844e+00,-8.796565532684326172e-01,-7.266727685928344727e-01,5.280000000000000000e+02
-3.919216619843064109e+01,-8.028642975569528062e+01,-1.789946180452170665e+01,-3.774240448411910620e+01,-6.079150918125196768e+01,-6.991211789772205520e+01,2.236197753659507725e+01,2.032713835287722759e+00,9.484992027282714844e+00,-8.796565532684326172e-01,-7.266727685928344727e-01,5.290000000000000000e+02
-3.734098055465437938e+01,-8.026779018622255535e+01,-1.607591441247859620e+01,-4.028271934180338576e+01,-6.053725144687450666e+01,-7.041150033437770617e+01,2.354236872051478713e+01,1.999409131931315642e+00,9.484992027282714844e+00,-8.796565532684326172e-01,-7.266727685928344727e-01,5.300000000000000000e+02
-3.667171131430222886e+01,-7.916470659569313284e+01,-1.461530973489425378e+01,-4.199911632139810536e+01,-6.102113970884056471e+01,-7.158231282813176222e+01,2.276557630338174931e+01,4.935651336581940996e-01,9.484992027282714844e+00,-8.796565532684326172e-01,-7.266727685928344727e-01,5.310000000000000000e+02
-3.726503226962449844e+01,-7.713265160917035246e+01,-1.374713842710116296e+01,-4.176653081093900255e+01,-6.176936150740039011e+01,-7.222886282849140116e+01,2.109316453806968639e+01,-7.920448997938365210e-01,9.484992027282714844e+00,-8.796565532684326172e-01,-7.266727685928344727e-01,5.320000000000000000e+02
-3.814145531957547064e+01,-7.468156871619248705e+01,-1.310344021324817732e+01,-3.946965942079441447e+01,-6.188987546273347107e+01,-7.127782849788854946e+01,2.012268347451026784e+01,-1.008994561525469180e-01,9.484992027282714844e+00,-8.796565532684326172e-01,-7.266727685928344727e-01,5.330000000000000000e+02
-3.816916693898565427e+01,-7.250825977106433129e+01,-1.225528501561348094e+01,-3.622750438878392742e+01,-6.081445463063209900e+01,-6.879346264235937269e+01,2.064967301577962644e+01,2.786433366936762468e+00,9.484992027282714844e+00,-8.796565532684326172e-01,-7.266727685928344727e-01,5.340000000000000000e+02
-3.705467195628625632e+01,-7.125567889123340137e+01,-1.128359825734150945e+01,-3.386055522356400616e+01,-5.890221076081070350e+01,-6.614758725887077162e+01,2.202371299521837500e+01,6.129286506804419332e+00,9.484992027282714844e+00,-8.796565532684326172e-01,-7.266727685928344727e-01,5.350000000000000000e+02
-3.551773929908995342e+01,-7.122484721264117979e+01,-1.077974087566508388e+01,-3.378407388922460086e+01,-5.729116078084916808e+01,-6.500509676687579486e+01,2.278252676526062714e+01,7.562818675080052344e+00,9.484992027282714844e+00,-8.796565532684326172e-01,-7.266727685928344727e-01,5.360000000000000000e+02
-3.455589539628999773e+01,-7.217044058041938115e+01,-1.125105638991044543e+01,-3.602489375530058169e+01,-5.703852325489424402e+01,-6.590880959369314951e+01,2.200102769663499203e+01,6.121950560082041193e+00,9.484992027282714844e+00,-8.796565532684326172e-01,-7.266727685928344727e-01,5.370000000000000000e+02
-3.453826950095935899e+01,-7.334747601140043116e+01,-1.250323826702697261e+01,-3.911682361282328202e+01,-5.826721262649152777e+01,-6.773534399549680529e+01,2.016076434018759755e+01,3.157714246313844342e+00,9.484992027282714844e+00,-8.796565532684326172e-01,-7.266727685928344727e-01,5.380000000000000000e+02
-3.497929514848146937e+01,-7.386654583588097012e+01,-1.362246899133424449e+01,-4.105619422822201159e+01,-6.006083509951349697e+01,-6.858132257643592311e+01,1.879004627702670405e+01,1.295595841453177854e+00,9.484992027282714844e+00,-8.796565532684326172e-01,-7.266727685928344727e-01,5.390000000000000000e+02
-3.512241263721080031e+01,-7.318030317216835101e+01,-1.361887737083816319e+01,-4.069227323369341320e+01,-6.118687812673306325e+01,-6.735706828240654431e+01,1.922416304356374894e+01,2.337058447781600989e+00,9.484992027282714844e+00,-8.796565532684326172e-01,-7.266727685928344727e-01,5.400000000000000000e+02
-3.468163765713688917e+01,-7.140910000779331313e+01,-1.220648377252837236e+01,-3.855970766592690779e+01,-6.101328945277782623e+01,-6.473438432723924052e+01,2.154977374160444015e+01,5.889989976582000963e+00,9.484992027282714844e+00,-8.796565532684326172e-01,-7.266727685928344727e-01,5.410000000000000000e+02
-3.402249341641800129e+01,-6.930629386346845422e+01,-1.009139572744061297e+01,-3.654779256656365760e+01,-5.987220234909182182e+01,-6.267031731073802803e+01,2.456464652969953022e+01,9.790185698588175001e+00,9.484992027282714844e+00,-8.796565532684326172e-01,-7.266727685928344727e-01,5.420000000000000000e+02
-3.369835690343461465e+01,-6.787481392117115320e+01,-8.551905101259762887e+00,-3.664932230736667407e+01,-5.865939471363890334e+01,-6.294494947222483461e+01,2.669805098348297179e+01,1.181262489215441747e+01,9.484992027282714844e+00,-8.796565532684326172e-01,-7.266727685928344727e-01,5.430000000000000000e+02
-3.389110306565635256e+01,-6.782197863484179834e+01,-8.623845860258370521e+00,-3.964671294989602757e+01,-5.808218448322440963e+01,-6.588173485140578123e+01,2.711106684606420458e+01,1.122217343025477021e+01,9.484992027282714844e+00,-8.796565532684326172e-01,-7.266727685928344727e-01,5.440000000000000000e+02
-3.430450991454199539e+01,-6.912537067394077894e+01,-1.042770427674258826e+01,-4.458242212880941224e+01,-5.815272622664997471e+01,-7.013824852972902590e+01,2.617599415942822816e+01,9.068967943003372056e+00,9.484992027282714844e+00,-8.796565532684326172e-01,-7.266727685928344727e-01,5.450000000000000000e+02
-3.451127065492255497e+01,-7.095709805292062811e+01,-1.303556560358447314e+01,-4.930552569702558685e+01,-5.823298106727452250e+01,-7.356634978770307498e+01,2.507799367804545909e+01,7.263002584717469290e+00,9.484992027282714844e+00,-8.796565532684326172e-01,-7.266727685928344727e-01,5.460000000000000000e+02
-3.430093619955368922e+01,-7.206292621990724001e+01,-1.495245899067595019e+01,-5.169599804040990421e+01,-5.751305464696270064e+01,-7.445157825583009981e+01,2.492441803204201278e+01,7.298930214779829839e+00,9.484992027282714844e+00,-8.796565532684326172e-01,-7.266727685928344727e-01,5.470000000000000000e+02
-3.366311532241161331e+01,-7.144372860602015862e+01,-1.494141713296994567e+01,-5.077769542083478882e+01,-5.556510756116767880e+01,-7.236058001019773656e+01,2.602918413820589194e+01,9.504995568237063708e+00,9.484992027282714844e+00,-8.796565532684326172e-01,-7.266727685928344727e-01,5.480000000000000000e+02
-3.254375845461254357e+01,-6.894453219998831628e+01,-1.271677255430404330e+01,-4.705804330560931703e+01,-5.262376718745144899e+01,-6.820188816794689046e+01,2.783128911001767847e+01,1.312052043000585400e+01,9.484992027282714844e+00,-8.796565532684326172e-01,-7.266727685928344727e-01,5.490000000000000000e+02
-3.079166833369163214e+01,-6.532972767992396257e+01,-9.062009147721255431e+00,-4.196988096838686033e+01,-4.943129408252934809e+01,-6.356627305030269781e+01,2.943937047296640230e+01,1.694970174934496754e+01,9.484992027282714844e+00,-8.796565532684326172e-01,-7.266727685928344727e-01,5.500000000000000000e+02
-2.845824785688819247e+01,-6.175363286077481462e+01,-5.289567953310324810e+00,-3.688844762240842101e+01,-4.675887784344376996e+01,-5.977173314940955606e+01,3.034835968488914659e+01,2.009221253172290744e+01,9.484992027282714844e+00,-9.179025292396545410e-01,-7.266727685928344727e-01,5.510000000000000000e+02
-2.612137819278723327e+01,-5.900767923806415638e+01,-2.446321453651762567e+00,-3.246161474546170211e+01,-4.495175877070505521e+01,-5.719826976416516118e+01,3.075485262324218638e+01,2.231385242930264212e+01,9.484992027282714844e+00,-9.179025292396545410e-01,-7.266727685928344727e-01,5.520000000000000000e+02
-2.476164608192266314e+01,-5.711732195602962747e+01,-8.808794764663616661e-01,-2.869412157330953050e+01,-4.386980342853348702e+01,-5.536203617826686241e+01,3.121655305524109281e+01,2.386204927992730518e+01,9.484992027282714844e+00,-9.179025292396545410e-01,-7.266727685928344727e-01,5.530000000000000000e+02
-2.512244266412744764e+01,-5.555812532532581827e+01,-4.489230374019825831e-01,-2.556168098918715259e+01,-4.327012783649479388e+01,-5.366564404503878905e+01,3.197537351145729190e+01,2.491338992934470298e+01,9.484992027282714844e+00,-9.179025292396545410e-01,-7.266727685928344727e-01,5.540000000000000000e+02
-2.704300914310806547e+01,-5.383109596109716222e+01,-1.004430455421243096e+00,-2.346474962028514710e+01,-4.322226917773150490e+01,-5.217427620849048253e+01,3.261493352724937722e+01,2.517842808488421724e+01,9.484992027282714844e+00,-9.179025292396545410e-01,-7.266727685928344727e-01,5.550000000000000000e+02
-2.939102864279993810e+01,-5.184522057847061660e+01,-2.562679421240318334e+00,-2.301378715030296007e+01,-4.405521092733397381e+01,-5.166414679192530457e+01,3.245378881446958985e+01,2.412533846607402666e+01,9.484992027282714844e+00,-9.179025292396545410e-01,-7.266727685928344727e-01,5.560000000000000000e+02
-3.075883863108174410e+01,-4.983159827995768865e+01,-4.924470684542029630e+00,-2.433692902448456152e+01,-4.579792930888652336e+01,-5.282119551930736634e+01,3.137794311218385701e+01,2.172458245016241563e+01,9.484992027282714844e+00,-9.179025292396545410e-01,-7.266727685928344727e-01,5.570000000000000000e+02
-3.041065626371710096e+01,-4.801325774287033710e+01,-7.238147852771362523e+00,-2.663365531935050967e+01,-4.768709382594533963e+01,-5.533349110309063690e+01,3.029445958454016363e+01,1.900557111330635962e+01,9.484992027282714844e+00,-9.179025292396545410e-01,-7.266727685928344727e-01,5.580000000000000000e+02
-2.873507769242496579e+01,-4.645628610166022554e+01,-8.194039062786032446e+00,-2.852508189852233045e+01,-4.840083741885246127e+01,-5.783308182202745229e+01,3.062244902012025705e+01,1.770331819897182868e+01,9.484992027282714844e+00,-9.179025292396545410e-01,-7.266727685928344727e-01,5.590000000000000000e+02
-2.686733522273425478e+01,-4.523944666633906309e+01,-6.929798153287265450e+00,-2.898722917514533037e+01,-4.701842912560096011e+01,-5.888194115535952733e+01,3.312167372564363177e+01,1.905060043542835047e+01,9.484992027282714844e+00,-9.179025292396545410e-01,-7.266727685928344727e-01,5.600000000000000000e+02
-2.582242278574631200e+01,-4.464555254440347198e+01,-3.887046923926391173e+00,-2.805166801634186413e+01,-4.389278733520768583e+01,-5.813658694629702950e+01,3.707013938938689535e+01,2.268285980742439278e+01,9.484992027282714844e+00,-9.179025292396545410e-01,-7.266727685928344727e-01,5.610000000000000000e+02
-2.584412069776954013e+01,-4.504010044920505607e+01,-7.227248986455379054e-01,-2.666369197886160691e+01,-4.055674579634796828e+01,-5.658255934634144069e+01,4.058758211442182073e+01,2.670237948330031941e+01,9.484992027282714844e+00,-9.179025292396545410e-01,-7.266727685928344727e-01,5.620000000000000000e+02
