F3,F4,C3,C4,P3,P4,Cz,Pz,Accel_x,Accel_y,Accel_z,Sample
-3.001332515850663185e-11,-5.184119800105690956e-11,-3.910827217623591423e-11,-4.547473508864641190e-11,-3.728928277269005775e-11,-6.184563972055912018e-11,-3.092281986027956009e-11,-3.183231456205248833e-11,9.484992027282714844e+00,-1.032640218734741211e+00,-3.824593424797058105e-01,2.260000000000000000e+02
-4.147846794749966648e+00,-4.850003119850953226e+00,-2.013672103955286730e+00,-2.378583308684028452e+00,-1.212878897371774656e+01,-1.406852575547236484e+01,-5.991178571469390590e+00,3.411021571891978965e-01,9.484992027282714844e+00,-1.032640218734741211e+00,-3.824593424797058105e-01,2.270000000000000000e+02
-1.094452999641907809e+01,-1.224263470182540914e+01,-4.574166292070003692e+00,-2.308410580615600338e+00,-2.066533376016559487e+01,-2.133493715500662802e+01,-1.118204493688153889e+01,-1.937956110622508277e+00,9.484992027282714844e+00,-1.032640218734741211e+00,-3.824593424797058105e-01,2.280000000000000000e+02
-2.105101236528298614e+01,-2.214028449533634557e+01,-7.700737293911515735e+00,4.279760281297058100e-01,-2.514433858949269052e+01,-2.103057140243072354e+01,-1.494071318705027807e+01,-6.929109243719722144e+00,9.484992027282714844e+00,-1.032640218734741211e+00,-3.824593424797058105e-01,2.290000000000000000e+02
-3.288265978180243110e+01,-3.190454779563424381e+01,-1.098379743890109239e+01,3.850047260220890166e+00,-2.831318804196871497e+01,-1.854289044948200171e+01,-1.693957989503360295e+01,-1.225149664000855410e+01,9.484992027282714844e+00,-1.032640218734741211e+00,-3.824593424797058105e-01,2.300000000000000000e+02
-4.414636528230585100e+01,-3.878978326195101545e+01,-1.417587109283613245e+01,5.935421794244575722e+00,-3.328500238779361098e+01,-1.984352813145414984e+01,-1.724217968637731246e+01,-1.551106987307412055e+01,9.484992027282714844e+00,-1.032640218734741211e+00,-3.824593424797058105e-01,2.310000000000000000e+02
-5.362473065278845752e+01,-4.241982552141234919e+01,-1.751833604421881319e+01,6.591763339851240744e+00,-4.074791127841217531e+01,-2.609379287662522984e+01,-1.631780111397529254e+01,-1.653390118052811886e+01,9.484992027282714844e+00,-1.032640218734741211e+00,-3.824593424797058105e-01,2.320000000000000000e+02
-6.163787089189827384e+01,-4.483897827444798168e+01,-2.130509234323926648e+01,7.519750144731915498e+00,-4.885315850584356667e+01,-3.359860933546042361e+01,-1.490687786609942123e+01,-1.714286527546937577e+01,9.523238182067871094e+00,-1.070886254310607910e+00,-3.824593424797058105e-01,2.330000000000000000e+02
-6.907896863263340492e+01,-4.828216975795112376e+01,-2.513152807645292341e+01,1.036871438164234860e+01,-5.546344425676124956e+01,-3.838137191822897876e+01,-1.372213030078819429e+01,-1.902504520503589447e+01,9.523238182067871094e+00,-1.070886254310607910e+00,-3.824593424797058105e-01,2.340000000000000000e+02
-7.630003062315336138e+01,-5.304262068496700522e+01,-2.783053361970542028e+01,1.525289256894939172e+01,-6.021575430222856085e+01,-4.012752961827391118e+01,-1.312552177443467372e+01,-2.215746811413009709e+01,9.523238182067871094e+00,-1.070886254310607910e+00,-3.824593424797058105e-01,2.350000000000000000e+02
-8.302026121902054001e+01,-5.752453168599095079e+01,-2.849236906643000111e+01,2.100502723150384554e+01,-6.449635773054160381e+01,-4.165509595735784387e+01,-1.302539552147027280e+01,-2.531922793078774703e+01,9.523238182067871094e+00,-1.070886254310607910e+00,-3.824593424797058105e-01,2.360000000000000000e+02
-8.912564071569704538e+01,-6.025160093592239718e+01,-2.771568173760533682e+01,2.652366781446471578e+01,-6.983299137456651806e+01,-4.524464596116558823e+01,-1.312236760058476648e+01,-2.778280553381046047e+01,9.523238182067871094e+00,-1.070886254310607910e+00,-3.824593424797058105e-01,2.370000000000000000e+02
-9.523525295339914010e+01,-6.168632629815692781e+01,-2.769494603502062091e+01,3.155221377189081977e+01,-7.659655551338892110e+01,-5.019906551027816022e+01,-1.333844925184075692e+01,-3.008921053765516263e+01,9.523238182067871094e+00,-1.070886254310607910e+00,-3.824593424797058105e-01,2.380000000000000000e+02
-1.022662167090156800e+02,-6.407798123742759344e+01,-3.069691001764294924e+01,3.617998245844682970e+01,-8.407174136299545353e+01,-5.402636992654151982e+01,-1.406307420132998232e+01,-3.311224988089998078e+01,9.523238182067871094e+00,-1.070886254310607910e+00,-3.824593424797058105e-01,2.390000000000000000e+02
-1.104434217916377747e+02,-6.959891181625243917e+01,-3.711625367759734218e+01,3.994651058277759148e+01,-9.133397402506216167e+01,-5.544721474436846620e+01,-1.596122400112290052e+01,-3.671601014758380188e+01,9.523238182067871094e+00,-1.070886254310607910e+00,-3.824593424797058105e-01,2.400000000000000000e+02
-1.188731035245318708e+02,-7.859070477031855262e+01,-4.493979747246976331e+01,4.178165606258062326e+01,-9.784348272600163909e+01,-5.579180277389241382e+01,-1.946247377319559746e+01,-3.972270089596622711e+01,9.523238182067871094e+00,-1.070886254310607910e+00,-3.824593424797058105e-01,2.410000000000000000e+02
-1.262345519474683897e+02,-8.942770990187273128e+01,-5.125225952399705420e+01,4.091951260187852313e+01,-1.034418435723173388e+02,-5.755979919563287694e+01,-2.433071904664302565e+01,-4.127532248547595373e+01,9.523238182067871094e+00,-1.070886254310607910e+00,-3.824593424797058105e-01,2.420000000000000000e+02
-1.319691026233304001e+02,-9.985667749052208819e+01,-5.449082393788557965e+01,3.777243619554883480e+01,-1.082085694167690235e+02,-6.202146973449453071e+01,-2.965751719540821796e+01,-4.196735829304270737e+01,9.523238182067871094e+00,-1.070886254310607910e+00,-3.824593424797058105e-01,2.430000000000000000e+02
-1.368298614613750033e+02,-1.084389206182631824e+02,-5.539294723957482347e+01,3.383310282979527983e+01,-1.124655630824927357e+02,-6.834353777204887592e+01,-3.428611551269750635e+01,-4.335090325084365759e+01,9.523238182067871094e+00,-1.070886254310607910e+00,-3.824593424797058105e-01,2.440000000000000000e+02
-1.422929722709250200e+02,-1.149554369834731915e+02,-5.588183516081971902e+01,3.073546136898130499e+01,-1.166762586396789629e+02,-7.470382612274443090e+01,-3.736055145566206193e+01,-4.627384911496665154e+01,9.523238182067871094e+00,-1.070886254310607910e+00,-3.824593424797058105e-01,2.450000000000000000e+02
-1.494030956430933657e+02,-1.198001533229389679e+02,-5.716445976004069962e+01,2.939317439529986586e+01,-1.210332755948156773e+02,-7.986550356135740003e+01,-3.865475131790935848e+01,-4.981025565376148734e+01,9.523238182067871094e+00,-1.070886254310607910e+00,-3.824593424797058105e-01,2.460000000000000000e+02
-1.580676900098414990e+02,-1.232625602739517490e+02,-5.896941664819314610e+01,2.988687702584502404e+01,-1.251264542639355568e+02,-8.369296206896251533e+01,-3.851550403906549036e+01,-5.194859305565660179e+01,9.523238182067871094e+00,-1.070886254310607910e+00,-3.824593424797058105e-01,2.470000000000000000e+02
-1.672766979954512863e+02,-1.254420743940645480e+02,-6.050652850706410391e+01,3.192468033380828274e+01,-1.282726901208025083e+02,-8.657890249623324053e+01,-3.751550596314336872e+01,-5.140027331913734088e+01,9.523238182067871094e+00,-1.070886254310607910e+00,-3.824593424797058105e-01,2.480000000000000000e+02
-1.758569675251619628e+02,-1.266868016189719128e+02,-6.184494713267304178e+01,3.526225914117003413e+01,-1.303651849881707676e+02,-8.875001075458294508e+01,-3.607315465143165056e+01,-4.878340402922549401e+01,9.523238182067871094e+00,-1.070886254310607910e+00,-3.824593424797058105e-01,2.490000000000000000e+02
-1.830720694689853190e+02,-1.278828769886131340e+02,-6.402555926685181475e+01,3.974089525722774852e+01,-1.323265898079853287e+02,-9.010944606025987014e+01,-3.429112760645512026e+01,-4.612130776178128144e+01,9.523238182067871094e+00,-1.070886254310607910e+00,-3.824593424797058105e-01,2.500000000000000000e+02
-1.887449438090652620e+02,-1.301329838432020551e+02,-6.775562661420735822e+01,4.507523814453725208e+01,-1.355002761116757029e+02,-9.048656894973555609e+01,-3.215036883821267111e+01,-4.526333366504331934e+01,9.523238182067871094e+00,-1.070886254310607910e+00,-3.824593424797058105e-01,2.510000000000000000e+02
-1.930820617931676679e+02,-1.340386616777141171e+02,-7.219817514365786337e+01,5.071280168433258950e+01,-1.404196747182586478e+02,-8.987066124583816418e+01,-2.992538007837902114e+01,-4.670174847970383780e+01,9.523238182067871094e+00,-1.070886254310607910e+00,-3.824593424797058105e-01,2.520000000000000000e+02
-1.965078829563153704e+02,-1.392500439400855612e+02,-7.536580664116627304e+01,5.589462991375967249e+01,-1.462058296036057072e+02,-8.852543458817763167e+01,-2.846271049286679045e+01,-4.966561799304963642e+01,9.523238182067871094e+00,-1.070886254310607910e+00,-3.824593424797058105e-01,2.530000000000000000e+02
-1.995737284445267505e+02,-1.447207424579728468e+02,-7.587922274303491577e+01,5.986475412555228104e+01,-1.512626199177711896e+02,-8.706778995044533076e+01,-2.894590964662802435e+01,-5.308007630031534063e+01,9.523238182067871094e+00,-1.070886254310607910e+00,-3.824593424797058105e-01,2.540000000000000000e+02
-2.028209269482731543e+02,-1.494414182826440083e+02,-7.433023775170931913e+01,6.215622460410395433e+01,-1.546151764402256958e+02,-8.641114467106854136e+01,-3.213942629240955284e+01,-5.631770562500923916e+01,9.523238182067871094e+00,-1.070886254310607910e+00,-3.824593424797058105e-01,2.550000000000000000e+02
-2.065650562854725649e+02,-1.530137981504881282e+02,-7.283814417509802297e+01,6.286451917599697481e+01,-1.566016889518614335e+02,-8.739454720280082256e+01,-3.760953330639586056e+01,-5.915704005429461176e+01,9.523238182067871094e+00,-1.070886254310607910e+00,-3.824593424797058105e-01,2.560000000000000000e+02
-2.107638607050780593e+02,-1.556684093612375364e+02,-7.324955911019424093e+01,6.271479885883036332e+01,-1.583330371704623758e+02,-9.023291571626214136e+01,-4.360659170254348282e+01,-6.131607255769858966e+01,9.523238182067871094e+00,-1.070886254310607910e+00,-3.824593424797058105e-01,2.570000000000000000e+02
-2.151260261451670885e+02,-1.579118236371582498e+02,-7.578513373156056332e+01,6.271119030707268394e+01,-1.606135595550949802e+02,-9.429375621749841230e+01,-4.792645859776257566e+01,-6.233772227251256481e+01,9.523238182067871094e+00,-1.070886254310607910e+00,-3.824593424797058105e-01,2.580000000000000000e+02
-2.193889003602230332e+02,-1.602979750825520568e+02,-7.938816253750428586e+01,6.345457434702711907e+01,-1.634642026853598509e+02,-9.852871755756950733e+01,-4.930606753502434003e+01,-6.209922339263539470e+01,9.523238182067871094e+00,-1.070886254310607910e+00,-3.824593424797058105e-01,2.590000000000000000e+02
-2.235249703085255533e+02,-1.635199058708799384e+02,-8.322760738557644800e+01,6.459341540835248452e+01,-1.666121983681177880e+02,-1.022535471249784678e+02,-4.838109895238812896e+01,-6.141005382261619161e+01,9.446745872497558594e+00,-1.109132170677185059e+00,-3.824593424797058105e-01,2.600000000000000000e+02
-2.277341078039180502e+02,-1.684625218277265049e+02,-8.768663548069253011e+01,6.493978434619748441e+01,-1.702593653260237261e+02,-1.055649780891599221e+02,-4.743097056576971227e+01,-6.189442595185619211e+01,9.446745872497558594e+00,-1.109132170677185059e+00,-3.824593424797058105e-01,2.610000000000000000e+02
-2.323258332260643328e+02,-1.758143933663154712e+02,-9.384320218773700617e+01,6.332098916941504285e+01,-1.752084690615870386e+02,-1.090259089508654142e+02,-4.898107931157710482e+01,-6.499936881136954980e+01,9.446745872497558594e+00,-1.109132170677185059e+00,-3.824593424797058105e-01,2.620000000000000000e+02
-2.376314180378294623e+02,-1.853908947793752304e+02,-1.020846039525222295e+02,5.953963248003856279e+01,-1.822022985700782556e+02,-1.130134834121799940e+02,-5.421234820486006356e+01,-7.088115549504573210e+01,9.446745872497558594e+00,-1.109132170677185059e+00,-3.824593424797058105e-01,2.630000000000000000e+02
-2.439486341594538317e+02,-1.958682410962760514e+02,-1.113593603190538488e+02,5.459303562221248285e+01,-1.911990579574126059e+02,-1.174560057370626964e+02,-6.231814553788763078e+01,-7.822651478486568521e+01,9.446745872497558594e+00,-1.109132170677185059e+00,-3.824593424797058105e-01,2.640000000000000000e+02
-2.514318128723066366e+02,-2.054551118212593792e+02,-1.198950769665739244e+02,4.983974694657626969e+01,-2.013832441140698393e+02,-1.222370772719932575e+02,-7.130082398778404240e+01,-8.537813821852569163e+01,9.446745872497558594e+00,-1.109132170677185059e+00,-3.824593424797058105e-01,2.650000000000000000e+02
-2.599385628414083840e+02,-2.131512613952963875e+02,-1.267542272437972315e+02,4.573423351522342273e+01,-2.119659113964262360e+02,-1.278044689432408632e+02,-7.963306049418360999e+01,-9.195566435132150218e+01,9.446745872497558594e+00,-1.109132170677185059e+00,-3.824593424797058105e-01,2.660000000000000000e+02
-2.690274426550013231e+02,-2.195505695808337805e+02,-1.328274955783240330e+02,4.123792329439311288e+01,-2.230156389952121572e+02,-1.352563107869309533e+02,-8.752684904098259722e+01,-9.956732875889201750e+01,9.446745872497558594e+00,-1.109132170677185059e+00,-3.824593424797058105e-01,2.670000000000000000e+02
-2.782381154765275824e+02,-2.264245243522868805e+02,-1.403941764733435775e+02,3.451916677244207676e+01,-2.355011428446850914e+02,-1.456752954673911518e+02,-9.680361695797273569e+01,-1.108174010093530342e+02,9.446745872497558594e+00,-1.109132170677185059e+00,-3.824593424797058105e-01,2.680000000000000000e+02
-2.874680249394909879e+02,-2.353933997817080126e+02,-1.515785858580015883e+02,2.445906132360596530e+01,-2.504273635106842448e+02,-1.592206713186214984e+02,-1.094197137443056818e+02,-1.272380543571025555e+02,9.446745872497558594e+00,-1.109132170677185059e+00,-3.824593424797058105e-01,2.690000000000000000e+02
-2.970395650718060097e+02,-2.468412613433029037e+02,-1.668253257089641011e+02,1.170604318895038887e+01,-2.677612821230536611e+02,-1.747513638100517710e+02,-1.257602824764267098e+02,-1.477859185403531228e+02,9.446745872497558594e+00,-1.109132170677185059e+00,-3.824593424797058105e-01,2.700000000000000000e+02
-3.072805227760172784e+02,-2.599405865659450683e+02,-1.844077831976928792e+02,-1.665163877081795363e+00,-2.860580899721940114e+02,-1.903341872894870903e+02,-1.440107907868155053e+02,-1.691800603967981260e+02,9.446745872497558594e+00,-1.109132170677185059e+00,-3.824593424797058105e-01,2.710000000000000000e+02
-3.179680557813826454e+02,-2.735501278641327190e+02,-2.012710121601253377e+02,-1.365463679186177615e+01,-3.031725447723301841e+02,-2.043193414030856729e+02,-1.610848829265391942e+02,-1.878980848989549486e+02,9.446745872497558594e+00,-1.109132170677185059e+00,-3.824593424797058105e-01,2.720000000000000000e+02
-3.282415616705557113e+02,-2.869591430441314515e+02,-2.147237070338478588e+02,-2.371073348789468582e+01,-3.175669751775922123e+02,-2.162443496724454235e+02,-1.743965954774635065e+02,-2.022909363142948678e+02,9.446745872497558594e+00,-1.109132170677185059e+00,-3.824593424797058105e-01,2.730000000000000000e+02
-3.372026525429469075e+02,-2.998073552251062210e+02,-2.239734913848819815e+02,-3.276713682169520325e+01,-3.292056415191000269e+02,-2.269103891379909328e+02,-1.831814366088246970e+02,-2.132004171511907771e+02,9.446745872497558594e+00,-1.109132170677185059e+00,-3.824593424797058105e-01,2.740000000000000000e+02
-3.446990051463135387e+02,-3.115308690216807008e+02,-2.304916920821251551e+02,-4.194822053609095747e+01,-3.393208047215234728e+02,-2.375499395536908196e+02,-1.885401071698433952e+02,-2.227136254660213126e+02,9.446745872497558594e+00,-1.109132170677185059e+00,-3.824593424797058105e-01,2.750000000000000000e+02
-3.514949809978679696e+02,-3.211973496840423650e+02,-2.368646799365374136e+02,-5.119769964919760241e+01,-3.492542748243945425e+02,-2.487143098058040778e+02,-1.924392920068398780e+02,-2.321929053853277765e+02,9.446745872497558594e+00,-1.109132170677185059e+00,-3.824593424797058105e-01,2.760000000000000000e+02
-3.585572959021114912e+02,-3.281037663665792934e+02,-2.448341661888084673e+02,-5.918827183695975691e+01,-3.593261284481886833e+02,-2.597694652962518376e+02,-1.965676836613561136e+02,-2.412005355315236557e+02,9.446745872497558594e+00,-1.109132170677185059e+00,-3.824593424797058105e-01,2.770000000000000000e+02
-3.660632415948016387e+02,-3.325459697446967766e+02,-2.539393235491593259e+02,-6.459667445801869690e+01,-3.685898267426150596e+02,-2.693882213030638013e+02,-2.017407769431720226e+02,-2.480451612703118371e+02,9.446745872497558594e+00,-1.109132170677185059e+00,-3.824593424797058105e-01,2.780000000000000000e+02
-3.730737394198058610e+02,-3.358634943779879904e+02,-2.618509200115154272e+02,-6.746700060473631311e+01,-3.755738748888666123e+02,-2.766067406428646791e+02,-2.078976510274192151e+02,-2.513175876923073702e+02,9.446745872497558594e+00,-1.109132170677185059e+00,-3.824593424797058105e-01,2.790000000000000000e+02
-3.782294035814106792e+02,-3.395564095276163243e+02,-2.661818603507540502e+02,-6.927132122505508960e+01,-3.793096076354136130e+02,-2.815272270006234976e+02,-2.143115793742658752e+02,-2.510673735235150161e+02,9.446745872497558594e+00,-1.109132170677185059e+00,-3.824593424797058105e-01,2.800000000000000000e+02
-3.808670826561310605e+02,-3.442067382536342848e+02,-2.662979753588042513e+02,-7.154531361320869109e+01,-3.798271541347066886e+02,-2.850885408566637125e+02,-2.197996871236450716e+02,-2.486962340027134815e+02,9.446745872497558594e+00,-1.109132170677185059e+00,-3.824593424797058105e-01,2.810000000000000000e+02
-3.815604976407676077e+02,-3.491669301103825092e+02,-2.636115244581537809e+02,-7.440956144606252565e+01,-3.778727145435796047e+02,-2.881887972663098481e+02,-2.230547081734675885e+02,-2.457812106846486131e+02,9.446745872497558594e+00,-1.109132170677185059e+00,-3.824593424797058105e-01,2.820000000000000000e+02
-3.816621079174169608e+02,-3.532639431106649681e+02,-2.602047529016831504e+02,-7.641793586905487246e+01,-3.742766177565881662e+02,-2.909871112535138309e+02,-2.232048650985093445e+02,-2.429027742596622375e+02,9.446745872497558594e+00,-1.109132170677185059e+00,-3.824593424797058105e-01,2.830000000000000000e+02
-3.823270356197840556e+02,-3.558212675944382681e+02,-2.571370013392938745e+02,-7.587747576847641540e+01,-3.695864052802226070e+02,-2.929625610792736552e+02,-2.203394896909539966e+02,-2.394373787140866625e+02,9.446745872497558594e+00,-1.109132170677185059e+00,-3.824593424797058105e-01,2.840000000000000000e+02
-3.838750659788483972e+02,-3.570838918823515087e+02,-2.539916063430487156e+02,-7.237639721841333085e+01,-3.641691919343720656e+02,-2.935370815519017924e+02,-2.155290841319047104e+02,-2.344019828079185572e+02,9.446745872497558594e+00,-1.109132170677185059e+00,-3.824593424797058105e-01,2.850000000000000000e+02
-3.858976332903898765e+02,-3.577574188840530951e+02,-2.499510685185964576e+02,-6.710428113505031433e+01,-3.585213729948104628e+02,-2.925948463513950628e+02,-2.102304963353371932e+02,-2.275928438698852005e+02,9.446745872497558594e+00,-1.109132170677185059e+00,-3.824593424797058105e-01,2.860000000000000000e+02
-3.877960122390363722e+02,-3.581866459916013810e+02,-2.451700278520461325e+02,-6.176291737011524674e+01,-3.534003071489623835e+02,-2.904668747604587224e+02,-2.055095869506012605e+02,-2.200595911809541576e+02,9.446745872497558594e+00,-1.109132170677185059e+00,-3.824593424797058105e-01,2.870000000000000000e+02
-3.891731248902719926e+02,-3.579370297349692009e+02,-2.409911911280787535e+02,-5.716739953796741247e+01,-3.496111904379822590e+02,-2.875376669491774919e+02,-2.016628136785470815e+02,-2.135394699012804267e+02,9.446745872497558594e+00,-1.109132170677185059e+00,-3.824593424797058105e-01,2.880000000000000000e+02
-3.898551376347821815e+02,-3.560998544046133247e+02,-2.388143197965750915e+02,-5.280821551182680196e+01,-3.476270360217425832e+02,-2.839661018037650138e+02,-1.984392120386366969e+02,-2.093477711224907125e+02,9.446745872497558594e+00,-1.109132170677185059e+00,-3.824593424797058105e-01,2.890000000000000000e+02
-3.897694326182057694e+02,-3.520095964865083715e+02,-2.388008490589390931e+02,-4.761669491946167909e+01,-3.473323574653378500e+02,-2.797739405725865254e+02,-1.954857980627791676e+02,-2.076042036801726454e+02,9.446745872497558594e+00,-1.109132170677185059e+00,-3.824593424797058105e-01,2.900000000000000000e+02
-3.889583861286115507e+02,-3.458164763201223195e+02,-2.396948421133711236e+02,-4.107454743103835426e+01,-3.480539941601778082e+02,-2.751162574547875010e+02,-1.925230463362713635e+02,-2.073295178451069205e+02,9.484992027282714844e+00,-1.070886254310607910e+00,-3.059675097465515137e-01,2.910000000000000000e+02
-3.876799795625204297e+02,-3.385636172957055123e+02,-2.398424442231553257e+02,-3.364583474522169126e+01,-3.488437136504029468e+02,-2.703997321752037806e+02,-1.891890308789884330e+02,-2.072164501975782969e+02,9.484992027282714844e+00,-1.070886254310607910e+00,-3.059675097465515137e-01,2.920000000000000000e+02
-3.863284696578997455e+02,-3.317736471121053228e+02,-2.383182843334020617e+02,-2.627846434287221200e+01,-3.488224205208781541e+02,-2.661261880420704529e+02,-1.849367430873655849e+02,-2.064030746558785268e+02,9.484992027282714844e+00,-1.070886254310607910e+00,-3.059675097465515137e-01,2.930000000000000000e+02
-3.851027064489529721e+02,-3.267934000480945542e+02,-2.351248221995092536e+02,-1.961279538551275436e+01,-3.474113090002874742e+02,-2.626490063129153896e+02,-1.793177524827108300e+02,-2.047347525281953722e+02,9.484992027282714844e+00,-1.070886254310607910e+00,-3.059675097465515137e-01,2.940000000000000000e+02
-3.837398312646670320e+02,-3.242013715327708496e+02,-2.305416873623184983e+02,-1.366160739965562243e+01,-3.443834478303856486e+02,-2.600577520262590951e+02,-1.724812770514606655e+02,-2.025056828847543784e+02,9.484992027282714844e+00,-1.070886254310607910e+00,-3.059675097465515137e-01,2.950000000000000000e+02
-3.816837774556532850e+02,-3.235476244219405544e+02,-2.246079821617468042e+02,-8.141735098886783817e+00,-3.398139024122783667e+02,-2.582225977136934034e+02,-1.653799411424956816e+02,-2.000406285963473465e+02,9.484992027282714844e+00,-1.070886254310607910e+00,-3.059675097465515137e-01,2.960000000000000000e+02
-3.786368063423353760e+02,-3.235850147049377483e+02,-2.174052069658971504e+02,-3.001214010012972722e+00,-3.340323400706083703e+02,-2.568743655094972382e+02,-1.593775295533328062e+02,-1.974369804790991338e+02,9.484992027282714844e+00,-1.070886254310607910e+00,-3.059675097465515137e-01,2.970000000000000000e+02
-3.750023739803705212e+02,-3.229218408581018593e+02,-2.097010042162265790e+02,1.449894277035582490e+00,-3.275601829589181762e+02,-2.556061780757081578e+02,-1.554828712409412219e+02,-1.944864701265416898e+02,9.484992027282714844e+00,-1.070886254310607910e+00,-3.059675097465515137e-01,2.980000000000000000e+02
-3.717599386751085149e+02,-3.207531211464181524e+02,-2.029554599681786158e+02,4.947563063255074667e+00,-3.209387684007890584e+02,-2.538341753227200570e+02,-1.537639258214431948e+02,-1.906405173057137290e+02,9.484992027282714844e+00,-1.070886254310607910e+00,-3.059675097465515137e-01,2.990000000000000000e+02
-3.698046233500514290e+02,-3.172284018123229998e+02,-1.983510546347948775e+02,7.795995594567557418e+00,-3.144334496420794949e+02,-2.508533736570932433e+02,-1.533220758668761619e+02,-1.850387232519694862e+02,9.484992027282714844e+00,-1.070886254310607910e+00,-3.059675097465515137e-01,3.000000000000000000e+02
-3.692938380009503589e+02,-3.132370924154805607e+02,-1.956674596007904938e+02,1.091699727393279318e+01,-3.078135933538579820e+02,-2.460770727610547510e+02,-1.527671135983077875e+02,-1.768044659361936510e+02,9.484992027282714844e+00,-1.070886254310607910e+00,-3.059675097465515137e-01,3.010000000000000000e+02
-3.695478472283269866e+02,-3.097959113692680830e+02,-1.931910305238396859e+02,1.523971431328072867e+01,-3.005067880618782965e+02,-2.393960443906719320e+02,-1.508541208776628082e+02,-1.656721195757934311e+02,9.484992027282714844e+00,-1.070886254310607910e+00,-3.059675097465515137e-01,3.020000000000000000e+02
-3.695585270419228436e+02,-3.074844037487903279e+02,-1.889430642887747354e+02,2.088875776404415774e+01,-2.921815379570650748e+02,-2.314253335155092373e+02,-1.469827485985701969e+02,-1.526087942022287507e+02,9.484992027282714844e+00,-1.070886254310607910e+00,-3.059675097465515137e-01,3.030000000000000000e+02
-3.686544614171073135e+02,-3.062538648033042818e+02,-1.822270379994398581e+02,2.692136293907492472e+01,-2.833672860744776472e+02,-2.233938161821176891e+02,-1.414148031997533508e+02,-1.398470979919738966e+02,9.484992027282714844e+00,-1.070886254310607910e+00,-3.059675097465515137e-01,3.040000000000000000e+02
-3.668018929592998347e+02,-3.055939980158150320e+02,-1.741349095470422981e+02,3.198205164513569798e+01,-2.755046525052218840e+02,-2.166151031391264041e+02,-1.351384728141026699e+02,-1.300397565870691778e+02,9.484992027282714844e+00,-1.070886254310607910e+00,-3.059675097465515137e-01,3.050000000000000000e+02
-3.643988702144113745e+02,-3.048291521116087779e+02,-1.666384388580348741e+02,3.539316231653288014e+01,-2.702184895424197748e+02,-2.118289436082243355e+02,-1.294011735477108687e+02,-1.249548196820134081e+02,9.484992027282714844e+00,-1.070886254310607910e+00,-3.059675097465515137e-01,3.060000000000000000e+02
-3.618385514748150626e+02,-3.033782379947630261e+02,-1.611458278960632242e+02,3.770203790842674607e+01,-2.682769395139687276e+02,-2.088869589156638540e+02,-1.250635942488796672e+02,-1.245999195289257386e+02,9.484992027282714844e+00,-1.070886254310607910e+00,-3.059675097465515137e-01,3.070000000000000000e+02
-3.592350284060649983e+02,-3.009699618024719712e+02,-1.577626898040359720e+02,4.011768005487056143e+01,-2.690536012971599575e+02,-2.070465754140982426e+02,-1.221246736621744731e+02,-1.274150946512379505e+02,9.484992027282714844e+00,-1.070886254310607910e+00,-3.059675097465515137e-01,3.080000000000000000e+02
-3.565008494597914250e+02,-2.977913323801584511e+02,-1.556888042469529410e+02,4.331116812547293193e+01,-2.709459649456275656e+02,-2.056395915184884871e+02,-1.197644801215739108e+02,-1.313314785436848524e+02,9.484992027282714844e+00,-1.070886254310607910e+00,-3.059675097465515137e-01,3.090000000000000000e+02
-3.536400734766991150e+02,-2.944482469776926337e+02,-1.541133010221910808e+02,4.672276182864061411e+01,-2.724143045253484843e+02,-2.045448667040407145e+02,-1.169618962695608388e+02,-1.348588528254247194e+02,9.484992027282714844e+00,-1.070886254310607910e+00,-3.059675097465515137e-01,3.100000000000000000e+02
-3.509688005530704231e+02,-2.916464501151693867e+02,-1.527202249841647017e+02,4.909266336704149580e+01,-2.728024298642778831e+02,-2.040654213865673228e+02,-1.133051419406853029e+02,-1.374600034723363251e+02,9.484992027282714844e+00,-1.070886254310607910e+00,-3.059675097465515137e-01,3.110000000000000000e+02
-3.490584961644858595e+02,-2.897424537224063670e+02,-1.515350286150835473e+02,4.975244719706392971e+01,-2.723426433480342439e+02,-2.043861463222433485e+02,-1.094061429846864257e+02,-1.391633700318070055e+02,9.484992027282714844e+00,-1.070886254310607910e+00,-3.824593424797058105e-01,3.120000000000000000e+02
-3.484095611585100869e+02,-2.885532821957564806e+02,-1.505722230578307972e+02,4.940742688726459164e+01,-2.715015174705067693e+02,-2.051941768260828667e+02,-1.066029816286063578e+02,-1.400285599130184551e+02,9.484992027282714844e+00,-1.070886254310607910e+00,-3.824593424797058105e-01,3.130000000000000000e+02
-3.490577722324287606e+02,-2.876699914122166319e+02,-1.498150764732852167e+02,4.957793265838517982e+01,-2.703668457888612124e+02,-2.058721395055238190e+02,-1.061545341093425350e+02,-1.400420466807958064e+02,9.484992027282714844e+00,-1.070886254310607910e+00,-3.824593424797058105e-01,3.140000000000000000e+02
-3.504322047579867103e+02,-2.870353409058258194e+02,-1.495319835596488929e+02,5.116304226841020864e+01,-2.686862161060804510e+02,-2.060746233818354085e+02,-1.085055803641386092e+02,-1.394651332216838000e+02,9.484992027282714844e+00,-1.070886254310607910e+00,-3.824593424797058105e-01,3.150000000000000000e+02
-3.516712075181360433e+02,-2.871988073380136370e+02,-1.504697055141048168e+02,5.346104784514636776e+01,-2.665176568818795317e+02,-2.061014217254257801e+02,-1.131063897595187200e+02,-1.391311106563181852e+02,9.484992027282714844e+00,-1.070886254310607910e+00,-3.824593424797058105e-01,3.160000000000000000e+02
-3.522511897917003694e+02,-2.889238005140078940e+02,-1.535533699287748277e+02,5.456968778360374017e+01,-2.648544966194374979e+02,-2.067064391565265851e+02,-1.188605963569373216e+02,-1.402527243086108228e+02,9.484992027282714844e+00,-1.070886254310607910e+00,-3.824593424797058105e-01,3.170000000000000000e+02
-3.524759702591544510e+02,-2.925152832593174139e+02,-1.592789853684714672e+02,5.277473024979940419e+01,-2.655626344294133787e+02,-2.085499601687524773e+02,-1.248706094440500465e+02,-1.438561037596263077e+02,9.484992027282714844e+00,-1.070886254310607910e+00,-3.824593424797058105e-01,3.180000000000000000e+02
-3.533937900841777946e+02,-2.975833963445176096e+02,-1.673289080934537196e+02,4.764795725426529316e+01,-2.705129452077125620e+02,-2.118315922266053803e+02,-1.310037336032449957e+02,-1.503354278333074490e+02,9.484992027282714844e+00,-1.070886254310607910e+00,-3.824593424797058105e-01,3.190000000000000000e+02
-3.560966922402136561e+02,-3.035456533020785628e+02,-1.767440023870453842e+02,3.994684145530482056e+01,-2.804482384799004535e+02,-2.164123169036754462e+02,-1.379468195816477873e+02,-1.594711359722725774e+02,9.484992027282714844e+00,-1.070886254310607910e+00,-3.824593424797058105e-01,3.200000000000000000e+02
-3.608923371761159160e+02,-3.103514100885844300e+02,-1.865009335741606264e+02,3.059867647686019154e+01,-2.944029046705298924e+02,-2.222265467009772237e+02,-1.467148128198534778e+02,-1.707715157738755920e+02,9.484992027282714844e+00,-1.070886254310607910e+00,-3.824593424797058105e-01,3.210000000000000000e+02
-3.670284409923293083e+02,-3.185806694167573028e+02,-1.960232845264920343e+02,1.986641311406333443e+01,-3.101139795677283928e+02,-2.295063249263100715e+02,-1.578653551224374496e+02,-1.836983635794437646e+02,9.484992027282714844e+00,-1.070886254310607910e+00,-3.824593424797058105e-01,3.220000000000000000e+02
-3.732508632518875515e+02,-3.286852188020616836e+02,-2.052705519399344212e+02,7.487156729830303448e+00,-3.251352332014666331e+02,-2.385583320182955731e+02,-1.708813021776549022e+02,-1.975617421917060597e+02,9.484992027282714844e+00,-1.070886254310607910e+00,-3.824593424797058105e-01,3.230000000000000000e+02
-3.787712602125078547e+02,-3.400823452680181731e+02,-2.144374545515918271e+02,-6.469524592758261861e+00,-3.378721596286075624e+02,-2.492972466276490877e+02,-1.841716353505305506e+02,-2.113177416157106450e+02,9.484992027282714844e+00,-1.070886254310607910e+00,-3.824593424797058105e-01,3.240000000000000000e+02
-3.838023501428099280e+02,-3.510614403301350990e+02,-2.235436774214773550e+02,-2.094344318351454604e+01,-3.478659734274481252e+02,-2.609614076025702616e+02,-1.958090509879424417e+02,-2.236548084974725725e+02,9.484992027282714844e+00,-1.070886254310607910e+00,-3.824593424797058105e-01,3.250000000000000000e+02
-3.891611026316734296e+02,-3.597225147981829991e+02,-2.322140164551382213e+02,-3.408249492854270102e+01,-3.553234084598876734e+02,-2.722814710426620195e+02,-2.046212597473285086e+02,-2.334547488932830674e+02,9.484992027282714844e+00,-1.070886254310607910e+00,-3.824593424797058105e-01,3.260000000000000000e+02
-3.952775296084582806e+02,-3.651516969911338606e+02,-2.397710704371216934e+02,-4.412903655234435973e+01,-3.604938833558945817e+02,-2.820008426275187503e+02,-2.108999693148102779e+02,-2.402935470626158576e+02,9.484992027282714844e+00,-1.070886254310607910e+00,-3.824593424797058105e-01,3.270000000000000000e+02
-4.015186723261254542e+02,-3.678039673001522942e+02,-2.455486467700160347e+02,-5.026623029209508786e+01,-3.635031740529612421e+02,-2.893865814249086270e+02,-2.161291557766751339e+02,-2.445790403241729791e+02,9.484992027282714844e+00,-1.070886254310607910e+00,-3.824593424797058105e-01,3.280000000000000000e+02
-4.064768290549693006e+02,-3.688390898225058550e+02,-2.492368352456072671e+02,-5.283547042528925886e+01,-3.646830117143584857e+02,-2.944133615871836582e+02,-2.218033394924478898e+02,-2.472186379356750763e+02,9.484992027282714844e+00,-1.070886254310607910e+00,-3.824593424797058105e-01,3.290000000000000000e+02
-4.090044912266263282e+02,-3.691208404340408151e+02,-2.510404674152981670e+02,-5.290448819161088068e+01,-3.648579633832786158e+02,-2.975570275452676015e+02,-2.281492006583845296e+02,-2.490635022393544205e+02,9.484992027282714844e+00,-1.070886254310607910e+00,-3.824593424797058105e-01,3.300000000000000000e+02
-4.090840209881707210e+02,-3.687951004139010820e+02,-2.515154546007065619e+02,-5.161022257681884184e+01,-3.650597397665574135e+02,-2.994036144491818732e+02,-2.337432113572481285e+02,-2.504825645215131544e+02,9.484992027282714844e+00,-1.070886254310607910e+00,-3.824593424797058105e-01,3.310000000000000000e+02
-4.077635062923779969e+02,-3.676694183600510542e+02,-2.511683554780184977e+02,-4.971368207972159325e+01,-3.657696620353823391e+02,-3.003608400525229172e+02,-2.364260842444192576e+02,-2.512603950586406540e+02,9.484992027282714844e+00,-1.070886254310607910e+00,-3.824593424797058105e-01,3.320000000000000000e+02
-4.062458062802426184e+02,-3.658228500068717608e+02,-2.501039789783184233e+02,-4.752796522033327165e+01,-3.663648431335242321e+02,-3.006058764896254161e+02,-2.348884198564555845e+02,-2.507913690414351322e+02,9.484992027282714844e+00,-1.070886254310607910e+00,-3.824593424797058105e-01,3.330000000000000000e+02
-4.049789990084197484e+02,-3.637726731590903455e+02,-2.480285192241890400e+02,-4.509727098222901986e+01,-3.653934098105191879e+02,-3.001816890955651616e+02,-2.297203248319679005e+02,-2.484395555915697287e+02,9.484992027282714844e+00,-1.070886254310607910e+00,-3.824593424797058105e-01,3.340000000000000000e+02
-4.035447986744745208e+02,-3.620896693881633155e+02,-2.446472789961687795e+02,-4.240460406136025995e+01,-3.615796049197788307e+02,-2.990485869240890224e+02,-2.230874434618574469e+02,-2.439107253526441923e+02,9.484992027282714844e+00,-1.070886254310607910e+00,-3.824593424797058105e-01,3.350000000000000000e+02
-4.013588081366872302e+02,-3.609180204199603281e+02,-2.401191591497507716e+02,-3.945266640867589558e+01,-3.547754366555188881e+02,-2.970197646185381473e+02,-2.172556089298499273e+02,-2.374468066414360123e+02,9.484992027282714844e+00,-1.070886254310607910e+00,-3.824593424797058105e-01,3.360000000000000000e+02
-3.984050180144222963e+02,-3.598826598952583709e+02,-2.351025901527387987e+02,-3.622506931708585398e+01,-3.460813104560008355e+02,-2.937381481612708285e+02,-2.131102607468130827e+02,-2.297149471011155697e+02,9.408499717712402344e+00,-1.032640218734741211e+00,-3.824593424797058105e-01,3.370000000000000000e+02
-3.952359210505291571e+02,-3.584267947735033317e+02,-2.302439686592970247e+02,-3.265065864448888533e+01,-3.370477620649846813e+02,-2.888757088894996059e+02,-2.097894001412042826e+02,-2.214676912162721010e+02,9.408499717712402344e+00,-1.032640218734741211e+00,-3.824593424797058105e-01,3.380000000000000000e+02
-3.922624196535461465e+02,-3.562272496009509837e+02,-2.255377639765799813e+02,-2.870210056173164048e+01,-3.286760092726987068e+02,-2.825259188272574420e+02,-2.056494391348179533e+02,-2.132682859590897237e+02,9.408499717712402344e+00,-1.032640218734741211e+00,-3.824593424797058105e-01,3.390000000000000000e+02
-3.891154874215820314e+02,-3.533532853430743330e+02,-2.202136036148212952e+02,-2.459400843044249996e+01,-3.210329699835499468e+02,-2.754781588910924484e+02,-1.996905869376437295e+02,-2.055210474969182997e+02,9.408499717712402344e+00,-1.032640218734741211e+00,-3.824593424797058105e-01,3.400000000000000000e+02
-3.848443182219539267e+02,-3.501033874258682772e+02,-2.134047040234580663e+02,-2.084569407784931627e+01,-3.136673243279009284e+02,-2.690096912836189631e+02,-1.922528964193267029e+02,-1.986725950746491094e+02,9.408499717712402344e+00,-1.032640218734741211e+00,-3.824593424797058105e-01,3.410000000000000000e+02
-3.788860162279177075e+02,-3.466615277618327582e+02,-2.050883192796752610e+02,-1.795453350850470997e+01,-3.062772149232496304e+02,-2.641459791123484138e+02,-1.844711301191719031e+02,-1.931544018611114097e+02,9.408499717712402344e+00,-1.032640218734741211e+00,-3.824593424797058105e-01,3.420000000000000000e+02
-3.719261547940668606e+02,-3.428076209491317741e+02,-1.964179871079915074e+02,-1.574909379259020170e+01,-2.989431440255179950e+02,-2.608237097698531670e+02,-1.770559898069193423e+02,-1.888830706657984138e+02,9.408499717712402344e+00,-1.032640218734741211e+00,-3.824593424797058105e-01,3.430000000000000000e+02
-3.657546066117861301e+02,-3.378868877579358241e+02,-1.890321681459830643e+02,-1.296001667458801876e+01,-2.918059297510651504e+02,-2.576246344671698125e+02,-1.695633907781694916e+02,-1.847908748286729974e+02,9.408499717712402344e+00,-1.032640218734741211e+00,-3.824593424797058105e-01,3.440000000000000000e+02
-3.620619391749653460e+02,-3.311429851069879078e+02,-1.838536714882410479e+02,-7.617806298504319784e+00,-2.847028069680441149e+02,-2.524610370028151465e+02,-1.608599579625969227e+02,-1.791574612998181806e+02,9.408499717712402344e+00,-1.032640218734741211e+00,-3.824593424797058105e-01,3.450000000000000000e+02
-3.610917289588198855e+02,-3.223128421061037443e+02,-1.804209404555299443e+02,1.685371955158416313e+00,-2.772977517898826818e+02,-2.439292251759204646e+02,-1.504032789921832318e+02,-1.709310298067823055e+02,9.408499717712402344e+00,-1.032640218734741211e+00,-3.824593424797058105e-01,3.460000000000000000e+02
-3.612608481064550006e+02,-3.121070933843949433e+02,-1.773412969928156144e+02,1.445992554783583728e+01,-2.696347357168397139e+02,-2.324592753071833613e+02,-1.391681612622303419e+02,-1.611004687435543588e+02,9.408499717712402344e+00,-1.032640218734741211e+00,-3.824593424797058105e-01,3.470000000000000000e+02
-3.601261017978738437e+02,-3.021319628212816042e+02,-1.734312472898219539e+02,2.803619184312287871e+01,-2.624598359556448486e+02,-2.203716493871442026e+02,-1.292978632589901054e+02,-1.527161096093626611e+02,9.408499717712402344e+00,-1.032640218734741211e+00,-3.824593424797058105e-01,3.480000000000000000e+02
-3.559837499265661336e+02,-2.941442696613834187e+02,-1.685047085342891933e+02,3.879606528496833562e+01,-2.568020413002465148e+02,-2.106424209198195285e+02,-1.226595214594835852e+02,-1.490760794242169140e+02,9.408499717712402344e+00,-1.032640218734741211e+00,-3.824593424797058105e-01,3.490000000000000000e+02
-3.489061754633455621e+02,-2.891040298573566361e+02,-1.631732267685379156e+02,4.417277115471188154e+01,-2.530748531936557129e+02,-2.051433175261593078e+02,-1.194688285649339150e+02,-1.512641711891715204e+02,9.408499717712402344e+00,-1.032640218734741211e+00,-3.824593424797058105e-01,3.500000000000000000e+02
-3.405083242876333998e+02,-2.867271578942926453e+02,-1.580131516547386354e+02,4.399628049844841371e+01,-2.505515885286406501e+02,-2.035922016417541727e+02,-1.181364562627611576e+02,-1.570610671578839401e+02,9.408499717712402344e+00,-1.032640218734741211e+00,-3.824593424797058105e-01,3.510000000000000000e+02
-3.327480145209603961e+02,-2.858527599782987636e+02,-1.530372740040475037e+02,4.028319036613197568e+01,-2.478034199269812916e+02,-2.039565725023330742e+02,-1.164440496853712830e+02,-1.622763926913681871e+02,9.408499717712402344e+00,-1.032640218734741211e+00,-3.824593424797058105e-01,3.520000000000000000e+02
-3.267487698631537114e+02,-2.852419178643315263e+02,-1.479828173299032414e+02,3.584470321520143443e+01,-2.437708466018186755e+02,-2.039108072537328553e+02,-1.130421906561543892e+02,-1.635228223051135501e+02,9.408499717712402344e+00,-1.032640218734741211e+00,-3.824593424797058105e-01,3.530000000000000000e+02
-3.224528462678077858e+02,-2.841172836163906368e+02,-1.429787785839370144e+02,3.291373818950319219e+01,-2.384945893840182407e+02,-2.021538676767559082e+02,-1.080806944655580537e+02,-1.602234234487759750e+02,9.408499717712402344e+00,-1.032640218734741211e+00,-3.824593424797058105e-01,3.540000000000000000e+02
-3.191493561467196969e+02,-2.821255514122683508e+02,-1.387221710687865652e+02,3.265070504135633200e+01,-2.328652680130101089e+02,-1.986602725758680208e+02,-1.026562811833694013e+02,-1.543989918036332938e+02,9.408499717712402344e+00,-1.032640218734741211e+00,-3.824593424797058105e-01,3.550000000000000000e+02
-3.162358244539202587e+02,-2.790498639672757690e+02,-1.358375261615931322e+02,3.536893377298201813e+01,-2.277043155616975127e+02,-1.939921022914547848e+02,-9.780053022122899620e+01,-1.487333484797920846e+02,9.408499717712402344e+00,-1.032640218734741211e+00,-3.824593424797058105e-01,3.560000000000000000e+02
-3.135505109034293127e+02,-2.747957032431299922e+02,-1.340762774252374356e+02,4.074848924652678761e+01,-2.230986285436991921e+02,-1.886023774100897299e+02,-9.396538483349934268e+01,-1.447349705844636674e+02,9.408499717712402344e+00,-1.032640218734741211e+00,-3.824593424797058105e-01,3.570000000000000000e+02
-3.111522720290963662e+02,-2.697109705321817046e+02,-1.323024896138412032e+02,4.771676433604079648e+01,-2.185537438808667048e+02,-1.827867766920226131e+02,-9.124651562079259293e+01,-1.423443251948822308e+02,9.408499717712402344e+00,-1.032640218734741211e+00,-3.824593424797058105e-01,3.580000000000000000e+02
-3.089348432337658323e+02,-2.647284929461185357e+02,-1.294600187522333954e+02,5.446578176197544963e+01,-2.136591143500768339e+02,-1.770225126665654898e+02,-8.976682954179489116e+01,-1.407854529921668245e+02,9.408499717712402344e+00,-1.032640218734741211e+00,-3.824593424797058105e-01,3.590000000000000000e+02
-3.065119952077088783e+02,-2.608734695081882364e+02,-1.256695765087874861e+02,5.917217017526013478e+01,-2.085325366139853713e+02,-1.719476808545891799e+02,-8.959842390146275193e+01,-1.394703606435176653e+02,9.408499717712402344e+00,-1.032640218734741211e+00,-3.824593424797058105e-01,3.600000000000000000e+02
-3.034630793138331910e+02,-2.583845106463312504e+02,-1.223339938903969824e+02,6.117925004723269922e+01,-2.036859128485833708e+02,-1.677686746019644488e+02,-9.029326757110197832e+01,-1.381506657498671302e+02,9.408499717712402344e+00,-1.032640218734741211e+00,-3.824593424797058105e-01,3.610000000000000000e+02
-2.996723254400345695e+02,-2.562879073069738070e+02,-1.210060150198548854e+02,6.161041326923441375e+01,-1.996324509336362780e+02,-1.637966553154906251e+02,-9.068745518648154302e+01,-1.366071184410238857e+02,9.408499717712402344e+00,-1.032640218734741211e+00,-3.824593424797058105e-01,3.620000000000000000e+02
-2.954335191685622704e+02,-2.530241940002688352e+02,-1.219660660721980321e+02,6.260866949824026051e+01,-1.967231099567600268e+02,-1.589213232179056376e+02,-8.943768195764835127e+01,-1.346559119664314039e+02,9.408499717712402344e+00,-1.032640218734741211e+00,-3.824593424797058105e-01,3.630000000000000000e+02
-2.912453881313908823e+02,-2.477571328129240555e+02,-1.238063424092235891e+02,6.561313796074909988e+01,-1.952451560879214867e+02,-1.528407036347655321e+02,-8.593468510342540867e+01,-1.325969063141033075e+02,9.484992027282714844e+00,-1.109132170677185059e+00,-4.207052886486053467e-01,3.640000000000000000e+02
-2.874924155912156039e+02,-2.412482870371147783e+02,-1.244211872855942147e+02,7.013048348446295677e+01,-1.953678228608857808e+02,-1.468261410675356728e+02,-8.074901929499060316e+01,-1.313974497948084945e+02,9.484992027282714844e+00,-1.109132170677185059e+00,-4.207052886486053467e-01,3.650000000000000000e+02
-2.842529487171265146e+02,-2.354738919537733182e+02,-1.225307812488497348e+02,7.412261987443253020e+01,-1.967484249439597761e+02,-1.430108882786157665e+02,-7.517280916889183118e+01,-1.320368221861267557e+02,9.484992027282714844e+00,-1.109132170677185059e+00,-4.207052886486053467e-01,3.660000000000000000e+02
-2.813180450260435919e+02,-2.322406355524442461e+02,-1.184299099145351875e+02,7.568562425296386209e+01,-1.982030029052961027e+02,-1.426055345447180116e+02,-7.027586502571125493e+01,-1.344094746349467187e+02,9.484992027282714844e+00,-1.109132170677185059e+00,-4.207052886486053467e-01,3.670000000000000000e+02
-2.783636396112203784e+02,-2.319298360728270154e+02,-1.134235343273483068e+02,7.454822534384652499e+01,-1.980186994737559871e+02,-1.446360340928083588e+02,-6.631530499922598665e+01,-1.369008356556986428e+02,9.484992027282714844e+00,-1.109132170677185059e+00,-4.207052886486053467e-01,3.680000000000000000e+02
-2.751761856607339496e+02,-2.333503058261006800e+02,-1.086506011093979396e+02,7.213209238898866715e+01,-1.949324092480800346e+02,-1.464669973763845974e+02,-6.295494296612525886e+01,-1.373184126146842345e+02,9.484992027282714844e+00,-1.109132170677185059e+00,-4.207052886486053467e-01,3.690000000000000000e+02
-2.718164916616040045e+02,-2.346782583718744490e+02,-1.044639789534209058e+02,7.028780718284497198e+01,-1.890632531255741924e+02,-1.457442936442132577e+02,-5.995092192577851620e+01,-1.345623758794509968e+02,9.484992027282714844e+00,-1.109132170677185059e+00,-4.207052886486053467e-01,3.700000000000000000e+02
-2.686088584300225648e+02,-2.346117121947643227e+02,-1.008099640341339409e+02,6.994865575072776664e+01,-1.819564079808428687e+02,-1.420674308684997413e+02,-5.755659586988065257e+01,-1.295645105552042651e+02,9.484992027282714844e+00,-1.109132170677185059e+00,-4.207052886486053467e-01,3.710000000000000000e+02
-2.659135073576861714e+02,-2.328833036163453016e+02,-9.796904118479699264e+01,7.080851434091323426e+01,-1.756223806590056711e+02,-1.370005935944632256e+02,-5.628668300035815264e+01,-1.246168375316889296e+02,9.484992027282714844e+00,-1.109132170677185059e+00,-4.207052886486053467e-01,3.720000000000000000e+02
-2.638060819911806902e+02,-2.300122591797311316e+02,-9.666252605528552522e+01,7.202782461245692502e+01,-1.713132256463399017e+02,-1.325797958237053535e+02,-5.633008662412714784e+01,-1.216534471241575375e+02,9.484992027282714844e+00,-1.109132170677185059e+00,-4.207052886486053467e-01,3.730000000000000000e+02
-2.619282813915202723e+02,-2.267667180320474927e+02,-9.727851041548251487e+01,7.308975524724542083e+01,-1.689449622027120768e+02,-1.297339388266811966e+02,-5.715381677126890736e+01,-1.209397015825261406e+02,9.484992027282714844e+00,-1.109132170677185059e+00,-4.207052886486053467e-01,3.740000000000000000e+02
-2.597069814509784464e+02,-2.237892781034794325e+02,-9.905361585541959357e+01,7.402176022303115133e+01,-1.674788115254300465e+02,-1.279072560391052775e+02,-5.764461292893179234e+01,-1.212117504438608648e+02,9.484992027282714844e+00,-1.109132170677185059e+00,-4.207052886486053467e-01,3.750000000000000000e+02
-2.568179166875938790e+02,-2.214430973493490455e+02,-1.002386589243045592e+02,7.500479083618347431e+01,-1.658165856847233499e+02,-1.259466774668242124e+02,-5.669305840438619271e+01,-1.209840291417351636e+02,9.484992027282714844e+00,-1.109132170677185059e+00,-4.207052886486053467e-01,3.760000000000000000e+02
-2.534861104922379127e+02,-2.197143151064756239e+02,-9.934197930114123665e+01,7.597366016916544140e+01,-1.635092570655581312e+02,-1.232615414733413672e+02,-5.386011391921510949e+01,-1.198066773911305063e+02,9.484992027282714844e+00,-1.109132170677185059e+00,-4.207052886486053467e-01,3.770000000000000000e+02
-2.503167043798166560e+02,-2.181788022588693821e+02,-9.636551154928622509e+01,7.663683248494066902e+01,-1.608594599185621519e+02,-1.202481486329370455e+02,-4.973372495717103448e+01,-1.184509414768053830e+02,9.484992027282714844e+00,-1.109132170677185059e+00,-4.207052886486053467e-01,3.780000000000000000e+02
-2.477814275464120328e+02,-2.162260003983849401e+02,-9.279208027928530100e+01,7.680032856023444765e+01,-1.584774136724372511e+02,-1.177662932941766485e+02,-4.570052195814014340e+01,-1.179878581992088584e+02,9.484992027282714844e+00,-1.109132170677185059e+00,-4.207052886486053467e-01,3.790000000000000000e+02
-2.458417592777877871e+02,-2.135537170154566411e+02,-9.022243282223473670e+01,7.659754008621484900e+01,-1.566608945489044800e+02,-1.162492774394393109e+02,-4.312415874998600884e+01,-1.186149107267085583e+02,9.484992027282714844e+00,-1.109132170677185059e+00,-4.207052886486053467e-01,3.800000000000000000e+02
-2.440727421120081999e+02,-2.105362392552465280e+02,-8.888961529016319218e+01,7.644720039406570322e+01,-1.550007496975133563e+02,-1.151813679892065920e+02,-4.232779994722795891e+01,-1.191753216072318082e+02,9.484992027282714844e+00,-1.109132170677185059e+00,-4.207052886486053467e-01,3.810000000000000000e+02
-2.421455738427694087e+02,-2.079849323679588906e+02,-8.747440502497397574e+01,7.689430410033469343e+01,-1.524938851969259304e+02,-1.132930342969689264e+02,-4.211014892405773935e+01,-1.177315158598589733e+02,9.484992027282714844e+00,-1.109132170677185059e+00,-4.207052886486053467e-01,3.820000000000000000e+02
-2.401504740911441331e+02,-2.063667044191881814e+02,-8.446155404444175474e+01,7.848823838244743456e+01,-1.481827585584273947e+02,-1.093292816153639251e+02,-4.038954493013238789e+01,-1.128393040748683234e+02,9.484992027282714844e+00,-1.109132170677185059e+00,-4.207052886486053467e-01,3.830000000000000000e+02
-2.384138387529792453e+02,-2.051839611439063447e+02,-7.978429754399985541e+01,8.162958146773985391e+01,-1.419649777902159258e+02,-1.029100396932922195e+02,-3.577092282344756313e+01,-1.047008867794314710e+02,9.484992027282714844e+00,-1.109132170677185059e+00,-4.207052886486053467e-01,3.840000000000000000e+02
-2.370426532799804136e+02,-2.032194347379218016e+02,-7.518827228497093529e+01,8.627233896000643654e+01,-1.349512326478732120e+02,-9.493362462411437264e+01,-2.890680097205768107e+01,-9.537421015961604098e+01,9.484992027282714844e+00,-1.109132170677185059e+00,-4.207052886486053467e-01,3.850000000000000000e+02
-2.357427615227534261e+02,-1.995541511591902690e+02,-7.292856324111289723e+01,9.163791404239805161e+01,-1.289599178859107269e+02,-8.721120098402252552e+01,-2.241126985722212339e+01,-8.774847678309674848e+01,9.484992027282714844e+00,-1.109132170677185059e+00,-4.207052886486053467e-01,3.860000000000000000e+02
-2.341436848987270878e+02,-1.944447243120557687e+02,-7.395960080707709494e+01,9.634263152432663446e+01,-1.254095299596961013e+02,-8.149051110095524564e+01,-1.914764553678492121e+01,-8.385017366819215567e+01,9.484992027282714844e+00,-1.109132170677185059e+00,-4.207052886486053467e-01,3.870000000000000000e+02
-2.322402786386323896e+02,-1.891950203002700164e+02,-7.718829349837324116e+01,9.911424536601998625e+01,-1.244300902228628729e+02,-7.847445870716228455e+01,-2.013440522635437446e+01,-8.365245671318757559e+01,9.484992027282714844e+00,-1.109132170677185059e+00,-4.207052886486053467e-01,3.880000000000000000e+02
-2.303768869188079407e+02,-1.851120958505600811e+02,-8.033494800483322251e+01,9.965182615696062385e+01,-1.249033590960436868e+02,-7.751992484512675219e+01,-2.379962648040054773e+01,-8.531625041319398406e+01,9.484992027282714844e+00,-1.109132170677185059e+00,-4.207052886486053467e-01,3.890000000000000000e+02
-2.287157070530199690e+02,-1.825465038278043721e+02,-8.153678315547108468e+01,9.883402765151254243e+01,-1.253904123687987067e+02,-7.722787490808104849e+01,-2.725436688823401710e+01,-8.671103643997366817e+01,9.484992027282714844e+00,-1.109132170677185059e+00,-4.207052886486053467e-01,3.900000000000000000e+02
-2.267970793027357104e+02,-1.809121674450634600e+02,-8.034933963241564925e+01,9.795079886087955856e+01,-1.251260844329431166e+02,-7.645087757697820052e+01,-2.849417237058924002e+01,-8.695573449005246403e+01,9.484992027282714844e+00,-1.109132170677185059e+00,-4.207052886486053467e-01,3.910000000000000000e+02
-2.238080448964842617e+02,-1.795455505575280313e+02,-7.755204967329018473e+01,9.758451087691469183e+01,-1.242451408685278693e+02,-7.491501180958221084e+01,-2.764114426995820395e+01,-8.664733767943653220e+01,9.484992027282714844e+00,-1.109132170677185059e+00,-4.207052886486053467e-01,3.920000000000000000e+02
-2.194215505675990698e+02,-1.784167738582721086e+02,-7.426028756101800354e+01,9.721776209381687295e+01,-1.231566612144283681e+02,-7.301626486463010224e+01,-2.626913671402166983e+01,-8.665903984173746721e+01,9.484992027282714844e+00,-1.109132170677185059e+00,-4.207052886486053467e-01,3.930000000000000000e+02
-2.143346684098155492e+02,-1.779367598142016504e+02,-7.122884925238645337e+01,9.599467430884851638e+01,-1.217927808316017035e+02,-7.112380039254639996e+01,-2.565203129016526873e+01,-8.680914000253119411e+01,9.484992027282714844e+00,-1.109132170677185059e+00,-4.207052886486053467e-01,3.940000000000000000e+02
-2.098150735645717759e+02,-1.781465673101236007e+02,-6.874720552519875127e+01,9.387857704718089735e+01,-1.195346025685985296e+02,-6.914171463007096463e+01,-2.567102610806409757e+01,-8.584978780021810962e+01,9.446745872497558594e+00,-1.032640218734741211e+00,-3.824593424797058105e-01,3.950000000000000000e+02
-2.065999726484951680e+02,-1.782801043753129306e+02,-6.687665168535568228e+01,9.195013554530078181e+01,-1.159134127298780186e+02,-6.676276793987017300e+01,-2.530947041658419039e+01,-8.285839357275199291e+01,9.446745872497558594e+00,-1.032640218734741211e+00,-3.824593424797058105e-01,3.960000000000000000e+02
-2.042463618676715669e+02,-1.772898923879167796e+02,-6.561711045350398308e+01,9.141479839538283159e+01,-1.113607824646237532e+02,-6.408769772583855229e+01,-2.401983766385365016e+01,-7.856643783696040373e+01,9.446745872497558594e+00,-1.032640218734741211e+00,-3.824593424797058105e-01,3.970000000000000000e+02
-2.016711427816292144e+02,-1.748561453702136532e+02,-6.489955346230885880e+01,9.228222840447688213e+01,-1.071757631605105416e+02,-6.184349141918710302e+01,-2.242901087123436810e+01,-7.505549329867039887e+01,9.446745872497558594e+00,-1.032640218734741211e+00,-3.824593424797058105e-01,3.980000000000000000e+02
-1.984079630320263732e+02,-1.718049025705208805e+02,-6.456130075854593997e+01,9.317684676684325495e+01,-1.046151339720045144e+02,-6.079744340647403078e+01,-2.164251513588419584e+01,-7.385162243876879984e+01,9.446745872497558594e+00,-1.032640218734741211e+00,-3.824593424797058105e-01,3.990000000000000000e+02
-1.952766552013099499e+02,-1.694095099245407710e+02,-6.440675438658445273e+01,9.268200433602078192e+01,-1.038693561649533876e+02,-6.082829947952268412e+01,-2.192337223109461775e+01,-7.419712146242522977e+01,9.446745872497558594e+00,-1.032640218734741211e+00,-3.824593424797058105e-01,4.000000000000000000e+02
-1.936808395373816438e+02,-1.681999206350269560e+02,-6.427102786215436936e+01,9.098090211488965906e+01,-1.038614944671128342e+02,-6.062870625906361965e+01,-2.218036528737570734e+01,-7.335324416257071789e+01,9.446745872497558594e+00,-1.032640218734741211e+00,-3.824593424797058105e-01,4.010000000000000000e+02
-1.941641139504592957e+02,-1.674405694393260546e+02,-6.402261603985016336e+01,9.005739562239591578e+01,-1.031330206101033582e+02,-5.855328524479728003e+01,-2.086309382157196524e+01,-6.895888698626367841e+01,9.446745872497558594e+00,-1.032640218734741211e+00,-3.824593424797058105e-01,4.020000000000000000e+02
-1.956993711119150703e+02,-1.657889796403414948e+02,-6.357332166315700306e+01,9.202296340112616235e+01,-1.011108178864635647e+02,-5.403056943717820104e+01,-1.742597001870990425e+01,-6.142930066340295525e+01,9.446745872497558594e+00,-1.032640218734741211e+00,-3.824593424797058105e-01,4.030000000000000000e+02
-1.964919895056652877e+02,-1.625132977934363225e+02,-6.298002182543382332e+01,9.701270923493302689e+01,-9.867414226409641742e+01,-4.828906633056158171e+01,-1.296201494598744830e+01,-5.413286642530988502e+01,9.446745872497558594e+00,-1.032640218734741211e+00,-3.824593424797058105e-01,4.040000000000000000e+02
-1.955407634173261613e+02,-1.581413025814749744e+02,-6.251733447867445648e+01,1.026786538727267271e+02,-9.749020467627497055e+01,-4.361611222052124504e+01,-9.415540580580454844e+00,-5.098134915931632349e+01,9.446745872497558594e+00,-1.032640218734741211e+00,-3.824593424797058105e-01,4.050000000000000000e+02
-1.934043573575856954e+02,-1.540125786055455137e+02,-6.247318215487916859e+01,1.058941942809240118e+02,-9.861635256705199026e+01,-4.166475288222045492e+01,-8.110816167810298793e+00,-5.338797647191540818e+01,9.446745872497558594e+00,-1.032640218734741211e+00,-3.824593424797058105e-01,4.060000000000000000e+02
-1.914225169592373277e+02,-1.512484367889132955e+02,-6.268710145283580459e+01,1.051997396312160618e+02,-1.014905811309351975e+02,-4.224172036566869792e+01,-8.877524483500565111e+00,-5.913559452055073962e+01,9.446745872497558594e+00,-1.032640218734741211e+00,-3.824593424797058105e-01,4.070000000000000000e+02
-1.902205251417290128e+02,-1.501067758993890493e+02,-6.228950294544461030e+01,1.018068892709929969e+02,-1.041361958564450561e+02,-4.362121012438819889e+01,-1.038649276316937176e+01,-6.406574715436090628e+01,9.446745872497558594e+00,-1.032640218734741211e+00,-3.824593424797058105e-01,4.080000000000000000e+02
-1.890378949858347823e+02,-1.501397583723003208e+02,-6.012905323115978717e+01,9.834068750318510865e+01,-1.044579611282301812e+02,-4.407174118862712930e+01,-1.121460980093934268e+01,-6.512712442678935076e+01,9.446745872497558594e+00,-1.032640218734741211e+00,-3.824593424797058105e-01,4.090000000000000000e+02
-1.865645956031730748e+02,-1.507551087127208120e+02,-5.577414472150371694e+01,9.658557623810793302e+01,-1.016872584013362939e+02,-4.322287242420588882e+01,-1.068914254748665371e+01,-6.232071078244598539e+01,9.446745872497558594e+00,-1.032640218734741211e+00,-3.824593424797058105e-01,4.100000000000000000e+02
-1.824145394592701450e+02,-1.515191211826177096e+02,-5.025617779598337620e+01,9.630430860354772449e+01,-9.693479754497934664e+01,-4.212198988369527797e+01,-8.991076183060158655e+00,-5.818582745344519935e+01,9.446745872497558594e+00,-1.032640218734741211e+00,-3.824593424797058105e-01,4.110000000000000000e+02
-1.777107374259408061e+02,-1.520104803353201532e+02,-4.571915813844248078e+01,9.602287310601377612e+01,-9.247562791337486487e+01,-4.209332005488477080e+01,-6.720352555812041828e+00,-5.555395341156781797e+01,9.446745872497558594e+00,-1.032640218734741211e+00,-3.824593424797058105e-01,4.120000000000000000e+02
-1.741765838225992411e+02,-1.516389998340318925e+02,-4.404911520848145301e+01,9.478152083201484857e+01,-9.030123211725799592e+01,-4.353584161257458618e+01,-4.440266474179907163e+00,-5.553325794874490384e+01,9.446745872497558594e+00,-1.032640218734741211e+00,-3.824593424797058105e-01,4.130000000000000000e+02
-1.726416365163131559e+02,-1.498789056359901224e+02,-4.554992865143481140e+01,9.307141211212592680e+01,-9.094216897757064544e+01,-4.569059000089919209e+01,-2.469650663222410003e+00,-5.716822455663054825e+01,9.446745872497558594e+00,-1.032640218734741211e+00,-3.824593424797058105e-01,4.140000000000000000e+02
-1.724086410871152566e+02,-1.467735299406281229e+02,-4.879377853911182683e+01,9.218332163484546982e+01,-9.329620987475504990e+01,-4.738773823718338463e+01,-8.463650184926336806e-01,-5.863027411005487011e+01,9.446745872497558594e+00,-1.032640218734741211e+00,-3.824593424797058105e-01,4.150000000000000000e+02
-1.720152345150509063e+02,-1.431089141997590559e+02,-5.176190068263508692e+01,9.280924805612676209e+01,-9.548110467594597139e+01,-4.793519224190913519e+01,6.602491530388761021e-01,-5.867516253914800473e+01,9.446745872497558594e+00,-1.070886254310607910e+00,-3.824593424797058105e-01,4.160000000000000000e+02
-1.705596795063340778e+02,-1.399011827314302536e+02,-5.324063071952014070e+01,9.435577665518712820e+01,-9.604784262363682501e+01,-4.739003140260092550e+01,2.447791306899489427e+00,-5.721860081680483745e+01,9.446745872497558594e+00,-1.070886254310607910e+00,-3.824593424797058105e-01,4.170000000000000000e+02
-1.683183890718896691e+02,-1.375598324835855237e+02,-5.329819482310199419e+01,9.556708909125291029e+01,-9.472660439732317172e+01,-4.618351933923577235e+01,4.789493931747529132e+00,-5.491575109792051990e+01,9.446745872497558594e+00,-1.070886254310607910e+00,-3.824593424797058105e-01,4.180000000000000000e+02
-1.662136604928637098e+02,-1.355303151884356794e+02,-5.265783820852175268e+01,9.568446808934322689e+01,-9.231196902318379216e+01,-4.466336535296659349e+01,7.463251974240392883e+00,-5.249404910882117292e+01,9.446745872497558594e+00,-1.070886254310607910e+00,-3.824593424797058105e-01,4.190000000000000000e+02
-1.648303612853865161e+02,-1.328602239150523019e+02,-5.181286413349289433e+01,9.492603268877928713e+01,-8.994804073045770565e+01,-4.300191066658589989e+01,9.637930617678193812e+00,-5.050825368869914200e+01,9.446745872497558594e+00,-1.070886254310607910e+00,-3.824593424797058105e-01,4.200000000000000000e+02
-1.639744366778420499e+02,-1.292368430651681592e+02,-5.077931626083022820e+01,9.389385370588342994e+01,-8.842576445242480077e+01,-4.139620914909028215e+01,1.026473791229136623e+01,-4.947496680825111071e+01,9.446745872497558594e+00,-1.070886254310607910e+00,-3.824593424797058105e-01,4.210000000000000000e+02
-1.630793904672048029e+02,-1.255167438802150173e+02,-4.954594489194755624e+01,9.267192606213939143e+01,-8.795191043004251696e+01,-4.018014578313841412e+01,8.813389094927970291e+00,-4.987397547048999513e+01,9.446745872497558594e+00,-1.070886254310607910e+00,-3.824593424797058105e-01,4.220000000000000000e+02
-1.618868265627536402e+02,-1.231691624520894948e+02,-4.848720177082077498e+01,9.068599445205700249e+01,-8.835974957886833181e+01,-3.963510504562964343e+01,5.822564945991416607e+00,-5.175477262401454936e+01,9.446745872497558594e+00,-1.070886254310607910e+00,-3.824593424797058105e-01,4.230000000000000000e+02
-1.606791279606018179e+02,-1.230458728493047147e+02,-4.814468230871943888e+01,8.754760810775223945e+01,-8.939100108747902595e+01,-3.968726129506967482e+01,2.772183887801020319e+00,-5.431661689773159196e+01,9.446745872497558594e+00,-1.070886254310607910e+00,-3.824593424797058105e-01,4.240000000000000000e+02
-1.599201412122297370e+02,-1.245366095458809923e+02,-4.862582616255076573e+01,8.400066144419179182e+01,-9.077486580443428466e+01,-3.982995997706757407e+01,1.253499722627793744e+00,-5.606421754721122852e+01,9.446745872497558594e+00,-1.070886254310607910e+00,-3.824593424797058105e-01,4.250000000000000000e+02
-1.597487127225465429e+02,-1.258781131549872043e+02,-4.936865005573622511e+01,8.187214257049299704e+01,-9.214548402412447103e+01,-3.940524325659816895e+01,1.973738753035831905e+00,-5.564971108620693485e+01,9.446745872497558594e+00,-1.070886254310607910e+00,-3.824593424797058105e-01,4.260000000000000000e+02
-1.598254069961649293e+02,-1.254062767454574896e+02,-4.961107931021251716e+01,8.283785617866351458e+01,-9.302875845139806188e+01,-3.805157325399841284e+01,4.313300684572141108e+00,-5.280071607442255299e+01,9.446745872497558594e+00,-1.070886254310607910e+00,-3.824593424797058105e-01,4.270000000000000000e+02
-1.595902321591913733e+02,-1.227428640866041860e+02,-4.907560356127464729e+01,8.698462499324887176e+01,-9.301146748566816314e+01,-3.597711218807580735e+01,6.771400523311740471e+00,-4.855321687480659421e+01,9.446745872497558594e+00,-1.070886254310607910e+00,-3.824593424797058105e-01,4.280000000000000000e+02
-1.586174653963648780e+02,-1.189869506599438864e+02,-4.809947210448058286e+01,9.245055730302328811e+01,-9.194671985072477582e+01,-3.386217839633491167e+01,8.003244560700295551e+00,-4.456132125183944481e+01,9.446745872497558594e+00,-1.070886254310607910e+00,-3.824593424797058105e-01,4.290000000000000000e+02
-1.568027108090275306e+02,-1.158199646628204391e+02,-4.708738851684279325e+01,9.653829315983603010e+01,-9.001782178474968532e+01,-3.248141978678586383e+01,7.690141036609247749e+00,-4.207041351879206559e+01,9.446745872497558594e+00,-1.070886254310607910e+00,-3.824593424797058105e-01,4.300000000000000000e+02
-1.543602868425466568e+02,-1.143097528001999308e+02,-4.596868621386283849e+01,9.742382895832906797e+01,-8.765629062066773258e+01,-3.233349457693793738e+01,6.596440599984816799e+00,-4.138833851971935474e+01,9.446745872497558594e+00,-1.070886254310607910e+00,-3.824593424797058105e-01,4.310000000000000000e+02
-1.517296434594441052e+02,-1.143559432045790345e+02,-4.434984584207222724e+01,9.512167200646854326e+01,-8.543355228193900075e+01,-3.350252776517800157e+01,5.823016249082911600e+00,-4.213379026259985949e+01,9.446745872497558594e+00,-1.070886254310607910e+00,-3.824593424797058105e-01,4.320000000000000000e+02
-1.494013388124792527e+02,-1.150982260779542230e+02,-4.220834994802044093e+01,9.107225833167194651e+01,-8.395559843454611837e+01,-3.572846373556694743e+01,5.916953388229558186e+00,-4.379825949847872835e+01,9.446745872497558594e+00,-1.070886254310607910e+00,-3.824593424797058105e-01,4.330000000000000000e+02
-1.476593252994250633e+02,-1.157753221048312753e+02,-4.028040739349057731e+01,8.689671163228331352e+01,-8.367292578869364661e+01,-3.851243751609217725e+01,6.568746419959779814e+00,-4.597925548222769976e+01,9.446745872497558594e+00,-1.070886254310607910e+00,-3.824593424797058105e-01,4.340000000000000000e+02
-1.463568823366927063e+02,-1.162013781106040824e+02,-3.956377493641275578e+01,8.344685229652941416e+01,-8.459048199371954979e+01,-4.115128652444400359e+01,7.070696638245181020e+00,-4.817186691867027548e+01,9.446745872497558594e+00,-1.070886254310607910e+00,-3.824593424797058105e-01,4.350000000000000000e+02
-1.449682559560310438e+02,-1.164864418039278462e+02,-4.035263458009308124e+01,8.079979571116473380e+01,-8.611437391792560447e+01,-4.280314772188285133e+01,7.024842194120537897e+00,-4.958648055271510202e+01,9.446745872497558594e+00,-1.070886254310607910e+00,-3.824593424797058105e-01,4.360000000000000000e+02
-1.429924992982478216e+02,-1.164184021845596817e+02,-4.181768846026716346e+01,7.889245494922943180e+01,-8.730805372696249833e+01,-4.275717212469999140e+01,6.628608110488130478e+00,-4.941645232196037796e+01,9.446745872497558594e+00,-1.070886254310607910e+00,-3.824593424797058105e-01,4.370000000000000000e+02
-1.404199473381572716e+02,-1.152928663855586819e+02,-4.264765040117845274e+01,7.798366473093847162e+01,-8.748222085089128086e+01,-4.084856335784206749e+01,6.343412347961020714e+00,-4.740861582543743680e+01,9.446745872497558594e+00,-1.070886254310607910e+00,-3.824593424797058105e-01,4.380000000000000000e+02
-1.378121773595075865e+02,-1.125146492272115211e+02,-4.217324443346433327e+01,7.847743660327796533e+01,-8.663530391955328014e+01,-3.766883061670750976e+01,6.398636342156351020e+00,-4.413380009327443076e+01,9.446745872497558594e+00,-1.070886254310607910e+00,-3.824593424797058105e-01,4.390000000000000000e+02
-1.358423570027634923e+02,-1.084392874923773888e+02,-4.086153366826306410e+01,8.036962013678748917e+01,-8.529794604703602090e+01,-3.424942673418172490e+01,6.700261726697135600e+00,-4.057534800786265805e+01,9.446745872497558594e+00,-1.070886254310607910e+00,-3.824593424797058105e-01,4.400000000000000000e+02
-1.346815065855876128e+02,-1.045361840766092882e+02,-3.972044538007503434e+01,8.293409901303994047e+01,-8.390049556256599317e+01,-3.136555072001647204e+01,7.181992801208707533e+00,-3.738015955403125190e+01,9.446745872497558594e+00,-1.109132170677185059e+00,-3.824593424797058105e-01,4.410000000000000000e+02
-1.338129176280167485e+02,-1.024881739180489149e+02,-3.922916182129256413e+01,8.498912832824316865e+01,-8.230320611618753901e+01,-2.906294152622695037e+01,8.084480940725825349e+00,-3.451378257012765971e+01,9.446745872497558594e+00,-1.109132170677185059e+00,-3.824593424797058105e-01,4.420000000000000000e+02
-1.324912150516465772e+02,-1.028869036219430200e+02,-3.885436555579462947e+01,8.554072259770873643e+01,-8.000035206550955991e+01,-2.688052217091762941e+01,9.695361464423513098e+00,-3.167070217139121269e+01,9.446745872497558594e+00,-1.109132170677185059e+00,-3.824593424797058105e-01,4.430000000000000000e+02
-1.304411446738404265e+02,-1.046662577253014206e+02,-3.757746856171524996e+01,8.432233817159158207e+01,-7.680643069664074574e+01,-2.455976368857409398e+01,1.175111269628177979e+01,-2.895484317249406558e+01,9.446745872497558594e+00,-1.109132170677185059e+00,-3.824593424797058105e-01,4.440000000000000000e+02
-1.281585406653093742e+02,-1.058410041556883243e+02,-3.486016099703692817e+01,8.192447597609725563e+01,-7.329328387609120909e+01,-2.249205048056683154e+01,1.323436044653954013e+01,-2.701458210998748655e+01,9.446745872497558594e+00,-1.109132170677185059e+00,-3.824593424797058105e-01,4.450000000000000000e+02
-1.265308543427054246e+02,-1.049587932551153244e+02,-3.114033824844068477e+01,7.952022303571629891e+01,-7.049606369864068256e+01,-2.138393130370695872e+01,1.302366565523652753e+01,-2.640181398761205855e+01,9.446745872497558594e+00,-1.109132170677185059e+00,-3.824593424797058105e-01,4.460000000000000000e+02
-1.260965238126018448e+02,-1.020352130414189560e+02,-2.750858943267689938e+01,7.836612576006382369e+01,-6.915977596280117723e+01,-2.147248189922220263e+01,1.096693506486280967e+01,-2.681746083410325809e+01,9.446745872497558594e+00,-1.109132170677185059e+00,-3.824593424797058105e-01,4.470000000000000000e+02
-1.265803557918466140e+02,-9.827073095100877254e+01,-2.498371466732464796e+01,7.926632268842286067e+01,-6.924248750881451997e+01,-2.215998380458904649e+01,8.367830567477540171e+00,-2.711467681638805516e+01,9.446745872497558594e+00,-1.109132170677185059e+00,-3.824593424797058105e-01,4.480000000000000000e+02
-1.270761989236002591e+02,-9.496748281720692830e+01,-2.401125340869657521e+01,8.219487165509099214e+01,-7.008739775433059549e+01,-2.251885368124203524e+01,7.255302991839926108e+00,-2.617892075748295611e+01,9.446745872497558594e+00,-1.109132170677185059e+00,-3.824593424797058105e-01,4.490000000000000000e+02
-1.267029121465102435e+02,-9.270183286673682233e+01,-2.441730771793709209e+01,8.626539149574864496e+01,-7.100446837507070086e+01,-2.217138710248718780e+01,8.884485383987794194e+00,-2.388374035339757029e+01,9.446745872497558594e+00,-1.109132170677185059e+00,-3.824593424797058105e-01,4.500000000000000000e+02
-1.252116668444068637e+02,-9.134478754213841967e+01,-2.560795229446193844e+01,9.015426928271836005e+01,-7.165613429954828462e+01,-2.158388478013512213e+01,1.271319046243888806e+01,-2.115798402059840555e+01,9.446745872497558594e+00,-1.109132170677185059e+00,-3.824593424797058105e-01,4.510000000000000000e+02
-1.231131162056781250e+02,-9.056372478541607052e+01,-2.677987835844942310e+01,9.282939697728170358e+01,-7.198102996599936887e+01,-2.141118731741153169e+01,1.677020977509664590e+01,-1.905997688328443473e+01,9.446745872497558594e+00,-1.109132170677185059e+00,-3.824593424797058105e-01,4.520000000000000000e+02
-1.212706661255506333e+02,-9.005543923925847594e+01,-2.715226474458381745e+01,9.417059412067374069e+01,-7.192884993173174735e+01,-2.155508131507076541e+01,1.915050732293912006e+01,-1.776961563609393124e+01,9.446745872497558594e+00,-1.109132170677185059e+00,-3.824593424797058105e-01,4.530000000000000000e+02
-1.202748130391041741e+02,-8.930048162590401262e+01,-2.629516482006783917e+01,9.504249174196729655e+01,-7.139564851535533307e+01,-2.096530155553909935e+01,1.942423664861416910e+01,-1.647777906896612876e+01,9.446745872497558594e+00,-1.109132170677185059e+00,-3.824593424797058105e-01,4.540000000000000000e+02
-1.200396479396085851e+02,-8.738109521753631270e+01,-2.440881260884771109e+01,9.669873426757703783e+01,-7.038997375356348130e+01,-1.847356345828484336e+01,1.883627517841705412e+01,-1.423620314981371848e+01,9.446745872497558594e+00,-1.109132170677185059e+00,-3.824593424797058105e-01,4.550000000000000000e+02
-1.199014925868268620e+02,-8.344812319145148649e+01,-2.224129547430629827e+01,9.986709217129646277e+01,-6.913058729893009513e+01,-1.388915089500187605e+01,1.919926756359745923e+01,-1.089638858485727724e+01,9.446745872497558594e+00,-1.109132170677185059e+00,-3.824593424797058105e-01,4.560000000000000000e+02
-1.191543113368861668e+02,-7.763987750447222425e+01,-2.055590123258912172e+01,1.041366383562854026e+02,-6.788190529992061784e+01,-8.295780961237142037e+00,2.144854605174305107e+01,-7.230013950305192338e+00,9.446745872497558594e+00,-1.109132170677185059e+00,-3.824593424797058105e-01,4.570000000000000000e+02
-1.176299202213385797e+02,-7.152422779736070879e+01,-1.953617357875714333e+01,1.081089763706459053e+02,-6.669413637225579805e+01,-3.262554036811707192e+00,2.499760249652536004e+01,-4.208528902393709359e+00,9.446745872497558594e+00,-1.109132170677185059e+00,-3.824593424797058105e-01,4.580000000000000000e+02
-1.158543200464446272e+02,-6.739007184618094470e+01,-1.867312964129564534e+01,1.102406057152029462e+02,-6.537878266647021519e+01,2.694837602884945227e-01,2.826637469214620069e+01,-2.247408544558084031e+00,9.446745872497558594e+00,-1.109132170677185059e+00,-3.824593424797058105e-01,4.590000000000000000e+02
-1.145789124867274040e+02,-6.675948516471385119e+01,-1.725133028338586882e+01,1.098380665674103511e+02,-6.376096053021910848e+01,2.456887139420814492e+00,2.985520747932332597e+01,-1.099775151889843983e+00,9.446745872497558594e+00,-1.109132170677185059e+00,-3.824593424797058105e-01,4.600000000000000000e+02
-1.140389762970667107e+02,-6.931163127235595312e+01,-1.501006570632875992e+01,1.075180131836514192e+02,-6.192084681217920661e+01,4.095436635159785510e+00,2.943322549530967080e+01,-3.433347711038550187e-01,9.446745872497558594e+00,-1.109132170677185059e+00,-3.824593424797058105e-01,4.610000000000000000e+02
-1.136191539843639475e+02,-7.312501059655460267e+01,-1.239075826869452612e+01,1.047772453612110439e+02,-6.016544382373103872e+01,5.796985569161734020e+00,2.777646784756643683e+01,1.558162908879694442e-01,9.446745872497558594e+00,-1.109132170677185059e+00,-3.824593424797058105e-01,4.620000000000000000e+02
-1.122955896644261884e+02,-7.600449696171835967e+01,-1.018115624205370295e+01,1.029659699252638347e+02,-5.877034694918029345e+01,7.569534467012545065e+00,2.609879070826809766e+01,2.416787173444845394e-01,9.446745872497558594e+00,-1.109132170677185059e+00,-3.824593424797058105e-01,4.630000000000000000e+02
-1.095392522543797895e+02,-7.679325301005542315e+01,-8.932800623569619347e+00,1.024092016369909288e+02,-5.778962865185621922e+01,9.005202202914006193e+00,2.524884729724453791e+01,-2.513562707138135011e-01,9.446745872497558594e+00,-1.109132170677185059e+00,-3.824593424797058105e-01,4.640000000000000000e+02
-1.058792462206006348e+02,-7.571098813740240985e+01,-8.662902813468008389e+00,1.023414680224386757e+02,-5.712848175883709700e+01,9.697006675733973680e+00,2.529760160531986912e+01,-1.360208234689707751e+00,9.446745872497558594e+00,-1.109132170677185059e+00,-3.824593424797058105e-01,4.650000000000000000e+02
-1.025774070674781342e+02,-7.369938039094085980e+01,-8.998759341480763396e+00,1.016942156827553845e+02,-5.675691865418502857e+01,9.439945582406835456e+00,2.569062487658561622e+01,-3.089822866333179263e+00,9.446745872497558594e+00,-1.109132170677185059e+00,-3.824593424797058105e-01,4.660000000000000000e+02
-1.006692109731247911e+02,-7.154711852544437534e+01,-9.500517619781021494e+00,1.000867961923577241e+02,-5.679215529735665768e+01,8.182235409889017319e+00,2.577742941208293814e+01,-5.437612667383291409e+00,9.446745872497558594e+00,-1.109132170677185059e+00,-3.824593424797058105e-01,4.670000000000000000e+02
-1.002260157042130686e+02,-6.952844955650675729e+01,-9.818474342692070422e+00,9.821043754040783824e+01,-5.734092509633319423e+01,6.018852469860576093e+00,2.536023063695347446e+01,-8.139148115865054933e+00,9.484992027282714844e+00,-1.147378087043762207e+00,-3.442134261131286621e-01,4.680000000000000000e+02
-1.004767668469710316e+02,-6.763867597194143855e+01,-9.642112807676085140e+00,9.728907750586949987e+01,-5.827612013967973326e+01,3.364220120560275973e+00,2.492670857347570745e+01,-1.040685634465148723e+01,9.484992027282714844e+00,-1.147378087043762207e+00,-3.442134261131286621e-01,4.690000000000000000e+02
-1.005853420826445017e+02,-6.597938159479326714e+01,-8.670849342960309514e+00,9.806420604453160195e+01,-5.919427115806752226e+01,1.068538354142674507e+00,2.539877859579200958e+01,-1.113567414823637591e+01,9.484992027282714844e+00,-1.147378087043762207e+00,-3.442134261131286621e-01,4.700000000000000000e+02
-1.002814557866147425e+02,-6.485508213620755669e+01,-6.762745112478796727e+00,1.001414532398889605e+02,-5.960995493219911623e+01,1.436923116984871740e-01,2.749328724228735155e+01,-9.624079914234698663e+00,9.484992027282714844e+00,-1.147378087043762207e+00,-3.442134261131286621e-01,4.710000000000000000e+02
-9.978436761347711581e+01,-6.454832006558467583e+01,-4.131321022795646059e+00,1.022251711777380478e+02,-5.921836214926952380e+01,1.140578483965327905e+00,3.106257011073648755e+01,-6.224681377419074124e+00,9.484992027282714844e+00,-1.147378087043762207e+00,-3.442134261131286621e-01,4.720000000000000000e+02
-9.926012405728579324e+01,-6.504872505530738636e+01,-1.338475923276746471e+00,1.030487165848148834e+02,-5.802963004705497951e+01,3.672707974103104789e+00,3.488403275120163016e+01,-2.275649047294564298e+00,9.484992027282714844e+00,-1.147378087043762207e+00,-3.442134261131286621e-01,4.730000000000000000e+02
-9.850404017804294199e+01,-6.598050263397203707e+01,9.986687479472493578e-01,1.022568012799520147e+02,-5.633775963781522478e+01,6.577855248079686135e+00,3.716838863433531515e+01,7.019216977905671229e-01,9.484992027282714844e+00,-1.147378087043762207e+00,-3.442134261131286621e-01,4.740000000000000000e+02
-9.719226509351915411e+01,-6.675748540817107823e+01,2.571182061669105678e+00,1.005759208995714289e+02,-5.460568902517979950e+01,8.676278780486427422e+00,3.659037294576705790e+01,1.858222513136524867e+00,9.484992027282714844e+00,-1.147378087043762207e+00,-3.442134261131286621e-01,4.750000000000000000e+02
-9.534774363299879951e+01,-6.685416084175403739e+01,3.494531019272699268e+00,9.919800175437512735e+01,-5.334178685097253947e+01,9.527851230416672479e+00,3.319371124597205380e+01,1.242502326349722352e+00,9.484992027282714844e+00,-1.147378087043762207e+00,-3.442134261131286621e-01,4.760000000000000000e+02
-9.343542080171232556e+01,-6.607545361975076048e+01,4.079078500563355192e+00,9.890056642540230314e+01,-5.294833027533491077e+01,9.565536744255496160e+00,2.849367302227574328e+01,-6.029399228198144556e-01,9.484992027282714844e+00,-1.147378087043762207e+00,-3.442134261131286621e-01,4.770000000000000000e+02
-9.195351461832819950e+01,-6.472337061192092733e+01,4.489257569881374366e+00,9.957381910435833561e+01,-5.352586035542299214e+01,9.544266125167723658e+00,2.461964941342921520e+01,-3.114858123654130395e+00,9.484992027282714844e+00,-1.147378087043762207e+00,-3.442134261131286621e-01,4.780000000000000000e+02
-9.098540300510853740e+01,-6.353726809827071520e+01,4.595235533846562248e+00,1.004511635028070486e+02,-5.474756822171002568e+01,9.843350863276100426e+00,2.303976949793059248e+01,-5.798113981004007655e+00,9.484992027282714844e+00,-1.147378087043762207e+00,-3.442134261131286621e-01,4.790000000000000000e+02
-9.022331783947902295e+01,-6.334230575877427327e+01,4.129472542081884967e+00,1.007706277707397930e+02,-5.596638725431762396e+01,1.022607995779117118e+01,2.376325515232269936e+01,-8.081032788172024084e+00,9.484992027282714844e+00,-1.147378087043762207e+00,-3.442134261131286621e-01,4.800000000000000000e+02
-8.936530370986588423e+01,-6.453633614784052952e+01,3.017619663281038811e+00,1.002944302497248827e+02,-5.655702038271010679e+01,1.017678443609520400e+01,2.559864399461230278e+01,-9.382968988371658270e+00,9.484992027282714844e+00,-1.147378087043762207e+00,-3.442134261131286621e-01,4.810000000000000000e+02
-8.836820194550318774e+01,-6.674878236112613195e+01,1.603234893490935065e+00,9.929594357101177593e+01,-5.627800503517505604e+01,9.404715423306697630e+00,2.724326555637912861e+01,-9.502901448408010765e+00,9.484992027282714844e+00,-1.147378087043762207e+00,-3.442134261131286621e-01,4.820000000000000000e+02
-8.728357695068530120e+01,-6.897074813016251937e+01,5.738483042289317382e-01,9.812777813239631541e+01,-5.536406688126885456e+01,8.057815396155547205e+00,2.831895479238846747e+01,-8.912484017566157490e+00,9.484992027282714844e+00,-1.147378087043762207e+00,-3.442134261131286621e-01,4.830000000000000000e+02
-8.598103041122226387e+01,-7.012254636481065972e+01,6.060243061010623933e-01,9.683051471869748639e+01,-5.427320137822721335e+01,6.560928780301765073e+00,2.949673728705693065e+01,-8.493549814598736702e+00,9.484992027282714844e+00,-1.147378087043762207e+00,-3.442134261131286621e-01,4.840000000000000000e+02
-8.424064280798870641e+01,-6.966940687413648448e+01,1.931702046917052940e+00,9.516655435127108831e+01,-5.332236098367729937e+01,5.342799302589810395e+00,3.160460926364294210e+01,-8.833645395409121193e+00,9.484992027282714844e+00,-1.147378087043762207e+00,-3.442134261131286621e-01,4.850000000000000000e+02
-8.219214859651492588e+01,-6.783338564975178997e+01,4.105397931573634196e+00,9.303284467579214834e+01,-5.253267983676209951e+01,4.704334427479352598e+00,3.450081709903815863e+01,-9.722149016495905016e+00,9.484992027282714844e+00,-1.147378087043762207e+00,-3.442134261131286621e-01,4.860000000000000000e+02
-8.051291968135433308e+01,-6.529428318017903621e+01,6.165433740779690197e+00,9.081346629966492401e+01,-5.178840117323784398e+01,4.807672910648307152e+00,3.675257947419891025e+01,-1.036481543667196092e+01,9.484992027282714844e+00,-1.147378087043762207e+00,-3.442134261131286621e-01,4.870000000000000000e+02
-7.993360007118803878e+01,-6.269825473519017578e+01,7.133664518577006675e+00,8.927840508701706312e+01,-5.109084098223524961e+01,5.651856762663555855e+00,3.652139020061349584e+01,-1.013355611441920701e+01,9.484992027282714844e+00,-1.147378087043762207e+00,-3.442134261131286621e-01,4.880000000000000000e+02
-8.042233026525582318e+01,-6.038473109335564004e+01,6.564765908522304017e+00,8.907290920200102846e+01,-5.061021091952261486e+01,7.022185144144259539e+00,3.301825789167605762e+01,-9.118471579789911630e+00,9.484992027282714844e+00,-1.147378087043762207e+00,-3.442134261131286621e-01,4.890000000000000000e+02
-8.097349608460717718e+01,-5.845273124573964196e+01,4.799175132818163547e+00,9.027082889064627125e+01,-5.046816805735738853e+01,8.562042148154887400e+00,2.735591835512514081e+01,-7.935202627005764953e+00,9.484992027282714844e+00,-1.147378087043762207e+00,-3.442134261131286621e-01,4.900000000000000000e+02
-8.043423919931160526e+01,-5.694321786712907851e+01,2.740910477147508573e+00,9.240793639217963573e+01,-5.049691983521256589e+01,1.001735783438016369e+01,2.204575776691422107e+01,-7.003289714426500723e+00,9.484992027282714844e+00,-1.147378087043762207e+00,-3.442134261131286621e-01,4.910000000000000000e+02
-7.866969509874297728e+01,-5.585471987464052290e+01,1.312446305297498839e+00,9.493049593369073591e+01,-5.026766132324996761e+01,1.145053922397164570e+01,1.945622044923356952e+01,-6.062075100025140273e+00,9.484992027282714844e+00,-1.147378087043762207e+00,-3.442134261131286621e-01,4.920000000000000000e+02
-7.683533164791674608e+01,-5.497638453484410093e+01,9.736902305974126648e-01,9.757724953281399394e+01,-4.940797586426424459e+01,1.316482290323847337e+01,2.039024740828426729e+01,-4.445253593863185415e+00,9.484992027282714844e+00,-1.147378087043762207e+00,-3.442134261131286621e-01,4.930000000000000000e+02
-7.632116473815244717e+01,-5.381025634698221438e+01,1.618958743240455078e+00,1.003019212896740555e+02,-4.793949845869747151e+01,1.533677781537085139e+01,2.382332586780603378e+01,-1.871512958249127223e+00,9.484992027282714844e+00,-1.147378087043762207e+00,-3.442134261131286621e-01,4.940000000000000000e+02
-7.732035760931057666e+01,-5.182065301553711834e+01,2.854866523822011004e+00,1.028623362602263569e+02,-4.631579863910974382e+01,1.769128652532845081e+01,2.788747819473610434e+01,1.042072500878248320e+00,9.484992027282714844e+00,-1.147378087043762207e+00,-3.442134261131286621e-01,4.950000000000000000e+02
-7.845952673561703250e+01,-4.889929567732701798e+01,4.379997442025000964e+00,1.046196644683493560e+02,-4.511333976774199073e+01,1.957280847614379127e+01,3.120940305017165883e+01,3.110586938539427138e+00,9.484992027282714844e+00,-1.147378087043762207e+00,-3.442134261131286621e-01,4.960000000000000000e+02
-7.795960595878796084e+01,-4.564411822134809427e+01,6.155261787321251177e+00,1.049104880235934161e+02,-4.462560882023649356e+01,2.039883049746185861e+01,3.354575348986475092e+01,3.526158678247725220e+00,9.484992027282714844e+00,-1.147378087043762207e+00,-3.442134261131286621e-01,4.970000000000000000e+02
-7.526898759147388773e+01,-4.314703422035586300e+01,8.271866865104925637e+00,1.037125610818375208e+02,-4.466307587350399899e+01,2.010646029825920778e+01,3.537671992231639706e+01,2.587840020330077095e+00,9.484992027282714844e+00,-1.147378087043762207e+00,-3.442134261131286621e-01,4.980000000000000000e+02
-7.158591984041663636e+01,-4.236865810974813940e+01,1.069694135210124841e+01,1.018978730709850424e+02,-4.467134564172772571e+01,1.919055904897527398e+01,3.702311678406533701e+01,1.541554863198030034e+00,9.484992027282714844e+00,-1.109132170677185059e+00,-3.059675097465515137e-01,4.990000000000000000e+02
-6.876803880674503944e+01,-4.355553839138167405e+01,1.315795193187136647e+01,1.006605808016017818e+02,-4.405362532505853324e+01,1.831505054115586972e+01,3.816217306288490363e+01,1.630651215694797429e+00,9.484992027282714844e+00,-1.109132170677185059e+00,-3.059675097465515137e-01,5.000000000000000000e+02
-6.771027440865532299e+01,-4.612233370292926793e+01,1.527321574684629013e+01,1.005201153541167969e+02,-4.248570671224888429e+01,1.786144112997658340e+01,3.814841428206693763e+01,3.189088720528047816e+00,9.484992027282714844e+00,-1.109132170677185059e+00,-3.059675097465515137e-01,5.010000000000000000e+02
-6.774031753236295117e+01,-4.902305961662921163e+01,1.679278731515603340e+01,1.008163647357467880e+02,-4.006603013033577554e+01,1.779299647789810024e+01,3.676424840711797515e+01,5.548487951640140636e+00,9.484992027282714844e+00,-1.109132170677185059e+00,-3.059675097465515137e-01,5.020000000000000000e+02
-6.751230807286515301e+01,-5.128236955550653420e+01,1.770762587656270171e+01,1.002536195950351612e+02,-3.725433143851012119e+01,1.788971125947614382e+01,3.465093932083027539e+01,7.760563550108031450e+00,9.484992027282714844e+00,-1.109132170677185059e+00,-3.059675097465515137e-01,5.030000000000000000e+02
-6.641345436632212795e+01,-5.231156865482830653e+01,1.811271169498996869e+01,9.808933946010483851e+01,-3.466197621472008450e+01,1.807246037244658510e+01,3.298582677696606424e+01,9.409488861577983698e+00,9.484992027282714844e+00,-1.109132170677185059e+00,-3.059675097465515137e-01,5.040000000000000000e+02
-6.510500516592060194e+01,-5.190730878462869669e+01,1.795236253031646356e+01,9.491506263661949561e+01,-3.282373644912001964e+01,1.849298681004302125e+01,3.264344559343055607e+01,1.075112810505027028e+01,9.484992027282714844e+00,-1.109132170677185059e+00,-3.059675097465515137e-01,5.050000000000000000e+02
-6.476600001968745346e+01,-5.011373514260299089e+01,1.692600510741277731e+01,9.231629636781974568e+01,-3.205326544303852643e+01,1.931987421126439131e+01,3.354977365591685157e+01,1.215066320591512294e+01,9.484992027282714844e+00,-1.109132170677185059e+00,-3.059675097465515137e-01,5.060000000000000000e+02
-6.587735504329879177e+01,-4.717419232675729290e+01,1.475012025836002749e+01,9.171310416982771585e+01,-3.239172522914429919e+01,2.045217451377027373e+01,3.478582194045770848e+01,1.350923119809891659e+01,9.484992027282714844e+00,-1.109132170677185059e+00,-3.059675097465515137e-01,5.070000000000000000e+02
-6.772676368779985978e+01,-4.359936550076042749e+01,1.164479076860229156e+01,9.340376857088523366e+01,-3.357197922003109625e+01,2.146965523498681705e+01,3.537209889421086473e+01,1.435911508119357904e+01,9.484992027282714844e+00,-1.109132170677185059e+00,-3.059675097465515137e-01,5.080000000000000000e+02
-6.899928991665298383e+01,-4.016626607435726726e+01,8.601708586075574203e+00,9.657700940114528976e+01,-3.498029289823691101e+01,2.191551483340498407e+01,3.509760741439690435e+01,1.457001385371839319e+01,9.484992027282714844e+00,-1.109132170677185059e+00,-3.059675097465515137e-01,5.090000000000000000e+02
-6.880872254910580921e+01,-3.769158102576776059e+01,7.037664844002826214e+00,1.001038060019567411e+02,-3.573986363471265548e+01,2.168828734344150178e+01,3.468424953710918857e+01,1.485992339130120854e+01,9.484992027282714844e+00,-1.109132170677185059e+00,-3.059675097465515137e-01,5.100000000000000000e+02
-6.727625061885839841e+01,-3.664743433544870754e+01,7.891420718438752147e+00,1.032630127262840460e+02,-3.507408968682818795e+01,2.117421760024735988e+01,3.510040565937529777e+01,1.639665381343942840e+01,9.484992027282714844e+00,-1.109132170677185059e+00,-3.059675097465515137e-01,5.110000000000000000e+02
-6.531455285494996588e+01,-3.689292102187124556e+01,1.078251329649879153e+01,1.058054115340931389e+02,-3.287599809076817792e+01,2.094380489964120784e+01,3.658091973142532538e+01,1.968127889916991080e+01,9.484992027282714844e+00,-1.109132170677185059e+00,-3.059675097465515137e-01,5.120000000000000000e+02
-6.395238832547744323e+01,-3.776005171597410026e+01,1.400815862820013535e+01,1.075583782013898428e+02,-3.004179063430100882e+01,2.125936149951979814e+01,3.824164654327120161e+01,2.374907675357019343e+01,9.484992027282714844e+00,-1.109132170677185059e+00,-3.059675097465515137e-01,5.130000000000000000e+02
-6.374903184473964757e+01,-3.845533333667719944e+01,1.557946681307163317e+01,1.082129084208349923e+02,-2.812288441418371576e+01,2.183136857299223266e+01,3.869921045892982647e+01,2.657080484131387266e+01,9.484992027282714844e+00,-1.109132170677185059e+00,-3.059675097465515137e-01,5.140000000000000000e+02
-6.458710216819997640e+01,-3.848736449230665357e+01,1.461132902613468332e+01,1.076015919076681371e+02,-2.834758918335842282e+01,2.206595963317090536e+01,3.723759264866100693e+01,2.648734145276307572e+01,9.484992027282714844e+00,-1.109132170677185059e+00,-3.059675097465515137e-01,5.150000000000000000e+02
-6.580911044073934590e+01,-3.782074057953127522e+01,1.197581848763928747e+01,1.061064741933291771e+02,-3.069885996198843259e+01,2.158992423122117543e+01,3.454078829302977738e+01,2.353055036482760443e+01,9.484992027282714844e+00,-1.109132170677185059e+00,-3.059675097465515137e-01,5.160000000000000000e+02
-6.656393163181587624e+01,-3.670487399191108580e+01,9.651891742871612223e+00,1.046291846308222375e+02,-3.385077296425163240e+01,2.057632349618643275e+01,3.231140133016833715e+01,1.951739189782324502e+01,9.484992027282714844e+00,-1.109132170677185059e+00,-3.059675097465515137e-01,5.170000000000000000e+02
-6.623700883350375079e+01,-3.540080661994898037e+01,9.267164229105446793e+00,1.040335976266719626e+02,-3.609689247285439251e+01,1.958801399810090516e+01,3.204683889848706713e+01,1.683922728558536619e+01,9.484992027282714844e+00,-1.109132170677185059e+00,-3.059675097465515137e-01,5.180000000000000000e+02
-6.476867466568455711e+01,-3.406207015616655553e+01,1.101018871189603487e+01,1.045634947090901505e+02,-3.651952051693001522e+01,1.912295356029108007e+01,3.397982859697094682e+01,1.694503588677025618e+01,9.484992027282714844e+00,-1.109132170677185059e+00,-3.059675097465515137e-01,5.190000000000000000e+02
-6.265531686532460753e+01,-3.281883198464311135e+01,1.374643865906170959e+01,1.057776799347282122e+02,-3.541927296011658655e+01,1.929703499337665562e+01,3.703644485504639761e+01,1.967223113183092664e+01,9.523238182067871094e+00,-1.147378087043762207e+00,-3.824593424797058105e-01,5.200000000000000000e+02
-6.059341028797734907e+01,-3.186569799108838197e+01,1.610652480529108743e+01,1.070160591910666881e+02,-3.371156453874777981e+01,1.989775019531271028e+01,3.975321713953746894e+01,2.374890607831969191e+01,9.523238182067871094e+00,-1.147378087043762207e+00,-3.824593424797058105e-01,5.210000000000000000e+02
-5.901631611568745939e+01,-3.136518292537994057e+01,1.750951531083501322e+01,1.079148770811707436e+02,-3.196038783792437243e+01,2.065712751189380469e+01,4.128598335998208313e+01,2.781725017495728025e+01,9.523238182067871094e+00,-1.147378087043762207e+00,-3.824593424797058105e-01,5.220000000000000000e+02
-5.789786725981366544e+01,-3.122641984782012514e+01,1.829548552695700891e+01,1.085347423447758501e+02,-2.998545652351822355e+01,2.144117446503446445e+01,4.170077121530107434e+01,3.109781995914727304e+01,9.523238182067871094e+00,-1.147378087043762207e+00,-3.824593424797058105e-01,5.230000000000000000e+02
-5.696056951635000587e+01,-3.102830817078870496e+01,1.906299587410876484e+01,1.091171662541821661e+02,-2.735497619468560515e+01,2.223930706197461404e+01,4.148463941491081641e+01,3.336134774526090041e+01,9.523238182067871094e+00,-1.147378087043762207e+00,-3.824593424797058105e-01,5.240000000000000000e+02
-5.602568890191810169e+01,-3.026386419031587138e+01,1.999270500813577200e+01,1.098103328509630501e+02,-2.417163924953183596e+01,2.307540205484247053e+01,4.091294650165787061e+01,3.456084018257342905e+01,9.523238182067871094e+00,-1.147378087043762207e+00,-3.824593424797058105e-01,5.250000000000000000e+02
-5.512594748139417788e+01,-2.875030297756188702e+01,2.080546936160362748e+01,1.106117083779781751e+02,-2.131022070901303778e+01,2.395778061523697033e+01,3.989660455864122923e+01,3.464055664501847787e+01,9.523238182067871094e+00,-1.147378087043762207e+00,-3.824593424797058105e-01,5.260000000000000000e+02
-5.430164275963329601e+01,-2.683455888382513876e+01,2.125078680907904527e+01,1.114602300130736694e+02,-1.985201122559806208e+01,2.484051605355762149e+01,3.832683923135346049e+01,3.365817651127144927e+01,9.523238182067871094e+00,-1.147378087043762207e+00,-3.824593424797058105e-01,5.270000000000000000e+02
-5.338469454516553014e+01,-2.516398564294149764e+01,2.149379380732307254e+01,1.122977856944517043e+02,-2.024339857836844203e+01,2.553489819661717775e+01,3.643422375870704855e+01,3.195318516397469466e+01,9.523238182067871094e+00,-1.147378087043762207e+00,-3.824593424797058105e-01,5.280000000000000000e+02
-5.210898335913020674e+01,-2.420104457497859585e+01,2.197425643689962271e+01,1.130563457995899626e+02,-2.193200260554431225e+01,2.566811849845726101e+01,3.475381593970359972e+01,3.009054153438592039e+01,9.523238182067871094e+00,-1.147378087043762207e+00,-3.824593424797058105e-01,5.290000000000000000e+02
-5.047324255058720155e+01,-2.391752826872516380e+01,2.294870796298005189e+01,1.136615466985454077e+02,-2.374891977057495751e+01,2.486083495639604735e+01,3.376977954224958012e+01,2.860596310959635957e+01,9.523238182067871094e+00,-1.147378087043762207e+00,-3.824593424797058105e-01,5.300000000000000000e+02
-4.893241110728149579e+01,-2.393319329535461293e+01,2.424990159026970105e+01,1.140878537504449923e+02,-2.464931734457104540e+01,2.306998634821229643e+01,3.363292164305084953e+01,2.779869580402782958e+01,9.523238182067871094e+00,-1.147378087043762207e+00,-3.824593424797058105e-01,5.310000000000000000e+02
-4.810654421322351482e+01,-2.392628586164209992e+01,2.549469242920849865e+01,1.143599787014800313e+02,-2.422280508453695802e+01,2.075587950077670030e+01,3.417738432432724949e+01,2.771111105563613819e+01,9.523238182067871094e+00,-1.147378087043762207e+00,-3.824593424797058105e-01,5.320000000000000000e+02
-4.819009166239720798e+01,-2.387309142693675312e+01,2.645209707383764908e+01,1.144617017687501175e+02,-2.270770503619314695e+01,1.860304949678766206e+01,3.509612847070866337e+01,2.820140301747278500e+01,9.523238182067871094e+00,-1.147378087043762207e+00,-3.824593424797058105e-01,5.330000000000000000e+02
-4.864561266928740224e+01,-2.389673536766622419e+01,2.712054967353151369e+01,1.142668444898799862e+02,-2.069245617262276937e+01,1.694568901007642125e+01,3.602021289705544405e+01,2.894121289630857063e+01,9.523238182067871094e+00,-1.147378087043762207e+00,-3.824593424797058105e-01,5.340000000000000000e+02
-4.854636786229457357e+01,-2.393729545774522194e+01,2.744811650750034460e+01,1.136462279366332950e+02,-1.882371086410103089e+01,1.544861217841207690e+01,3.648512546846177429e+01,2.938042766198850586e+01,9.523238182067871094e+00,-1.147378087043762207e+00,-3.824593424797058105e-01,5.350000000000000000e+02
-4.732357385264458571e+01,-2.365897505824568725e+01,2.708356035520409932e+01,1.126853377909401388e+02,-1.766976882795916026e+01,1.343344808061920048e+01,3.600553847258561291e+01,2.888331108283136928e+01,9.523238182067871094e+00,-1.147378087043762207e+00,-3.824593424797058105e-01,5.360000000000000000e+02
-4.528176457194194882e+01,-2.274940905142602787e+01,2.553111916758871303e+01,1.117720350376507668e+02,-1.764341057339652252e+01,1.062485676783944655e+01,3.438609019074647222e+01,2.712504114859848414e+01,9.523238182067871094e+00,-1.147378087043762207e+00,-3.824593424797058105e-01,5.370000000000000000e+02
-4.342949581308266715e+01,-2.132631569531213245e+01,2.264294731594281984e+01,1.114030111552524431e+02,-1.884071361801488820e+01,7.639069839358853642e+00,3.205014086976007093e+01,2.450977245796821080e+01,9.523238182067871094e+00,-1.147378087043762207e+00,-3.824593424797058105e-01,5.380000000000000000e+02
-4.276060343412018483e+01,-1.999477666801976738e+01,1.898587029190366593e+01,1.118642997003371420e+02,-2.083899491015836247e+01,5.735377371076538111e+00,2.998806666693189982e+01,2.220788948799781792e+01,9.523238182067871094e+00,-1.147378087043762207e+00,-3.824593424797058105e-01,5.390000000000000000e+02
-4.356208938685222165e+01,-1.941126596108233571e+01,1.568596971267743356e+01,1.131044652494902039e+02,-2.266266613639481875e+01,6.022971506751673587e+00,2.921065609734614554e+01,2.163585575181969034e+01,9.523238182067871094e+00,-1.147378087043762207e+00,-3.824593424797058105e-01,5.400000000000000000e+02
-4.525221801140969546e+01,-1.971230879905715483e+01,1.380906136780504312e+01,1.148898020082060611e+02,-2.311777795844955108e+01,8.753599866910008132e+00,3.007440532208784134e+01,2.363933375007763971e+01,9.523238182067871094e+00,-1.147378087043762207e+00,-3.824593424797058105e-01,5.410000000000000000e+02
-4.679462788368118709e+01,-2.035442006328594289e+01,1.375428485078464291e+01,1.169982287273078327e+02,-2.140920846489325413e+01,1.319057697638072568e+01,3.203799252769113082e+01,2.792496593331179611e+01,9.523238182067871094e+00,-1.147378087043762207e+00,-3.824593424797058105e-01,5.420000000000000000e+02
-4.732443070427325438e+01,-2.055510637834413501e+01,1.511778060644110155e+01,1.192039989727018110e+02,-1.764287209962640190e+01,1.804171724209663807e+01,3.407243528247181530e+01,3.315624668853070034e+01,9.523238182067871094e+00,-1.147378087043762207e+00,-3.824593424797058105e-01,5.430000000000000000e+02
-4.655672937171493686e+01,-1.995315671560092596e+01,1.706396048671422250e+01,1.211309774669643957e+02,-1.279781788674699783e+01,2.208049582695275603e+01,3.537409932439732074e+01,3.764675863581805970e+01,9.523238182067871094e+00,-1.147378087043762207e+00,-3.824593424797058105e-01,5.440000000000000000e+02
-4.481932510830938554e+01,-1.891240423990711861e+01,1.883562159565963157e+01,1.222676998741826537e+02,-8.145198609347971797e+00,2.458030788401174505e+01,3.578161100200850342e+01,4.015639962507020755e+01,9.523238182067871094e+00,-9.561483860015869141e-01,-3.442134261131286621e-01,5.450000000000000000e+02
-4.279378581466608011e+01,-1.820574462148397288e+01,2.002405470834310108e+01,1.222565471487378090e+02,-4.553282671064152964e+00,2.542906893867530016e+01,3.561228644016682665e+01,4.031520257028751075e+01,9.523238182067871094e+00,-9.561483860015869141e-01,-3.442134261131286621e-01,5.460000000000000000e+02
-4.115515887759102043e+01,-1.839711154524229642e+01,2.051364535179345694e+01,1.211801170923381505e+02,-2.201058566915889969e+00,2.498072550060078356e+01,3.519569188375317026e+01,3.853228268456905425e+01,9.523238182067871094e+00,-9.561483860015869141e-01,-3.442134261131286621e-01,5.470000000000000000e+02
-4.028719003043806879e+01,-1.950001556795268698e+01,2.031410103280722979e+01,1.194849445081254089e+02,-8.459981206960947020e-01,2.378795523884855356e+01,3.461623812712696235e+01,3.560714951870886580e+01,9.523238182067871094e+00,-9.561483860015869141e-01,-3.442134261131286621e-01,5.480000000000000000e+02
-4.017740243554544577e+01,-2.116358981404846418e+01,1.951317476716212695e+01,1.175773461626367862e+02,-2.838032148265483556e-01,2.236629698075103079e+01,3.387352486060171941e+01,3.238425106359227357e+01,9.523238182067871094e+00,-9.561483860015869141e-01,-3.442134261131286621e-01,5.490000000000000000e+02
-4.051143940497968288e+01,-2.311478599101428699e+01,1.835065538996332180e+01,1.155311890142584161e+02,-5.009483041912972112e-01,2.110363244640575431e+01,3.318734052773743315e+01,2.960898936067133036e+01,9.523238182067871094e+00,-9.561483860015869141e-01,-3.442134261131286621e-01,5.500000000000000000e+02
-4.088239620680178632e+01,-2.535657407886264991e+01,1.723128566017658159e+01,1.132399444479706290e+02,-1.405929583545002970e+00,2.030415499730406736e+01,3.301536323084019386e+01,2.789787245766819979e+01,9.523238182067871094e+00,-9.561483860015869141e-01,-3.442134261131286621e-01,5.510000000000000000e+02
-4.098808322895456513e+01,-2.791784577995076688e+01,1.655007556244163425e+01,1.108325296079547115e+02,-2.532026149902776524e+00,2.021185780644918850e+01,3.369101336605490360e+01,2.763578627086099004e+01,9.523238182067871094e+00,-9.561483860015869141e-01,-3.442134261131286621e-01,5.520000000000000000e+02
-4.070312711719452636e+01,-3.047463878180769825e+01,1.644140993245400750e+01,1.088371423658372805e+02,-3.147074668936511443e+00,2.089999895720575296e+01,3.505278489564898337e+01,2.876633842607316183e+01,9.523238182067871094e+00,-9.561483860015869141e-01,-3.442134261131286621e-01,5.530000000000000000e+02
-4.002914037052687490e+01,-3.233712052884493460e+01,1.668669357412545651e+01,1.078356462299261693e+02,-2.762430138002855529e+00,2.212318666387182020e+01,3.649630288461594319e+01,3.065887729726728139e+01,9.523238182067871094e+00,-9.561483860015869141e-01,-3.442134261131286621e-01,5.540000000000000000e+02
-3.904305265626135224e+01,-3.292152776921648183e+01,1.690170710282382061e+01,1.079293695692522306e+02,-1.559786960880956030e+00,2.338752086696331389e+01,3.745721821951701713e+01,3.227084686854868778e+01,9.523238182067871094e+00,-9.561483860015869141e-01,-3.442134261131286621e-01,5.550000000000000000e+02
-3.792139689141004055e+01,-3.228839366868487559e+01,1.684425322299830441e+01,1.085877351690396608e+02,-2.939415591818033135e-01,2.432168697569977667e+01,3.786565736582633690e+01,3.261527943349119596e+01,9.523238182067871094e+00,-9.561483860015869141e-01,-3.442134261131286621e-01,5.560000000000000000e+02
-3.698300468642537453e+01,-3.118973946022106247e+01,1.654422593819072063e+01,1.090608716588340030e+02,2.717284922491671750e-01,2.504020964027040463e+01,3.810572393054007989e+01,3.125990542991803522e+01,9.523238182067871094e+00,-9.561483860015869141e-01,-3.442134261131286621e-01,5.570000000000000000e+02
-3.659940987155187031e+01,-3.052944704804576759e+01,1.614159658615244552e+01,1.089409717947983154e+02,-9.035520435736543732e-02,2.607391452647789265e+01,3.851784861286068917e+01,2.849716617888680048e+01,9.523238182067871094e+00,-9.561483860015869141e-01,-3.442134261131286621e-01,5.580000000000000000e+02
-3.692689759558743390e+01,-3.070170146017153456e+01,1.562366972882591654e+01,1.083330348786785180e+02,-9.992569613659725292e-01,2.781171880844703992e+01,3.895264612403843785e+01,2.503708485265542549e+01,9.523238182067871094e+00,-9.561483860015869141e-01,-3.442134261131286621e-01,5.590000000000000000e+02
-3.766125609749269643e+01,-3.140253454900448560e+01,1.476094313608064112e+01,1.075520464800501941e+02,-1.859406569474231219e+00,2.995640267909584509e+01,3.883480195766969700e+01,2.145473861165555718e+01,9.523238182067871094e+00,-9.561483860015869141e-01,-3.442134261131286621e-01,5.600000000000000000e+02
-3.811135696236124204e+01,-3.204826508315818501e+01,1.334171324175258633e+01,1.067669321941575618e+02,-2.303800142955878982e+00,3.160869008931877033e+01,3.769219061601143039e+01,1.786273751630778861e+01,9.523238182067871094e+00,-9.561483860015869141e-01,-3.442134261131286621e-01,5.610000000000000000e+02
-3.766585051890615432e+01,-3.235109851511060697e+01,1.147736382585753745e+01,1.059926750603808614e+02,-2.319346603717349353e+00,3.201901568563698675e+01,3.563566472858383349e+01,1.409102740912294394e+01,9.523238182067871094e+00,-9.561483860015869141e-01,-3.442134261131286621e-01,5.620000000000000000e+02
-3.635491020129757089e+01,-3.250692822986820829e+01,9.622526307010048185e+00,1.053532351741487219e+02,-2.072776696963956056e+00,3.132286085935265874e+01,3.331684195700290729e+01,1.016845726588326215e+01,9.523238182067871094e+00,-9.561483860015869141e-01,-3.442134261131286621e-01,5.630000000000000000e+02
-3.499721638145456382e+01,-3.288311531268300314e+01,8.250878530028785462e+00,1.052014225714829081e+02,-1.703440845942168380e+00,3.051613071782776387e+01,3.141827129188277468e+01,6.607674327079621435e+00,9.523238182067871094e+00,-9.561483860015869141e-01,-3.442134261131286621e-01,5.640000000000000000e+02
-3.466677126953982224e+01,-3.360671486870614899e+01,7.485958975494213519e+00,1.058464239268068923e+02,-1.299328631363096065e+00,3.062092475044300954e+01,3.015302332188548462e+01,4.147604535117352498e+00,9.523238182067871094e+00,-9.561483860015869141e-01,-3.442134261131286621e-01,5.650000000000000000e+02
-3.582034001288047875e+01,-3.450167374634747830e+01,7.044272607838138356e+00,1.071185216160538403e+02,-1.012077525083441287e+00,3.178550512104629888e+01,2.921092777421836217e+01,3.101058639159418817e+00,9.523238182067871094e+00,-9.561483860015869141e-01,-3.442134261131286621e-01,5.660000000000000000e+02
-3.780439300237594580e+01,-3.537536187281875755e+01,6.561172106132289628e+00,1.082605563679408078e+02,-1.096355659641631064e+00,3.316124754674638098e+01,2.815583359000447672e+01,2.888932542704424122e+00,9.523238182067871094e+00,-9.561483860015869141e-01,-3.442134261131286621e-01,5.670000000000000000e+02
-3.923273522345334641e+01,-3.624806564935715869e+01,5.991157117370676133e+00,1.083522527989916853e+02,-1.751254360335224192e+00,3.367053758950169140e+01,2.688349853649197030e+01,2.265855442286920152e+00,9.523238182067871094e+00,-9.561483860015869141e-01,-3.442134261131286621e-01,5.680000000000000000e+02
-3.902111949630307208e+01,-3.720598392945976229e+01,5.689606754602209548e+00,1.069679948564880760e+02,-2.877058194317214657e+00,3.294910057733250142e+01,2.576160743459513469e+01,1.820734327593527269e-01,9.523238182067871094e+00,-9.561483860015869141e-01,-3.442134261131286621e-01,5.690000000000000000e+02
-3.724594053144573991e+01,-3.803458407117068418e+01,6.103865359116753098e+00,1.045429903403673961e+02,-3.983249734548735432e+00,3.162601164105399221e+01,2.539869180670029891e+01,-3.356111429551674519e+00,9.523238182067871094e+00,-9.561483860015869141e-01,-3.442134261131286621e-01,5.700000000000000000e+02
-3.506817677922117582e+01,-3.812614303160989948e+01,7.376464993845729623e+00,1.021583480342760595e+02,-4.394145559230310027e+00,3.075828864258801332e+01,2.626858025191359047e+01,-7.145293293864597217e+00,9.523238182067871094e+00,-9.561483860015869141e-01,-3.442134261131286621e-01,5.710000000000000000e+02
-3.374435653998261841e+01,-3.692499882528863964e+01,9.226386946771526709e+00,1.008959992684103781e+02,-3.658461312992585590e+00,3.098729841794556705e+01,2.842082481646684755e+01,-9.570171682160435012e+00,9.408499717712402344e+00,-1.070886254310607910e+00,-3.442134261131286621e-01,5.720000000000000000e+02
-3.356330714364776213e+01,-3.457535126803486492e+01,1.118584530333646399e+01,1.012125822116504423e+02,-1.870169489986437839e+00,3.215851125802873867e+01,3.138217889816769457e+01,-9.768481593202523072e+00,9.408499717712402344e+00,-1.070886254310607910e+00,-3.442134261131286621e-01,5.730000000000000000e+02
-3.365712268041170319e+01,-3.210158036149550753e+01,1.291746347370644799e+01,1.027284710150252067e+02,3.453052435870631598e-01,3.362410359102432267e+01,3.426110081371007254e+01,-8.281313523491917294e+00,9.408499717712402344e+00,-1.070886254310607910e+00,-3.442134261131286621e-01,5.740000000000000000e+02
-3.288894282385263068e+01,-3.080412216832155536e+01,1.429735900146260974e+01,1.045245522836230521e+02,2.185582546700970852e+00,3.482838975173217477e+01,3.604546511278022081e+01,-6.660865174764694530e+00,9.408499717712402344e+00,-1.070886254310607910e+00,-3.442134261131286621e-01,5.750000000000000000e+02
-3.104368363248613605e+01,-3.129418958995847788e+01,1.524418758814317698e+01,1.057350357078394154e+02,3.113712167472840520e+00,3.562898036503611365e+01,3.604585375545138959e+01,-6.314399842611237545e+00,9.408499717712402344e+00,-1.070886254310607910e+00,-3.442134261131286621e-01,5.760000000000000000e+02
-2.922400867841315630e+01,-3.300403098240531108e+01,1.556318178942456143e+01,1.060519260103719716e+02,3.073733711848035455e+00,3.616597038300096756e+01,3.430956395080102084e+01,-7.488409428031445714e+00,9.408499717712402344e+00,-1.070886254310607910e+00,-3.442134261131286621e-01,5.770000000000000000e+02
-2.901624919909409073e+01,-3.463776961553594447e+01,1.506239673713753291e+01,1.058294103791358793e+02,2.394102654510788852e+00,3.655312370734827709e+01,3.172151503727400268e+01,-9.206852141565832426e+00,9.408499717712402344e+00,-1.070886254310607910e+00,-3.442134261131286621e-01,5.780000000000000000e+02
-3.107934162757919694e+01,-3.517825844440085348e+01,1.386250112045672722e+01,1.057228751177208323e+02,1.517495234385933145e+00,3.674931309193561901e+01,2.961265721063682577e+01,-1.020260911847617535e+01,9.408499717712402344e+00,-1.070886254310607910e+00,-3.442134261131286621e-01,5.790000000000000000e+02
-3.437119295098636940e+01,-3.455475496122744516e+01,1.255296929342875956e+01,1.061321347731063724e+02,7.801476169552188367e-01,3.670028597183045349e+01,2.902705159339166130e+01,-1.005030752834682062e+01,9.408499717712402344e+00,-1.070886254310607910e+00,-3.442134261131286621e-01,5.800000000000000000e+02
-3.675319280346411688e+01,-3.343663022610417102e+01,1.191783422542357584e+01,1.068732431463740795e+02,3.267089514101826353e-01,3.651382173710953793e+01,3.008870369938085787e+01,-9.540615389634695021e+00,9.408499717712402344e+00,-1.070886254310607910e+00,-3.442134261131286621e-01,5.810000000000000000e+02
-3.654842531368376513e+01,-3.246775130979767710e+01,1.234777408706577262e+01,1.073443354870560142e+02,9.529326303163543344e-02,3.642062238551807241e+01,3.190834515255482984e+01,-9.977103098772204248e+00,9.408499717712402344e+00,-1.070886254310607910e+00,-3.442134261131286621e-01,5.820000000000000000e+02
-3.380756805177770730e+01,-3.175656590616563335e+01,1.342370529708568938e+01,1.070548479968656466e+02,-1.723225891855690861e-01,3.656023429305059835e+01,3.312727393716340885e+01,-1.201963167462236015e+01,9.408499717712402344e+00,-1.070886254310607910e+00,-3.442134261131286621e-01,5.830000000000000000e+02
-3.025996079326614563e+01,-3.110104590098126209e+01,1.408805278089130297e+01,1.060385281733979355e+02,-8.408590240396733861e-01,3.682850342253368581e+01,3.274521711198940466e+01,-1.510813506373597193e+01,9.408499717712402344e+00,-1.070886254310607910e+00,-3.442134261131286621e-01,5.840000000000000000e+02
-2.800524241364473710e+01,-3.057524847077183949e+01,1.335984220797945454e+01,1.047680339800790534e+02,-2.154313831551917247e+00,3.696133847102828440e+01,3.070153272062270844e+01,-1.795859068456957175e+01,9.408499717712402344e+00,-1.070886254310607910e+00,-3.442134261131286621e-01,5.850000000000000000e+02
-2.802321497026241559e+01,-3.069521532604267122e+01,1.108253631575462350e+01,1.036433561541234667e+02,-3.986264514584036078e+00,3.675645797730248887e+01,2.785382736886094790e+01,-1.965882317000796320e+01,9.408499717712402344e+00,-1.070886254310607910e+00,-3.442134261131286621e-01,5.860000000000000000e+02
-2.967381173817921081e+01,-3.186788644451917207e+01,8.111633692233226611e+00,1.025521077725788928e+02,-5.815219838703342248e+00,3.619050595143562532e+01,2.540485555138184282e+01,-2.034617065130260016e+01,9.408499717712402344e+00,-1.070886254310607910e+00,-3.442134261131286621e-01,5.870000000000000000e+02
-3.148150925535446731e+01,-3.369036900932405842e+01,5.777973686101177009e+00,1.009819165748849628e+02,-7.025121008166024694e+00,3.534668386477642343e+01,2.418529445965032210e+01,-2.086785066693482804e+01,9.408499717712402344e+00,-1.070886254310607910e+00,-3.442134261131286621e-01,5.880000000000000000e+02
-3.240338612530285900e+01,-3.495017967258536373e+01,5.047443268549614004e+00,9.864545339404139668e+01,-7.311705157877440797e+00,3.430621571128722280e+01,2.425618991375085898e+01,-2.179746900354075478e+01,9.408499717712402344e+00,-1.070886254310607910e+00,-3.442134261131286621e-01,5.890000000000000000e+02
-3.244967232336421148e+01,-3.451043536208453588e+01,6.014365298651682679e+00,9.603698107062155032e+01,-6.826667827941491851e+00,3.318129710316134151e+01,2.504629226008728438e+01,-2.277930378768360242e+01,9.408499717712402344e+00,-1.070886254310607910e+00,-3.442134261131286621e-01,5.900000000000000000e+02
-3.223470609185824287e+01,-3.231312651667758473e+01,8.056340686196563183e+00,9.430343691437155940e+01,-5.940294258809444727e+00,3.223358806372561958e+01,2.586241005060583120e+01,-2.286877253524653497e+01,9.408499717712402344e+00,-1.070886254310607910e+00,-3.442134261131286621e-01,5.910000000000000000e+02
-3.205436633459976292e+01,-2.950153225368921994e+01,1.041155223732130253e+01,9.441137023215560475e+01,-4.908524185990245314e+00,3.184703543886280386e+01,2.638112622800326790e+01,-2.156235642708270461e+01,9.408499717712402344e+00,-1.070886254310607910e+00,-3.442134261131286621e-01,5.920000000000000000e+02
-3.149125256317893218e+01,-2.747515338168886956e+01,1.262422989125843742e+01,9.628605451894691214e+01,-3.829349340536282398e+00,3.226170177801759564e+01,2.678792460171825951e+01,-1.952713345180200122e+01,9.408499717712402344e+00,-1.070886254310607910e+00,-3.442134261131286621e-01,5.930000000000000000e+02
-2.995514107232702372e+01,-2.673864729154956876e+01,1.450565357937193767e+01,9.870250340357233654e+01,-2.921376010239328025e+00,3.330006378112739185e+01,2.750448549499378714e+01,-1.828282234405014606e+01,9.408499717712402344e+00,-1.070886254310607910e+00,-3.442134261131286621e-01,5.940000000000000000e+02
-2.758112309614261903e+01,-2.662241931051175925e+01,1.576945711881489842e+01,1.001082181203855725e+02,-2.725588803448772524e+00,3.443295128659156035e+01,2.874950379385336419e+01,-1.902494505479262443e+01,9.408499717712402344e+00,-1.070886254310607910e+00,-3.442134261131286621e-01,5.950000000000000000e+02
-2.549169016866653692e+01,-2.608402660421961627e+01,1.585966454330264241e+01,9.974491398403552012e+01,-3.845764348192460602e+00,3.522937521600397304e+01,3.029523473510198528e+01,-2.157348127615659905e+01,9.408499717712402344e+00,-1.070886254310607910e+00,-3.442134261131286621e-01,5.960000000000000000e+02
-2.503134313554983237e+01,-2.473155599547499151e+01,1.431105052566817903e+01,9.815995206103616511e+01,-6.327323077730397927e+00,3.580496006772955297e+01,3.162004876704668277e+01,-2.435063163284576149e+01,9.408499717712402344e+00,-1.070886254310607910e+00,-3.442134261131286621e-01,5.970000000000000000e+02
-2.660782061535792309e+01,-2.305545586956941406e+01,1.140888473163249728e+01,9.673305065277236281e+01,-9.243523546494543552e+00,3.681123827253759373e+01,3.233451278650318272e+01,-2.543332136890967377e+01,9.408499717712402344e+00,-1.070886254310607910e+00,-3.442134261131286621e-01,5.980000000000000000e+02
-2.920546053651560214e+01,-2.172884341025564936e+01,8.482522394149782485e+00,9.665289920628856635e+01,-1.101289355745029752e+01,3.890888198195170844e+01,3.253954491528565995e+01,-2.386152372736796679e+01,9.408499717712402344e+00,-1.070886254310607910e+00,-3.442134261131286621e-01,5.990000000000000000e+02
-3.104145472238451475e+01,-2.080165469421626767e+01,7.345625270199889201e+00,9.816649213811615482e+01,-1.035647609241277678e+01,4.216834964094596216e+01,3.281796072212091531e+01,-2.022424416048488638e+01,9.408499717712402344e+00,-1.070886254310607910e+00,-3.442134261131286621e-01,6.000000000000000000e+02
-3.080545967669240781e+01,-1.967748767135344679e+01,9.114782620348705677e+00,1.005918029148342612e+02,-7.209003613457753090e+00,4.591514570233630366e+01,3.383108293496843544e+01,-1.617301306961235241e+01,9.408499717712402344e+00,-1.070886254310607910e+00,-3.442134261131286621e-01,6.010000000000000000e+02
-2.842641152739452082e+01,-1.788746202475522296e+01,1.329682435997528955e+01,1.029004820804111660e+02,-2.860903176260762848e+00,4.914447435856709490e+01,3.581320674797461834e+01,-1.332083290863010916e+01,9.408499717712402344e+00,-1.070886254310607910e+00,-3.442134261131286621e-01,6.020000000000000000e+02
-2.483389329144483781e+01,-1.581209275302899186e+01,1.796826661114755552e+01,1.043065762029291363e+02,8.094445325587003026e-01,5.115107263026220608e+01,3.833682113214308629e+01,-1.235318632387134130e+01,9.446745872497558594e+00,-1.147378087043762207e+00,-2.677215635776519775e-01,6.030000000000000000e+02
-2.113064397381458548e+01,-1.453855726417532424e+01,2.104478747004395700e+01,1.044818594271164329e+02,2.467100411693536444e+00,5.188813979194674175e+01,4.053507819441074389e+01,-1.286019593031596742e+01,9.446745872497558594e+00,-1.147378087043762207e+00,-2.677215635776519775e-01,6.040000000000000000e+02
-1.800697670828958508e+01,-1.492216009152616607e+01,2.172157881607199670e+01,1.034751418162559276e+02,2.067127076588803902e+00,5.186353181050799321e+01,4.165034712308261078e+01,-1.377605504371967982e+01,9.446745872497558594e+00,-1.147378087043762207e+00,-2.677215635776519775e-01,6.050000000000000000e+02
-1.577700125065894099e+01,-1.674245378404157236e+01,2.096636205014874577e+01,1.016086880969851336e+02,8.069485734267800581e-01,5.174463062621362042e+01,4.154281124209592235e+01,-1.395540096273180097e+01,9.446745872497558594e+00,-1.147378087043762207e+00,-2.677215635776519775e-01,6.060000000000000000e+02
-1.466734451671436545e+01,-1.876585233780861017e+01,2.069614497676229803e+01,9.945586525286853430e+01,4.125641872778942343e-01,5.198293861464480869e+01,4.082822375560135697e+01,-1.254649931373569416e+01,9.446745872497558594e+00,-1.147378087043762207e+00,-2.677215635776519775e-01,6.070000000000000000e+02
-1.481607340283153462e+01,-1.966759683786585811e+01,2.230009081233583856e+01,9.777363591901303153e+01,2.205440334135346347e+00,5.266752909805654781e+01,4.054670808116497938e+01,-9.195507753713172860e+00,9.446745872497558594e+00,-1.147378087043762207e+00,-2.677215635776519775e-01,6.080000000000000000e+02
-1.594830278465087758e+01,-1.898082652273296844e+01,2.564309959888123558e+01,9.724644693768641446e+01,6.385292718339769635e+00,5.360864494449197082e+01,4.153937274459167384e+01,-4.247016456371056847e+00,9.446745872497558594e+00,-1.147378087043762207e+00,-2.677215635776519775e-01,6.090000000000000000e+02
-1.721121785955983796e+01,-1.726473368603546987e+01,2.925591572269331664e+01,9.814262511689958046e+01,1.180439182405098109e+01,5.453752454824279994e+01,4.388460750946251210e+01,1.105298930524440948e+00,9.446745872497558594e+00,-1.147378087043762207e+00,-2.677215635776519775e-01,6.100000000000000000e+02
-1.757187384685312281e+01,-1.545277942821849138e+01,3.143509804588757106e+01,1.001394886299895006e+02,1.633242529978815583e+01,5.526978970710479189e+01,4.671833099873401807e+01,4.994599417543213349e+00,9.446745872497558594e+00,-1.147378087043762207e+00,-2.677215635776519775e-01,6.110000000000000000e+02
-1.654896860839289729e+01,-1.405687439698158414e+01,3.133191213611644343e+01,1.024665899779502070e+02,1.774436538114605355e+01,5.572336384696973255e+01,4.858431218750411063e+01,5.583893617480498506e+00,9.446745872497558594e+00,-1.147378087043762207e+00,-2.677215635776519775e-01,6.120000000000000000e+02
-1.459133198509880458e+01,-1.293193315400276333e+01,2.928400847979719401e+01,1.042673277730973496e+02,1.483806491689028917e+01,5.581267874926561490e+01,4.818838199028687086e+01,2.050447941444872413e+00,9.446745872497558594e+00,-1.147378087043762207e+00,-2.677215635776519775e-01,6.130000000000000000e+02
-1.270272898846451426e+01,-1.170387591021790286e+01,2.632595238916110247e+01,1.049292057941347593e+02,8.219898544775787741e+00,5.534889308957644971e+01,4.515735504733675043e+01,-4.793485185182362329e+00,9.446745872497558594e+00,-1.147378087043762207e+00,-2.677215635776519775e-01,6.140000000000000000e+02
