F3,F4,C3,C4,P3,P4,Cz,Pz,Accel_x,Accel_y,Accel_z,Sample
-3.274180926382541656e-11,-4.638422979041934013e-11,-3.910827217623591423e-11,-3.637978807091712952e-11,-2.455635694786906242e-11,-3.274180926382541656e-11,-3.547029336914420128e-11,-2.910383045673370361e-11,9.446745872497558594e+00,-1.109132170677185059e+00,-2.677215635776519775e-01,2.020000000000000000e+02
-1.005438058922482014e+01,-1.326083555150489701e+01,-5.096495075851635193e+00,3.147471121954367845e+00,-1.046140291848041670e+01,4.220096190914773615e+00,-8.973508199158459320e+00,-1.023974745649138640e+01,9.446745872497558594e+00,-1.109132170677185059e+00,-2.677215635776519775e-01,2.030000000000000000e+02
-2.073560312019799312e+01,-2.409301069276352791e+01,-1.054694218842450937e+01,4.881588493122762884e+00,-2.237659681326658756e+01,2.169024962075127405e+00,-1.599763682947832422e+01,-1.861698711101234949e+01,9.446745872497558594e+00,-1.109132170677185059e+00,-2.677215635776519775e-01,2.040000000000000000e+02
-3.196320809597455082e+01,-3.198898798436403013e+01,-1.630635418480960652e+01,5.159651076375666889e+00,-3.540336932394711766e+01,-6.906348534161224961e+00,-2.035845067466925684e+01,-2.446508122229715809e+01,9.446745872497558594e+00,-1.109132170677185059e+00,-2.677215635776519775e-01,2.050000000000000000e+02
-4.292880686962325854e+01,-3.853664976522122743e+01,-2.183533716544752679e+01,5.280691344738443149e+00,-4.742951374556923838e+01,-1.806498959549935535e+01,-2.278558303073896241e+01,-2.837891418616345618e+01,9.446745872497558594e+00,-1.109132170677185059e+00,-2.677215635776519775e-01,2.060000000000000000e+02
-5.278348990725316980e+01,-4.579253933219297323e+01,-2.640508871409110725e+01,6.519810697876891936e+00,-5.639551052950082521e+01,-2.570472275392603478e+01,-2.458218821627997386e+01,-3.126817472065431502e+01,9.446745872497558594e+00,-1.109132170677185059e+00,-2.677215635776519775e-01,2.070000000000000000e+02
-6.137524739772743487e+01,-5.447326001882538549e+01,-2.960087548541196156e+01,8.864521439290001581e+00,-6.211026587778724206e+01,-2.854432712185734999e+01,-2.656867871901613398e+01,-3.354398674769890931e+01,9.446745872497558594e+00,-1.109132170677185059e+00,-2.677215635776519775e-01,2.080000000000000000e+02
-6.934912308367256628e+01,-6.359879921390893287e+01,-3.163024819208294502e+01,1.110644495377709973e+01,-6.637119917547352088e+01,-2.984310454556907644e+01,-2.875181736947342870e+01,-3.524042403881048813e+01,9.446745872497558594e+00,-1.109132170677185059e+00,-3.059675097465515137e-01,2.090000000000000000e+02
-7.755460602787479729e+01,-7.169825999678232620e+01,-3.316115582965267095e+01,1.209380072650128568e+01,-7.142194922388898704e+01,-3.335210443887808651e+01,-3.078470487351023621e+01,-3.666552017471803993e+01,9.446745872497558594e+00,-1.109132170677185059e+00,-3.059675097465515137e-01,2.100000000000000000e+02
-8.634388788427258987e+01,-7.823873991758409829e+01,-3.481659893894902780e+01,1.183258697017117811e+01,-7.828249189760026638e+01,-3.962105776833413984e+01,-3.252660631317485240e+01,-3.855616954793094919e+01,9.446745872497558594e+00,-1.109132170677185059e+00,-3.059675097465515137e-01,2.110000000000000000e+02
-9.538770423772893992e+01,-8.394928262275334419e+01,-3.677711218921376712e+01,1.140955104389468033e+01,-8.636849040279957990e+01,-4.623375368212691683e+01,-3.411852756321422930e+01,-4.144388106063070154e+01,9.446745872497558594e+00,-1.109132170677185059e+00,-3.059675097465515137e-01,2.120000000000000000e+02
-1.040890119509367651e+02,-8.996470168357245711e+01,-3.885535282241289678e+01,1.198991775664035231e+01,-9.442159960848493938e+01,-5.099509296456380980e+01,-3.566661180396113195e+01,-4.502786054804164451e+01,9.446745872497558594e+00,-1.109132170677185059e+00,-3.059675097465515137e-01,2.130000000000000000e+02
-1.121322831093611967e+02,-9.680094962998100527e+01,-4.095854114559642767e+01,1.394934870961606066e+01,-1.016730598013709823e+02,-5.426379366636501800e+01,-3.707799264352070168e+01,-4.843168637997587211e+01,9.446745872497558594e+00,-1.109132170677185059e+00,-3.059675097465515137e-01,2.140000000000000000e+02
-1.196678778002542458e+02,-1.041048535437175815e+02,-4.343802287661765149e+01,1.684574589652038412e+01,-1.082667848047058214e+02,-5.816221505404610070e+01,-3.831447740084786346e+01,-5.117798531217431446e+01,9.446745872497558594e+00,-1.109132170677185059e+00,-3.059675097465515137e-01,2.150000000000000000e+02
-1.270668607448496914e+02,-1.111770706957568109e+02,-4.689698528814551537e+01,2.000423873135150643e+01,-1.148613355352836152e+02,-6.401990227574970049e+01,-3.970614830913564219e+01,-5.376415458019801008e+01,9.446745872497558594e+00,-1.109132170677185059e+00,-3.059675097465515137e-01,2.160000000000000000e+02
-1.345838604066057087e+02,-1.175786235822952221e+02,-5.157169414846066502e+01,2.301246900266050943e+01,-1.219751943331957591e+02,-7.101168468094510899e+01,-4.180479982787528570e+01,-5.709446177229801833e+01,9.446745872497558594e+00,-1.109132170677185059e+00,-3.059675097465515137e-01,2.170000000000000000e+02
-1.422559884733791478e+02,-1.233016325878916177e+02,-5.689102555399131234e+01,2.575661315512661531e+01,-1.295795380678928268e+02,-7.719843308429517492e+01,-4.479284185294636700e+01,-6.132934320572894649e+01,9.446745872497558594e+00,-1.109132170677185059e+00,-3.059675097465515137e-01,2.180000000000000000e+02
-1.500347581774085484e+02,-1.285752386378871961e+02,-6.171535449646853522e+01,2.819763754036193859e+01,-1.370868297641882236e+02,-8.151517347687331494e+01,-4.807887478283737437e+01,-6.543637895211304567e+01,9.446745872497558594e+00,-1.109132170677185059e+00,-3.059675097465515137e-01,2.190000000000000000e+02
-1.579125156585123477e+02,-1.336826887454644748e+02,-6.511066574257347384e+01,3.025088585813591635e+01,-1.436488538324974797e+02,-8.455963824859463784e+01,-5.063645683783670393e+01,-6.802693252537301305e+01,9.446745872497558594e+00,-1.109132170677185059e+00,-3.059675097465515137e-01,2.200000000000000000e+02
-1.658978724880207665e+02,-1.389324842502501269e+02,-6.701798322923968954e+01,3.184422099524090299e+01,-1.486435036770335500e+02,-8.767655516890863510e+01,-5.191103644028680719e+01,-6.869335634486105846e+01,9.446745872497558594e+00,-1.109132170677185059e+00,-3.059675097465515137e-01,2.210000000000000000e+02
-1.739231069308461883e+02,-1.446141075950235972e+02,-6.824993335535509686e+01,3.297685599658507272e+01,-1.521466417015435582e+02,-9.161775164324535581e+01,-5.245171837084490107e+01,-6.849336435959776281e+01,9.446745872497558594e+00,-1.109132170677185059e+00,-3.059675097465515137e-01,2.220000000000000000e+02
-1.818469854735058107e+02,-1.508004863693540756e+02,-6.984466995091952413e+01,3.369300411751282809e+01,-1.550616780452082821e+02,-9.611835928644177329e+01,-5.356452196968075441e+01,-6.908167377150311950e+01,9.446745872497558594e+00,-1.109132170677185059e+00,-3.059675097465515137e-01,2.230000000000000000e+02
-1.895432727024053747e+02,-1.571553344407129771e+02,-7.234950961403592373e+01,3.407117140473746986e+01,-1.586975066596032775e+02,-1.004938391259884156e+02,-5.617308561748814100e+01,-7.131909714474841167e+01,9.446745872497558594e+00,-1.109132170677185059e+00,-3.059675097465515137e-01,2.240000000000000000e+02
-1.969214696317249036e+02,-1.630213986761518754e+02,-7.555430548122967593e+01,3.432223376358251699e+01,-1.639840903236517988e+02,-1.043665654845499375e+02,-5.987435626495789620e+01,-7.461812372010354011e+01,9.446745872497558594e+00,-1.109132170677185059e+00,-3.059675097465515137e-01,2.250000000000000000e+02
-2.038477117143547730e+02,-1.678308282093803427e+02,-7.876311034303944325e+01,3.487670256366800459e+01,-1.708658395901529730e+02,-1.078000496590138937e+02,-6.308782117351347551e+01,-7.750060132896487630e+01,9.446745872497558594e+00,-1.109132170677185059e+00,-3.059675097465515137e-01,2.260000000000000000e+02
-2.101062359783327338e+02,-1.715152966422565441e+02,-8.130503000676253578e+01,3.626252891343392548e+01,-1.783346341155265691e+02,-1.109501830617364249e+02,-6.426916350274586875e+01,-7.875093799089199820e+01,9.446745872497558594e+00,-1.109132170677185059e+00,-3.059675097465515137e-01,2.270000000000000000e+02
-2.155545530034833064e+02,-1.745474303360879276e+02,-8.292446604213000683e+01,3.876964253257574455e+01,-1.850772692592609019e+02,-1.137721322072839030e+02,-6.321887451032216632e+01,-7.820973022522503015e+01,9.446745872497558594e+00,-1.109132170677185059e+00,-3.059675097465515137e-01,2.280000000000000000e+02
-2.203786519706500258e+02,-1.775924862439460412e+02,-8.391171151409162121e+01,4.215507735407027212e+01,-1.902718860172444693e+02,-1.160991717017968767e+02,-6.140015756015418447e+01,-7.675604947431156688e+01,9.446745872497558594e+00,-1.109132170677185059e+00,-3.059675097465515137e-01,2.290000000000000000e+02
-2.251306293848920177e+02,-1.811007695277148741e+02,-8.497423772289948829e+01,4.566180892651846079e+01,-1.939938606392852307e+02,-1.179330130155176448e+02,-6.095748839782845607e+01,-7.571189507561302889e+01,9.446745872497558594e+00,-1.070886254310607910e+00,-3.442134261131286621e-01,2.300000000000000000e+02
-2.303640980835989467e+02,-1.851899263174300359e+02,-8.686152506632197401e+01,4.835621470977912395e+01,-1.970144996714916488e+02,-1.196213029501905112e+02,-6.316556165656766098e+01,-7.613249936940428597e+01,9.446745872497558594e+00,-1.070886254310607910e+00,-3.442134261131286621e-01,2.310000000000000000e+02
-2.361220236437552558e+02,-1.898379528785417278e+02,-8.986765315531374654e+01,4.952530941441455070e+01,-2.002127767522642898e+02,-1.217654019556812273e+02,-6.751528940114076249e+01,-7.831362996645202657e+01,9.446745872497558594e+00,-1.070886254310607910e+00,-3.442134261131286621e-01,2.320000000000000000e+02
-2.418069716690065434e+02,-1.951064199343854852e+02,-9.351440550698225707e+01,4.890828057273574814e+01,-2.040332735263527866e+02,-1.249228053917004218e+02,-7.213670402294974338e+01,-8.168500315485198371e+01,9.446745872497558594e+00,-1.070886254310607910e+00,-3.442134261131286621e-01,2.330000000000000000e+02
-2.466762642962557948e+02,-2.011264916048494342e+02,-9.674567084964837704e+01,4.673479237921037566e+01,-2.083273498729076891e+02,-1.293185877945425091e+02,-7.518799105039397546e+01,-8.514987135530100204e+01,9.446745872497558594e+00,-1.070886254310607910e+00,-3.442134261131286621e-01,2.340000000000000000e+02
-2.505784954084660967e+02,-2.078651124657130822e+02,-9.862935214501976589e+01,4.367431982073230756e+01,-2.126241896637102400e+02,-1.347545823471646145e+02,-7.611620304380903690e+01,-8.777116991826142112e+01,9.446745872497558594e+00,-1.070886254310607910e+00,-3.442134261131286621e-01,2.350000000000000000e+02
-2.542255320769409082e+02,-2.149428491538888011e+02,-9.907617225247577153e+01,4.072467330088602466e+01,-2.165975664623197190e+02,-1.407497562293719966e+02,-7.585721009360440803e+01,-8.940683462082370170e+01,9.446745872497558594e+00,-1.070886254310607910e+00,-3.442134261131286621e-01,2.360000000000000000e+02
-2.586678691989168328e+02,-2.217324259106276259e+02,-9.895538639249070911e+01,3.895215146954160446e+01,-2.203662627653711752e+02,-1.467765974545391146e+02,-7.592617575369467886e+01,-9.077213374776101773e+01,9.446745872497558594e+00,-1.070886254310607910e+00,-3.442134261131286621e-01,2.370000000000000000e+02
-2.644094383890264908e+02,-2.276900564572492840e+02,-9.946908427765765737e+01,3.907140642255399143e+01,-2.244164236800338585e+02,-1.523911167320338791e+02,-7.725527300236853989e+01,-9.280950148552938117e+01,9.446745872497558594e+00,-1.070886254310607910e+00,-3.442134261131286621e-01,2.380000000000000000e+02
-2.709626113944796089e+02,-2.326390377029665615e+02,-1.013196277035472121e+02,4.106356228350614401e+01,-2.292506925811758265e+02,-1.572300570659053847e+02,-7.973823631539062262e+01,-9.587283846064792669e+01,9.446745872497558594e+00,-1.070886254310607910e+00,-3.442134261131286621e-01,2.390000000000000000e+02
-2.772710560182540576e+02,-2.367687219042168181e+02,-1.043926920695057561e+02,4.415437492813998688e+01,-2.350684950498621220e+02,-1.610233975639685013e+02,-8.269178321452591263e+01,-9.943985938555852044e+01,9.446745872497558594e+00,-1.070886254310607910e+00,-3.442134261131286621e-01,2.400000000000000000e+02
-2.826096251550034140e+02,-2.403772876896873640e+02,-1.081319923606674820e+02,4.727658590379178349e+01,-2.416696256578079556e+02,-1.637451477440426970e+02,-8.558926210707204518e+01,-1.025806266300360221e+02,9.446745872497558594e+00,-1.070886254310607910e+00,-3.442134261131286621e-01,2.410000000000000000e+02
-2.871443494868744892e+02,-2.436198065391649834e+02,-1.121051599806505692e+02,4.969052738159098226e+01,-2.485409564516889986e+02,-1.658069272344428100e+02,-8.831453389463877102e+01,-1.047149359326872400e+02,9.446745872497558594e+00,-1.070886254310607910e+00,-3.442134261131286621e-01,2.420000000000000000e+02
-2.916577087660180041e+02,-2.464866694241186451e+02,-1.161270942137384736e+02,5.127194369647259009e+01,-2.549627034269292380e+02,-1.679672450267398744e+02,-9.080898531281945907e+01,-1.059268021567409050e+02,9.446745872497558594e+00,-1.070886254310607910e+00,-3.442134261131286621e-01,2.430000000000000000e+02
-2.967291131219121780e+02,-2.490018326666008761e+02,-1.198859084159589656e+02,5.224726164742423862e+01,-2.601303348745150288e+02,-1.708547712179679365e+02,-9.268008354134690308e+01,-1.066282274208456329e+02,9.446745872497558594e+00,-1.070886254310607910e+00,-3.442134261131286621e-01,2.440000000000000000e+02
-3.021317336466881898e+02,-2.513971037850001267e+02,-1.226298887488860601e+02,5.270963178444617370e+01,-2.634233587948147033e+02,-1.744362001654781125e+02,-9.334267352745473545e+01,-1.070525672166395452e+02,9.446745872497558594e+00,-1.070886254310607910e+00,-3.442134261131286621e-01,2.450000000000000000e+02
-3.069554711022119591e+02,-2.540176303898338119e+02,-1.234674807206092737e+02,5.248948489003305440e+01,-2.648315937136271714e+02,-1.779579289268658613e+02,-9.261064509182915572e+01,-1.071789623084541745e+02,9.446745872497558594e+00,-1.070886254310607910e+00,-3.442134261131286621e-01,2.460000000000000000e+02
-3.103238098686492776e+02,-2.569842451566278214e+02,-1.221638521920740459e+02,5.157067435085446050e+01,-2.652550535264485916e+02,-1.805546236332802437e+02,-9.109239871666886756e+01,-1.071459359538757781e+02,9.446745872497558594e+00,-1.070886254310607910e+00,-3.442134261131286621e-01,2.470000000000000000e+02
-3.121089844077855560e+02,-2.599196748496779037e+02,-1.196976528376267197e+02,5.061966538518754533e+01,-2.662604520852596579e+02,-1.820235127857122279e+02,-8.989319613999941794e+01,-1.075880877749686988e+02,9.446745872497558594e+00,-1.070886254310607910e+00,-3.442134261131286621e-01,2.480000000000000000e+02
-3.131083629497593392e+02,-2.620510389747760200e+02,-1.179237593690227186e+02,5.093918128509358212e+01,-2.692364787730466560e+02,-1.830206004275996747e+02,-8.983704508853952575e+01,-1.093542993329501769e+02,9.446745872497558594e+00,-1.070886254310607910e+00,-3.442134261131286621e-01,2.490000000000000000e+02
-3.146113149612583584e+02,-2.627289773862580660e+02,-1.184421873539067747e+02,5.363776512293588894e+01,-2.744650261523670451e+02,-1.844628780412895139e+02,-9.092295043723561321e+01,-1.127291898880239387e+02,9.446745872497558594e+00,-1.070886254310607910e+00,-3.442134261131286621e-01,2.500000000000000000e+02
-3.176717775385418463e+02,-2.620302042125363187e+02,-1.215042391612405481e+02,5.861920564147294499e+01,-2.808384619588841815e+02,-1.866796479635622745e+02,-9.248663751997037252e+01,-1.168696860091017697e+02,9.446745872497558594e+00,-1.070886254310607910e+00,-3.442134261131286621e-01,2.510000000000000000e+02
-3.225248134466314696e+02,-2.609685087348693742e+02,-1.258013570062453255e+02,6.432423733133873611e+01,-2.864897354402191922e+02,-1.891042509985363722e+02,-9.384090008558223417e+01,-1.200827549076052492e+02,9.446745872497558594e+00,-1.070886254310607910e+00,-3.442134261131286621e-01,2.520000000000000000e+02
-3.284570368873955886e+02,-2.610616814095669724e+02,-1.293055576288152224e+02,6.859453007166712268e+01,-2.898704767479257498e+02,-1.907684395259066150e+02,-9.474751610985458683e+01,-1.208409887133948359e+02,9.446745872497558594e+00,-1.070886254310607910e+00,-3.442134261131286621e-01,2.530000000000000000e+02
-3.341855825560210178e+02,-2.634427277840281931e+02,-1.305388241228233710e+02,7.007810558225764908e+01,-2.905113227411725347e+02,-1.911081929878873780e+02,-9.534021052706293631e+01,-1.187573124709974763e+02,9.446745872497558594e+00,-1.070886254310607910e+00,-3.442134261131286621e-01,2.540000000000000000e+02
-3.385428120528495128e+02,-2.680777235303735324e+02,-1.293893626060716997e+02,6.906981636210912257e+01,-2.890669277972669988e+02,-1.903949428261275898e+02,-9.573476275003395131e+01,-1.148153758388384631e+02,9.370253562927246094e+00,-1.032640218734741211e+00,-3.824593424797058105e-01,2.550000000000000000e+02
-3.410761706484186107e+02,-2.736583265658073287e+02,-1.269889458919874414e+02,6.716652868253822817e+01,-2.868245141389456876e+02,-1.895083105161565982e+02,-9.582269915125152693e+01,-1.107687140173611624e+02,9.370253562927246094e+00,-1.032640218734741211e+00,-3.824593424797058105e-01,2.560000000000000000e+02
-3.421988954639055009e+02,-2.783195283658510562e+02,-1.248569966965183085e+02,6.610229375683820763e+01,-2.851368425980117536e+02,-1.893416980081619840e+02,-9.543464314496486622e+01,-1.082231219045429498e+02,9.370253562927246094e+00,-1.032640218734741211e+00,-3.824593424797058105e-01,2.570000000000000000e+02
-3.427831641326802128e+02,-2.807651464288455827e+02,-1.239853722004991141e+02,6.671319145621464486e+01,-2.850366879553052968e+02,-1.903431234734798636e+02,-9.461418771936268968e+01,-1.080205170452691164e+02,9.370253562927246094e+00,-1.032640218734741211e+00,-3.824593424797058105e-01,2.580000000000000000e+02
-3.435003849858385365e+02,-2.810581448984703457e+02,-1.244899765525105977e+02,6.870417740016773678e+01,-2.870194130439799665e+02,-1.924611965226513348e+02,-9.368833206905765110e+01,-1.101891192742173189e+02,9.370253562927246094e+00,-1.032640218734741211e+00,-3.824593424797058105e-01,2.590000000000000000e+02
-3.444392346143386021e+02,-2.805473540411135218e+02,-1.259361432703167338e+02,7.114047293781095505e+01,-2.909206128507785252e+02,-1.953851919707667548e+02,-9.310051979064382977e+01,-1.142539259032564587e+02,9.370253562927246094e+00,-1.032640218734741211e+00,-3.824593424797058105e-01,2.600000000000000000e+02
-3.453267731629657646e+02,-2.810172676158640570e+02,-1.279091523383954154e+02,7.309912920789429336e+01,-2.959491076555841573e+02,-1.987813837184939985e+02,-9.323014210875953722e+01,-1.195353704216518054e+02,9.370253562927246094e+00,-1.032640218734741211e+00,-3.824593424797058105e-01,2.610000000000000000e+02
-3.461434513432595850e+02,-2.836840983609081377e+02,-1.302784533110675511e+02,7.402039947108005435e+01,-3.009896990767729221e+02,-2.023501260645475668e+02,-9.435244386320209742e+01,-1.252658126497221929e+02,9.370253562927246094e+00,-1.032640218734741211e+00,-3.824593424797058105e-01,2.620000000000000000e+02
-3.475159917995033538e+02,-2.886971295459570683e+02,-1.329737511384028039e+02,7.374333818187960787e+01,-3.050872042737742049e+02,-2.057441061472773072e+02,-9.660737884422587740e+01,-1.306045004328784671e+02,9.370253562927246094e+00,-1.032640218734741211e+00,-3.824593424797058105e-01,2.630000000000000000e+02
-3.504190293495562400e+02,-2.953368978563689780e+02,-1.356236254981968159e+02,7.245012311344044065e+01,-3.078268311767837986e+02,-2.085217077912616332e+02,-9.980413321562764395e+01,-1.347406611743990652e+02,9.370253562927246094e+00,-1.032640218734741211e+00,-3.824593424797058105e-01,2.640000000000000000e+02
-3.553331990386479902e+02,-3.025680783609514037e+02,-1.375720428402128164e+02,7.062115627358980419e+01,-3.093735673808550928e+02,-2.102710147166192201e+02,-1.031737965200718463e+02,-1.371844671799221942e+02,9.370253562927246094e+00,-1.032640218734741211e+00,-3.824593424797058105e-01,2.650000000000000000e+02
-3.615463815235415268e+02,-3.094596872998275785e+02,-1.383793165297413452e+02,6.891358287067123456e+01,-3.102136358406088448e+02,-2.108810035972337573e+02,-1.054633624610069091e+02,-1.381231803976731953e+02,9.370253562927246094e+00,-1.032640218734741211e+00,-3.824593424797058105e-01,2.660000000000000000e+02
-3.672766187321716416e+02,-3.152892356939039473e+02,-1.383428446924326636e+02,6.788079481914746793e+01,-3.108612882535776407e+02,-2.107633708772029877e+02,-1.055977662649918329e+02,-1.385596979555913322e+02,9.370253562927246094e+00,-1.032640218734741211e+00,-3.824593424797058105e-01,2.670000000000000000e+02
-3.706684200025032396e+02,-3.195252517707697280e+02,-1.384464248310528092e+02,6.764486983813731058e+01,-3.117291510439634976e+02,-2.107938651181352725e+02,-1.035638433717351745e+02,-1.399975751756777527e+02,9.370253562927246094e+00,-1.032640218734741211e+00,-3.824593424797058105e-01,2.680000000000000000e+02
-3.709912112384457714e+02,-3.219251424191284059e+02,-1.396430624095648909e+02,6.776057619936864285e+01,-3.131276541183063955e+02,-2.119174455200422926e+02,-1.007734288250658210e+02,-1.437020605951543075e+02,9.370253562927246094e+00,-1.032640218734741211e+00,-3.824593424797058105e-01,2.690000000000000000e+02
-3.691586840019590454e+02,-3.227052589862463492e+02,-1.420696001663402512e+02,6.743230897089915743e+01,-3.152228682518530150e+02,-2.146136970425222898e+02,-9.939779660913563930e+01,-1.499213555722533329e+02,9.370253562927246094e+00,-1.032640218734741211e+00,-3.824593424797058105e-01,2.700000000000000000e+02
-3.671921613177930794e+02,-3.225334113327553496e+02,-1.449421787561470865e+02,6.600838580941649525e+01,-3.178900620908768815e+02,-2.185534557665662305e+02,-1.009628358508696238e+02,-1.576045808663538992e+02,9.370253562927246094e+00,-1.032640218734741211e+00,-3.824593424797058105e-01,2.710000000000000000e+02
-3.670273120645613290e+02,-3.222224172859272358e+02,-1.472599436698583304e+02,6.347603561260712013e+01,-3.206329727850529707e+02,-2.226960413696247088e+02,-1.052086309479655029e+02,-1.648959458054694096e+02,9.370253562927246094e+00,-1.032640218734741211e+00,-3.824593424797058105e-01,2.720000000000000000e+02
-3.694971732294740150e+02,-3.223423122859268233e+02,-1.486753856450047806e+02,6.062240930887742252e+01,-3.227703502233001700e+02,-2.258006314671620203e+02,-1.101613229528868487e+02,-1.701526901584267080e+02,9.370253562927246094e+00,-1.032640218734741211e+00,-3.824593424797058105e-01,2.730000000000000000e+02
-3.741107589388749375e+02,-3.230888281173415635e+02,-1.497078237212861040e+02,5.867779496583534637e+01,-3.238415131618978648e+02,-2.270518743594166153e+02,-1.134532513909537101e+02,-1.728023013805769779e+02,9.370253562927246094e+00,-1.032640218734741211e+00,-3.824593424797058105e-01,2.740000000000000000e+02
-3.796117993444552212e+02,-3.244900588350819817e+02,-1.511149264560032179e+02,5.856080817230736102e+01,-3.239259614542730787e+02,-2.264400048357322248e+02,-1.139155023369332866e+02,-1.734525056420801548e+02,9.370253562927246094e+00,-1.032640218734741211e+00,-3.824593424797058105e-01,2.750000000000000000e+02
-3.847770430018637171e+02,-3.266407279954704563e+02,-1.530580889801279909e+02,6.018021665198193659e+01,-3.235844508821762702e+02,-2.246874250314644996e+02,-1.122102579036945826e+02,-1.732308225911610862e+02,9.370253562927246094e+00,-1.032640218734741211e+00,-3.824593424797058105e-01,2.760000000000000000e+02
-3.888858239491141831e+02,-3.296000639614176180e+02,-1.548792765999095309e+02,6.234913285597576760e+01,-3.234413654346549265e+02,-2.227695402318324795e+02,-1.100318038919915580e+02,-1.729225984482854983e+02,9.370253562927246094e+00,-1.032640218734741211e+00,-3.824593424797058105e-01,2.770000000000000000e+02
-3.916758669965211084e+02,-3.329970268922047580e+02,-1.556815400027743408e+02,6.351868005083520075e+01,-3.237610897240591612e+02,-2.213427634001911883e+02,-1.085975574883334502e+02,-1.725886285534245417e+02,9.370253562927246094e+00,-1.032640218734741211e+00,-3.824593424797058105e-01,2.780000000000000000e+02
-3.930356530425924575e+02,-3.358178240845136315e+02,-1.551110143703560880e+02,6.289014698821142701e+01,-3.243815554669024550e+02,-2.204733607932732866e+02,-1.077267531150803279e+02,-1.718814693483566316e+02,9.370253562927246094e+00,-1.032640218734741211e+00,-3.824593424797058105e-01,2.790000000000000000e+02
-3.928242129426424754e+02,-3.368194596367288796e+02,-1.535952922619336505e+02,6.103259629716285417e+01,-3.250164431854534541e+02,-2.198475218666885667e+02,-1.062497774004690427e+02,-1.706833986752433248e+02,9.370253562927246094e+00,-1.032640218734741211e+00,-3.824593424797058105e-01,2.800000000000000000e+02
-3.910074091254511472e+02,-3.354414112052283485e+02,-1.518813753686580412e+02,5.942713763622077749e+01,-3.255780471327252599e+02,-2.192578239504025532e+02,-1.033171329454067973e+02,-1.694652785928227559e+02,9.370253562927246094e+00,-1.032640218734741211e+00,-3.824593424797058105e-01,2.810000000000000000e+02
-3.879476234705041975e+02,-3.324849512445282471e+02,-1.504109707725582439e+02,5.925108637523499056e+01,-3.262026988910537284e+02,-2.189043286761138916e+02,-9.941182287679475849e+01,-1.690724871911378386e+02,9.484992027282714844e+00,-1.109132170677185059e+00,-3.824593424797058105e-01,2.820000000000000000e+02
-3.845307720011804236e+02,-3.298521996433130994e+02,-1.491935011310747541e+02,6.043229414905067642e+01,-3.270227935673067350e+02,-2.191954072233779698e+02,-9.618515166067516020e+01,-1.701585936207984560e+02,9.484992027282714844e+00,-1.109132170677185059e+00,-3.824593424797058105e-01,2.830000000000000000e+02
-3.819490075978534378e+02,-3.293626885200857828e+02,-1.482427768848167489e+02,6.180707832282951131e+01,-3.280027754303113170e+02,-2.202214066399628791e+02,-9.530644555428523290e+01,-1.727403128068563092e+02,9.484992027282714844e+00,-1.109132170677185059e+00,-3.824593424797058105e-01,2.840000000000000000e+02
-3.812254254976064658e+02,-3.314930760168430197e+02,-1.480006043001407079e+02,6.221480735799150352e+01,-3.290426160163439135e+02,-2.214643726189015069e+02,-9.734191836326363045e+01,-1.762114255977325001e+02,9.484992027282714844e+00,-1.109132170677185059e+00,-3.824593424797058105e-01,2.850000000000000000e+02
-3.827608986944032949e+02,-3.350291399753691621e+02,-1.491591813629681837e+02,6.149931999573709618e+01,-3.301563269610852558e+02,-2.221329258458370077e+02,-1.015175223107543161e+02,-1.797456217970113812e+02,9.484992027282714844e+00,-1.109132170677185059e+00,-3.824593424797058105e-01,2.860000000000000000e+02
-3.861584439786535654e+02,-3.379264645042319444e+02,-1.519415364522757272e+02,6.049692522031728004e+01,-3.313810595935264018e+02,-2.218777304997206556e+02,-1.063439052114629249e+02,-1.827353616117964066e+02,9.484992027282714844e+00,-1.109132170677185059e+00,-3.824593424797058105e-01,2.870000000000000000e+02
-3.903906159450438622e+02,-3.387069314753392746e+02,-1.555298837398958085e+02,6.009879005801508356e+01,-3.324206925202087177e+02,-2.211843164682941278e+02,-1.104061007280423610e+02,-1.849431925678389916e+02,9.484992027282714844e+00,-1.109132170677185059e+00,-3.824593424797058105e-01,2.880000000000000000e+02
-3.941850532901336237e+02,-3.373234845777792543e+02,-1.582888337925737687e+02,6.037131688312251754e+01,-3.324864001447534747e+02,-2.209819636599954720e+02,-1.127465948311652255e+02,-1.863133494703392330e+02,9.484992027282714844e+00,-1.109132170677185059e+00,-3.824593424797058105e-01,2.890000000000000000e+02
-3.964450391655373664e+02,-3.349263538670240337e+02,-1.587390852150062983e+02,6.060573376758611630e+01,-3.307494220591530620e+02,-2.217777758514968127e+02,-1.128818598363989167e+02,-1.867053568622013131e+02,9.484992027282714844e+00,-1.109132170677185059e+00,-3.824593424797058105e-01,2.900000000000000000e+02
-3.965799373363877862e+02,-3.328697355083438651e+02,-1.565479359409913513e+02,6.017601609409348384e+01,-3.271813691738958596e+02,-2.231457851965521968e+02,-1.108482645902912509e+02,-1.858965781836269571e+02,9.484992027282714844e+00,-1.109132170677185059e+00,-3.824593424797058105e-01,2.910000000000000000e+02
-3.946905206995895128e+02,-3.318346905882872875e+02,-1.527765458949256754e+02,5.924260285174659657e+01,-3.229920939721737909e+02,-2.241052274220879781e+02,-1.073986420660501153e+02,-1.839421282066070376e+02,9.484992027282714844e+00,-1.109132170677185059e+00,-3.824593424797058105e-01,2.920000000000000000e+02
-3.915532841613874666e+02,-3.316796725836702535e+02,-1.492390801973546104e+02,5.851979662302983343e+01,-3.200832425437791926e+02,-2.240534798488561137e+02,-1.040098273259617372e+02,-1.815892300436515256e+02,9.484992027282714844e+00,-1.109132170677185059e+00,-3.824593424797058105e-01,2.930000000000000000e+02
-3.883667663327399850e+02,-3.319221163758624016e+02,-1.475142134819195689e+02,5.833103833793916237e+01,-3.198396122240895920e+02,-2.233722941272494609e+02,-1.023438557580243469e+02,-1.802554093509619406e+02,9.484992027282714844e+00,-1.109132170677185059e+00,-3.824593424797058105e-01,2.940000000000000000e+02
-3.862847737117560882e+02,-3.322579539783035329e+02,-1.482645011274823901e+02,5.800482482581219301e+01,-3.222514389915296533e+02,-2.231236179603012033e+02,-1.033466311698838354e+02,-1.813274803618883197e+02,9.484992027282714844e+00,-1.109132170677185059e+00,-3.824593424797058105e-01,2.950000000000000000e+02
-3.859166187454731585e+02,-3.326644330522182145e+02,-1.511238578552730587e+02,5.635330396560812005e+01,-3.260853983674967367e+02,-2.241252402806414921e+02,-1.066646466176080139e+02,-1.851481192092821857e+02,9.484992027282714844e+00,-1.109132170677185059e+00,-3.824593424797058105e-01,2.960000000000000000e+02
-3.870648522363850361e+02,-3.331506774724321644e+02,-1.549834308357333157e+02,5.286638987625201480e+01,-3.298286035336935811e+02,-2.262594274701796166e+02,-1.108968104158999495e+02,-1.904660434947699628e+02,9.484992027282714844e+00,-1.109132170677185059e+00,-3.824593424797058105e-01,2.970000000000000000e+02
-3.888703735741335663e+02,-3.335566975705453956e+02,-1.583948263585707537e+02,4.845414252016121281e+01,-3.324533406531062383e+02,-2.285944989161361036e+02,-1.144683886331196163e+02,-1.949062406840297967e+02,9.484992027282714844e+00,-1.109132170677185059e+00,-3.824593424797058105e-01,2.980000000000000000e+02
-3.902681393653965074e+02,-3.336496798172899503e+02,-1.600132042290393883e+02,4.493498783089671633e+01,-3.334357487569540126e+02,-2.301300008391428946e+02,-1.163909685634150719e+02,-1.962744171684773846e+02,9.484992027282714844e+00,-1.109132170677185059e+00,-3.824593424797058105e-01,2.990000000000000000e+02
-3.904473023867780626e+02,-3.333606641088852029e+02,-1.590859721362313621e+02,4.368613672665719605e+01,-3.323855711891137616e+02,-2.304511092050570369e+02,-1.163771153934717404e+02,-1.938191509574987776e+02,9.484992027282714844e+00,-1.109132170677185059e+00,-3.824593424797058105e-01,3.000000000000000000e+02
-3.890775056295378818e+02,-3.328442391142617680e+02,-1.558513953252146393e+02,4.468791953121422011e+01,-3.290541458893878826e+02,-2.297822690607538334e+02,-1.144946486039685851e+02,-1.885993065036729490e+02,9.484992027282714844e+00,-1.109132170677185059e+00,-3.824593424797058105e-01,3.010000000000000000e+02
-3.863029022689678413e+02,-3.322553333674272267e+02,-1.515438022708781318e+02,4.679888385988647315e+01,-3.238978885223375528e+02,-2.285651060405538146e+02,-1.109784320738335737e+02,-1.827916386885054294e+02,9.484992027282714844e+00,-1.109132170677185059e+00,-3.824593424797058105e-01,3.020000000000000000e+02
-3.826707610169360692e+02,-3.314871204307437438e+02,-1.478514321295843956e+02,4.889442071472694806e+01,-3.185071249882038273e+02,-2.270969380387358569e+02,-1.064761390094847684e+02,-1.785339852089277315e+02,9.484992027282714844e+00,-1.109132170677185059e+00,-3.824593424797058105e-01,3.030000000000000000e+02
-3.790683395685825303e+02,-3.301982935977184752e+02,-1.460917060326279397e+02,5.068766368895535379e+01,-3.151164340637448049e+02,-2.255812597998625506e+02,-1.023071103263011992e+02,-1.770816398245215737e+02,9.484992027282714844e+00,-1.109132170677185059e+00,-3.824593424797058105e-01,3.040000000000000000e+02
-3.765344253943559920e+02,-3.281733493502075589e+02,-1.466458941885251761e+02,5.246879885815019406e+01,-3.153021597150675461e+02,-2.244212718016813142e+02,-1.001281913457189603e+02,-1.786132582441670138e+02,9.484992027282714844e+00,-1.109132170677185059e+00,-3.824593424797058105e-01,3.050000000000000000e+02
-3.758074527398275677e+02,-3.256980564922849908e+02,-1.489716504755280084e+02,5.418582051809357836e+01,-3.188803324816433360e+02,-2.242838157125472662e+02,-1.009654926198151088e+02,-1.824592817784157432e+02,9.484992027282714844e+00,-1.109132170677185059e+00,-3.824593424797058105e-01,3.060000000000000000e+02
-3.767786321502644000e+02,-3.235547561486363293e+02,-1.520487962246194229e+02,5.500929593912451310e+01,-3.239701324330810621e+02,-2.256979231148322924e+02,-1.043524838899398901e+02,-1.873960352825473592e+02,9.484992027282714844e+00,-1.109132170677185059e+00,-3.824593424797058105e-01,3.070000000000000000e+02
-3.783202044012734291e+02,-3.225537176897415179e+02,-1.548346563890826246e+02,5.399377700325408114e+01,-3.281849716098610088e+02,-2.284850639038279496e+02,-1.084425008216209108e+02,-1.919216788310219499e+02,9.484992027282714844e+00,-1.109132170677185059e+00,-3.824593424797058105e-01,3.080000000000000000e+02
-3.788519162689862583e+02,-3.229176193653180462e+02,-1.564888794851963212e+02,5.122357253150426004e+01,-3.299794817152087489e+02,-2.315904063217401472e+02,-1.111801920961241876e+02,-1.946478168501329264e+02,9.484992027282714844e+00,-1.109132170677185059e+00,-3.824593424797058105e-01,3.090000000000000000e+02
-3.773973587394727929e+02,-3.240015781514443916e+02,-1.564939587285206244e+02,4.821358888547888455e+01,-3.291896438003476533e+02,-2.335869942697963779e+02,-1.116374789938319054e+02,-1.948107655498187114e+02,9.484992027282714844e+00,-1.109132170677185059e+00,-3.824593424797058105e-01,3.100000000000000000e+02
-3.743053406784158028e+02,-3.245789159447484735e+02,-1.548294014647625545e+02,4.699769258524906945e+01,-3.266201106084799903e+02,-2.335191615934027141e+02,-1.104054719395714983e+02,-1.926112072469304621e+02,9.484992027282714844e+00,-1.109132170677185059e+00,-3.824593424797058105e-01,3.110000000000000000e+02
-3.709622926121421642e+02,-3.235051884853752426e+02,-1.521075154573966302e+02,4.861338100434568332e+01,-3.232965290043276809e+02,-2.314231927208013531e+02,-1.087745645728462023e+02,-1.890522608377568758e+02,9.484992027282714844e+00,-1.109132170677185059e+00,-3.824593424797058105e-01,3.120000000000000000e+02
-3.686704382910644995e+02,-3.203216275369703112e+02,-1.493931847077767543e+02,5.231748961990933822e+01,-3.200140157684872975e+02,-2.281307727725308041e+02,-1.075111164971183371e+02,-1.853009566701759354e+02,9.484992027282714844e+00,-1.032640218734741211e+00,-3.059675097465515137e-01,3.130000000000000000e+02
-3.676400265082929195e+02,-3.154431991411534000e+02,-1.476101961694072315e+02,5.620564399656257137e+01,-3.172563922342747560e+02,-2.245930020747390472e+02,-1.063295219147393027e+02,-1.820250576602614956e+02,9.484992027282714844e+00,-1.032640218734741211e+00,-3.059675097465515137e-01,3.140000000000000000e+02
-3.669743178896347899e+02,-3.098952902354708385e+02,-1.469097201231253393e+02,5.863433652708033605e+01,-3.151886166086907224e+02,-2.213477565008188321e+02,-1.044523490323260830e+02,-1.792058572593570034e+02,9.484992027282714844e+00,-1.032640218734741211e+00,-3.059675097465515137e-01,3.150000000000000000e+02
-3.656133566659926259e+02,-3.048450337027044270e+02,-1.465714005000584166e+02,5.921018207977112979e+01,-3.135915780521044667e+02,-2.185138274072437525e+02,-1.016281095095904448e+02,-1.765194727552219547e+02,9.484992027282714844e+00,-1.032640218734741211e+00,-3.059675097465515137e-01,3.160000000000000000e+02
-3.633170247062549265e+02,-3.012093202252592050e+02,-1.456037396181942540e+02,5.865527488878126405e+01,-3.119201166198315605e+02,-2.161269056596142946e+02,-9.857299291202502900e+01,-1.738776800114032994e+02,9.484992027282714844e+00,-1.032640218734741211e+00,-3.059675097465515137e-01,3.170000000000000000e+02
-3.607939352309485912e+02,-2.994529958262447735e+02,-1.435885125374429663e+02,5.792015431758591149e+01,-3.096599667934101490e+02,-2.143343791703854322e+02,-9.642449479642255028e+01,-1.716243895893564968e+02,9.484992027282714844e+00,-1.032640218734741211e+00,-3.059675097465515137e-01,3.180000000000000000e+02
-3.589714280382970628e+02,-2.995285453372480333e+02,-1.410440859010800523e+02,5.745782545174074585e+01,-3.068126508445352556e+02,-2.132342057144732053e+02,-9.578237823001563811e+01,-1.702489627943682535e+02,9.484992027282714844e+00,-1.032640218734741211e+00,-3.059675097465515137e-01,3.190000000000000000e+02
-3.581904338012933522e+02,-3.008713204299007771e+02,-1.389884610150349999e+02,5.719925495885775035e+01,-3.040362553194975135e+02,-2.126076359152965551e+02,-9.623196172162101902e+01,-1.699030300870366545e+02,9.484992027282714844e+00,-1.032640218734741211e+00,-3.059675097465515137e-01,3.200000000000000000e+02
-3.580581372346675835e+02,-3.024827242667696510e+02,-1.380846496019013330e+02,5.700740764426609530e+01,-3.021693519015881293e+02,-2.119332177698565829e+02,-9.671226705254002809e+01,-1.701375279552136135e+02,9.484992027282714844e+00,-1.032640218734741211e+00,-3.059675097465515137e-01,3.210000000000000000e+02
-3.579313964184634642e+02,-3.031983547217373598e+02,-1.380909250079571393e+02,5.702554886679422452e+01,-3.014562915750260572e+02,-2.107315164520018698e+02,-9.631041912925616089e+01,-1.700669222972067587e+02,9.484992027282714844e+00,-1.032640218734741211e+00,-3.059675097465515137e-01,3.220000000000000000e+02
-3.573872982552009034e+02,-3.021333380142061742e+02,-1.380323807580986113e+02,5.760794892124488342e+01,-3.011521832789137534e+02,-2.088964405995230891e+02,-9.476278344232707695e+01,-1.688261592985957691e+02,9.484992027282714844e+00,-1.032640218734741211e+00,-3.059675097465515137e-01,3.230000000000000000e+02
-3.562445811954223700e+02,-2.990894390507836533e+02,-1.369185432062589598e+02,5.900064639381150755e+01,-2.999435041875938168e+02,-2.066792660030125717e+02,-9.236192562221094704e+01,-1.660197410793452377e+02,9.484992027282714844e+00,-1.032640218734741211e+00,-3.059675097465515137e-01,3.240000000000000000e+02
-3.543491416708187671e+02,-2.946405508351257367e+02,-1.344357737940331390e+02,6.111804491796829097e+01,-2.969172400232391738e+02,-2.043861453857336983e+02,-8.956766058662094565e+01,-1.619360586150189647e+02,9.484992027282714844e+00,-1.032640218734741211e+00,-3.059675097465515137e-01,3.250000000000000000e+02
-3.515947157170601258e+02,-2.898026695289543113e+02,-1.311497398493766013e+02,6.355577572644187967e+01,-2.923038813194632439e+02,-2.021391211757423889e+02,-8.677966871397222803e+01,-1.574384646190422927e+02,9.484992027282714844e+00,-1.032640218734741211e+00,-3.059675097465515137e-01,3.260000000000000000e+02
-3.482342683224381972e+02,-2.855151122934515797e+02,-1.281569129715462623e+02,6.575012078288932571e+01,-2.873788355902159992e+02,-1.999242484991563060e+02,-8.437278421904875358e+01,-1.535881468575433928e+02,9.484992027282714844e+00,-1.032640218734741211e+00,-3.059675097465515137e-01,3.270000000000000000e+02
-3.450193945746419786e+02,-2.823176372976828361e+02,-1.264748756144032313e+02,6.714335232527946573e+01,-2.836051044250917812e+02,-1.977992500741531785e+02,-8.274390479601868265e+01,-1.511804296395894198e+02,9.484992027282714844e+00,-1.032640218734741211e+00,-3.059675097465515137e-01,3.280000000000000000e+02
-3.427702176965372018e+02,-2.803664664991961217e+02,-1.265334445708898556e+02,6.733511496190794787e+01,-2.816993480739597544e+02,-1.959669818277997138e+02,-8.215099031132695018e+01,-1.503986398445625809e+02,9.484992027282714844e+00,-1.032640218734741211e+00,-3.059675097465515137e-01,3.290000000000000000e+02
-3.416663759603945891e+02,-2.795972657583463388e+02,-1.280229776247775817e+02,6.624323044257334914e+01,-2.813289802913079711e+02,-1.946201209648738768e+02,-8.247770566860788222e+01,-1.507828112576912645e+02,9.484992027282714844e+00,-1.032640218734741211e+00,-3.059675097465515137e-01,3.300000000000000000e+02
-3.410135103894872373e+02,-2.797482526742244318e+02,-1.301429411528215496e+02,6.422330103042713745e+01,-2.815921096236256744e+02,-1.937454537238083958e+02,-8.324479712967251999e+01,-1.515490782692390894e+02,9.484992027282714844e+00,-1.032640218734741211e+00,-3.059675097465515137e-01,3.310000000000000000e+02
-3.398485077162175685e+02,-2.802107991469863464e+02,-1.320801486105057165e+02,6.202853794183965874e+01,-2.817907548461475926e+02,-1.931174606671427227e+02,-8.394086656878937447e+01,-1.520480533535317136e+02,9.484992027282714844e+00,-1.032640218734741211e+00,-3.059675097465515137e-01,3.320000000000000000e+02
-3.378740760384234818e+02,-2.799958516773390329e+02,-1.334256585694702153e+02,6.056109864797804221e+01,-2.818575135371655733e+02,-1.924853675482845574e+02,-8.437099625064706743e+01,-1.520546362935338038e+02,9.484992027282714844e+00,-1.032640218734741211e+00,-3.059675097465515137e-01,3.330000000000000000e+02
-3.358010554317783090e+02,-2.781169622812142279e+02,-1.342807904905199621e+02,6.051747715246574444e+01,-2.821711772310177366e+02,-1.917434559061748587e+02,-8.466644475332020647e+01,-1.517051897316813438e+02,9.523238182067871094e+00,-1.070886254310607910e+00,-2.677215635776519775e-01,3.340000000000000000e+02
-3.347007866704057051e+02,-2.742662141031555620e+02,-1.349983239434036477e+02,6.210318204949749088e+01,-2.830062539574823859e+02,-1.909230642886066107e+02,-8.494422529457597193e+01,-1.511740626128048461e+02,9.523238182067871094e+00,-1.070886254310607910e+00,-2.677215635776519775e-01,3.350000000000000000e+02
-3.349650591090251055e+02,-2.692226265369607745e+02,-1.357782120971537552e+02,6.493840169477948621e+01,-2.841037461527133701e+02,-1.900506769440196422e+02,-8.501392819816396695e+01,-1.503899073399852568e+02,9.523238182067871094e+00,-1.070886254310607910e+00,-2.677215635776519775e-01,3.360000000000000000e+02
-3.358614860011630299e+02,-2.645085812709935453e+02,-1.364514156281867372e+02,6.818430806831725022e+01,-2.846786774516823471e+02,-1.890308857622048890e+02,-8.448891316483093306e+01,-1.490292147594268499e+02,9.523238182067871094e+00,-1.070886254310607910e+00,-2.677215635776519775e-01,3.370000000000000000e+02
-3.360801634236202062e+02,-2.614148064190220566e+02,-1.366321204181143685e+02,7.085181590878300995e+01,-2.838424591593125115e+02,-1.876697934184094265e+02,-8.320944140228846209e+01,-1.467827281805153916e+02,9.523238182067871094e+00,-1.070886254310607910e+00,-2.677215635776519775e-01,3.380000000000000000e+02
-3.347147567598199203e+02,-2.601378702831331111e+02,-1.361066931438659822e+02,7.217759887059537505e+01,-2.811549630655500778e+02,-1.858334930624534991e+02,-8.153660583798364314e+01,-1.436960390764239719e+02,9.523238182067871094e+00,-1.070886254310607910e+00,-2.677215635776519775e-01,3.390000000000000000e+02
-3.318088266866766389e+02,-2.597678908498626242e+02,-1.351100385839936280e+02,7.190462301791103528e+01,-2.769732364629979884e+02,-1.836368808182548946e+02,-8.018912924854180346e+01,-1.403478214048436712e+02,9.523238182067871094e+00,-1.070886254310607910e+00,-2.677215635776519775e-01,3.400000000000000000e+02
-3.281147071243284472e+02,-2.591504944118659068e+02,-1.342166525924127427e+02,7.030691399858028490e+01,-2.723957203919159156e+02,-1.815245299129981049e+02,-7.975105873479412821e+01,-1.377335061209454352e+02,9.523238182067871094e+00,-1.070886254310607910e+00,-2.677215635776519775e-01,3.410000000000000000e+02
-3.244505291973084695e+02,-2.578710629245608743e+02,-1.339003825889258223e+02,6.793763084376701045e+01,-2.687861173709695777e+02,-1.801301925326260971e+02,-8.029857814451372633e+01,-1.368582879523687552e+02,9.523238182067871094e+00,-1.070886254310607910e+00,-2.677215635776519775e-01,3.420000000000000000e+02
-3.212672599145462300e+02,-2.564926357264751005e+02,-1.341183536622854717e+02,6.528728160795117219e+01,-2.671007611399228381e+02,-1.799212949510028920e+02,-8.144462522256390002e+01,-1.382011615861007385e+02,9.523238182067871094e+00,-1.070886254310607910e+00,-2.677215635776519775e-01,3.430000000000000000e+02
-3.186592887426756988e+02,-2.558830203527310232e+02,-1.343043159929497961e+02,6.261643731532058155e+01,-2.673870153447254552e+02,-1.808363906230183602e+02,-8.269132964165987687e+01,-1.413190122311805226e+02,9.523238182067871094e+00,-1.070886254310607910e+00,-2.677215635776519775e-01,3.440000000000000000e+02
-3.165824331582697369e+02,-2.563095607240976506e+02,-1.338323487319946707e+02,6.005991504577878004e+01,-2.687626380182987305e+02,-1.822311136476951106e+02,-8.373783364969506238e+01,-1.448860499778512576e+02,9.523238182067871094e+00,-1.070886254310607910e+00,-2.677215635776519775e-01,3.450000000000000000e+02
-3.149898152632003985e+02,-2.571643168925502323e+02,-1.325989676929983716e+02,5.781279167289972065e+01,-2.699205880107160738e+02,-1.832747850533708061e+02,-8.453912399197781724e+01,-1.472978880383124078e+02,9.523238182067871094e+00,-1.070886254310607910e+00,-2.677215635776519775e-01,3.460000000000000000e+02
-3.138352364411791768e+02,-2.575326406531080465e+02,-1.312179448455335660e+02,5.615023000412156762e+01,-2.698494822001425746e+02,-1.835346186647007016e+02,-8.519596430663216324e+01,-1.475655468667612240e+02,9.523238182067871094e+00,-1.070886254310607910e+00,-2.677215635776519775e-01,3.470000000000000000e+02
-3.130569474209954706e+02,-2.570134413900664185e+02,-1.306091577303277518e+02,5.521422468347168433e+01,-2.683417108126235462e+02,-1.832591235228596815e+02,-8.587224831759613153e+01,-1.459240466293272220e+02,9.523238182067871094e+00,-1.070886254310607910e+00,-2.677215635776519775e-01,3.480000000000000000e+02
-3.125792841919026159e+02,-2.559958233708302942e+02,-1.312812914439419956e+02,5.479063751688499906e+01,-2.660219395961512419e+02,-1.830898188531298274e+02,-8.678705198248519537e+01,-1.436692036231290786e+02,9.523238182067871094e+00,-1.070886254310607910e+00,-2.677215635776519775e-01,3.490000000000000000e+02
-3.122583690103761001e+02,-2.551798872354048626e+02,-1.328938026042113734e+02,5.438396205367234870e+01,-2.639209283035182807e+02,-1.834438805829774992e+02,-8.814919823719571923e+01,-1.422602919837630679e+02,9.523238182067871094e+00,-1.070886254310607910e+00,-2.677215635776519775e-01,3.500000000000000000e+02
-3.117939753372910445e+02,-2.548796143682939146e+02,-1.344634243696422118e+02,5.360595053386145992e+01,-2.628478895308408028e+02,-1.841236494862971540e+02,-8.994396139096454590e+01,-1.423199286548928058e+02,9.523238182067871094e+00,-1.070886254310607910e+00,-2.677215635776519775e-01,3.510000000000000000e+02
-3.107623172173978219e+02,-2.547890585324519179e+02,-1.350366227539694819e+02,5.255298684539320675e+01,-2.628546381543494590e+02,-1.844881571978792181e+02,-9.173509372705473197e+01,-1.432682728297595531e+02,9.523238182067871094e+00,-1.070886254310607910e+00,-2.677215635776519775e-01,3.520000000000000000e+02
-3.088615392694491675e+02,-2.543606666812081585e+02,-1.342652057727417514e+02,5.180342016977192543e+01,-2.630550414814524629e+02,-1.839819680177142800e+02,-9.276388620311149680e+01,-1.438474750870393564e+02,9.523238182067871094e+00,-1.070886254310607910e+00,-2.677215635776519775e-01,3.530000000000000000e+02
-3.061928573789998609e+02,-2.533181884121496523e+02,-1.324705473601477479e+02,5.199961191021270679e+01,-2.619773156710650710e+02,-1.825243492331994730e+02,-9.239578105654345563e+01,-1.430948902284195583e+02,9.523238182067871094e+00,-1.070886254310607910e+00,-2.677215635776519775e-01,3.540000000000000000e+02
-3.032506861445949653e+02,-2.517663357005476428e+02,-1.302745179101551685e+02,5.335444668639433985e+01,-2.583933165566513708e+02,-1.804867119588438982e+02,-9.059857468661130042e+01,-1.410102283035404298e+02,9.523238182067871094e+00,-1.070886254310607910e+00,-2.677215635776519775e-01,3.550000000000000000e+02
-3.005341702697846813e+02,-2.498660859356789388e+02,-1.282227326665968121e+02,5.547011296858386231e+01,-2.522060852364766106e+02,-1.784042670983835706e+02,-8.802145261081000172e+01,-1.384724622559917862e+02,9.523238182067871094e+00,-1.070886254310607910e+00,-2.677215635776519775e-01,3.560000000000000000e+02
-2.981268808093068401e+02,-2.475311338927594988e+02,-1.266936884864174999e+02,5.756119230933609288e+01,-2.447479320689953965e+02,-1.767407449240311053e+02,-8.554988891144057561e+01,-1.365582472629056383e+02,9.523238182067871094e+00,-1.070886254310607910e+00,-2.677215635776519775e-01,3.570000000000000000e+02
-2.957033159547409014e+02,-2.445379567577360831e+02,-1.259707491605836367e+02,5.887716337409142398e+01,-2.380953121541715518e+02,-1.758036771147465060e+02,-8.366892504664838270e+01,-1.357926217006584011e+02,9.523238182067871094e+00,-1.070886254310607910e+00,-2.677215635776519775e-01,3.580000000000000000e+02
-2.930151608868202402e+02,-2.409644944035264871e+02,-1.261961408676311294e+02,5.902172252843683964e+01,-2.337589273093071824e+02,-1.756836855136402846e+02,-8.217956900405988563e+01,-1.358236286693809234e+02,9.523238182067871094e+00,-8.414105772972106934e-01,-2.677215635776519775e-01,3.590000000000000000e+02
-2.903682132549338348e+02,-2.374554755852868766e+02,-1.271550208189496516e+02,5.805256026994766216e+01,-2.316983958754631203e+02,-1.761241879058675295e+02,-8.050339455043558701e+01,-1.356604555556180003e+02,9.523238182067871094e+00,-8.414105772972106934e-01,-2.677215635776519775e-01,3.600000000000000000e+02
-2.885265147588293075e+02,-2.349514289921221462e+02,-1.281782612673405310e+02,5.642419853582032374e+01,-2.304569715916472887e+02,-1.764710724674648645e+02,-7.828926130739000655e+01,-1.342785698287761988e+02,9.523238182067871094e+00,-8.414105772972106934e-01,-2.677215635776519775e-01,3.610000000000000000e+02
-2.880022902346931915e+02,-2.340111933330435932e+02,-1.284203418046963634e+02,5.484614372105443181e+01,-2.283201048645007631e+02,-1.759176861366559024e+02,-7.577819077509730050e+01,-1.312241924807524356e+02,9.523238182067871094e+00,-8.414105772972106934e-01,-2.677215635776519775e-01,3.620000000000000000e+02
-2.883526945886903832e+02,-2.342535380215410896e+02,-1.273718541295072555e+02,5.404932235576734456e+01,-2.245410124341710798e+02,-1.739936629051185264e+02,-7.361407557748520958e+01,-1.268843915394490978e+02,9.523238182067871094e+00,-8.414105772972106934e-01,-2.677215635776519775e-01,3.630000000000000000e+02
-2.881973867397630329e+02,-2.344022921483554001e+02,-1.251568740250936571e+02,5.446616751698752523e+01,-2.196556263266072619e+02,-1.709308398222165124e+02,-7.229306169024653173e+01,-1.222735894354718766e+02,9.523238182067871094e+00,-8.414105772972106934e-01,-2.677215635776519775e-01,3.640000000000000000e+02
-2.860700230761590319e+02,-2.329808983481884752e+02,-1.223045047451814753e+02,5.598308523306695861e+01,-2.147523439681106083e+02,-1.675476561816426511e+02,-7.174931275084463778e+01,-1.184504294979435599e+02,9.523238182067871094e+00,-8.414105772972106934e-01,-2.677215635776519775e-01,3.650000000000000000e+02
-2.814701406641588619e+02,-2.292313504739865948e+02,-1.192175630556143915e+02,5.799315346781463631e+01,-2.104963353290149826e+02,-1.646866230629711936e+02,-7.142475444201681967e+01,-1.159219019149784344e+02,9.523238182067871094e+00,-8.414105772972106934e-01,-2.677215635776519775e-01,3.660000000000000000e+02
-2.752903004317008708e+02,-2.236559754705403975e+02,-1.159038772099779635e+02,5.977913118909418699e+01,-2.068035544953520457e+02,-1.626485058280741214e+02,-7.073282850556142876e+01,-1.144301894102586630e+02,9.523238182067871094e+00,-8.414105772972106934e-01,-2.677215635776519775e-01,3.670000000000000000e+02
-2.692792175797369509e+02,-2.177885127488034414e+02,-1.122488844089584745e+02,6.094455809804094315e+01,-2.033141382584133225e+02,-1.610849702065902420e+02,-6.949792683605073762e+01,-1.132614906133790100e+02,9.523238182067871094e+00,-8.414105772972106934e-01,-2.677215635776519775e-01,3.680000000000000000e+02
-2.649558019803514526e+02,-2.132904865784594222e+02,-1.084965684396622692e+02,6.153223849161850012e+01,-2.000299673847669055e+02,-1.594172513933626760e+02,-6.802357432608960153e+01,-1.118216810374410670e+02,9.523238182067871094e+00,-8.414105772972106934e-01,-2.677215635776519775e-01,3.690000000000000000e+02
-2.627831833316197390e+02,-2.109520933084399985e+02,-1.053570082184030525e+02,6.174395017125880258e+01,-1.974179291705288506e+02,-1.573945293171946105e+02,-6.679892221127920493e+01,-1.100359178736043759e+02,9.523238182067871094e+00,-8.414105772972106934e-01,-2.677215635776519775e-01,3.700000000000000000e+02
-2.621405309039632812e+02,-2.103018681927433136e+02,-1.035667691593243944e+02,6.156446999982699708e+01,-1.959430291200706051e+02,-1.553161488029245447e+02,-6.615131609076343011e+01,-1.083285336559622465e+02,9.523238182067871094e+00,-8.414105772972106934e-01,-2.677215635776519775e-01,3.710000000000000000e+02
-2.619988503859092361e+02,-2.101021600854594453e+02,-1.033353886623822291e+02,6.069091566191991660e+01,-1.956006351748228553e+02,-1.537487309965868008e+02,-6.612839879148828004e+01,-1.072692838146226677e+02,9.523238182067871094e+00,-8.414105772972106934e-01,-2.677215635776519775e-01,3.720000000000000000e+02
-2.617054239793155830e+02,-2.093293976565853427e+02,-1.042417418894201546e+02,5.886481942042837545e+01,-1.959333173440345490e+02,-1.529979439896624172e+02,-6.662452266130503631e+01,-1.071676673226816092e+02,9.523238182067871094e+00,-8.414105772972106934e-01,-2.677215635776519775e-01,3.730000000000000000e+02
-2.612818813235576272e+02,-2.078292629919874344e+02,-1.056464736569632805e+02,5.629391313773203365e+01,-1.964225796017126413e+02,-1.527983731437593633e+02,-6.753006745023139956e+01,-1.078391848770204433e+02,9.523238182067871094e+00,-8.414105772972106934e-01,-2.677215635776519775e-01,3.740000000000000000e+02
-2.610999571575475784e+02,-2.061328301792780167e+02,-1.071187924647424552e+02,5.375501615689427126e+01,-1.967412984885656897e+02,-1.524709949598473031e+02,-6.870169739736729753e+01,-1.085957774242663163e+02,9.523238182067871094e+00,-8.414105772972106934e-01,-2.677215635776519775e-01,3.750000000000000000e+02
-2.613045994772144240e+02,-2.047027823873040688e+02,-1.084185726789883120e+02,5.227384621567148315e+01,-1.965972187965526246e+02,-1.513861932802988122e+02,-6.981511964398714554e+01,-1.084522123199703856e+02,9.523238182067871094e+00,-8.414105772972106934e-01,-2.677215635776519775e-01,3.760000000000000000e+02
-2.615276644154232599e+02,-2.034044021653508025e+02,-1.091844796080176820e+02,5.261889526262802974e+01,-1.954915213619910901e+02,-1.493433952229243005e+02,-7.035167102746936507e+01,-1.065490227114285062e+02,9.523238182067871094e+00,-8.414105772972106934e-01,-2.677215635776519775e-01,3.770000000000000000e+02
-2.611324296641869296e+02,-2.017192401337945284e+02,-1.088715488164052658e+02,5.495339206588005254e+01,-1.928812681835629519e+02,-1.465888093970525006e+02,-6.985505876205775166e+01,-1.026601386956708666e+02,9.523238182067871094e+00,-8.414105772972106934e-01,-2.677215635776519775e-01,3.780000000000000000e+02
-2.597392999428300300e+02,-1.994185106205827651e+02,-1.071983585341731668e+02,5.879877874088333556e+01,-1.887648009054535123e+02,-1.435243652486014980e+02,-6.830199853311660263e+01,-9.746704443308203736e+01,9.523238182067871094e+00,-8.414105772972106934e-01,-2.677215635776519775e-01,3.790000000000000000e+02
-2.575316594109926882e+02,-1.969312992630880217e+02,-1.046585864473786387e+02,6.323697214471826555e+01,-1.840837494500183311e+02,-1.404230251992084959e+02,-6.623040345531808271e+01,-9.228706720204399971e+01,9.523238182067871094e+00,-8.414105772972106934e-01,-2.677215635776519775e-01,3.800000000000000000e+02
-2.550496712957742602e+02,-1.949737379869829965e+02,-1.023681961573868193e+02,6.723500647917535389e+01,-1.803128332940709697e+02,-1.373801462420133248e+02,-6.440914069312134416e+01,-8.830410976274470158e+01,9.523238182067871094e+00,-8.414105772972106934e-01,-2.677215635776519775e-01,3.810000000000000000e+02
-2.526691998385942952e+02,-1.938137397898067320e+02,-1.011377150388934751e+02,6.999439002070721472e+01,-1.783636216782410884e+02,-1.344493310705747717e+02,-6.324717760303656178e+01,-8.582513760941765213e+01,9.523238182067871094e+00,-8.414105772972106934e-01,-2.677215635776519775e-01,3.820000000000000000e+02
-2.502684366905164097e+02,-1.929454772687397508e+02,-1.005907207458708399e+02,7.122987762921025023e+01,-1.777345655246303977e+02,-1.317400266011845815e+02,-6.244142829633574365e+01,-8.418607516991619377e+01,9.523238182067871094e+00,-8.414105772972106934e-01,-2.677215635776519775e-01,3.830000000000000000e+02
-2.473938514895819480e+02,-1.915294072375588712e+02,-9.931940312373171764e+01,7.122342056388379206e+01,-1.767915471069504747e+02,-1.293536558207474627e+02,-6.121958267374088791e+01,-8.241759565336451487e+01,9.523238182067871094e+00,-8.414105772972106934e-01,-2.677215635776519775e-01,3.840000000000000000e+02
-2.437534350282539890e+02,-1.891481999314398763e+02,-9.614644200762450055e+01,7.057969104172707375e+01,-1.740716199439689262e+02,-1.272508727588328838e+02,-5.900308947420558070e+01,-8.008975950824674328e+01,9.523238182067871094e+00,-8.414105772972106934e-01,-2.677215635776519775e-01,3.850000000000000000e+02
-2.395661436845120988e+02,-1.861267469929655363e+02,-9.139043548512813686e+01,6.984491158868900129e+01,-1.695103820107642605e+02,-1.252421254918854174e+02,-5.592688178056278048e+01,-7.759476402262612282e+01,9.446745872497558594e+00,-1.070886254310607910e+00,-3.824593424797058105e-01,3.860000000000000000e+02
-2.354506090485083405e+02,-1.831666019866586339e+02,-8.687171024431290789e+01,6.927103884597136130e+01,-1.644902081926361461e+02,-1.231492562784251277e+02,-5.276303358689710876e+01,-7.567730099666709975e+01,9.446745872497558594e+00,-1.070886254310607910e+00,-3.824593424797058105e-01,3.870000000000000000e+02
-2.319794664534160802e+02,-1.807356164743050613e+02,-8.451390778804261572e+01,6.887046923430170864e+01,-1.606691842552854723e+02,-1.209827526327385385e+02,-5.034015737568324766e+01,-7.473673947388670058e+01,9.446745872497558594e+00,-1.070886254310607910e+00,-3.824593424797058105e-01,3.880000000000000000e+02
-2.293145485633519911e+02,-1.788270742957433868e+02,-8.475786680522605820e+01,6.861648611689633981e+01,-1.586792255345987996e+02,-1.189707814907724241e+02,-4.901459782773827101e+01,-7.459641084088548268e+01,9.446745872497558594e+00,-1.070886254310607910e+00,-3.824593424797058105e-01,3.890000000000000000e+02
-2.272116034301975560e+02,-1.772155745797174404e+02,-8.623384971519226383e+01,6.852331988464629831e+01,-1.578453492278440535e+02,-1.174216630707946933e+02,-4.863974967856597686e+01,-7.487634541625425300e+01,9.446745872497558594e+00,-1.070886254310607910e+00,-3.824593424797058105e-01,3.900000000000000000e+02
-2.253142637109658608e+02,-1.757845921831610667e+02,-8.698001570332280608e+01,6.856469126214051357e+01,-1.570391264576560388e+02,-1.165233473121716088e+02,-4.894183987831797822e+01,-7.543952418918956937e+01,9.446745872497558594e+00,-1.070886254310607910e+00,-3.824593424797058105e-01,3.910000000000000000e+02
-2.234212957202728376e+02,-1.745239856244363637e+02,-8.605704544329319106e+01,6.863033064568071495e+01,-1.557211864208484258e+02,-1.161962552429085918e+02,-4.980961568668817563e+01,-7.635100748656827818e+01,9.446745872497558594e+00,-1.070886254310607910e+00,-3.824593424797058105e-01,3.920000000000000000e+02
-2.215259573773378179e+02,-1.732739356537313142e+02,-8.412077622184961001e+01,6.867143015104011283e+01,-1.541952360725028939e+02,-1.160619715447251110e+02,-5.118153343475478323e+01,-7.742204373496997505e+01,9.446745872497558594e+00,-1.070886254310607910e+00,-3.824593424797058105e-01,3.930000000000000000e+02
-2.196831584848839611e+02,-1.716260948035592264e+02,-8.256680599910737328e+01,6.888094538011819168e+01,-1.530115165842412353e+02,-1.155634594636526344e+02,-5.273337218421079342e+01,-7.795742325728770084e+01,9.446745872497558594e+00,-1.070886254310607910e+00,-3.824593424797058105e-01,3.940000000000000000e+02
-2.178945581751172540e+02,-1.692014822698565695e+02,-8.219169638432208558e+01,6.958548068879190396e+01,-1.522957944532372494e+02,-1.142496762441382998e+02,-5.383916866189747452e+01,-7.716388072669769826e+01,9.446745872497558594e+00,-1.070886254310607910e+00,-3.824593424797058105e-01,3.950000000000000000e+02
-2.161202475829409195e+02,-1.660605648142818609e+02,-8.264741566608631729e+01,7.081392436727946915e+01,-1.517203830599971752e+02,-1.121189531574686953e+02,-5.399620057517040550e+01,-7.494454394212107218e+01,9.446745872497558594e+00,-1.070886254310607910e+00,-3.824593424797058105e-01,3.960000000000000000e+02
-2.143617969751360306e+02,-1.627933047492947480e+02,-8.303519993003305899e+01,7.197398841937229008e+01,-1.510041006566766555e+02,-1.097572692492522037e+02,-5.330390317036903980e+01,-7.225414451028632357e+01,9.446745872497558594e+00,-1.070886254310607910e+00,-3.824593424797058105e-01,3.970000000000000000e+02
-2.127002828099221006e+02,-1.601651988211913249e+02,-8.285965084462304731e+01,7.209655849234013658e+01,-1.502483612208136492e+02,-1.080523890108656815e+02,-5.243018349514909460e+01,-7.050912766634087347e+01,9.446745872497558594e+00,-1.070886254310607910e+00,-3.824593424797058105e-01,3.980000000000000000e+02
-2.112506349117388709e+02,-1.586193650534999051e+02,-8.234176626415364808e+01,7.058941249131385121e+01,-1.496918686834605978e+02,-1.075827803528222830e+02,-5.197280362971855538e+01,-7.043816522371344035e+01,9.446745872497558594e+00,-1.070886254310607910e+00,-3.824593424797058105e-01,3.990000000000000000e+02
-2.100902880701594313e+02,-1.580447029422955438e+02,-8.191142958024352083e+01,6.782990481591605203e+01,-1.492194703684601791e+02,-1.081461028758271823e+02,-5.181437269804860080e+01,-7.138364251247276115e+01,9.446745872497558594e+00,-1.070886254310607910e+00,-3.824593424797058105e-01,4.000000000000000000e+02
-2.092212647717722120e+02,-1.579370091348891947e+02,-8.158159055644068758e+01,6.495878789867447267e+01,-1.482831758056984199e+02,-1.088812102963470352e+02,-5.118018785416734318e+01,-7.176372292648943585e+01,9.446745872497558594e+00,-1.070886254310607910e+00,-3.824593424797058105e-01,4.010000000000000000e+02
-2.085807699331298863e+02,-1.577341195131718905e+02,-8.092878050594163142e+01,6.299639105469623246e+01,-1.464095948324954861e+02,-1.089460801652985538e+02,-4.943553568826700939e+01,-7.035653859452645520e+01,9.446745872497558594e+00,-1.070886254310607910e+00,-3.824593424797058105e-01,4.020000000000000000e+02
-2.080725198694801747e+02,-1.570418444649208141e+02,-7.964970503448353156e+01,6.212028336944922557e+01,-1.437552952380601710e+02,-1.081748615902029087e+02,-4.686387347815866633e+01,-6.728678096464227565e+01,9.446745872497558594e+00,-1.070886254310607910e+00,-3.824593424797058105e-01,4.030000000000000000e+02
-2.075740745904338382e+02,-1.556706874623462227e+02,-7.800042164055639660e+01,6.180930923106234331e+01,-1.410563982503722400e+02,-1.071126117676076319e+02,-4.458575139920912989e+01,-6.383255171793462068e+01,9.446745872497558594e+00,-1.070886254310607910e+00,-3.824593424797058105e-01,4.040000000000000000e+02
-2.069392238767336494e+02,-1.535961627588160354e+02,-7.658981243874245592e+01,6.166849122228859414e+01,-1.389599025752065700e+02,-1.063996709066050244e+02,-4.358446441583669184e+01,-6.123067451815836648e+01,9.446745872497558594e+00,-1.070886254310607910e+00,-3.824593424797058105e-01,4.050000000000000000e+02
-2.060294313468366454e+02,-1.509381002610248288e+02,-7.573826247555211921e+01,6.203070843740533746e+01,-1.374066654451175964e+02,-1.060944976376763407e+02,-4.373491710210328165e+01,-5.957797937738587279e+01,9.446745872497558594e+00,-1.070886254310607910e+00,-3.824593424797058105e-01,4.060000000000000000e+02
-2.047754129282511713e+02,-1.479684608100724290e+02,-7.511811264796529031e+01,6.363031422088488398e+01,-1.357088440997272301e+02,-1.055902445899664599e+02,-4.381640497797070566e+01,-5.784112739157603755e+01,9.446745872497558594e+00,-1.070886254310607910e+00,-3.824593424797058105e-01,4.070000000000000000e+02
-2.032343667440084118e+02,-1.450934615209621370e+02,-7.409723371303175554e+01,6.662000732448586859e+01,-1.332659386182435810e+02,-1.042131870015882669e+02,-4.258013560139011133e+01,-5.496903156185317130e+01,9.446745872497558594e+00,-1.070886254310607910e+00,-3.824593424797058105e-01,4.080000000000000000e+02
-2.015793384139660702e+02,-1.427870624026450059e+02,-7.242892152327181066e+01,6.995286282614779338e+01,-1.302125981161996151e+02,-1.019330860684644904e+02,-3.990969447556994965e+01,-5.106327899732104925e+01,9.446745872497558594e+00,-1.070886254310607910e+00,-3.824593424797058105e-01,4.090000000000000000e+02
-1.999878272533844665e+02,-1.414774195038139624e+02,-7.055905229007430535e+01,7.187926886841023588e+01,-1.273529036138361334e+02,-9.949895858395620962e+01,-3.697922298505363869e+01,-4.748528148139553196e+01,9.446745872497558594e+00,-1.070886254310607910e+00,-3.824593424797058105e-01,4.100000000000000000e+02
-1.984793035710201821e+02,-1.413839395810475708e+02,-6.921861166533517462e+01,7.124935618504923696e+01,-1.254456504531899554e+02,-9.786067000214734435e+01,-3.526006185483129229e+01,-4.577127796208606014e+01,9.446745872497558594e+00,-1.070886254310607910e+00,-3.824593424797058105e-01,4.110000000000000000e+02
-1.968298252904237415e+02,-1.423263402163561295e+02,-6.870228943590677773e+01,6.849316946408316653e+01,-1.245160909879523388e+02,-9.739341401204910653e+01,-3.531339238373743683e+01,-4.631456911266968746e+01,9.446745872497558594e+00,-1.070886254310607910e+00,-3.824593424797058105e-01,4.120000000000000000e+02
-1.947142185644061101e+02,-1.436293255810337541e+02,-6.856788940333672144e+01,6.540148028289604554e+01,-1.238264657923514278e+02,-9.760196664448085357e+01,-3.646466632182364265e+01,-4.797781671619918598e+01,9.446745872497558594e+00,-1.070886254310607910e+00,-3.824593424797058105e-01,4.130000000000000000e+02
-1.920368525233027412e+02,-1.443130249299651950e+02,-6.804788105546867882e+01,6.386158277180584264e+01,-1.225031724862906231e+02,-9.753109698720118104e+01,-3.757275416895117814e+01,-4.895388378946836383e+01,9.446745872497558594e+00,-1.070886254310607910e+00,-3.824593424797058105e-01,4.140000000000000000e+02
-1.891728637548619645e+02,-1.436017495449996204e+02,-6.673322913150195745e+01,6.456798713653915911e+01,-1.202359013416589733e+02,-9.650408340300873533e+01,-3.805738888722407864e+01,-4.810593589285804228e+01,9.446745872497558594e+00,-1.070886254310607910e+00,-3.824593424797058105e-01,4.150000000000000000e+02
-1.868195342910560157e+02,-1.414658220769754280e+02,-6.485891556620072151e+01,6.667434201063269938e+01,-1.174723255140775109e+02,-9.459215791039105170e+01,-3.820679277963517961e+01,-4.569574781103256100e+01,9.446745872497558594e+00,-1.070886254310607910e+00,-3.824593424797058105e-01,4.160000000000000000e+02
-1.854611791292475118e+02,-1.387383308128876251e+02,-6.296849363920227916e+01,6.852062075293406451e+01,-1.150268672369393244e+02,-9.251628142058689264e+01,-3.859911635945763919e+01,-4.303485925649988530e+01,9.484992027282714844e+00,-1.070886254310607910e+00,-2.677215635776519775e-01,4.170000000000000000e+02
-1.848567279436049375e+02,-1.366000581481766858e+02,-6.136630052230634647e+01,6.875018481104871171e+01,-1.135190898450764507e+02,-9.116797346972589366e+01,-3.935620543820459716e+01,-4.150568572661359212e+01,9.484992027282714844e+00,-1.070886254310607910e+00,-2.677215635776519775e-01,4.180000000000000000e+02
-1.840786287166047259e+02,-1.357314622694921127e+02,-5.992624321987386793e+01,6.701416232965766540e+01,-1.130982210211486745e+02,-9.115558680727463070e+01,-3.999172325247582194e+01,-4.174510334093974961e+01,9.484992027282714844e+00,-1.070886254310607910e+00,-2.677215635776519775e-01,4.190000000000000000e+02
-1.822115848942298726e+02,-1.357679937692000749e+02,-5.838060603635858570e+01,6.398072987652631127e+01,-1.135308714790576232e+02,-9.259418883747002837e+01,-3.989026521750292886e+01,-4.341483631766459439e+01,9.484992027282714844e+00,-1.070886254310607910e+00,-2.677215635776519775e-01,4.200000000000000000e+02
-1.791775731525335686e+02,-1.355240275193259549e+02,-5.670579076747617364e+01,6.091433201295558320e+01,-1.143959752313448917e+02,-9.507036960519599234e+01,-3.879963203175793751e+01,-4.544488747456762212e+01,9.484992027282714844e+00,-1.070886254310607910e+00,-2.677215635776519775e-01,4.210000000000000000e+02
-1.759304032199484027e+02,-1.338412700621549902e+02,-5.517493500952105023e+01,5.918375431544563980e+01,-1.151562249670641904e+02,-9.767026629686552042e+01,-3.683743502768857070e+01,-4.646373242312438379e+01,9.484992027282714844e+00,-1.070886254310607910e+00,-2.677215635776519775e-01,4.220000000000000000e+02
-1.737426411605765679e+02,-1.304324164964173178e+02,-5.405935820573017736e+01,5.979464895344426623e+01,-1.151549399773380173e+02,-9.915230561687531008e+01,-3.418270322294483776e+01,-4.531812821909556988e+01,9.484992027282714844e+00,-1.070886254310607910e+00,-2.677215635776519775e-01,4.230000000000000000e+02
-1.731479325647937912e+02,-1.260834206127660764e+02,-5.333568125647411762e+01,6.291868468831034988e+01,-1.137699150233629553e+02,-9.842550619768690012e+01,-3.098176638318227560e+01,-4.166330143136337938e+01,9.484992027282714844e+00,-1.070886254310607910e+00,-2.677215635776519775e-01,4.240000000000000000e+02
-1.734698518134928236e+02,-1.220914579472084824e+02,-5.270876022862171340e+01,6.757964485072989191e+01,-1.107858237567875221e+02,-9.523336146433075555e+01,-2.762181338538402997e+01,-3.638297787916394554e+01,9.484992027282714844e+00,-1.070886254310607910e+00,-2.677215635776519775e-01,4.250000000000000000e+02
-1.733672619352887523e+02,-1.193934935011238849e+02,-5.188418673989963281e+01,7.186656028708375743e+01,-1.067055516835371236e+02,-9.053814016816659205e+01,-2.490906716137988042e+01,-3.138743162483820015e+01,9.484992027282714844e+00,-1.070886254310607910e+00,-2.677215635776519775e-01,4.260000000000000000e+02
-1.719060896435266841e+02,-1.180272063137642817e+02,-5.075822716578386462e+01,7.384236602811370176e+01,-1.026215421306337703e+02,-8.610024306173818331e+01,-2.367745402986747649e+01,-2.860847797027827255e+01,9.484992027282714844e+00,-1.070886254310607910e+00,-2.677215635776519775e-01,4.270000000000000000e+02
-1.692035954020175268e+02,-1.172791983129095570e+02,-4.936917881255658358e+01,7.272055515608826681e+01,-9.960440677744782079e+01,-8.336696671400977721e+01,-2.404144868512048561e+01,-2.872318269644301836e+01,9.484992027282714844e+00,-1.070886254310607910e+00,-2.677215635776519775e-01,4.280000000000000000e+02
-1.661429854403850186e+02,-1.163427337841371809e+02,-4.777116760649505522e+01,6.944407160476566787e+01,-9.803710249862842829e+01,-8.249721882296307740e+01,-2.508208654826648853e+01,-3.059803585613576615e+01,9.484992027282714844e+00,-1.070886254310607910e+00,-2.677215635776519775e-01,4.290000000000000000e+02
-1.635428589908974573e+02,-1.149393140712938930e+02,-4.605807913216949601e+01,6.612425657598487305e+01,-9.742906030301082865e+01,-8.236876726575792418e+01,-2.545569726834037283e+01,-3.201740707006092634e+01,9.484992027282714844e+00,-1.070886254310607910e+00,-2.677215635776519775e-01,4.300000000000000000e+02
-1.615984338348762321e+02,-1.134260246203982661e+02,-4.450087445018903054e+01,6.469974427066154021e+01,-9.684410610192799140e+01,-8.159518075705091178e+01,-2.445790541378210037e+01,-3.121958057552069477e+01,9.484992027282714844e+00,-1.070886254310607910e+00,-2.677215635776519775e-01,4.310000000000000000e+02
-1.600247363851426599e+02,-1.123390778396335463e+02,-4.353022645732198725e+01,6.581067455245283782e+01,-9.555906671538468800e+01,-7.965205180591055978e+01,-2.251570328757634343e+01,-2.803607993700347834e+01,9.484992027282714844e+00,-1.070886254310607910e+00,-2.677215635776519775e-01,4.320000000000000000e+02
-1.585673142564505724e+02,-1.117750359371730156e+02,-4.341598870094412632e+01,6.869434222606969342e+01,-9.341530005562481165e+01,-7.709764383190076842e+01,-2.061249091147556101e+01,-2.374993991181781894e+01,9.484992027282714844e+00,-1.070886254310607910e+00,-2.677215635776519775e-01,4.330000000000000000e+02
-1.572394547922317543e+02,-1.111612762599170310e+02,-4.388843338472156574e+01,7.200137857313893619e+01,-9.068741809478706273e+01,-7.478598260812077569e+01,-1.926961818476820554e+01,-1.992714524950815758e+01,9.484992027282714844e+00,-1.070886254310607910e+00,-2.677215635776519775e-01,4.340000000000000000e+02
-1.560709738308812575e+02,-1.096642763096424460e+02,-4.413687012495734052e+01,7.469816592997267435e+01,-8.774030217128665754e+01,-7.296645858514420979e+01,-1.817169999639099842e+01,-1.734059658062005838e+01,9.484992027282714844e+00,-1.070886254310607910e+00,-2.677215635776519775e-01,4.350000000000000000e+02
-1.547708599216621224e+02,-1.069435795646788847e+02,-4.332646673752969946e+01,7.634173711863832068e+01,-8.483487419958237297e+01,-7.120851006469274580e+01,-1.680307800267701168e+01,-1.586857351724347609e+01,9.484992027282714844e+00,-1.070886254310607910e+00,-2.677215635776519775e-01,4.360000000000000000e+02
-1.528170186000293143e+02,-1.036045505726492593e+02,-4.124170191056714430e+01,7.678081805032024931e+01,-8.217472639233665177e+01,-6.916330929871037370e+01,-1.531646271577164953e+01,-1.521535531807512598e+01,9.484992027282714844e+00,-1.070886254310607910e+00,-2.677215635776519775e-01,4.370000000000000000e+02
-1.499692853381743589e+02,-1.008880639544254336e+02,-3.848956144485737241e+01,7.590210833158653259e+01,-8.000859506347842398e+01,-6.726284777469754772e+01,-1.457509664707185948e+01,-1.551009964809509256e+01,9.408499717712402344e+00,-1.262115836143493652e+00,-3.059675097465515137e-01,4.380000000000000000e+02
-1.466443093906793820e+02,-9.977047278545387599e+01,-3.605540105598652190e+01,7.381771870833563298e+01,-7.859466873640531048e+01,-6.653016840125837916e+01,-1.524317979036368342e+01,-1.709650368365328177e+01,9.408499717712402344e+00,-1.262115836143493652e+00,-3.059675097465515137e-01,4.390000000000000000e+02
-1.436728699205111752e+02,-1.001940994714552744e+02,-3.459856038470525164e+01,7.120459287429821416e+01,-7.805346867499838481e+01,-6.764040396103655439e+01,-1.692224047090758177e+01,-1.981144969525848865e+01,9.408499717712402344e+00,-1.262115836143493652e+00,-3.059675097465515137e-01,4.400000000000000000e+02
-1.416052931539322799e+02,-1.010886675924591600e+02,-3.410445759917956821e+01,6.920403686971894786e+01,-7.829006113516652476e+01,-7.017363571165196845e+01,-1.837386435510575211e+01,-2.265651199256308246e+01,9.408499717712402344e+00,-1.262115836143493652e+00,-3.059675097465515137e-01,4.410000000000000000e+02
-1.402389488516262190e+02,-1.011925393737703871e+02,-3.414060038139245989e+01,6.872613091251696460e+01,-7.907206386511961682e+01,-7.281183910233812639e+01,-1.871318512594461936e+01,-2.436793383752751652e+01,9.408499717712402344e+00,-1.262115836143493652e+00,-3.059675097465515137e-01,4.420000000000000000e+02
-1.388548036450501968e+02,-1.000083870684288740e+02,-3.439264611390603932e+01,6.971051325914231711e+01,-8.017579301159730676e+01,-7.429893728757497229e+01,-1.834703839244752999e+01,-2.442201821733942779e+01,9.408499717712402344e+00,-1.262115836143493652e+00,-3.059675097465515137e-01,4.430000000000000000e+02
-1.369537930299438813e+02,-9.811303548063892777e+01,-3.493061868465360931e+01,7.110188568186549674e+01,-8.144179181468211937e+01,-7.427602912449265204e+01,-1.860511594520448853e+01,-2.346049220540521674e+01,9.408499717712402344e+00,-1.262115836143493652e+00,-3.059675097465515137e-01,4.440000000000000000e+02
-1.347877177357395340e+02,-9.661893049902892017e+01,-3.596417017606995614e+01,7.168875266174654826e+01,-8.268911596749990167e+01,-7.329651528744943789e+01,-2.034304258209022009e+01,-2.264930149580436591e+01,9.408499717712402344e+00,-1.262115836143493652e+00,-3.059675097465515137e-01,4.450000000000000000e+02
-1.331853899736854601e+02,-9.629904217088756013e+01,-3.738301833957780218e+01,7.112057608040140622e+01,-8.360065793694775493e+01,-7.213125785766533227e+01,-2.291253212405672457e+01,-2.254434826398824043e+01,9.408499717712402344e+00,-1.262115836143493652e+00,-3.059675097465515137e-01,4.460000000000000000e+02
-1.328546137683708821e+02,-9.710380666432456565e+01,-3.858571737393435797e+01,7.018323981258572530e+01,-8.372981598500336986e+01,-7.107246697085429332e+01,-2.457888964692756417e+01,-2.254984523519306094e+01,9.408499717712402344e+00,-1.262115836143493652e+00,-3.059675097465515137e-01,4.470000000000000000e+02
-1.338117786003419951e+02,-9.836245257294922339e+01,-3.882947105372363694e+01,7.005275768248475288e+01,-8.268342674816108229e+01,-6.981681563990787254e+01,-2.403933780507304618e+01,-2.149279030088814579e+01,9.408499717712402344e+00,-1.262115836143493652e+00,-3.059675097465515137e-01,4.480000000000000000e+02
-1.354143443608604684e+02,-9.935077469429802477e+01,-3.781189941760931106e+01,7.119735215353739477e+01,-8.038470799659512522e+01,-6.790697697937866906e+01,-2.160784829999124668e+01,-1.875013934211324340e+01,9.408499717712402344e+00,-1.262115836143493652e+00,-3.059675097465515137e-01,4.490000000000000000e+02
-1.368764866892804548e+02,-9.970028896316080136e+01,-3.594689158092228354e+01,7.293277246448451478e+01,-7.723292918789866235e+01,-6.525406348448086646e+01,-1.896651127053860364e+01,-1.485750439229514086e+01,9.408499717712402344e+00,-1.262115836143493652e+00,-3.059675097465515137e-01,4.500000000000000000e+02
-1.377381148082081381e+02,-9.941225599887229691e+01,-3.404559485539471098e+01,7.405329414179186642e+01,-7.397298139695544705e+01,-6.227320254903361274e+01,-1.774674456510797427e+01,-1.106141109154441438e+01,9.408499717712402344e+00,-1.262115836143493652e+00,-3.059675097465515137e-01,4.510000000000000000e+02
-1.379029951383006392e+02,-9.864187484326726008e+01,-3.264321333150337523e+01,7.396740004673438307e+01,-7.128708618248219864e+01,-5.956497245616264991e+01,-1.825414257470947632e+01,-8.319521880085176235e+00,9.408499717712402344e+00,-1.262115836143493652e+00,-3.059675097465515137e-01,4.520000000000000000e+02
-1.373508923184360810e+02,-9.753761081414768341e+01,-3.155373561127225912e+01,7.326676935829118520e+01,-6.937943421543900513e+01,-5.746418635034842737e+01,-1.942479328962508589e+01,-6.732715029371092896e+00,9.408499717712402344e+00,-1.262115836143493652e+00,-3.059675097465515137e-01,4.530000000000000000e+02
-1.359238747110439363e+02,-9.622880449690114801e+01,-3.007986015076767217e+01,7.315315065363301983e+01,-6.792071488096325993e+01,-5.586196811047739175e+01,-1.990334936167482738e+01,-5.881555798171575589e+00,9.408499717712402344e+00,-1.262115836143493652e+00,-3.059675097465515137e-01,4.540000000000000000e+02
-1.334513123602603173e+02,-9.484715213516869881e+01,-2.773112637478220677e+01,7.421975679947809112e+01,-6.646755297852178046e+01,-5.445936021484112644e+01,-1.917443496944338222e+01,-5.599559609100651869e+00,9.408499717712402344e+00,-1.262115836143493652e+00,-3.059675097465515137e-01,4.550000000000000000e+02
-1.300921376803582916e+02,-9.348119559462429606e+01,-2.482814005342879682e+01,7.574263045979296294e+01,-6.502475237456837931e+01,-5.320316373001924148e+01,-1.778971821392337915e+01,-6.285165164271802496e+00,9.408499717712402344e+00,-1.262115836143493652e+00,-3.059675097465515137e-01,4.560000000000000000e+02
-1.265095073243589923e+02,-9.212383507737717991e+01,-2.241893049971463370e+01,7.623610125757886635e+01,-6.418674501115719977e+01,-5.245484780592778407e+01,-1.666954680431013003e+01,-8.378038727244984329e+00,9.408499717712402344e+00,-1.262115836143493652e+00,-3.059675097465515137e-01,4.570000000000000000e+02
-1.236278469447731823e+02,-9.071871876876048191e+01,-2.151545138717892769e+01,7.484654641215115589e+01,-6.460482179589052976e+01,-5.264613574125678497e+01,-1.624509708290702292e+01,-1.152299610371528615e+01,9.408499717712402344e+00,-1.262115836143493652e+00,-3.059675097465515137e-01,4.580000000000000000e+02
-1.220943901109505987e+02,-8.928780712439129275e+01,-2.227382379718278571e+01,7.230755633460375975e+01,-6.618713783281145879e+01,-5.366746176614833530e+01,-1.618669079566939217e+01,-1.432229135135526121e+01,9.408499717712402344e+00,-1.262115836143493652e+00,-3.059675097465515137e-01,4.590000000000000000e+02
-1.218402270483386474e+02,-8.798897276053662608e+01,-2.382266024751834266e+01,7.049546739111974603e+01,-6.779967821597574584e+01,-5.459923582717055979e+01,-1.582419528817149512e+01,-1.506933270443323636e+01,9.408499717712402344e+00,-1.262115836143493652e+00,-3.059675097465515137e-01,4.600000000000000000e+02
-1.220910409551111115e+02,-8.702094526699988819e+01,-2.488503981210442362e+01,7.089405947537193242e+01,-6.787890301237371204e+01,-5.419579924449317332e+01,-1.475338269245025913e+01,-1.293072484304252612e+01,9.408499717712402344e+00,-1.262115836143493652e+00,-3.059675097465515137e-01,4.610000000000000000e+02
-1.218545270436882220e+02,-8.645840629141298450e+01,-2.464856158253837748e+01,7.333438655611485046e+01,-6.553668374974085964e+01,-5.183919647410357356e+01,-1.307595416652134190e+01,-8.598338969078440641e+00,9.408499717712402344e+00,-1.262115836143493652e+00,-3.059675097465515137e-01,4.620000000000000000e+02
-1.205561585061138885e+02,-8.620177101166041211e+01,-2.316924467211060801e+01,7.613949843855198196e+01,-6.125665525169551984e+01,-4.816058933106751283e+01,-1.116475075120592919e+01,-3.880033179910242325e+00,9.408499717712402344e+00,-1.491591572761535645e+00,-3.442134261131286621e-01,4.630000000000000000e+02
-1.183651312675692679e+02,-8.609596786329575480e+01,-2.106944191156208035e+01,7.752371370095124803e+01,-5.658658977836057602e+01,-4.470281399937994138e+01,-9.269279744742561888e+00,-5.581502988343345351e-01,9.408499717712402344e+00,-1.491591572761535645e+00,-3.442134261131286621e-01,4.640000000000000000e+02
-1.159814836979380743e+02,-8.608053136062358135e+01,-1.893085750461546013e+01,7.695377370715732468e+01,-5.308541024119040230e+01,-4.280627190834366047e+01,-7.340980419812467517e+00,6.072897161482160300e-01,9.408499717712402344e+00,-1.491591572761535645e+00,-3.442134261131286621e-01,4.650000000000000000e+02
-1.140737673612266008e+02,-8.621429634078208437e+01,-1.698116697099840167e+01,7.529773421484060236e+01,-5.136284943911437040e+01,-4.262263455823699587e+01,-5.193920013188289886e+00,7.746951849094330100e-02,9.408499717712402344e+00,-1.491591572761535645e+00,-3.442134261131286621e-01,4.660000000000000000e+02
-1.128331819657598771e+02,-8.657068246325616201e+01,-1.527219287036064088e+01,7.381030374013903383e+01,-5.087822657673291360e+01,-4.307952765348318280e+01,-2.801427418580715312e+00,-1.025434432145402752e+00,9.408499717712402344e+00,-1.491591572761535645e+00,-3.442134261131286621e-01,4.670000000000000000e+02
-1.119945742838824572e+02,-8.714311418476040672e+01,-1.401153018105696901e+01,7.305788875448752151e+01,-5.050397600292990319e+01,-4.280472359866439547e+01,-4.522282747964254668e-01,-1.685532078998221550e+00,9.408499717712402344e+00,-1.491591572761535645e+00,-3.442134261131286621e-01,4.680000000000000000e+02
-1.112608680633131826e+02,-8.785604005100094582e+01,-1.360075498669766603e+01,7.277935583643966311e+01,-4.934098831332312329e+01,-4.120579873048995978e+01,1.372116205411884948e+00,-1.457667508447343607e+00,9.408499717712402344e+00,-1.491591572761535645e+00,-3.442134261131286621e-01,4.690000000000000000e+02
-1.106826264120459200e+02,-8.864035957310852609e+01,-1.430701784882865013e+01,7.259259041988616445e+01,-4.725621958595684191e+01,-3.882223677867614242e+01,2.299388214705913924e+00,-5.313461947180257994e-01,9.408499717712402344e+00,-1.491591572761535645e+00,-3.442134261131286621e-01,4.700000000000000000e+02
-1.105874356744084253e+02,-8.945659405355911531e+01,-1.593411535181974159e+01,7.259734147868653054e+01,-4.491140923715101962e+01,-3.673673169625431001e+01,2.333934383219002484e+00,4.177987782642276215e-01,9.408499717712402344e+00,-1.491591572761535645e+00,-3.442134261131286621e-01,4.710000000000000000e+02
-1.111084813907120861e+02,-9.022227564583579351e+01,-1.787645464096510750e+01,7.318437752835779975e+01,-4.335852678280502914e+01,-3.562586785480402796e+01,1.899321746838609215e+00,4.411602682264401665e-01,9.408499717712402344e+00,-1.491591572761535645e+00,-3.442134261131286621e-01,4.720000000000000000e+02
-1.117998223018267936e+02,-9.074487718594753005e+01,-1.954069519253857834e+01,7.434649883508859602e+01,-4.343186909780160931e+01,-3.526368312010549744e+01,1.620135113880223798e+00,-1.366838278908289794e+00,9.408499717712402344e+00,-1.491591572761535645e+00,-3.442134261131286621e-01,4.730000000000000000e+02
-1.118057657989618292e+02,-9.076764214828961030e+01,-2.073650872391579014e+01,7.538720435565392108e+01,-4.521788621151483767e+01,-3.481521429722829453e+01,1.972170480722297725e+00,-5.393244781559701551e+00,9.408499717712402344e+00,-1.491591572761535645e+00,-3.442134261131286621e-01,4.740000000000000000e+02
-1.105290931849792742e+02,-9.013066584225680344e+01,-2.168305911075583481e+01,7.547781978605962649e+01,-4.789269201138415610e+01,-3.357185392093629162e+01,3.021626276156780477e+00,-1.107867517183649397e+01,9.408499717712402344e+00,-1.491591572761535645e+00,-3.442134261131286621e-01,4.750000000000000000e+02
-1.082046113221590531e+02,-8.892326180185773410e+01,-2.264919805203430769e+01,7.453047435255052733e+01,-5.009263644835766627e+01,-3.147851914938860318e+01,4.425888578561853137e+00,-1.693972568656977273e+01,9.408499717712402344e+00,-1.491591572761535645e+00,-3.442134261131286621e-01,4.760000000000000000e+02
-1.057970920499672047e+02,-8.749200661696056613e+01,-2.358063407712097614e+01,7.345258655213001475e+01,-5.065689046869340473e+01,-2.906689638769603334e+01,5.693263861158357031e+00,-2.124360229656599586e+01,9.408499717712402344e+00,-1.491591572761535645e+00,-3.442134261131286621e-01,4.770000000000000000e+02
-1.042364786165824171e+02,-8.628536898316542647e+01,-2.405298505059715808e+01,7.343416404113929730e+01,-4.926713937000056376e+01,-2.695411442356714815e+01,6.531033600051841859e+00,-2.299745803494693064e+01,9.408499717712402344e+00,-1.491591572761535645e+00,-3.442134261131286621e-01,4.780000000000000000e+02
-1.036486928802380589e+02,-8.563589915457339430e+01,-2.356720635513954676e+01,7.489899024645990266e+01,-4.653397771416268824e+01,-2.539679855442727785e+01,7.038719518971788602e+00,-2.253924947108924925e+01,9.408499717712402344e+00,-1.491591572761535645e+00,-3.442134261131286621e-01,4.790000000000000000e+02
-1.032861234213855823e+02,-8.562381864492130035e+01,-2.192570437931300376e+01,7.710254864700766575e+01,-4.350859183887871495e+01,-2.425964730531541136e+01,7.590041423235447837e+00,-2.124980068239983666e+01,9.408499717712402344e+00,-1.491591572761535645e+00,-3.442134261131286621e-01,4.800000000000000000e+02
-1.022316800034379298e+02,-8.610997482358988009e+01,-1.941826967743048726e+01,7.871211816794095739e+01,-4.105277985919661887e+01,-2.334045472089894702e+01,8.467615179787401303e+00,-2.059145539317825069e+01,9.408499717712402344e+00,-1.491591572761535645e+00,-3.442134261131286621e-01,4.810000000000000000e+02
-1.002107250283223721e+02,-8.690773808496101083e+01,-1.670985001517391311e+01,7.879133307923819984e+01,-3.953522138681069009e+01,-2.267497372092668684e+01,9.532845826075345030e+00,-2.123045047687429587e+01,9.408499717712402344e+00,-1.491591572761535645e+00,-3.442134261131286621e-01,4.820000000000000000e+02
-9.775892524312965293e+01,-8.794513229135679921e+01,-1.453477363857530236e+01,7.732361351655151793e+01,-3.895953995401652037e+01,-2.253182780989834555e+01,1.022728139871765052e+01,-2.290131795298461270e+01,9.408499717712402344e+00,-1.491591572761535645e+00,-3.442134261131286621e-01,4.830000000000000000e+02
-9.563891129020404946e+01,-8.928175068012672000e+01,-1.340642591739049294e+01,7.493641699766487818e+01,-3.924344206640461152e+01,-2.316017471835289143e+01,9.941936352039618896e+00,-2.500970827977698718e+01,9.408499717712402344e+00,-1.491591572761535645e+00,-3.442134261131286621e-01,4.840000000000000000e+02
-9.412095658415171329e+01,-9.095736846004844267e+01,-1.347992381643311433e+01,7.226877393320097553e+01,-4.029411719705278472e+01,-2.456999392351391975e+01,8.499551075109792464e+00,-2.731780395540880590e+01,9.408499717712402344e+00,-1.491591572761535645e+00,-3.442134261131286621e-01,4.850000000000000000e+02
-9.284880886524791777e+01,-9.279382652278876265e+01,-1.457649511839503731e+01,6.965084089298059666e+01,-4.183412489530249445e+01,-2.651588220316183708e+01,6.387758771418461379e+00,-3.003333088133116746e+01,9.408499717712402344e+00,-1.491591572761535645e+00,-3.442134261131286621e-01,4.860000000000000000e+02
-9.137165993842913281e+01,-9.433960346547287656e+01,-1.629753753550430417e+01,6.729266307790250323e+01,-4.326963846235713618e+01,-2.861080908898611597e+01,4.525767952221123380e+00,-3.328203455106446995e+01,9.408499717712402344e+00,-1.491591572761535645e+00,-3.442134261131286621e-01,4.870000000000000000e+02
-8.972549099080768542e+01,-9.504901471642367028e+01,-1.814420627989312607e+01,6.557843041346741586e+01,-4.387935628396326138e+01,-3.041718349507161179e+01,3.700816776067796354e+00,-3.658181508224222966e+01,9.408499717712402344e+00,-1.491591572761535645e+00,-3.442134261131286621e-01,4.880000000000000000e+02
-8.841827569546606469e+01,-9.457855431067054042e+01,-1.962113591706926741e+01,6.501200462423719273e+01,-4.326578327865971119e+01,-3.149128434229135109e+01,4.087031397912483044e+00,-3.892889527896744539e+01,9.408499717712402344e+00,-1.491591572761535645e+00,-3.442134261131286621e-01,4.890000000000000000e+02
-8.782348525483314461e+01,-9.298069964046879932e+01,-2.035918471125876295e+01,6.581615709383214607e+01,-4.170527166277076958e+01,-3.150414064400206371e+01,5.195795462078422133e+00,-3.950870495127890081e+01,9.370253562927246094e+00,-1.759313106536865234e+00,-4.207052886486053467e-01,4.900000000000000000e+02
-8.765561293752159600e+01,-9.066357729368166929e+01,-2.025761296910559395e+01,6.764121435617607858e+01,-4.003557747224920149e+01,-3.045145710162057640e+01,6.278649634869282181e+00,-3.837901508000032891e+01,9.370253562927246094e+00,-1.759313106536865234e+00,-4.207052886486053467e-01,4.910000000000000000e+02
-8.714854187373339300e+01,-8.816955440557745760e+01,-1.956558267585512567e+01,6.977356832415318877e+01,-3.908998449048567636e+01,-2.872757706063350724e+01,6.867638446108230710e+00,-3.643078531285061672e+01,9.370253562927246094e+00,-1.759313106536865234e+00,-4.207052886486053467e-01,4.920000000000000000e+02
-8.581451628679269561e+01,-8.593685777366067668e+01,-1.879190865548901002e+01,7.170242320742431730e+01,-3.908665540437118580e+01,-2.685141475434045333e+01,7.066680284343419771e+00,-3.462074259001872178e+01,9.370253562927246094e+00,-1.759313106536865234e+00,-4.207052886486053467e-01,4.930000000000000000e+02
-8.401815612295285973e+01,-8.416509967502111067e+01,-1.843781708936774066e+01,7.348468394305405127e+01,-3.946611741954893660e+01,-2.500078464982698279e+01,7.433065316257625454e+00,-3.319630487621986958e+01,9.370253562927246094e+00,-1.759313106536865234e+00,-4.207052886486053467e-01,4.940000000000000000e+02
-8.271008070526590927e+01,-8.279825207734916148e+01,-1.870477870550178068e+01,7.552436398707686749e+01,-3.933474865818925537e+01,-2.283350382381968302e+01,8.597896294642396242e+00,-3.165927319424497455e+01,9.370253562927246094e+00,-1.759313106536865234e+00,-4.207052886486053467e-01,4.950000000000000000e+02
-8.250014856500934002e+01,-8.157003372659391971e+01,-1.938862551215527219e+01,7.797979835749583799e+01,-3.816844621375969382e+01,-1.988140354524034592e+01,1.090965527425976234e+01,-2.949368758414766489e+01,9.370253562927246094e+00,-1.759313106536865234e+00,-4.207052886486053467e-01,4.960000000000000000e+02
-8.296035467726085244e+01,-8.010941422716996385e+01,-2.004318710740210463e+01,8.041673561404854809e+01,-3.619986248757504654e+01,-1.621466865415231950e+01,1.425276117232021988e+01,-2.693786775333376227e+01,9.370253562927246094e+00,-1.759313106536865234e+00,-4.207052886486053467e-01,4.970000000000000000e+02
-8.286755342159835891e+01,-7.812488329906091167e+01,-2.026362478121143340e+01,8.209157057746961073e+01,-3.414988951818281748e+01,-1.268687831253828335e+01,1.804468010177811266e+01,-2.499780370566668353e+01,9.370253562927246094e+00,-1.759313106536865234e+00,-4.207052886486053467e-01,4.980000000000000000e+02
-8.123495173116862134e+01,-7.561227358664473286e+01,-1.986630606256699139e+01,8.260647381820331248e+01,-3.253849139597377871e+01,-1.039943011815034879e+01,2.138199128798419224e+01,-2.463268534508301855e+01,9.370253562927246094e+00,-1.759313106536865234e+00,-4.207052886486053467e-01,4.990000000000000000e+02
-7.821776996884182154e+01,-7.296172242615966752e+01,-1.888470862724875587e+01,8.228244062881458376e+01,-3.120438134488767901e+01,-9.806524243811509223e+00,2.334010804634203851e+01,-2.588131497625545308e+01,9.370253562927246094e+00,-1.759313106536865234e+00,-4.207052886486053467e-01,5.000000000000000000e+02
-7.505548964689432978e+01,-7.085416990313706265e+01,-1.749016318671465342e+01,8.186136489996579257e+01,-2.949375044710177463e+01,-1.029994920798935709e+01,2.340389198670163751e+01,-2.776642966162853554e+01,9.370253562927246094e+00,-1.759313106536865234e+00,-4.207052886486053467e-01,5.010000000000000000e+02
-7.307118939035899530e+01,-6.996827565746616528e+01,-1.597412225656853479e+01,8.181604530135609821e+01,-2.697682104391697067e+01,-1.069765383941739856e+01,2.182837719220560757e+01,-2.907196473676026471e+01,9.370253562927246094e+00,-1.759313106536865234e+00,-4.207052886486053467e-01,5.020000000000000000e+02
-7.258177454742826740e+01,-7.063408923282463547e+01,-1.474629663261066526e+01,8.195850934921691078e+01,-2.403014118219448392e+01,-1.019643755067363600e+01,1.961070139744128937e+01,-2.926241650318570464e+01,9.370253562927246094e+00,-1.759313106536865234e+00,-4.207052886486053467e-01,5.030000000000000000e+02
-7.264152778144853073e+01,-7.260877227853347904e+01,-1.419268240968699502e+01,8.171709977088903543e+01,-2.169890874454949881e+01,-8.929921767809901212e+00,1.791899570026043875e+01,-2.872653925888926096e+01,9.370253562927246094e+00,-1.759313106536865234e+00,-4.207052886486053467e-01,5.040000000000000000e+02
-7.183287692992962548e+01,-7.509748185948114951e+01,-1.440093757845966138e+01,8.078252315092458957e+01,-2.090368398915097714e+01,-7.689892463900378061e+00,1.730616140502365852e+01,-2.822503836234454866e+01,9.370253562927246094e+00,-1.759313106536865234e+00,-4.207052886486053467e-01,5.050000000000000000e+02
-6.945140254603211361e+01,-7.704537162341785006e+01,-1.501147353414103236e+01,7.947312396315101068e+01,-2.166041498313097691e+01,-7.157738483640514460e+00,1.735559472994600583e+01,-2.814544134235325146e+01,9.370253562927246094e+00,-1.759313106536865234e+00,-4.207052886486053467e-01,5.060000000000000000e+02
-6.613716706556715508e+01,-7.760230459081776644e+01,-1.545003104548072770e+01,7.847589482974035491e+01,-2.299929329547876478e+01,-7.361246690470125031e+00,1.715429222605143877e+01,-2.823066890889344904e+01,9.370253562927246094e+00,-1.759313106536865234e+00,-4.207052886486053467e-01,5.070000000000000000e+02
-6.345938283745044828e+01,-7.652856371283178305e+01,-1.542649174165489967e+01,7.826114778200735600e+01,-2.365270072908015209e+01,-7.730518388916607364e+00,1.627180796405582441e+01,-2.787320379986431362e+01,9.370253562927246094e+00,-1.759313106536865234e+00,-4.207052886486053467e-01,5.080000000000000000e+02
-6.276947964418786796e+01,-7.428663115572908282e+01,-1.523930031205827618e+01,7.874896924998483883e+01,-2.293348293769668089e+01,-7.568823758796042966e+00,1.535520444865869649e+01,-2.659844306466766284e+01,9.370253562927246094e+00,-1.759313106536865234e+00,-4.207052886486053467e-01,5.090000000000000000e+02
-6.417339910649479862e+01,-7.171048482744254216e+01,-1.549204855357129418e+01,7.948286549205840856e+01,-2.112254140301456573e+01,-6.510370059024353395e+00,1.568307079211217570e+01,-2.438538072037545135e+01,9.370253562927246094e+00,-1.759313106536865234e+00,-4.207052886486053467e-01,5.100000000000000000e+02
-6.638216916468445561e+01,-6.945729822070506998e+01,-1.640755821891798405e+01,8.003763811391627314e+01,-1.916043039607438914e+01,-4.726190390974807087e+00,1.795901442399690495e+01,-2.179191426296665668e+01,9.370253562927246094e+00,-1.759313106536865234e+00,-4.207052886486053467e-01,5.110000000000000000e+02
-6.757910470433898809e+01,-6.765730867136926463e+01,-1.744091085616173586e+01,8.022418488708899531e+01,-1.800919494636309537e+01,-2.889242713434214238e+00,2.140871410378940709e+01,-1.995485517483939475e+01,9.370253562927246094e+00,-1.759313106536865234e+00,-4.207052886486053467e-01,5.120000000000000000e+02
-6.670824059830692931e+01,-6.603591652264822187e+01,-1.768833009630407105e+01,7.997691977916201722e+01,-1.819482638112549466e+01,-1.939992859120138746e+00,2.408601261114426961e+01,-2.031259189809316013e+01,9.370253562927246094e+00,-1.759313106536865234e+00,-4.207052886486053467e-01,5.130000000000000000e+02
-6.423198285947728436e+01,-6.434408876713132486e+01,-1.680508347726799911e+01,7.922026128049992622e+01,-1.972945173304697164e+01,-2.642075153372388741e+00,2.425572931815622724e+01,-2.385064754406448628e+01,9.370253562927246094e+00,-1.759313106536865234e+00,-4.207052886486053467e-01,5.140000000000000000e+02
-6.175401710735786764e+01,-6.263826096621369288e+01,-1.551923111790620169e+01,7.799244292654793753e+01,-2.223556552343052317e+01,-5.048392334777418000e+00,2.172634040859702509e+01,-3.015157112326960487e+01,9.370253562927246094e+00,-1.759313106536865234e+00,-4.207052886486053467e-01,5.150000000000000000e+02
-6.074861203323871450e+01,-6.111686264994659723e+01,-1.510205519838928012e+01,7.670542017374737043e+01,-2.505813618836009482e+01,-8.231495136970806925e+00,1.800784861745250964e+01,-3.706212266170086878e+01,9.370253562927246094e+00,-1.759313106536865234e+00,-4.207052886486053467e-01,5.160000000000000000e+02
-6.137140078293714396e+01,-5.971802515690342261e+01,-1.617672366996612254e+01,7.613793864209765161e+01,-2.737710681979206129e+01,-1.062388999298946146e+01,1.518929259253673081e+01,-4.160831383367440139e+01,9.370253562927246094e+00,-1.759313106536865234e+00,-4.207052886486053467e-01,5.170000000000000000e+02
-6.232823213823849073e+01,-5.798507992861959792e+01,-1.798789459813178837e+01,7.698350175101950299e+01,-2.844869788687492473e+01,-1.088579100811784883e+01,1.452317481190220860e+01,-4.175194765120977536e+01,9.370253562927246094e+00,-1.759313106536865234e+00,-4.207052886486053467e-01,5.180000000000000000e+02
-6.194892729768071149e+01,-5.545534138428047299e+01,-1.891377749647699602e+01,7.928265119433672226e+01,-2.793046543822674721e+01,-8.707169785983751353e+00,1.586494789287371532e+01,-3.765212288432803689e+01,9.370253562927246094e+00,-1.759313106536865234e+00,-4.207052886486053467e-01,5.190000000000000000e+02
-5.958189856096487347e+01,-5.224029624074228195e+01,-1.782785075257015706e+01,8.227272820116559160e+01,-2.602839445884819725e+01,-4.918511796768143540e+00,1.823819211510271998e+01,-3.135876585866753885e+01,9.370253562927246094e+00,-1.759313106536865234e+00,-4.207052886486053467e-01,5.200000000000000000e+02
-5.612068028652629437e+01,-4.918379543752962491e+01,-1.505645879018038613e+01,8.483044949546638236e+01,-2.328078810954048095e+01,-8.567230671478682780e-01,2.077312649129635247e+01,-2.525026599127886584e+01,9.484992027282714844e+00,-1.721067190170288086e+00,-3.442134261131286621e-01,5.210000000000000000e+02
-5.321443925836410926e+01,-4.735727125000175874e+01,-1.203330481964349019e+01,8.611788765976598370e+01,-2.016575300843760488e+01,2.426768553930742200e+00,2.308377844763617759e+01,-2.065283166984454510e+01,9.484992027282714844e+00,-1.721067190170288086e+00,-3.442134261131286621e-01,5.220000000000000000e+02
-5.189358059153528302e+01,-4.730173487977390323e+01,-9.992161409420987184e+00,8.589298916061306954e+01,-1.693590288995437732e+01,4.480965079328598222e+00,2.491353815363072499e+01,-1.774176368780399571e+01,9.484992027282714844e+00,-1.721067190170288086e+00,-3.442134261131286621e-01,5.230000000000000000e+02
-5.186403301369318797e+01,-4.867745367361294484e+01,-8.962224615079321666e+00,8.437499933581148071e+01,-1.382543496074595168e+01,5.240166311592474813e+00,2.573230786086605804e+01,-1.635689766365157993e+01,9.484992027282714844e+00,-1.721067190170288086e+00,-3.442134261131286621e-01,5.240000000000000000e+02
-5.205926136719153874e+01,-5.056640160465303779e+01,-7.986139469207955699e+00,8.204186671318257140e+01,-1.128451225810476899e+01,4.797157254971352813e+00,2.498770330975639808e+01,-1.643381154285088996e+01,9.484992027282714844e+00,-1.721067190170288086e+00,-3.442134261131286621e-01,5.250000000000000000e+02
-5.182232880706669675e+01,-5.206791370496739546e+01,-6.252389128292634268e+00,7.968777724198480428e+01,-9.788789007337982184e+00,3.576319185975080472e+00,2.289132168139531132e+01,-1.745474177117830550e+01,9.484992027282714844e+00,-1.721067190170288086e+00,-3.442134261131286621e-01,5.260000000000000000e+02
-5.150516217315635004e+01,-5.264537019524686912e+01,-3.973266165005043149e+00,7.853254709342854767e+01,-9.291047700558920042e+00,2.645360876877020928e+00,2.084578599980159197e+01,-1.783535535411010642e+01,9.484992027282714844e+00,-1.721067190170288086e+00,-3.442134261131286621e-01,5.270000000000000000e+02
-5.188537619287490088e+01,-5.205769863502519001e+01,-2.146231108936262899e+00,7.987208529637882748e+01,-8.950131179244635860e+00,3.496349520799412858e+00,2.078734614696622884e+01,-1.555537124245529412e+01,9.484992027282714844e+00,-1.721067190170288086e+00,-3.442134261131286621e-01,5.280000000000000000e+02
-5.304031960493466613e+01,-5.019096141718273429e+01,-1.496615473249221395e+00,8.417569566268866765e+01,-7.664682773847744102e+00,7.074132721349087660e+00,2.375252003352943575e+01,-9.981644119658994896e+00,9.484992027282714844e+00,-1.721067190170288086e+00,-3.442134261131286621e-01,5.290000000000000000e+02
-5.391612997751417424e+01,-4.712109652765320789e+01,-1.698220613949160906e+00,9.034410465480050334e+01,-5.095028586719308805e+00,1.276979890613802127e+01,2.888640330848284066e+01,-3.117851005305965373e+00,9.484992027282714844e+00,-1.721067190170288086e+00,-3.442134261131286621e-01,5.300000000000000000e+02
-5.315042045852987940e+01,-4.332247013434607652e+01,-1.656369488761811226e+00,9.604166490855823213e+01,-2.167685801076913776e+00,1.847396856923842279e+01,3.389670532308082329e+01,1.422428141162527027e+00,9.484992027282714844e+00,-1.721067190170288086e+00,-3.442134261131286621e-01,5.310000000000000000e+02
-5.043434832452385308e+01,-3.964682630690822407e+01,-5.753814822692220332e-01,9.916793669852995663e+01,-3.979565550971528864e-01,2.196736326047539478e+01,3.670864066709145845e+01,1.282642722929267620e+00,9.484992027282714844e+00,-1.721067190170288086e+00,-3.442134261131286621e-01,5.320000000000000000e+02
-4.707335923963000823e+01,-3.690184122046684934e+01,1.226706532329444599e+00,9.934794514914665342e+01,-5.363333095292546204e-01,2.259241113694406522e+01,3.695796334555780049e+01,-2.461170496971135435e+00,9.484992027282714844e+00,-1.721067190170288086e+00,-3.442134261131286621e-01,5.330000000000000000e+02
-4.510089326227898709e+01,-3.536338419092498953e+01,2.534422067522427824e+00,9.806053061955753947e+01,-1.821119512080258573e+00,2.168268583488861623e+01,3.605851864945907437e+01,-6.031556973550323164e+00,9.484992027282714844e+00,-1.721067190170288086e+00,-3.442134261131286621e-01,5.340000000000000000e+02
-4.565098669541202980e+01,-3.471630375154745707e+01,2.301148594403457537e+00,9.719034524846574641e+01,-2.620280982660915470e+00,2.127502218787776656e+01,3.584799616829786828e+01,-6.139237491111089184e+00,9.484992027282714844e+00,-1.721067190170288086e+00,-3.442134261131286621e-01,5.350000000000000000e+02
-4.801603892972161702e+01,-3.450893821063982614e+01,6.105972753739479231e-01,9.729021894463949138e+01,-1.901257778341459925e+00,2.224359867239581945e+01,3.704878282338086137e+01,-2.785260655271486030e+00,9.484992027282714844e+00,-1.721067190170288086e+00,-3.442134261131286621e-01,5.360000000000000000e+02
-5.020294049916901713e+01,-3.465082951190470339e+01,-1.290669708436325891e+00,9.717646627087015077e+01,-1.270619611332222121e-01,2.358199598125611374e+01,3.884262868683435954e+01,8.577576631123520201e-01,9.484992027282714844e+00,-1.721067190170288086e+00,-3.442134261131286621e-01,5.370000000000000000e+02
-5.047222207272352534e+01,-3.541240966583973204e+01,-1.914097446627238241e+00,9.520953115034899383e+01,1.226938623500245740e+00,2.345073109380427923e+01,3.975589738704184128e+01,1.234585471190257522e+00,9.484992027282714844e+00,-1.721067190170288086e+00,-3.442134261131286621e-01,5.380000000000000000e+02
-4.855196715039710398e+01,-3.692042311062050430e+01,-6.468492230733318138e-01,9.097710567164904205e+01,9.647501177942103823e-01,2.090279687708971323e+01,3.891208842825199099e+01,-2.788177005685611221e+00,9.484992027282714844e+00,-1.721067190170288086e+00,-3.442134261131286621e-01,5.390000000000000000e+02
-4.563063645240436017e+01,-3.871485574149846798e+01,1.804084903931652661e+00,8.575271970988978865e+01,-9.916607719460444059e-01,1.663954167904012138e+01,3.658442573768388684e+01,-9.464995000472299580e+00,9.484992027282714844e+00,-1.721067190170288086e+00,-3.442134261131286621e-01,5.400000000000000000e+02
-4.334383946816706157e+01,-3.991371509410055296e+01,3.952549403506964154e+00,8.139393166203990404e+01,-3.819161642149992986e+00,1.224918559782054217e+01,3.381101362429581059e+01,-1.596403706611727102e+01,9.484992027282714844e+00,-1.721067190170288086e+00,-3.442134261131286621e-01,5.410000000000000000e+02
-4.272020403273563716e+01,-3.990435475281719846e+01,4.602657185867428780e+00,7.888707752360824088e+01,-6.544656239078904036e+00,8.922184962624669424e+00,3.167692354854807490e+01,-2.031490917395422002e+01,9.370253562927246094e+00,-1.835805058479309082e+00,-4.207052886486053467e-01,5.420000000000000000e+02
-4.382738234578027914e+01,-3.888565505683618539e+01,3.618755295987284626e+00,7.796684835514679435e+01,-8.462354986007994739e+00,6.979209213435751735e+00,3.090842672783765011e+01,-2.183451152446650667e+01,9.370253562927246094e+00,-1.835805058479309082e+00,-4.207052886486053467e-01,5.430000000000000000e+02
-4.608852483315604331e+01,-3.767040310404263437e+01,1.855264136065670755e+00,7.798134976218716474e+01,-9.033005956420311122e+00,6.444531151229966781e+00,3.182746334283183387e+01,-2.036488209545859718e+01,9.370253562927246094e+00,-1.835805058479309082e+00,-4.207052886486053467e-01,5.440000000000000000e+02
-4.874077862808917416e+01,-3.688749247017949529e+01,3.868880423196969787e-01,7.885028628503278014e+01,-7.826589030855757301e+00,7.666628403816503123e+00,3.431245826694248535e+01,-1.587270762329990248e+01,9.370253562927246094e+00,-1.835805058479309082e+00,-4.207052886486053467e-01,5.450000000000000000e+02
-5.106819343584538728e+01,-3.634449506004784780e+01,-3.001014180408674292e-01,8.098827671263097727e+01,-4.919765492124497541e+00,1.103046297598302772e+01,3.762795698810805334e+01,-9.106365169081982458e+00,9.370253562927246094e+00,-1.835805058479309082e+00,-4.207052886486053467e-01,5.460000000000000000e+02
-5.247867616005351010e+01,-3.521079825034576061e+01,-5.210144426946499152e-01,8.432933987571232137e+01,-1.330775529077072861e+00,1.601958108449980500e+01,4.046022016116330633e+01,-2.305972083906453918e+00,9.370253562927246094e+00,-1.835805058479309082e+00,-4.207052886486053467e-01,5.470000000000000000e+02
-5.265125603712658631e+01,-3.290261395355264540e+01,-9.287192796728049871e-01,8.766785466540022753e+01,1.277882624583071447e+00,2.081951710374778486e+01,4.148565527423852473e+01,1.453510006007491029e+00,9.370253562927246094e+00,-1.835805058479309082e+00,-4.207052886486053467e-01,5.480000000000000000e+02
-5.172981563592657039e+01,-2.986978716485646146e+01,-1.851345777397000347e+00,8.921918410336365923e+01,1.702865095854576793e+00,2.319708828782313503e+01,4.021947541438566986e+01,2.569633440507459454e-01,9.370253562927246094e+00,-1.835805058479309082e+00,-4.207052886486053467e-01,5.490000000000000000e+02
-5.029303036287456052e+01,-2.753380628281774989e+01,-3.016334656342223752e+00,8.798794699444260914e+01,1.978130927236634307e-01,2.204261469981793198e+01,3.742260014409112046e+01,-5.012441540955478558e+00,9.370253562927246094e+00,-1.835805058479309082e+00,-4.207052886486053467e-01,5.500000000000000000e+02
-4.897955830095997953e+01,-2.736742964836957981e+01,-3.823123385347571457e+00,8.463701246689743130e+01,-1.658026244878783473e+00,1.818559827225908521e+01,3.459595821328548482e+01,-1.105866974220953125e+01,9.370253562927246094e+00,-1.835805058479309082e+00,-4.207052886486053467e-01,5.510000000000000000e+02
-4.803606584513727285e+01,-2.984022822498627647e+01,-3.822206744454888394e+00,8.101247501355101122e+01,-2.213220353454744327e+00,1.374775266060169088e+01,3.291352756131163915e+01,-1.444731990740910987e+01,9.370253562927246094e+00,-1.835805058479309082e+00,-4.207052886486053467e-01,5.520000000000000000e+02
-4.720766546736558666e+01,-3.404079977039327787e+01,-2.956190163667997695e+00,7.876609859178097395e+01,-1.015284799756045686e+00,1.064823288975821924e+01,3.248812599806660728e+01,-1.388850943685793027e+01,9.370253562927246094e+00,-1.835805058479309082e+00,-4.207052886486053467e-01,5.530000000000000000e+02
-4.607930943670726265e+01,-3.823279349577023822e+01,-1.445816329614899587e+00,7.829568909179397451e+01,1.005831646667502355e+00,9.528882938106107758e+00,3.255250887620059075e+01,-1.071430175652312755e+01,9.370253562927246094e+00,-1.835805058479309082e+00,-4.207052886486053467e-01,5.540000000000000000e+02
-4.451140519226646575e+01,-4.089057948036315793e+01,4.308370319868117804e-01,7.881359786701250414e+01,2.491464885826644604e+00,9.805365977317705983e+00,3.228967806777109217e+01,-7.436426939861121355e+00,9.370253562927246094e+00,-1.835805058479309082e+00,-4.207052886486053467e-01,5.550000000000000000e+02
-4.273590344068725244e+01,-4.149295784635614837e+01,2.414554914423206355e+00,7.925618533774468233e+01,2.779821197736964677e+00,1.048221750563971000e+01,3.150285253936090157e+01,-5.841498772693739738e+00,9.370253562927246094e+00,-1.835805058479309082e+00,-4.207052886486053467e-01,5.560000000000000000e+02
-4.106430802147588111e+01,-4.062269261821165856e+01,4.239018274438421940e+00,7.911038905532768695e+01,2.264107445569607080e+00,1.090322988474508747e+01,3.061327208017792145e+01,-6.098628594305409933e+00,9.370253562927246094e+00,-1.835805058479309082e+00,-4.207052886486053467e-01,5.570000000000000000e+02
-3.958333297954050067e+01,-3.941596955921158951e+01,5.711305563934729435e+00,7.854838712598757411e+01,1.904207434690761147e+00,1.098404706895962590e+01,3.018854540115717100e+01,-7.147462128001279780e+00,9.370253562927246094e+00,-1.835805058479309082e+00,-4.207052886486053467e-01,5.580000000000000000e+02
-3.818364288696648146e+01,-3.876619706387828046e+01,6.927572013977624010e+00,7.801953017261439527e+01,2.511492511344840750e+00,1.105449064438289497e+01,3.056421031639729335e+01,-7.618278811019990826e+00,9.370253562927246094e+00,-1.835805058479309082e+00,-4.207052886486053467e-01,5.590000000000000000e+02
-3.683696197059907718e+01,-3.874966544596827589e+01,8.350303817946041818e+00,7.785794922689456143e+01,4.363579546958135325e+00,1.160734721175322193e+01,3.183806268332591571e+01,-6.533440545839766855e+00,9.370253562927246094e+00,-1.835805058479309082e+00,-4.207052886486053467e-01,5.600000000000000000e+02
-3.572857303418277297e+01,-3.857636454868952569e+01,1.047214278868887050e+01,7.822720317957646330e+01,7.201197556849365355e+00,1.304011729444027878e+01,3.400751208767360367e+01,-3.645326038584244088e+00,9.370253562927246094e+00,-1.835805058479309082e+00,-4.207052886486053467e-01,5.610000000000000000e+02
-3.503170187524665380e+01,-3.710209494424270815e+01,1.323505034439949668e+01,7.925748538949483191e+01,1.038174942804107559e+01,1.536741600388995721e+01,3.691889062223708606e+01,4.294209139588929247e-01,9.370253562927246094e+00,-1.835805058479309082e+00,-4.207052886486053467e-01,5.620000000000000000e+02
-3.458979394467678503e+01,-3.362432331188028911e+01,1.577482978276930226e+01,8.106068969922125689e+01,1.309196157011683681e+01,1.802996628991240868e+01,4.006674396927337511e+01,4.348869127714351634e+00,9.370253562927246094e+00,-1.835805058479309082e+00,-4.207052886486053467e-01,5.630000000000000000e+02
-3.395452998599466810e+01,-2.846898545872682007e+01,1.688066093501583964e+01,8.355394746380625293e+01,1.466346502862506895e+01,2.005078510627208743e+01,4.260782538078638026e+01,6.655115572284557857e+00,9.370253562927246094e+00,-1.835805058479309082e+00,-4.207052886486053467e-01,5.640000000000000000e+02
-3.284625551385215658e+01,-2.293941529005314806e+01,1.591961797840485815e+01,8.632487127634158242e+01,1.491526314475595427e+01,2.058027678182406817e+01,4.380941956546485017e+01,6.682800943342954270e+00,9.370253562927246094e+00,-1.835805058479309082e+00,-4.207052886486053467e-01,5.650000000000000000e+02
-3.156362125153464149e+01,-1.858815745880565373e+01,1.346083283597181435e+01,8.876768015030393144e+01,1.425356854740311974e+01,1.948465147188835545e+01,4.364212561397835088e+01,5.096548309247737052e+00,9.370253562927246094e+00,-1.835805058479309082e+00,-4.207052886486053467e-01,5.660000000000000000e+02
-3.083498039886944753e+01,-1.630340775202057557e+01,1.100361686431097041e+01,9.042414472386371926e+01,1.335895866125065368e+01,1.749030830910487566e+01,4.294466898289101664e+01,3.478057662268838612e+00,9.332008361816406250e+00,-1.835805058479309082e+00,-4.589512646198272705e-01,5.670000000000000000e+02
-3.114031326837903180e+01,-1.587785362677277590e+01,9.992581945340134553e+00,9.123627790990940412e+01,1.272621715185960056e+01,1.573876789752102923e+01,4.290678232105528878e+01,3.223632703085968387e+00,9.332008361816406250e+00,-1.835805058479309082e+00,-4.589512646198272705e-01,5.680000000000000000e+02
-3.214997395997306739e+01,-1.635945811808414874e+01,1.092470608399889898e+01,9.149602123169097467e+01,1.252202984789801121e+01,1.510601035692525329e+01,4.423699147969273326e+01,4.699579948623068049e+00,9.332008361816406250e+00,-1.835805058479309082e+00,-4.589512646198272705e-01,5.690000000000000000e+02
-3.290594897498704086e+01,-1.682879603368382959e+01,1.323566276332894631e+01,9.157027898039450520e+01,1.286820706473736209e+01,1.580010879751716857e+01,4.668633076953483396e+01,7.335968147859603050e+00,9.332008361816406250e+00,-1.835805058479309082e+00,-4.589512646198272705e-01,5.700000000000000000e+02
-3.265643614355940372e+01,-1.690318943068996305e+01,1.591872606155811809e+01,9.167499951233912725e+01,1.410876721182285110e+01,1.745560391596518457e+01,4.928482379937304358e+01,1.039374463993772224e+01,9.332008361816406250e+00,-1.835805058479309082e+00,-4.589512646198272705e-01,5.710000000000000000e+02
-3.156765373842790723e+01,-1.660070683156300220e+01,1.823194331949162006e+01,9.188676230279088486e+01,1.656181567424573586e+01,1.952074564011491020e+01,5.102471931029867847e+01,1.351074127906031208e+01,9.332008361816406250e+00,-1.835805058479309082e+00,-4.589512646198272705e-01,5.720000000000000000e+02
-3.058085113254492171e+01,-1.587722679376201995e+01,1.991698229147368693e+01,9.228910768843343249e+01,1.986728998332182528e+01,2.156993149228219409e+01,5.141664446398863220e+01,1.651636469858021883e+01,9.332008361816406250e+00,-1.835805058479309082e+00,-4.589512646198272705e-01,5.730000000000000000e+02
-3.050017660292724031e+01,-1.448588163043677923e+01,2.094131792264852265e+01,9.300508131528476952e+01,2.269781080160464626e+01,2.335968843338196166e+01,5.058152777276336565e+01,1.894205922726541758e+01,9.332008361816406250e+00,-1.835805058479309082e+00,-4.589512646198272705e-01,5.740000000000000000e+02
-3.117836703989814851e+01,-1.241051919578603702e+01,2.123931910237115517e+01,9.402759325341685326e+01,2.346269245643634349e+01,2.473974907990123029e+01,4.900231215282110497e+01,2.005363682607639930e+01,9.332008361816406250e+00,-1.835805058479309082e+00,-4.589512646198272705e-01,5.750000000000000000e+02
-3.159636325242172461e+01,-1.037244482076130225e+01,2.080719698614666413e+01,9.503472451584821101e+01,2.164858568934505456e+01,2.562356206544427550e+01,4.726905554342374671e+01,1.956535043201620283e+01,9.332008361816406250e+00,-1.835805058479309082e+00,-4.589512646198272705e-01,5.760000000000000000e+02
-3.077644633557065390e+01,-9.651466371891729068e+00,1.999223393111242331e+01,9.546389942840687581e+01,1.858410903787444113e+01,2.606539653117943089e+01,4.594970614754492999e+01,1.822723635715738055e+01,9.332008361816406250e+00,-1.835805058479309082e+00,-4.589512646198272705e-01,5.770000000000000000e+02
-2.868905383391756914e+01,-1.109010983325788402e+01,1.950819342831528047e+01,9.488458822028042050e+01,1.668612810313425143e+01,2.629282558515842538e+01,4.546331736863430706e+01,1.743680741903153830e+01,9.332008361816406250e+00,-1.835805058479309082e+00,-4.589512646198272705e-01,5.780000000000000000e+02
-2.633395095155356103e+01,-1.407788793921645265e+01,1.998070392481895396e+01,9.338067003270407440e+01,1.758041202144158888e+01,2.656798290041115251e+01,4.587179513572846190e+01,1.805079913313602447e+01,9.332008361816406250e+00,-1.835805058479309082e+00,-4.589512646198272705e-01,5.790000000000000000e+02
-2.496773263527938980e+01,-1.656642902251405758e+01,2.136251775334676495e+01,9.159462351526963175e+01,2.066704831135939457e+01,2.695888593498966657e+01,4.676363462315202923e+01,1.955140727604884887e+01,9.332008361816406250e+00,-1.835805058479309082e+00,-4.589512646198272705e-01,5.800000000000000000e+02
-2.520481291959367809e+01,-1.637403112398169469e+01,2.280123479284156929e+01,9.037924948990985285e+01,2.348697053008800140e+01,2.725663200741473702e+01,4.747543380351999076e+01,2.050892362931699608e+01,9.332008361816406250e+00,-1.835805058479309082e+00,-4.589512646198272705e-01,5.810000000000000000e+02
-2.673722891267607338e+01,-1.284067287188372575e+01,2.318642514537350507e+01,9.033332680626335787e+01,2.371354874408643809e+01,2.719434617647493724e+01,4.763152410807015258e+01,2.000375718428767868e+01,9.332008361816406250e+00,-1.835805058479309082e+00,-4.589512646198272705e-01,5.820000000000000000e+02
-2.875798681974993087e+01,-7.457963007225771435e+00,2.198030591880524298e+01,9.155165640451014042e+01,2.107227916505871690e+01,2.679937543268897571e+01,4.755362692977359984e+01,1.861468479467657744e+01,9.332008361816406250e+00,-1.835805058479309082e+00,-4.589512646198272705e-01,5.830000000000000000e+02
-3.054996561138977995e+01,-2.914101908434531651e+00,1.966061490197171224e+01,9.366940198209704249e+01,1.749230265647565830e+01,2.650363865284089115e+01,4.806394944833664340e+01,1.792380490019058925e+01,9.332008361816406250e+00,-1.835805058479309082e+00,-4.589512646198272705e-01,5.840000000000000000e+02
-3.172754847524993238e+01,-1.330460435023269383e+00,1.740637575063738041e+01,9.602641257372306427e+01,1.537141016647728975e+01,2.681138533941702917e+01,4.971583955039022840e+01,1.895877423590354738e+01,9.332008361816406250e+00,-1.835805058479309082e+00,-4.589512646198272705e-01,5.850000000000000000e+02
-3.212286513367143925e+01,-3.053008350638265256e+00,1.629513733972271439e+01,9.782970200278214179e+01,1.555727269624912878e+01,2.779436599324981216e+01,5.211782469371610205e+01,2.112892674740578514e+01,9.332008361816406250e+00,-1.835805058479309082e+00,-4.589512646198272705e-01,5.860000000000000000e+02
-3.167993200158889522e+01,-6.753657747449324233e+00,1.665307221030525398e+01,9.839069136892794631e+01,1.685547353973015561e+01,2.894600272039679112e+01,5.406485409023298416e+01,2.277331412443891168e+01,9.332008361816406250e+00,-1.835805058479309082e+00,-4.589512646198272705e-01,5.870000000000000000e+02
-3.058912684712049668e+01,-1.046400431490474148e+01,1.800547711205217638e+01,9.750957383576678694e+01,1.739292436126925168e+01,2.963245631753670750e+01,5.448341640876969905e+01,2.284184814480977366e+01,9.332008361816406250e+00,-1.835805058479309082e+00,-4.589512646198272705e-01,5.880000000000000000e+02
-2.944500917665936868e+01,-1.257216972278183675e+01,1.953926732008403633e+01,9.581971893990703393e+01,1.643445828632684425e+01,2.977308834090945311e+01,5.339803103695157915e+01,2.205293752891157055e+01,9.332008361816406250e+00,-1.835805058479309082e+00,-4.589512646198272705e-01,5.890000000000000000e+02
-2.906175447205532691e+01,-1.221651219807608868e+01,2.060660209598427173e+01,9.469102357785595814e+01,1.490716702151257778e+01,3.005263158932939405e+01,5.199862233400563127e+01,2.229945831706208992e+01,9.332008361816406250e+00,-1.835805058479309082e+00,-4.589512646198272705e-01,5.900000000000000000e+02
