F3,F4,C3,C4,P3,P4,Cz,Pz,Accel_x,Accel_y,Accel_z,Sample
-2.455635694786906242e-11,-4.456524038687348366e-11,-2.819433575496077538e-11,-2.364686224609613419e-11,-5.275069270282983780e-11,-4.729372449219226837e-11,-3.819877747446298599e-11,-3.092281986027956009e-11,9.484992027282714844e+00,-1.223870038986206055e+00,-3.442134261131286621e-01,2.260000000000000000e+02
-9.546778093722423364e+00,-3.178026835575110454e+00,-6.136813614310085541e+00,-5.028024608142004581e+00,-1.889723173848597071e+01,-2.072724804145582311e+01,-6.620283982117143751e+00,-3.051558716951149108e+00,9.484992027282714844e+00,-1.223870038986206055e+00,-3.442134261131286621e-01,2.270000000000000000e+02
-1.780867578095239878e+01,-8.181256810955346737e+00,-1.081119815303827636e+01,-6.473743807367100089e+00,-3.107586671538047085e+01,-3.375986489027309290e+01,-1.059686597389736562e+01,-6.154712269290030235e+00,9.484992027282714844e+00,-1.223870038986206055e+00,-3.442134261131286621e-01,2.280000000000000000e+02
-2.448235274295529962e+01,-1.508078698240024096e+01,-1.347724050053420797e+01,-3.587628915397544915e+00,-3.547241405677959847e+01,-3.796818318668192660e+01,-1.135005429432385426e+01,-8.955098828878362838e+00,9.484992027282714844e+00,-1.223870038986206055e+00,-3.442134261131286621e-01,2.290000000000000000e+02
-3.038554619624210318e+01,-2.221561788310373231e+01,-1.470570812065398059e+01,1.336638771090292721e+00,-3.688312194923219067e+01,-3.900328226019519207e+01,-1.062962336881901138e+01,-1.087504944632564730e+01,9.484992027282714844e+00,-1.223870038986206055e+00,-3.442134261131286621e-01,2.300000000000000000e+02
-3.669335155248700175e+01,-2.793177169909449731e+01,-1.561568496920153848e+01,5.316926594743563328e+00,-4.089632014866128884e+01,-4.332450346225959947e+01,-1.086880428982567537e+01,-1.172379564188395307e+01,9.484992027282714844e+00,-1.223870038986206055e+00,-3.442134261131286621e-01,2.310000000000000000e+02
-4.400575230687718431e+01,-3.224829514893735904e+01,-1.708766771814862295e+01,7.095562367197999265e+00,-4.888623329609981738e+01,-5.226781352405123471e+01,-1.320818817136387224e+01,-1.201020812528622628e+01,9.484992027282714844e+00,-1.223870038986206055e+00,-3.442134261131286621e-01,2.320000000000000000e+02
-5.204588539747055620e+01,-3.679879071010964253e+01,-1.936134202075754729e+01,7.392600617728930956e+00,-5.782975859672660590e+01,-6.184365863223320048e+01,-1.690030336069048644e+01,-1.256470477244238282e+01,9.484992027282714844e+00,-1.223870038986206055e+00,-3.442134261131286621e-01,2.330000000000000000e+02
-6.010378500048045680e+01,-4.319222657024147338e+01,-2.214819624124629627e+01,7.303671280519665743e+00,-6.434351185915693350e+01,-6.771615504351211712e+01,-2.036337555234695174e+01,-1.389833111862208170e+01,9.484992027282714844e+00,-1.223870038986206055e+00,-3.442134261131286621e-01,2.340000000000000000e+02
-6.767481284330096969e+01,-5.148936110976410419e+01,-2.497909264322242961e+01,6.963934525252625463e+00,-6.822033032447234291e+01,-6.976935063388555136e+01,-2.269237846785290458e+01,-1.602849931819309859e+01,9.523238182067871094e+00,-1.185624003410339355e+00,-3.059675097465515137e-01,2.350000000000000000e+02
-7.470891673993719451e+01,-6.022418263978033792e+01,-2.750180485750297521e+01,5.864908930311685253e+00,-7.201920101437553967e+01,-7.181173244076126139e+01,-2.426291612716249801e+01,-1.888585731493094499e+01,9.523238182067871094e+00,-1.185624003410339355e+00,-3.059675097465515137e-01,2.360000000000000000e+02
-8.142215940231108107e+01,-6.777191498583488283e+01,-2.965843803573898185e+01,4.107802130038180621e+00,-7.788747338154826139e+01,-7.740514615524261899e+01,-2.611734900444116647e+01,-2.267877462564683810e+01,9.523238182067871094e+00,-1.185624003410339355e+00,-3.059675097465515137e-01,2.370000000000000000e+02
-8.804304755758494139e+01,-7.362355727313206444e+01,-3.175956031039004301e+01,2.890487848148040939e+00,-8.546965817068758042e+01,-8.648170652268345293e+01,-2.890566889920683025e+01,-2.761554934312061960e+01,9.523238182067871094e+00,-1.185624003410339355e+00,-3.059675097465515137e-01,2.380000000000000000e+02
-9.478010859764162888e+01,-7.843871558930459287e+01,-3.436883938705705077e+01,3.610612711590874824e+00,-9.291284474620715628e+01,-9.587813180770899635e+01,-3.232657577107784164e+01,-3.322763613404549687e+01,9.523238182067871094e+00,-1.185624003410339355e+00,-3.059675097465515137e-01,2.390000000000000000e+02
-1.019012232726790899e+02,-8.311101965603938879e+01,-3.793471613111796614e+01,6.629199241265268938e+00,-9.926477229182182782e+01,-1.025600742941442149e+02,-3.539110378033092275e+01,-3.815660981394375995e+01,9.523238182067871094e+00,-1.185624003410339355e+00,-3.059675097465515137e-01,2.400000000000000000e+02
-1.096368035221121318e+02,-8.798128620965326263e+01,-4.235177571610074665e+01,1.102441757086853613e+01,-1.052981353501936610e+02,-1.060045699876982326e+02,-3.714267671007564786e+01,-4.086177184338430379e+01,9.523238182067871094e+00,-1.185624003410339355e+00,-3.059675097465515137e-01,2.410000000000000000e+02
-1.178735948034800458e+02,-9.292555458245260525e+01,-4.682907365391656640e+01,1.546028484284943261e+01,-1.120234900055711478e+02,-1.078047069643571376e+02,-3.725866168529410061e+01,-4.070094985577088664e+01,9.523238182067871094e+00,-1.185624003410339355e+00,-3.059675097465515137e-01,2.420000000000000000e+02
-1.259581844188542163e+02,-9.794066449818910769e+01,-5.028147250313213590e+01,1.913711950250217342e+01,-1.189402254068918410e+02,-1.096469012349080003e+02,-3.619654542609532655e+01,-3.837156360738754302e+01,9.523238182067871094e+00,-1.185624003410339355e+00,-3.059675097465515137e-01,2.430000000000000000e+02
-1.329392608435500733e+02,-1.033724430683396349e+02,-5.199163422149194957e+01,2.194384794435882213e+01,-1.241809559295697909e+02,-1.119950155160813665e+02,-3.487725093269091303e+01,-3.532153558330901433e+01,9.523238182067871094e+00,-1.185624003410339355e+00,-3.059675097465515137e-01,2.440000000000000000e+02
-1.381691040635259924e+02,-1.094865001206599118e+02,-5.200394527127355104e+01,2.398463132556480559e+01,-1.263903150379110230e+02,-1.144325885310481681e+02,-3.414349343582762231e+01,-3.276349253511307325e+01,9.523238182067871094e+00,-1.185624003410339355e+00,-3.059675097465515137e-01,2.450000000000000000e+02
-1.418096837529174081e+02,-1.159362538998057062e+02,-5.096248164625558275e+01,2.524723843480933283e+01,-1.262686491415206547e+02,-1.167476462606773566e+02,-3.434929420267144451e+01,-3.123177379859225766e+01,9.523238182067871094e+00,-1.185624003410339355e+00,-3.059675097465515137e-01,2.460000000000000000e+02
-1.448165495522534911e+02,-1.218550818749499740e+02,-4.963030866807457642e+01,2.574966941271122778e+01,-1.261932650136359371e+02,-1.194473512166896398e+02,-3.532898210787880089e+01,-3.092851723845251399e+01,9.523238182067871094e+00,-1.185624003410339355e+00,-3.059675097465515137e-01,2.470000000000000000e+02
-1.483983438242112243e+02,-1.265887260185527339e+02,-4.856457244209013879e+01,2.577954373001648491e+01,-1.284005929720287895e+02,-1.233629869131655141e+02,-3.672270350696271635e+01,-3.219081478394491569e+01,9.523238182067871094e+00,-1.185624003410339355e+00,-3.059675097465515137e-01,2.480000000000000000e+02
-1.533654872256620365e+02,-1.303338171252134998e+02,-4.814844166719558416e+01,2.578939036000519991e+01,-1.334728005279630452e+02,-1.289118016019201605e+02,-3.834807049103073950e+01,-3.535552935681334930e+01,9.523238182067871094e+00,-1.185624003410339355e+00,-3.059675097465515137e-01,2.490000000000000000e+02
-1.598008993669291158e+02,-1.339806312817463549e+02,-4.872696848324721941e+01,2.606517346103646560e+01,-1.402673620771874994e+02,-1.356533072287529649e+02,-4.028994252163010970e+01,-4.011572090938898327e+01,9.523238182067871094e+00,-1.185624003410339355e+00,-3.059675097465515137e-01,2.500000000000000000e+02
-1.671824121547069808e+02,-1.382784317096202358e+02,-5.052357823785314395e+01,2.660297357834770082e+01,-1.469620945102078622e+02,-1.423719781899735608e+02,-4.268042458698619157e+01,-4.518754476225421968e+01,9.523238182067871094e+00,-1.185624003410339355e+00,-3.059675097465515137e-01,2.510000000000000000e+02
-1.747625238129940044e+02,-1.431655776109973885e+02,-5.337286914316337061e+01,2.734392966444374906e+01,-1.521652838982690810e+02,-1.476111255623281977e+02,-4.547725951478332718e+01,-4.889562870716872567e+01,9.523238182067871094e+00,-1.185624003410339355e+00,-3.059675097465515137e-01,2.520000000000000000e+02
-1.819320729915361881e+02,-1.479473057352652177e+02,-5.663350286597051308e+01,2.841474492096494942e+01,-1.554378738522609638e+02,-1.504655477957339826e+02,-4.850824616043155402e+01,-5.033082663476761809e+01,9.523238182067871094e+00,-1.185624003410339355e+00,-3.059675097465515137e-01,2.530000000000000000e+02
-1.883966327937632741e+02,-1.521250633552690488e+02,-5.952490960787781660e+01,3.001388626533662318e+01,-1.572510688271549952e+02,-1.512235617459009518e+02,-5.168737138601591141e+01,-5.004842006702483559e+01,9.523238182067871094e+00,-1.185624003410339355e+00,-3.059675097465515137e-01,2.540000000000000000e+02
-1.941501678374506810e+02,-1.559892374502760504e+02,-6.165678322031362768e+01,3.207376141266195191e+01,-1.586258702873474249e+02,-1.513232153475646555e+02,-5.505618390096242365e+01,-4.961094717958349065e+01,9.523238182067871094e+00,-1.185624003410339355e+00,-3.059675097465515137e-01,2.550000000000000000e+02
-1.993272675963535221e+02,-1.603299997598978734e+02,-6.326119842228081325e+01,3.415708721887676802e+01,-1.605875615537324848e+02,-1.524652267173205473e+02,-5.851117659981900943e+01,-5.032450942699142615e+01,9.523238182067871094e+00,-1.185624003410339355e+00,-3.059675097465515137e-01,2.560000000000000000e+02
-2.040372417862572547e+02,-1.655597821290161846e+02,-6.490039276192328543e+01,3.579389245220954763e+01,-1.635893267960373123e+02,-1.554586298841659300e+02,-6.151243321723995905e+01,-5.227518123472054867e+01,9.523238182067871094e+00,-1.185624003410339355e+00,-3.059675097465515137e-01,2.570000000000000000e+02
-2.082933836069919380e+02,-1.711854103004975514e+02,-6.693961883669589952e+01,3.692930837765470642e+01,-1.672697090534820745e+02,-1.597613876705036091e+02,-6.322290645753491845e+01,-5.449354621447582758e+01,9.523238182067871094e+00,-1.185624003410339355e+00,-3.059675097465515137e-01,2.580000000000000000e+02
-2.120935395693381906e+02,-1.762188893945717609e+02,-6.928819764531726833e+01,3.799210499752189207e+01,-1.708274247966237454e+02,-1.641258712908402231e+02,-6.314702303291505814e+01,-5.602140902690007351e+01,9.523238182067871094e+00,-1.185624003410339355e+00,-3.059675097465515137e-01,2.590000000000000000e+02
-2.155923893509780100e+02,-1.801245292479770796e+02,-7.162528411766606951e+01,3.949369837942231243e+01,-1.738019242729069447e+02,-1.677164736204294968e+02,-6.176078630615302245e+01,-5.685414821657514040e+01,9.523238182067871094e+00,-1.185624003410339355e+00,-3.059675097465515137e-01,2.600000000000000000e+02
-2.191919036537683496e+02,-1.833215844323490273e+02,-7.383056333294780416e+01,4.154189379305898910e+01,-1.765888399619598204e+02,-1.706602447147524799e+02,-6.048285233274418715e+01,-5.791504087528255695e+01,9.523238182067871094e+00,-1.185624003410339355e+00,-3.059675097465515137e-01,2.610000000000000000e+02
-2.233954364015162355e+02,-1.867147482797909106e+02,-7.615393129548510842e+01,4.369779783122248773e+01,-1.801637425522690137e+02,-1.736201410228068198e+02,-6.085480267192133397e+01,-6.014874639271056367e+01,9.523238182067871094e+00,-1.185624003410339355e+00,-3.059675097465515137e-01,2.620000000000000000e+02
-2.284712525845739037e+02,-1.907459518026662408e+02,-7.895589188147232562e+01,4.525695625939442834e+01,-1.852078602803831018e+02,-1.769640398605597511e+02,-6.349924507709420141e+01,-6.359648691962547673e+01,9.523238182067871094e+00,-1.185624003410339355e+00,-3.059675097465515137e-01,2.630000000000000000e+02
-2.341939779411259224e+02,-1.949927382808932634e+02,-8.230291554346877092e+01,4.569636579301004531e+01,-1.914111628843188555e+02,-1.804149152386808055e+02,-6.765381910660244102e+01,-6.728728406167556386e+01,9.523238182067871094e+00,-1.185624003410339355e+00,-3.059675097465515137e-01,2.640000000000000000e+02
-2.399347955485850434e+02,-1.987406300661145906e+02,-8.582479409821826266e+01,4.499204777603608818e+01,-1.975770296752270951e+02,-1.834321353430477757e+02,-7.163278956400381503e+01,-6.998399541580556615e+01,9.523238182067871094e+00,-1.185624003410339355e+00,-3.059675097465515137e-01,2.650000000000000000e+02
-2.450875069947283009e+02,-2.018958589060739541e+02,-8.895670069275684000e+01,4.368534816313331248e+01,-2.024306434259042362e+02,-1.857695676562207154e+02,-7.386750412443325331e+01,-7.106222299813680365e+01,9.446745872497558594e+00,-1.262115836143493652e+00,-3.059675097465515137e-01,2.660000000000000000e+02
-2.494970065974525824e+02,-2.052188897298101438e+02,-9.131800527335735751e+01,4.270343272233003518e+01,-2.054351561422072336e+02,-1.875608349702679334e+02,-7.378391901760733163e+01,-7.078547465897463553e+01,9.446745872497558594e+00,-1.262115836143493652e+00,-3.059675097465515137e-01,2.670000000000000000e+02
-2.535195432753280329e+02,-2.095729332533087472e+02,-9.290191467496470068e+01,4.293816311391310592e+01,-2.070112087828497351e+02,-1.889421541271658498e+02,-7.197879713924612588e+01,-6.989732404426013090e+01,9.446745872497558594e+00,-1.262115836143493652e+00,-3.059675097465515137e-01,2.680000000000000000e+02
-2.576459349325659787e+02,-2.149416944837603296e+02,-9.397760576532664345e+01,4.470220961330778664e+01,-2.081224991736589800e+02,-1.897825497568283026e+02,-6.969868024446304844e+01,-6.907559049587598565e+01,9.446745872497558594e+00,-1.262115836143493652e+00,-3.059675097465515137e-01,2.690000000000000000e+02
-2.620052023884982191e+02,-2.202632197693860689e+02,-9.487610311953631026e+01,4.738863200362993666e+01,-2.096518782135403853e+02,-1.899200586907882098e+02,-6.806408616062935835e+01,-6.877506863253347547e+01,9.446745872497558594e+00,-1.262115836143493652e+00,-3.059675097465515137e-01,2.700000000000000000e+02
-2.662105499830122426e+02,-2.243118202950245177e+02,-9.584982673884769611e+01,4.970748503380855254e+01,-2.120055765341530787e+02,-1.896332093968858317e+02,-6.753963016736270220e+01,-6.945391134133842570e+01,9.446745872497558594e+00,-1.262115836143493652e+00,-3.059675097465515137e-01,2.710000000000000000e+02
-2.697112564868916706e+02,-2.267665582580716546e+02,-9.702689640570361007e+01,5.049162846085891942e+01,-2.150703757098622191e+02,-1.897649953161053418e+02,-6.788751268204532607e+01,-7.170248834039466601e+01,9.446745872497558594e+00,-1.262115836143493652e+00,-3.059675097465515137e-01,2.720000000000000000e+02
-2.723393604483540003e+02,-2.283966351829762971e+02,-9.837491824978587829e+01,4.954391096425479191e+01,-2.183904082613871651e+02,-1.912553209418792903e+02,-6.849954865153040373e+01,-7.589792347724869614e+01,9.446745872497558594e+00,-1.262115836143493652e+00,-3.059675097465515137e-01,2.730000000000000000e+02
-2.745470822051202049e+02,-2.302055304126542978e+02,-9.967099719430325422e+01,4.784680867664519610e+01,-2.213821022213719516e+02,-1.944108485582082722e+02,-6.880641112694775074e+01,-8.163386005131724232e+01,9.446745872497558594e+00,-1.262115836143493652e+00,-3.059675097465515137e-01,2.740000000000000000e+02
-2.770899977524873066e+02,-2.324375099835015135e+02,-1.005932634054524897e+02,4.689507384583430394e+01,-2.235249198026849626e+02,-1.985211684241694456e+02,-6.851586355559129515e+01,-8.757810049164936572e+01,9.446745872497558594e+00,-1.262115836143493652e+00,-3.059675097465515137e-01,2.750000000000000000e+02
-2.804185223590670830e+02,-2.344454825093048385e+02,-1.009898805955708667e+02,4.764008457662203000e+01,-2.245599561933440782e+02,-2.021627422653664325e+02,-6.763201411304589783e+01,-9.211719742221521301e+01,9.446745872497558594e+00,-1.262115836143493652e+00,-3.059675097465515137e-01,2.760000000000000000e+02
-2.843163242918985816e+02,-2.354949221359288458e+02,-1.011307589259677115e+02,4.987461266717991748e+01,-2.246689342974214014e+02,-2.040235605800562553e+02,-6.635691965229989364e+01,-9.440507174982531069e+01,9.446745872497558594e+00,-1.262115836143493652e+00,-3.059675097465515137e-01,2.770000000000000000e+02
-2.881032037100053458e+02,-2.356297599775280105e+02,-1.016313782775609980e+02,5.250619227207153017e+01,-2.245010708564850574e+02,-2.037092047837013524e+02,-6.499791033847986910e+01,-9.498642553654735821e+01,9.446745872497558594e+00,-1.262115836143493652e+00,-3.059675097465515137e-01,2.780000000000000000e+02
-2.912002543519774918e+02,-2.357104138551039796e+02,-1.029683868225788501e+02,5.442609936395683690e+01,-2.249245611170017582e+02,-2.020034543556230346e+02,-6.389155620390101831e+01,-9.544057570645099986e+01,9.446745872497558594e+00,-1.262115836143493652e+00,-3.059675097465515137e-01,2.790000000000000000e+02
-2.935247886873698917e+02,-2.366183387109240357e+02,-1.049310263119145930e+02,5.524583602991560838e+01,-2.265627605325007607e+02,-2.004063926569679097e+02,-6.327198222993320087e+01,-9.727602327374279412e+01,9.446745872497558594e+00,-1.262115836143493652e+00,-3.059675097465515137e-01,2.800000000000000000e+02
-2.953855434214997331e+02,-2.384746295599175028e+02,-1.065637512668113231e+02,5.536091568393021589e+01,-2.294071075219248996e+02,-2.002419586722817257e+02,-6.311495557122361788e+01,-1.009313351511946166e+02,9.446745872497558594e+00,-1.262115836143493652e+00,-3.059675097465515137e-01,2.810000000000000000e+02
-2.970539345065199086e+02,-2.406378622086049290e+02,-1.068116708533884776e+02,5.541912496016902878e+01,-2.328026490472884689e+02,-2.018960341511501611e+02,-6.309536991695949837e+01,-1.056229037429429809e+02,9.446745872497558594e+00,-1.262115836143493652e+00,-3.059675097465515137e-01,2.820000000000000000e+02
-2.984893399122606752e+02,-2.424264219264832718e+02,-1.054229767216320397e+02,5.573094277143991349e+01,-2.358496816334582036e+02,-2.046837549663423488e+02,-6.278799935196639126e+01,-1.100618961548238985e+02,9.446745872497558594e+00,-1.262115836143493652e+00,-3.059675097465515137e-01,2.830000000000000000e+02
-2.994814040863311675e+02,-2.437866378282051301e+02,-1.033172576982683495e+02,5.610210392764338394e+01,-2.379457339299797241e+02,-2.074268614857473949e+02,-6.203709328194372574e+01,-1.133935695808841047e+02,9.446745872497558594e+00,-1.262115836143493652e+00,-3.059675097465515137e-01,2.840000000000000000e+02
-3.000026054965396725e+02,-2.452338431600483091e+02,-1.020051468296160238e+02,5.612712746564511690e+01,-2.390866825834691554e+02,-2.093012717835317744e+02,-6.120858876643387703e+01,-1.156355135896642423e+02,9.446745872497558594e+00,-1.262115836143493652e+00,-3.059675097465515137e-01,2.850000000000000000e+02
-3.003358419118444544e+02,-2.471944651930366490e+02,-1.024779325050094485e+02,5.558773284030166906e+01,-2.397658728729443283e+02,-2.103288096672886240e+02,-6.107825680690575609e+01,-1.174012913465307975e+02,9.446745872497558594e+00,-1.262115836143493652e+00,-3.059675097465515137e-01,2.860000000000000000e+02
-3.008130011850171286e+02,-2.494803472620492357e+02,-1.045020681469113697e+02,5.459591222441667924e+01,-2.406165930852293968e+02,-2.111847288284916431e+02,-6.237162865600203077e+01,-1.192892459163281274e+02,9.446745872497558594e+00,-1.185624003410339355e+00,-3.059675097465515137e-01,2.870000000000000000e+02
-3.014690577328592553e+02,-2.514414930784755597e+02,-1.069312674192028680e+02,5.343473320868133669e+01,-2.420814538748659288e+02,-2.125431944594915876e+02,-6.524538515980157172e+01,-1.214975850408395672e+02,9.446745872497558594e+00,-1.185624003410339355e+00,-3.059675097465515137e-01,2.880000000000000000e+02
-3.020532255064302944e+02,-2.526085650041060262e+02,-1.087544759284946849e+02,5.232699194536826326e+01,-2.442858360406878546e+02,-2.145406727153006159e+02,-6.908071107386035692e+01,-1.239012843364215541e+02,9.446745872497558594e+00,-1.185624003410339355e+00,-3.059675097465515137e-01,2.890000000000000000e+02
-3.024483980981045761e+02,-2.531414796764115636e+02,-1.099359302730638319e+02,5.136130858118258402e+01,-2.470894559772100365e+02,-2.167756234460250653e+02,-7.274200279354249687e+01,-1.263505345038895484e+02,9.446745872497558594e+00,-1.185624003410339355e+00,-3.059675097465515137e-01,2.900000000000000000e+02
-3.030244351541628021e+02,-2.536437701366221518e+02,-1.112953340738481529e+02,5.057733265017031954e+01,-2.501857652408587001e+02,-2.187577459303759042e+02,-7.513962361695303116e+01,-1.287885819552021758e+02,9.446745872497558594e+00,-1.185624003410339355e+00,-3.059675097465515137e-01,2.910000000000000000e+02
-3.044375613604455566e+02,-2.545750992868082676e+02,-1.135838808877772408e+02,5.002940204696642468e+01,-2.531924080445794516e+02,-2.203468496174209577e+02,-7.576452002047403766e+01,-1.310775775657202757e+02,9.446745872497558594e+00,-1.185624003410339355e+00,-3.059675097465515137e-01,2.920000000000000000e+02
-3.069634522920696327e+02,-2.558925942743229598e+02,-1.166489402604647694e+02,4.972870752229505342e+01,-2.557364351677256309e+02,-2.217644849148407502e+02,-7.489047391749841154e+01,-1.327944858690337924e+02,9.446745872497558594e+00,-1.185624003410339355e+00,-3.059675097465515137e-01,2.930000000000000000e+02
-3.100329469122777937e+02,-2.572435068125683983e+02,-1.194911361984063660e+02,4.956755753427751188e+01,-2.575514250683963837e+02,-2.232034641737209313e+02,-7.332192753048093437e+01,-1.333441251907348715e+02,9.446745872497558594e+00,-1.185624003410339355e+00,-3.059675097465515137e-01,2.940000000000000000e+02
-3.125410298616509408e+02,-2.583993264271816770e+02,-1.211666539007164829e+02,4.940276253048750732e+01,-2.585545826551499431e+02,-2.244635314181907688e+02,-7.183545316004028791e+01,-1.324125024221398235e+02,9.446745872497558594e+00,-1.185624003410339355e+00,-3.059675097465515137e-01,2.950000000000000000e+02
-3.137600947278781405e+02,-2.594060955741269936e+02,-1.216832323713683763e+02,4.927409781477103934e+01,-2.588372292636594239e+02,-2.250184412647711270e+02,-7.067616181190851421e+01,-1.303767768486428622e+02,9.446745872497558594e+00,-1.185624003410339355e+00,-3.059675097465515137e-01,2.960000000000000000e+02
-3.140117566181179427e+02,-2.603126684969201960e+02,-1.220258685319411143e+02,4.950745649594682618e+01,-2.585654142882509632e+02,-2.244989399664270877e+02,-6.946816396376016201e+01,-1.282192134531088641e+02,9.446745872497558594e+00,-1.185624003410339355e+00,-3.059675097465515137e-01,2.970000000000000000e+02
-3.143965645828637889e+02,-2.608758413081118306e+02,-1.232481111592151137e+02,5.049730602258978251e+01,-2.578523430315651694e+02,-2.231427744753120805e+02,-6.762976377291647623e+01,-1.269138399904272774e+02,9.446745872497558594e+00,-1.185624003410339355e+00,-3.059675097465515137e-01,2.980000000000000000e+02
-3.157768020254977728e+02,-2.607067726444872733e+02,-1.254509385548433329e+02,5.228694839358422541e+01,-2.567004777928381145e+02,-2.217511393205581953e+02,-6.500276816965151738e+01,-1.267809763742287714e+02,9.446745872497558594e+00,-1.185624003410339355e+00,-3.059675097465515137e-01,2.990000000000000000e+02
-3.179394685771916329e+02,-2.597740610446595610e+02,-1.275799721592983360e+02,5.436901050545498038e+01,-2.550579814713919404e+02,-2.211289008857140743e+02,-6.218804442139798994e+01,-1.273740326668886382e+02,9.446745872497558594e+00,-1.185624003410339355e+00,-3.059675097465515137e-01,3.000000000000000000e+02
-3.197420918911172976e+02,-2.586843965999028114e+02,-1.282574679649416112e+02,5.596531811637373721e+01,-2.529838138963082201e+02,-2.215063984332030032e+02,-6.028329635893987870e+01,-1.280222506506323725e+02,9.446745872497558594e+00,-1.185624003410339355e+00,-3.059675097465515137e-01,3.010000000000000000e+02
-3.201220805213399672e+02,-2.583094368739675701e+02,-1.269689630269592726e+02,5.656632746228524411e+01,-2.508471457935122544e+02,-2.224872150037529082e+02,-6.021716553660007776e+01,-1.285572633122983461e+02,9.446745872497558594e+00,-1.185624003410339355e+00,-3.059675097465515137e-01,3.020000000000000000e+02
-3.190324700622780938e+02,-2.590243418799364008e+02,-1.246123573740110260e+02,5.620638780638546450e+01,-2.494087080462197719e+02,-2.235613215657247110e+02,-6.219988029131741314e+01,-1.295607992964482946e+02,9.446745872497558594e+00,-1.185624003410339355e+00,-3.059675097465515137e-01,3.030000000000000000e+02
-3.174654957500242745e+02,-2.603270203557632385e+02,-1.229560419113770422e+02,5.519128702695184074e+01,-2.496320004254860123e+02,-2.246685982276587765e+02,-6.567615085987745260e+01,-1.318899756006849202e+02,9.446745872497558594e+00,-1.185624003410339355e+00,-3.059675097465515137e-01,3.040000000000000000e+02
-3.166177587720370639e+02,-2.612890433408034596e+02,-1.234481247477273200e+02,5.359281721220031613e+01,-2.522058140053602528e+02,-2.262346288234864460e+02,-6.969156204609726046e+01,-1.358631440444464715e+02,9.446745872497558594e+00,-1.185624003410339355e+00,-3.059675097465515137e-01,3.050000000000000000e+02
-3.169993605154395482e+02,-2.614279525991920536e+02,-1.262699789160643604e+02,5.112305683029740067e+01,-2.570056106813109409e+02,-2.286333006666909569e+02,-7.328558146379896243e+01,-1.407833735432061530e+02,9.446745872497558594e+00,-1.185624003410339355e+00,-3.059675097465515137e-01,3.060000000000000000e+02
-3.182275398539343314e+02,-2.611260774014671142e+02,-1.302601276988879135e+02,4.763900692553397676e+01,-2.628753226481552474e+02,-2.316257563122583178e+02,-7.565243142248664299e+01,-1.451860086181385441e+02,9.446745872497558594e+00,-1.185624003410339355e+00,-3.059675097465515137e-01,3.070000000000000000e+02
-3.195429441766725631e+02,-2.611705221126911738e+02,-1.336495451934911216e+02,4.378102420182517562e+01,-2.679842071733518196e+02,-2.343672808612027438e+02,-7.619956907976586535e+01,-1.476315361220229079e+02,9.446745872497558594e+00,-1.185624003410339355e+00,-3.059675097465515137e-01,3.080000000000000000e+02
-3.204518637695471170e+02,-2.618939799874910932e+02,-1.350444658422732118e+02,4.093680344479912492e+01,-2.706512700496818979e+02,-2.360036420801122858e+02,-7.476860192133278815e+01,-1.474736044883958357e+02,9.446745872497558594e+00,-1.185624003410339355e+00,-3.059675097465515137e-01,3.090000000000000000e+02
-3.209134201574238432e+02,-2.628106988909760275e+02,-1.340553479083341699e+02,4.031724399542667925e+01,-2.701642557937832407e+02,-2.362988444190066275e+02,-7.195728378279989101e+01,-1.451185242549805707e+02,9.446745872497558594e+00,-1.185624003410339355e+00,-3.059675097465515137e-01,3.100000000000000000e+02
-3.210413367872345134e+02,-2.630996964404860137e+02,-1.313198288914990144e+02,4.189436233659398567e+01,-2.670864211097923544e+02,-2.357270974947451805e+02,-6.911242521252961524e+01,-1.417016816694294903e+02,9.446745872497558594e+00,-1.185624003410339355e+00,-3.059675097465515137e-01,3.110000000000000000e+02
-3.207806979664279652e+02,-2.623990157172445947e+02,-1.280544699331843503e+02,4.426889770469847463e+01,-2.628903406920682073e+02,-2.350172270362431846e+02,-6.770407683938947230e+01,-1.384778459281575351e+02,9.484992027282714844e+00,-1.376853704452514648e+00,-3.059675097465515137e-01,3.120000000000000000e+02
-3.199474551586795315e+02,-2.610865065712472983e+02,-1.254225277600384061e+02,4.577846690918613604e+01,-2.591633148457698326e+02,-2.346147630820054246e+02,-6.838334143150723321e+01,-1.363012938818244493e+02,9.484992027282714844e+00,-1.376853704452514648e+00,-3.059675097465515137e-01,3.130000000000000000e+02
-3.185496440201150676e+02,-2.598202385831611991e+02,-1.240213214795287513e+02,4.593523452161389287e+01,-2.568719378724546232e+02,-2.345146940568092759e+02,-7.050127749257410414e+01,-1.354200291916286005e+02,9.484992027282714844e+00,-1.376853704452514648e+00,-3.059675097465515137e-01,3.140000000000000000e+02
-3.169851207407319862e+02,-2.589006289392872304e+02,-1.237170836452094136e+02,4.583901340533884650e+01,-2.560940108140839584e+02,-2.344806040767275590e+02,-7.259913490058841035e+01,-1.355887345353686442e+02,9.484992027282714844e+00,-1.376853704452514648e+00,-3.059675097465515137e-01,3.150000000000000000e+02
-3.158412696028728419e+02,-2.581366315055133782e+02,-1.239010382363452436e+02,4.705925757768568474e+01,-2.562935571576540497e+02,-2.343290754524218755e+02,-7.352047003277459680e+01,-1.363510233141946628e+02,9.484992027282714844e+00,-1.376853704452514648e+00,-3.059675097465515137e-01,3.160000000000000000e+02
-3.154238444546871278e+02,-2.572730539347155059e+02,-1.239927869476885007e+02,4.993483708686176215e+01,-2.568763637180699106e+02,-2.340393313595055815e+02,-7.318755959966608771e+01,-1.373050440123793123e+02,9.484992027282714844e+00,-1.376853704452514648e+00,-3.059675097465515137e-01,3.170000000000000000e+02
-3.154473656000567416e+02,-2.564045541249978442e+02,-1.238373680243970512e+02,5.291455084281551535e+01,-2.576081518110377147e+02,-2.337116190989203233e+02,-7.238145335459989838e+01,-1.382288653906285845e+02,9.484992027282714844e+00,-1.376853704452514648e+00,-3.059675097465515137e-01,3.180000000000000000e+02
-3.152336488748222791e+02,-2.558641152044545493e+02,-1.237222947484317501e+02,5.368950810901719706e+01,-2.586290241771562251e+02,-2.335130613717791448e+02,-7.182425391247818425e+01,-1.390451905260398462e+02,9.484992027282714844e+00,-1.376853704452514648e+00,-3.059675097465515137e-01,3.190000000000000000e+02
-3.143131295820764421e+02,-2.557215349373782374e+02,-1.240304333006936304e+02,5.123043365750163503e+01,-2.601175356725253778e+02,-2.336352834286744837e+02,-7.150634640638156725e+01,-1.397008557026599647e+02,9.484992027282714844e+00,-1.376853704452514648e+00,-3.059675097465515137e-01,3.200000000000000000e+02
-3.129421708027426803e+02,-2.555120579510294192e+02,-1.248523811101821366e+02,4.693610205098116239e+01,-2.619307328653092100e+02,-2.341765568181210710e+02,-7.089771241050232220e+01,-1.400766403985472834e+02,9.484992027282714844e+00,-1.376853704452514648e+00,-3.059675097465515137e-01,3.210000000000000000e+02
-3.120495477202890129e+02,-2.545780224027562895e+02,-1.259020192765131014e+02,4.381570225017958364e+01,-2.635437427709408666e+02,-2.349578020394968689e+02,-6.972261597736724070e+01,-1.399931180542816946e+02,9.484992027282714844e+00,-1.376853704452514648e+00,-3.059675097465515137e-01,3.220000000000000000e+02
-3.125634119353312599e+02,-2.527246285340503391e+02,-1.267623996062617380e+02,4.432662123713907931e+01,-2.643381190888261472e+02,-2.354600732826709191e+02,-6.839035697395729585e+01,-1.393151980673218304e+02,9.484992027282714844e+00,-1.376853704452514648e+00,-3.059675097465515137e-01,3.230000000000000000e+02
-3.146050802925134917e+02,-2.505212681508929222e+02,-1.271715021055678108e+02,4.863505664675744811e+01,-2.639768322711346400e+02,-2.350555447314135336e+02,-6.758649052422856585e+01,-1.380620004258204290e+02,9.484992027282714844e+00,-1.376853704452514648e+00,-3.059675097465515137e-01,3.240000000000000000e+02
-3.172246942649853736e+02,-2.489145646418225510e+02,-1.270628882103278556e+02,5.465574967285738239e+01,-2.625382528089309062e+02,-2.334320533660195451e+02,-6.746822270902555374e+01,-1.363975940002748075e+02,9.484992027282714844e+00,-1.376853704452514648e+00,-3.059675097465515137e-01,3.250000000000000000e+02
-3.189527738330069155e+02,-2.484910214024012589e+02,-1.263879077460393319e+02,5.968011225670238673e+01,-2.603324682713712264e+02,-2.308748459307355461e+02,-6.737260261947631079e+01,-1.344835375805782860e+02,9.484992027282714844e+00,-1.376853704452514648e+00,-3.059675097465515137e-01,3.260000000000000000e+02
-3.187704880479370786e+02,-2.490568612303590044e+02,-1.249978727082227579e+02,6.215511833245864182e+01,-2.576117135339128481e+02,-2.281478932564442630e+02,-6.642064350569614817e+01,-1.323188099289709498e+02,9.484992027282714844e+00,-1.376853704452514648e+00,-3.059675097465515137e-01,3.270000000000000000e+02
-3.167454451239348145e+02,-2.498779984054111765e+02,-1.227893514916615914e+02,6.226730341794154810e+01,-2.544519110649881668e+02,-2.260312836366081228e+02,-6.444683902831945943e+01,-1.297338390461079598e+02,9.484992027282714844e+00,-1.376853704452514648e+00,-3.059675097465515137e-01,3.280000000000000000e+02
-3.138551875726561775e+02,-2.502983844556055715e+02,-1.199718947953140287e+02,6.116103921765079576e+01,-2.508885641760979297e+02,-2.248550095830401006e+02,-6.230897836460712824e+01,-1.266016406043175948e+02,9.484992027282714844e+00,-1.376853704452514648e+00,-3.059675097465515137e-01,3.290000000000000000e+02
-3.112253189171638041e+02,-2.501618333488151507e+02,-1.171530804143916384e+02,5.973921444383381640e+01,-2.471465514291001000e+02,-2.243576200701494372e+02,-6.123250425617345627e+01,-1.231363883041847203e+02,9.484992027282714844e+00,-1.376853704452514648e+00,-3.059675097465515137e-01,3.300000000000000000e+02
-3.094522925111644440e+02,-2.497078739814627397e+02,-1.150997185513257364e+02,5.811554659902867570e+01,-2.437397867852664604e+02,-2.239241598868015899e+02,-6.178418112565486808e+01,-1.200095413187827944e+02,9.484992027282714844e+00,-1.376853704452514648e+00,-3.059675097465515137e-01,3.310000000000000000e+02
-3.085075560603384019e+02,-2.491338907432162273e+02,-1.143505784181601257e+02,5.598185831790215161e+01,-2.413480674449211847e+02,-2.230057120416263388e+02,-6.345179987406390865e+01,-1.181166351005044817e+02,9.484992027282714844e+00,-1.376853704452514648e+00,-3.059675097465515137e-01,3.320000000000000000e+02
-3.081171092275298520e+02,-2.483052425085305117e+02,-1.149810015130032070e+02,5.331728899626318707e+01,-2.405272666263279007e+02,-2.214347488927675158e+02,-6.518968960261884149e+01,-1.180975778281463135e+02,9.484992027282714844e+00,-1.376853704452514648e+00,-3.059675097465515137e-01,3.330000000000000000e+02
-3.080826123640399032e+02,-2.469100034749877750e+02,-1.166222639085129913e+02,5.069565684962208252e+01,-2.413904772507291909e+02,-2.194590911672336233e+02,-6.636279057076171739e+01,-1.199267342779735372e+02,9.484992027282714844e+00,-1.376853704452514648e+00,-3.059675097465515137e-01,3.340000000000000000e+02
-3.082139340583951821e+02,-2.449090376056889227e+02,-1.186190664750874930e+02,4.894633291067339087e+01,-2.434161740554581002e+02,-2.175101792841925317e+02,-6.719255386568090671e+01,-1.228674747893339827e+02,9.484992027282714844e+00,-1.376853704452514648e+00,-3.059675097465515137e-01,3.350000000000000000e+02
-3.080859285034046025e+02,-2.428094973604835332e+02,-1.201868605624026713e+02,4.855655200625687939e+01,-2.455278689197970152e+02,-2.158726434603253210e+02,-6.831341684505400735e+01,-1.257907011462998526e+02,9.484992027282714844e+00,-1.376853704452514648e+00,-3.059675097465515137e-01,3.360000000000000000e+02
-3.070825377010398824e+02,-2.414142649855140235e+02,-1.205923621993048300e+02,4.936459938375742240e+01,-2.465028427860347620e+02,-2.144903928977433907e+02,-6.990970606211249105e+01,-1.276212156238176476e+02,9.484992027282714844e+00,-1.376853704452514648e+00,-3.059675097465515137e-01,3.370000000000000000e+02
-3.048451220816295404e+02,-2.411713295604455993e+02,-1.194403315292009893e+02,5.077565765275733156e+01,-2.455766970931555306e+02,-2.130489252018704747e+02,-7.129803778486552801e+01,-1.276858830529238276e+02,9.484992027282714844e+00,-1.376853704452514648e+00,-3.059675097465515137e-01,3.380000000000000000e+02
-3.017171489241912354e+02,-2.416695561855788696e+02,-1.169734990656219225e+02,5.225482606322259471e+01,-2.428961008836672590e+02,-2.112832629487219265e+02,-7.138228481858675423e+01,-1.258992939846416448e+02,9.446745872497558594e+00,-1.300361871719360352e+00,-3.059675097465515137e-01,3.390000000000000000e+02
-2.986732774803347183e+02,-2.417974560139944060e+02,-1.141074548968961153e+02,5.363770672379291682e+01,-2.394849914258867329e+02,-2.092815565883090585e+02,-6.961264537308466060e+01,-1.228320486642965648e+02,9.446745872497558594e+00,-1.300361871719360352e+00,-3.059675097465515137e-01,3.400000000000000000e+02
-2.966906882906546912e+02,-2.405430682638558437e+02,-1.120166272114701087e+02,5.501613325263485876e+01,-2.366886520495518198e+02,-2.075361764297014133e+02,-6.659051726219934153e+01,-1.196216912920490927e+02,9.446745872497558594e+00,-1.300361871719360352e+00,-3.059675097465515137e-01,3.410000000000000000e+02
-2.960922477403366315e+02,-2.378090570567742361e+02,-1.114603551954412524e+02,5.636742941201066515e+01,-2.354201686256016046e+02,-2.066760080197474281e+02,-6.373314458350535006e+01,-1.175898465741005339e+02,9.446745872497558594e+00,-1.300361871719360352e+00,-3.059675097465515137e-01,3.420000000000000000e+02
-2.964299364877419407e+02,-2.345334311583654880e+02,-1.123247420685210045e+02,5.733348925118036732e+01,-2.356829618799279160e+02,-2.070521253083554711e+02,-6.221953548090152708e+01,-1.175781126754590105e+02,9.446745872497558594e+00,-1.300361871719360352e+00,-3.059675097465515137e-01,3.430000000000000000e+02
-2.969570787887510050e+02,-2.319822977203403980e+02,-1.137468936138733397e+02,5.742277251319274001e+01,-2.366604527022010416e+02,-2.084644089020429192e+02,-6.207332203419662164e+01,-1.193626696657219100e+02,9.446745872497558594e+00,-1.300361871719360352e+00,-3.059675097465515137e-01,3.440000000000000000e+02
-2.971991005003419559e+02,-2.308091693044065096e+02,-1.147189582344620931e+02,5.648825824076004665e+01,-2.372609914402817139e+02,-2.102271878896019643e+02,-6.217923856589732168e+01,-1.216562825660882936e+02,9.446745872497558594e+00,-1.300361871719360352e+00,-3.059675097465515137e-01,3.450000000000000000e+02
-2.971172906809338201e+02,-2.306762516532704694e+02,-1.146859832321607655e+02,5.501269674974673762e+01,-2.367386516538024352e+02,-2.115525446930065527e+02,-6.126659020625993435e+01,-1.228738961322734440e+02,9.446745872497558594e+00,-1.300361871719360352e+00,-3.059675097465515137e-01,3.460000000000000000e+02
-2.968431483789588583e+02,-2.307051625443514240e+02,-1.137238978750763181e+02,5.386656936107669935e+01,-2.350311998786949061e+02,-2.120021836267343360e+02,-5.904518574371104478e+01,-1.221767514009493425e+02,9.446745872497558594e+00,-1.300361871719360352e+00,-3.059675097465515137e-01,3.470000000000000000e+02
-2.963834122516260550e+02,-2.302700845501376534e+02,-1.122916496279648300e+02,5.367308857748514583e+01,-2.326718504631546693e+02,-2.117019201799505481e+02,-5.651312288155872920e+01,-1.199955977356690937e+02,9.446745872497558594e+00,-1.300361871719360352e+00,-3.059675097465515137e-01,3.480000000000000000e+02
-2.956235876169307630e+02,-2.293924219649766201e+02,-1.108720148818999860e+02,5.429701876115836967e+01,-2.304016008818548471e+02,-2.111825120591383893e+02,-5.516493122356837375e+01,-1.176163907329669200e+02,9.446745872497558594e+00,-1.300361871719360352e+00,-3.059675097465515137e-01,3.490000000000000000e+02
-2.945446735621314929e+02,-2.284666355911756455e+02,-1.097960040541072431e+02,5.493029532911862134e+01,-2.287505923729196411e+02,-2.109684794773897920e+02,-5.578096653432066887e+01,-1.161840174666374423e+02,9.446745872497558594e+00,-1.300361871719360352e+00,-3.059675097465515137e-01,3.500000000000000000e+02
-2.933310201214493418e+02,-2.277324499215982314e+02,-1.092627329135391392e+02,5.473494283124284721e+01,-2.278356194246325686e+02,-2.112276389941837351e+02,-5.785918381666408550e+01,-1.159584141413256475e+02,9.446745872497558594e+00,-1.300361871719360352e+00,-3.059675097465515137e-01,3.510000000000000000e+02
-2.922148493751179785e+02,-2.270782930132234014e+02,-1.093512738996240614e+02,5.351102181292503701e+01,-2.274377308108553279e+02,-2.117252121658195847e+02,-6.013724338417489435e+01,-1.163566196137549014e+02,9.446745872497558594e+00,-1.300361871719360352e+00,-3.059675097465515137e-01,3.520000000000000000e+02
-2.912431770193284137e+02,-2.262916140970107790e+02,-1.099174729416341734e+02,5.185148940267981743e+01,-2.272065490759496242e+02,-2.120674866702536292e+02,-6.164305678040557268e+01,-1.165632909413767493e+02,9.446745872497558594e+00,-1.300361871719360352e+00,-3.059675097465515137e-01,3.530000000000000000e+02
-2.902648846399418971e+02,-2.253504245011632747e+02,-1.105149064936089189e+02,5.069490091291731915e+01,-2.268037989232924474e+02,-2.119954699503410893e+02,-6.229681242780100092e+01,-1.160666745681996872e+02,9.446745872497558594e+00,-1.300361871719360352e+00,-3.059675097465515137e-01,3.540000000000000000e+02
-2.891707841175517615e+02,-2.243726605853096316e+02,-1.105500127230444605e+02,5.066043428192324427e+01,-2.259462719697482953e+02,-2.114946523414482726e+02,-6.262263417240853869e+01,-1.147506637659981834e+02,9.446745872497558594e+00,-1.300361871719360352e+00,-3.059675097465515137e-01,3.550000000000000000e+02
-2.880951201087441405e+02,-2.233442156807102492e+02,-1.096786333091895358e+02,5.162904846265496417e+01,-2.244881566218493845e+02,-2.107244979656315991e+02,-6.305308605998538951e+01,-1.127445572125056970e+02,9.446745872497558594e+00,-1.300361871719360352e+00,-3.059675097465515137e-01,3.560000000000000000e+02
-2.873133270678425788e+02,-2.220642891022753247e+02,-1.081409911518287572e+02,5.279093998323287451e+01,-2.226110708168702104e+02,-2.099228266511477159e+02,-6.361067665229870727e+01,-1.103877986929884401e+02,9.446745872497558594e+00,-1.300361871719360352e+00,-3.059675097465515137e-01,3.570000000000000000e+02
-2.869100210177116423e+02,-2.204840560020118119e+02,-1.066782129313401128e+02,5.307118499538614742e+01,-2.209176404508318683e+02,-2.093615764954386123e+02,-6.418829245599908973e+01,-1.083183008055239043e+02,9.446745872497558594e+00,-1.300361871719360352e+00,-3.059675097465515137e-01,3.580000000000000000e+02
-2.865705538947138393e+02,-2.190354172202743257e+02,-1.059786648054032412e+02,5.170764098035124334e+01,-2.201443445708197260e+02,-2.092611045662642937e+02,-6.491594907445653462e+01,-1.073206326990805337e+02,9.446745872497558594e+00,-1.300361871719360352e+00,-3.059675097465515137e-01,3.590000000000000000e+02
-2.857624486843960767e+02,-2.184069004199345727e+02,-1.060628343589087308e+02,4.874327837190253376e+01,-2.205413888836752676e+02,-2.095767986541877690e+02,-6.604524181225849588e+01,-1.077533178348168121e+02,9.446745872497558594e+00,-1.300361871719360352e+00,-3.059675097465515137e-01,3.600000000000000000e+02
-2.841740824339908613e+02,-2.187945662617640892e+02,-1.061824335672196185e+02,4.518559675901110495e+01,-2.214578681275739882e+02,-2.098240932899775544e+02,-6.747906942036649980e+01,-1.090145471268166375e+02,9.446745872497558594e+00,-1.300361871719360352e+00,-3.059675097465515137e-01,3.610000000000000000e+02
-2.820138791103931908e+02,-2.193512503870508681e+02,-1.054407503505352679e+02,4.262069761649513566e+01,-2.217142409378280945e+02,-2.092493073338609975e+02,-6.862305168364594010e+01,-1.097753573583066782e+02,9.446745872497558594e+00,-1.300361871719360352e+00,-3.059675097465515137e-01,3.620000000000000000e+02
-2.798872549525508475e+02,-2.185635839556060773e+02,-1.036799624554696493e+02,4.234471838141371336e+01,-2.206540054650398588e+02,-2.073927273244312346e+02,-6.890359127234103198e+01,-1.090841373930998088e+02,9.446745872497558594e+00,-1.300361871719360352e+00,-3.059675097465515137e-01,3.630000000000000000e+02
-2.783411734970279667e+02,-2.154370885444334363e+02,-1.018201570120114638e+02,4.449870745997418453e+01,-2.189462875637238994e+02,-2.046074385729293681e+02,-6.846674116096176022e+01,-1.074272076111903971e+02,9.446745872497558594e+00,-1.300361871719360352e+00,-3.059675097465515137e-01,3.640000000000000000e+02
-2.774510617466550002e+02,-2.104711691512245579e+02,-1.012011951724624623e+02,4.787538992949907879e+01,-2.181870169751664434e+02,-2.019467925595879478e+02,-6.818311062289285474e+01,-1.065556563555583125e+02,9.446745872497558594e+00,-1.300361871719360352e+00,-3.059675097465515137e-01,3.650000000000000000e+02
-2.767690663505342172e+02,-2.054479457913759006e+02,-1.023551804191914698e+02,5.068350793405352306e+01,-2.193827265070286785e+02,-2.003518657695462934e+02,-6.872321777023819322e+01,-1.078980380364744178e+02,9.446745872497558594e+00,-1.300361871719360352e+00,-3.059675097465515137e-01,3.660000000000000000e+02
-2.756393472920638033e+02,-2.021130743656077584e+02,-1.042527065651980820e+02,5.179475027707349000e+01,-2.216067406743675292e+02,-1.998032151078582501e+02,-6.954383692077919932e+01,-1.108268371307957523e+02,9.446745872497558594e+00,-1.300361871719360352e+00,-3.059675097465515137e-01,3.670000000000000000e+02
-2.736078632682483658e+02,-2.008676772691804899e+02,-1.047977771854344837e+02,5.151776449647172740e+01,-2.222177296999279861e+02,-1.992455203896593048e+02,-6.892733312987115823e+01,-1.124999958527787385e+02,9.446745872497558594e+00,-1.300361871719360352e+00,-3.059675097465515137e-01,3.680000000000000000e+02
-2.706456193422092156e+02,-2.006119335721939478e+02,-1.023156146926639849e+02,5.125129467256033422e+01,-2.187290456388906250e+02,-1.974371448650299499e+02,-6.530085513121321128e+01,-1.097805694018019267e+02,9.446745872497558594e+00,-1.300361871719360352e+00,-3.059675097465515137e-01,3.690000000000000000e+02
-2.671033690579790800e+02,-1.998409860680725387e+02,-9.688140777883836563e+01,5.226809435235190904e+01,-2.108675183415365382e+02,-1.939976877209060149e+02,-5.877377089927449560e+01,-1.018318456075386393e+02,9.446745872497558594e+00,-1.376853704452514648e+00,-3.059675097465515137e-01,3.700000000000000000e+02
-2.634920943207202981e+02,-1.979615767532141035e+02,-9.037929502831855189e+01,5.463318291367545498e+01,-2.010447840473474344e+02,-1.897219843969817248e+02,-5.148206568365446856e+01,-9.118318009516053735e+01,9.446745872497558594e+00,-1.376853704452514648e+00,-3.059675097465515137e-01,3.710000000000000000e+02
-2.602440581068711936e+02,-1.956581216153649621e+02,-8.521290103143076067e+01,5.716250309956399178e+01,-1.927870550142948787e+02,-1.859181667518525956e+02,-4.632518253602177083e+01,-8.222794534276442846e+01,9.446745872497558594e+00,-1.376853704452514648e+00,-3.059675097465515137e-01,3.720000000000000000e+02
-2.575715031892016214e+02,-1.940857046149654934e+02,-8.272469554975964456e+01,5.841763640543240399e+01,-1.884120375087094317e+02,-1.834172215939383932e+02,-4.507954907665157407e+01,-7.827986777137346053e+01,9.446745872497558594e+00,-1.376853704452514648e+00,-3.059675097465515137e-01,3.730000000000000000e+02
-2.554583496333538051e+02,-1.937380358976342904e+02,-8.257043109594030739e+01,5.787267771722667931e+01,-1.878194997489417801e+02,-1.821133747777528242e+02,-4.735860969124212261e+01,-7.951616046754099898e+01,9.446745872497558594e+00,-1.376853704452514648e+00,-3.059675097465515137e-01,3.740000000000000000e+02
-2.537653383332313979e+02,-1.940331592135014489e+02,-8.340235098174377981e+01,5.627990650528408878e+01,-1.891877517365273889e+02,-1.813040191459776906e+02,-5.111811353680752745e+01,-8.332674950121008806e+01,9.446745872497558594e+00,-1.376853704452514648e+00,-3.059675097465515137e-01,3.750000000000000000e+02
-2.523839777982720989e+02,-1.938967580733241221e+02,-8.409407240095538327e+01,5.497916886805410286e+01,-1.906926251283621241e+02,-1.803621407851733238e+02,-5.412431947157938339e+01,-8.652076949379261350e+01,9.446745872497558594e+00,-1.376853704452514648e+00,-3.059675097465515137e-01,3.760000000000000000e+02
-2.513250447114419330e+02,-1.927074365675484842e+02,-8.438428699520011378e+01,5.480703644945583619e+01,-1.916416478100438781e+02,-1.791006783922043724e+02,-5.518982728001083160e+01,-8.742026473960936528e+01,9.446745872497558594e+00,-1.376853704452514648e+00,-3.059675097465515137e-01,3.770000000000000000e+02
-2.506443690457574576e+02,-1.907195718051343647e+02,-8.453000006974207281e+01,5.555082783003285840e+01,-1.922227913917181468e+02,-1.776283135542503260e+02,-5.442080387102714667e+01,-8.628169227737737401e+01,9.446745872497558594e+00,-1.376853704452514648e+00,-3.059675097465515137e-01,3.780000000000000000e+02
-2.502394174139253664e+02,-1.886709018493563690e+02,-8.456358108452786837e+01,5.634519491318746987e+01,-1.924644598424401920e+02,-1.760162038721441604e+02,-5.263627084278050461e+01,-8.416688703942702432e+01,9.446745872497558594e+00,-1.376853704452514648e+00,-3.059675097465515137e-01,3.790000000000000000e+02
-2.497038078583118477e+02,-1.870574026985755154e+02,-8.403953645858734944e+01,5.653941792404566513e+01,-1.916619362854507926e+02,-1.741677621216842908e+02,-5.065318677392951940e+01,-8.167885064925360439e+01,9.446745872497558594e+00,-1.376853704452514648e+00,-3.059675097465515137e-01,3.800000000000000000e+02
-2.484463674890198490e+02,-1.857641299260924370e+02,-8.252318507165387018e+01,5.620227933514161123e+01,-1.889096879529552098e+02,-1.719727162095655331e+02,-4.896274539959040339e+01,-7.875107858913452219e+01,9.446745872497558594e+00,-1.376853704452514648e+00,-3.059675097465515137e-01,3.810000000000000000e+02
-2.460915094205004152e+02,-1.843216905179078822e+02,-8.022026502152380090e+01,5.585179465114219965e+01,-1.841811778444712218e+02,-1.695301416858658285e+02,-4.780080234532488248e+01,-7.540302815338554865e+01,9.446745872497558594e+00,-1.376853704452514648e+00,-3.059675097465515137e-01,3.820000000000000000e+02
-2.428733968368483147e+02,-1.824619224877301349e+02,-7.799926872598325645e+01,5.578294476213295638e+01,-1.788110460277362108e+02,-1.671996118898243822e+02,-4.730460868502018457e+01,-7.238627667776427188e+01,9.446745872497558594e+00,-1.376853704452514648e+00,-3.059675097465515137e-01,3.830000000000000000e+02
-2.396344431491756950e+02,-1.804120075525465836e+02,-7.672055217805200300e+01,5.574812944435598183e+01,-1.748119790532387015e+02,-1.654359457995510638e+02,-4.753484832619687950e+01,-7.088922851353936494e+01,9.446745872497558594e+00,-1.376853704452514648e+00,-3.059675097465515137e-01,3.840000000000000000e+02
-2.373155934228616388e+02,-1.786760387923095550e+02,-7.655878530325912834e+01,5.532996410101509355e+01,-1.735737916198427229e+02,-1.645385717794201810e+02,-4.838887080202766811e+01,-7.156228132767500938e+01,9.446745872497558594e+00,-1.376853704452514648e+00,-3.059675097465515137e-01,3.850000000000000000e+02
-2.362547870324528958e+02,-1.775316854841112217e+02,-7.700893837368312234e+01,5.458742496670174660e+01,-1.750354839946653556e+02,-1.644720709881148650e+02,-4.956474802092998289e+01,-7.386018181261897553e+01,9.446745872497558594e+00,-1.376853704452514648e+00,-3.059675097465515137e-01,3.860000000000000000e+02
-2.358526317580560772e+02,-1.767222633429032612e+02,-7.751596774542099411e+01,5.423793575672516454e+01,-1.779371911912562609e+02,-1.648424394110099911e+02,-5.066976212861300155e+01,-7.636702290715879826e+01,9.446745872497558594e+00,-1.376853704452514648e+00,-3.059675097465515137e-01,3.870000000000000000e+02
-2.349416994436544428e+02,-1.756494336669341010e+02,-7.797385573539258985e+01,5.508614229733052525e+01,-1.807579440203621743e+02,-1.650339402764261649e+02,-5.141121614558005604e+01,-7.778155140346484586e+01,9.446745872497558594e+00,-1.376853704452514648e+00,-3.059675097465515137e-01,3.880000000000000000e+02
-2.326263207916706506e+02,-1.739170322699599183e+02,-7.850367231615746277e+01,5.719931647047519618e+01,-1.824250735835794330e+02,-1.644682629818819350e+02,-5.171593407436193957e+01,-7.763197670190220379e+01,9.446745872497558594e+00,-1.376853704452514648e+00,-3.059675097465515137e-01,3.890000000000000000e+02
-2.289472644792645042e+02,-1.717668045992415955e+02,-7.877314316876959310e+01,5.964657533230706576e+01,-1.823241070026419948e+02,-1.628802137985119316e+02,-5.168168569672388912e+01,-7.616430744847548340e+01,9.446745872497558594e+00,-1.376853704452514648e+00,-3.059675097465515137e-01,3.900000000000000000e+02
-2.248460122873025284e+02,-1.700022352857545229e+02,-7.772894322677075252e+01,6.111791197439379175e+01,-1.799911795671562231e+02,-1.604733145518414403e+02,-5.139281333048415945e+01,-7.373081375305446272e+01,9.446745872497558594e+00,-1.338607788085937500e+00,-3.059675097465515137e-01,3.910000000000000000e+02
-2.214575178209158821e+02,-1.693908028014379852e+02,-7.427313264128906667e+01,6.089635860035627957e+01,-1.751636932158110085e+02,-1.578526074613509991e+02,-5.075174528516436112e+01,-7.044359332705107590e+01,9.446745872497558594e+00,-1.338607788085937500e+00,-3.059675097465515137e-01,3.920000000000000000e+02
-2.193022617809822350e+02,-1.699789505565013314e+02,-6.840300728201100355e+01,5.932466214810892779e+01,-1.682978324127345786e+02,-1.557238601078734064e+02,-4.948128982645698670e+01,-6.643627047302015853e+01,9.446745872497558594e+00,-1.338607788085937500e+00,-3.059675097465515137e-01,3.930000000000000000e+02
-2.180040287656315741e+02,-1.708830702329444193e+02,-6.171210828507946644e+01,5.740217388952305555e+01,-1.609094492122389966e+02,-1.545063576490997548e+02,-4.733806911739657153e+01,-6.231340299929138382e+01,9.446745872497558594e+00,-1.338607788085937500e+00,-3.059675097465515137e-01,3.940000000000000000e+02
-2.166985919628386910e+02,-1.707809660349691967e+02,-5.662045715417480096e+01,5.596196688375630401e+01,-1.550688997067300079e+02,-1.540793224614762948e+02,-4.440570281635245919e+01,-5.909806051430064144e+01,9.446745872497558594e+00,-1.338607788085937500e+00,-3.059675097465515137e-01,3.950000000000000000e+02
-2.147411192523961745e+02,-1.687790877378843106e+02,-5.484440164726447620e+01,5.521238454345393620e+01,-1.522107130222680098e+02,-1.538392879866214571e+02,-4.123042254158144715e+01,-5.753421008141822313e+01,9.446745872497558594e+00,-1.338607788085937500e+00,-3.059675097465515137e-01,3.960000000000000000e+02
-2.121192764634458854e+02,-1.650170783225275954e+02,-5.631920270367254489e+01,5.497655582165293708e+01,-1.522152379821518480e+02,-1.530559435782529363e+02,-3.863025741534670487e+01,-5.737999539047223152e+01,9.446745872497558594e+00,-1.338607788085937500e+00,-3.059675097465515137e-01,3.970000000000000000e+02
-2.092798366900744895e+02,-1.605771469023600275e+02,-5.939496339208835707e+01,5.523200793975092893e+01,-1.535899225693099197e+02,-1.513001786752574844e+02,-3.724711319505149731e+01,-5.747391563954897720e+01,9.446745872497558594e+00,-1.338607788085937500e+00,-3.059675097465515137e-01,3.980000000000000000e+02
-2.066119586062827693e+02,-1.567875033761790746e+02,-6.204248135410580289e+01,5.630210190631441947e+01,-1.546024550931210797e+02,-1.486365098069773012e+02,-3.713013304086280186e+01,-5.663446973008512941e+01,9.446745872497558594e+00,-1.338607788085937500e+00,-3.059675097465515137e-01,3.990000000000000000e+02
-2.041061753087865327e+02,-1.544425850802440436e+02,-6.307592720427828681e+01,5.847505324336998456e+01,-1.543725263438211641e+02,-1.454388617935355796e+02,-3.767378701827419718e+01,-5.460189344769037234e+01,9.446745872497558594e+00,-1.338607788085937500e+00,-3.059675097465515137e-01,4.000000000000000000e+02
-2.015032510533176264e+02,-1.534726043591281268e+02,-6.255744137993565346e+01,6.146319612633351426e+01,-1.530660229546499522e+02,-1.420182984180578387e+02,-3.798713219608430336e+01,-5.212886220179757402e+01,9.446745872497558594e+00,-1.338607788085937500e+00,-3.059675097465515137e-01,4.010000000000000000e+02
-1.987666432587848249e+02,-1.532020854682941717e+02,-6.135121941963961945e+01,6.431284392548127471e+01,-1.512546970641856205e+02,-1.384203189040417783e+02,-3.744935998532582744e+01,-5.012374839413223526e+01,9.446745872497558594e+00,-1.338607788085937500e+00,-3.059675097465515137e-01,4.020000000000000000e+02
-1.964000271062477623e+02,-1.529004720991335944e+02,-6.037604777113278942e+01,6.595263527214797250e+01,-1.492310773092769978e+02,-1.345699059289804609e+02,-3.606992164354596753e+01,-4.867315885110701856e+01,9.446745872497558594e+00,-1.338607788085937500e+00,-3.059675097465515137e-01,4.030000000000000000e+02
-1.952216421503987931e+02,-1.521887763220775014e+02,-6.007294533323556607e+01,6.595739939077907366e+01,-1.468913325036867263e+02,-1.305739831249902636e+02,-3.440180735672333867e+01,-4.689964424412437438e+01,9.446745872497558594e+00,-1.338607788085937500e+00,-3.059675097465515137e-01,4.040000000000000000e+02
-1.956934886649814871e+02,-1.510757077955986460e+02,-6.027265475331773814e+01,6.487804896524312426e+01,-1.440887319013440901e+02,-1.268165563413667769e+02,-3.311484533190105140e+01,-4.381645600487127012e+01,9.446745872497558594e+00,-1.338607788085937500e+00,-3.059675097465515137e-01,4.050000000000000000e+02
-1.973368625607236027e+02,-1.497153776201434994e+02,-6.039172661137467912e+01,6.384747944422610999e+01,-1.409190002678135443e+02,-1.237097348176012019e+02,-3.257046929936177548e+01,-3.938620525326950883e+01,9.446745872497558594e+00,-1.338607788085937500e+00,-3.059675097465515137e-01,4.060000000000000000e+02
-1.987894331153836447e+02,-1.481519017988794076e+02,-5.983769179944192729e+01,6.378066977035246055e+01,-1.376605309827227757e+02,-1.213526293451427591e+02,-3.269018485697279175e+01,-3.480349630987075216e+01,9.446745872497558594e+00,-1.338607788085937500e+00,-3.059675097465515137e-01,4.070000000000000000e+02
-1.985927113024490609e+02,-1.462685158911062899e+02,-5.845411136568282018e+01,6.480700901676414105e+01,-1.345820514346969503e+02,-1.194749733447661129e+02,-3.314278564194501087e+01,-3.173687400851076745e+01,9.446745872497558594e+00,-1.338607788085937500e+00,-3.059675097465515137e-01,4.080000000000000000e+02
-1.961842302501067934e+02,-1.439575980714937486e+02,-5.673356802091529971e+01,6.634658877105630381e+01,-1.319228288206879824e+02,-1.177380082713148113e+02,-3.362486554850806897e+01,-3.117287014286762314e+01,9.446745872497558594e+00,-1.338607788085937500e+00,-3.059675097465515137e-01,4.090000000000000000e+02
-1.923280501973276841e+02,-1.413496573730792534e+02,-5.555926569104303780e+01,6.769462715955887688e+01,-1.299926693959264412e+02,-1.160695881787523831e+02,-3.399981644590025098e+01,-3.279687662334708875e+01,9.446745872497558594e+00,-1.338607788085937500e+00,-3.059675097465515137e-01,4.100000000000000000e+02
-1.886004601295364864e+02,-1.388819755157642248e+02,-5.556034099873932064e+01,6.857833132262021536e+01,-1.290841278195653103e+02,-1.146624315591770937e+02,-3.424812867519653992e+01,-3.530188650581385446e+01,9.446745872497558594e+00,-1.338607788085937500e+00,-3.059675097465515137e-01,4.110000000000000000e+02
-1.862732328869858520e+02,-1.371000017816902528e+02,-5.657842557853018661e+01,6.922373324167892861e+01,-1.291453843106467048e+02,-1.136521289113907187e+02,-3.435437162979792447e+01,-3.725914677894047600e+01,9.446745872497558594e+00,-1.338607788085937500e+00,-3.059675097465515137e-01,4.120000000000000000e+02
-1.854475476648676704e+02,-1.363128840369909085e+02,-5.774101629526080615e+01,6.993187170468627301e+01,-1.295942651056384420e+02,-1.128663200577434509e+02,-3.427268075922938806e+01,-3.788697632542198335e+01,9.446745872497558594e+00,-1.338607788085937500e+00,-3.059675097465515137e-01,4.130000000000000000e+02
-1.851051841717076059e+02,-1.363872830872537634e+02,-5.813699567991693584e+01,7.058363163533977058e+01,-1.296410981347250981e+02,-1.119633146718438184e+02,-3.398623289214583565e+01,-3.728377763943899481e+01,9.446745872497558594e+00,-1.338607788085937500e+00,-3.059675097465515137e-01,4.140000000000000000e+02
-1.839919144978550776e+02,-1.368596147049270257e+02,-5.749238641222291335e+01,7.056431732448072580e+01,-1.289174848947441205e+02,-1.108407660013863278e+02,-3.355719539122037531e+01,-3.614465204717544111e+01,9.446745872497558594e+00,-1.338607788085937500e+00,-3.059675097465515137e-01,4.150000000000000000e+02
-1.816036953859536425e+02,-1.372714733862549110e+02,-5.623595068893087046e+01,6.920969976764354215e+01,-1.277531046599710862e+02,-1.098793320341205799e+02,-3.310151853901834329e+01,-3.524527477378433105e+01,9.446745872497558594e+00,-1.338607788085937500e+00,-2.677215635776519775e-01,4.160000000000000000e+02
-1.785028867082323814e+02,-1.373949733194001510e+02,-5.495274862824794582e+01,6.642201119095261674e+01,-1.266965696566376209e+02,-1.097224189454968837e+02,-3.271228477437489346e+01,-3.495723102296324214e+01,9.446745872497558594e+00,-1.338607788085937500e+00,-2.677215635776519775e-01,4.170000000000000000e+02
-1.757878946276102852e+02,-1.371281485124904975e+02,-5.385272499014718051e+01,6.293775790999279707e+01,-1.256992489632750676e+02,-1.107479628825130931e+02,-3.242457591129232242e+01,-3.500920236937781738e+01,9.446745872497558594e+00,-1.338607788085937500e+00,-2.677215635776519775e-01,4.180000000000000000e+02
-1.742419549864312103e+02,-1.362069960507121777e+02,-5.282056966364643813e+01,5.999913204174026760e+01,-1.238722947618409762e+02,-1.126828736312718320e+02,-3.225199299713335677e+01,-3.462093676553809019e+01,9.446745872497558594e+00,-1.338607788085937500e+00,-2.677215635776519775e-01,4.190000000000000000e+02
-1.738607519731694993e+02,-1.341352024198681647e+02,-5.191292514031329119e+01,5.865789253530601854e+01,-1.202392098309983339e+02,-1.146660802605615572e+02,-3.222503109720446446e+01,-3.297499385742480627e+01,9.446745872497558594e+00,-1.338607788085937500e+00,-2.677215635776519775e-01,4.200000000000000000e+02
-1.740261682129657856e+02,-1.305491514806205942e+02,-5.162575979310668117e+01,5.922422065638920685e+01,-1.148645987862339553e+02,-1.156755035596274865e+02,-3.236172154055839201e+01,-2.978123043249183866e+01,9.446745872497558594e+00,-1.338607788085937500e+00,-2.677215635776519775e-01,4.210000000000000000e+02
-1.740012502798012974e+02,-1.257416304684900297e+02,-5.249655619347072388e+01,6.124411603238831958e+01,-1.092259037681137670e+02,-1.149965354688642947e+02,-3.258055071043986572e+01,-2.556067985506206242e+01,9.446745872497558594e+00,-1.338607788085937500e+00,-2.677215635776519775e-01,4.220000000000000000e+02
-1.732751814032126276e+02,-1.207923194937804965e+02,-5.440019251545254519e+01,6.393382693133753492e+01,-1.053251836994761561e+02,-1.124850411775869361e+02,-3.266297240922676792e+01,-2.143824170762718495e+01,9.446745872497558594e+00,-1.338607788085937500e+00,-2.677215635776519775e-01,4.230000000000000000e+02
-1.715940348932190318e+02,-1.170322546113045519e+02,-5.633329510028806908e+01,6.663311288094428164e+01,-1.042380097887801185e+02,-1.085922667878435277e+02,-3.234007878172269557e+01,-1.857939377011007309e+01,9.446745872497558594e+00,-1.338607788085937500e+00,-2.677215635776519775e-01,4.240000000000000000e+02
-1.688892878113410916e+02,-1.152018008460304372e+02,-5.704893656842705241e+01,6.891778203546209625e+01,-1.053481803794891221e+02,-1.042242542263620635e+02,-3.146310748059386242e+01,-1.762606826496971735e+01,9.446745872497558594e+00,-1.338607788085937500e+00,-2.677215635776519775e-01,4.250000000000000000e+02
-1.653405814307564015e+02,-1.150219627652572854e+02,-5.601492327249229675e+01,7.039971388429557919e+01,-1.068909549276761481e+02,-1.004642715225418215e+02,-3.012979374323276716e+01,-1.843860290137945412e+01,9.446745872497558594e+00,-1.338607788085937500e+00,-2.677215635776519775e-01,4.260000000000000000e+02
-1.615129728972262910e+02,-1.155611991253654196e+02,-5.379814973530824318e+01,7.059171578465975472e+01,-1.072584681002324487e+02,-9.818426112725228450e+01,-2.867289632138067645e+01,-2.020805205861711329e+01,9.446745872497558594e+00,-1.338607788085937500e+00,-2.677215635776519775e-01,4.270000000000000000e+02
-1.582799643209220903e+02,-1.160368296708768412e+02,-5.153124496458281101e+01,6.915545362362354354e+01,-1.059294808296126575e+02,-9.766724819327555451e+01,-2.752633646794174638e+01,-2.181532477038081197e+01,9.446745872497558594e+00,-1.338607788085937500e+00,-2.677215635776519775e-01,4.280000000000000000e+02
-1.564085554790444803e+02,-1.162874974723390551e+02,-5.001337187783383342e+01,6.638439765056045871e+01,-1.033989422588942944e+02,-9.847029555518975030e+01,-2.705816676012705102e+01,-2.228684514334531741e+01,9.446745872497558594e+00,-1.338607788085937500e+00,-2.677215635776519775e-01,4.290000000000000000e+02
-1.560611144613826582e+02,-1.165094711073256804e+02,-4.929618726737271572e+01,6.339041950010869186e+01,-1.004609198302337063e+02,-9.967152897674441192e+01,-2.742850550798425502e+01,-2.120394441877101599e+01,9.446745872497558594e+00,-1.338607788085937500e+00,-2.677215635776519775e-01,4.300000000000000000e+02
-1.566453324186370537e+02,-1.166211191923646311e+02,-4.900141238716241787e+01,6.161221816969464271e+01,-9.762991996938853845e+01,-1.003661588989389202e+02,-2.848538172224016307e+01,-1.887379775489921485e+01,9.446745872497558594e+00,-1.338607788085937500e+00,-2.677215635776519775e-01,4.310000000000000000e+02
-1.571735492369432450e+02,-1.160187931565844792e+02,-4.884013302811467838e+01,6.189290320455484107e+01,-9.508597218284330665e+01,-1.000741163394345676e+02,-2.972951858552460180e+01,-1.611085425327951270e+01,9.446745872497558594e+00,-1.338607788085937500e+00,-2.677215635776519775e-01,4.320000000000000000e+02
-1.568525862350084026e+02,-1.140792798707648217e+02,-4.871418842022330864e+01,6.387917465787631954e+01,-9.289690485369783346e+01,-9.878610973559216291e+01,-3.042965500011791846e+01,-1.370739486111529004e+01,9.446745872497558594e+00,-1.338607788085937500e+00,-2.677215635776519775e-01,4.330000000000000000e+02
-1.554575827783587556e+02,-1.109481892428493666e+02,-4.842085996269588577e+01,6.632210052287882718e+01,-9.113005327666724043e+01,-9.671549437676640082e+01,-2.995230221825204353e+01,-1.198013032570224823e+01,9.446745872497558594e+00,-1.338607788085937500e+00,-2.677215635776519775e-01,4.340000000000000000e+02
-1.532861890426515856e+02,-1.077570213954288647e+02,-4.752418101290822960e+01,6.807176728411604927e+01,-8.981798867811221498e+01,-9.406755272664258882e+01,-2.819690841650754010e+01,-1.079013209217691838e+01,9.446745872497558594e+00,-1.338607788085937500e+00,-2.677215635776519775e-01,4.350000000000000000e+02
-1.508630312035800216e+02,-1.059265782260449669e+02,-4.575314265185124896e+01,6.888314010163549028e+01,-8.901851381897449755e+01,-9.106783882428044308e+01,-2.581805419792635803e+01,-1.002234856933591800e+01,9.446745872497558594e+00,-1.338607788085937500e+00,-2.677215635776519775e-01,4.360000000000000000e+02
-1.486833853963346428e+02,-1.061119919733496317e+02,-4.353832462436548667e+01,6.929633173401816748e+01,-8.900853095887123345e+01,-8.817413609580216871e+01,-2.395574941805261915e+01,-1.001796355851206499e+01,9.446745872497558594e+00,-1.338607788085937500e+00,-2.677215635776519775e-01,4.370000000000000000e+02
-1.470908343549767778e+02,-1.077147961934620071e+02,-4.194367539841914549e+01,6.976216292167964639e+01,-9.025720516135424987e+01,-8.611986658193382027e+01,-2.353265956378800183e+01,-1.141102439718747519e+01,9.446745872497558594e+00,-1.338607788085937500e+00,-2.677215635776519775e-01,4.380000000000000000e+02
-1.461809343071874991e+02,-1.093760499925547265e+02,-4.180035224270613980e+01,6.994538103589002276e+01,-9.291530615025521911e+01,-8.557306474123652151e+01,-2.459313712449784362e+01,-1.439750200451544515e+01,9.446745872497558594e+00,-1.338607788085937500e+00,-2.677215635776519775e-01,4.390000000000000000e+02
-1.457010763053317532e+02,-1.099614989076576421e+02,-4.278659982700833098e+01,6.897447685875386014e+01,-9.618114430581363195e+01,-8.661382227479862195e+01,-2.623636989105625617e+01,-1.812067139447481168e+01,9.446745872497558594e+00,-1.338607788085937500e+00,-2.677215635776519775e-01,4.400000000000000000e+02
-1.451036201318515850e+02,-1.091558002850906632e+02,-4.345416294307005955e+01,6.644481276772876299e+01,-9.830399217973490522e+01,-8.850600454138748319e+01,-2.726092764526947576e+01,-2.087105419123759020e+01,9.446745872497558594e+00,-1.338607788085937500e+00,-2.677215635776519775e-01,4.410000000000000000e+02
-1.438764853704315101e+02,-1.072876377697680255e+02,-4.236132801199255482e+01,6.316719105896845576e+01,-9.757063572459537681e+01,-9.004973692089242832e+01,-2.703259686892306490e+01,-2.109833957131263560e+01,9.446745872497558594e+00,-1.338607788085937500e+00,-2.677215635776519775e-01,4.420000000000000000e+02
-1.419882277717065335e+02,-1.047922866505914499e+02,-3.934576669469879562e+01,6.084151775169812026e+01,-9.361687320821329195e+01,-9.027967734069761718e+01,-2.586789295058588323e+01,-1.844599304432222198e+01,9.523238182067871094e+00,-1.415099620819091797e+00,-3.059675097465515137e-01,4.430000000000000000e+02
-1.400172750474885106e+02,-1.019696037029493709e+02,-3.571943601618545472e+01,6.085540200265540989e+01,-8.787158909903064341e+01,-8.894777624400057903e+01,-2.462849442289325452e+01,-1.393570677015623005e+01,9.523238182067871094e+00,-1.415099620819091797e+00,-3.059675097465515137e-01,4.440000000000000000e+02
-1.387139868727840621e+02,-9.919703733973119597e+01,-3.314545961664725837e+01,6.326882420928632200e+01,-8.258630174390737011e+01,-8.643939607377888024e+01,-2.390970388055848161e+01,-9.165876029055880281e+00,9.523238182067871094e+00,-1.415099620819091797e+00,-3.059675097465515137e-01,4.450000000000000000e+02
-1.383032429558306831e+02,-9.713351762430534109e+01,-3.222536834994343735e+01,6.687699532976785122e+01,-7.921353705006686141e+01,-8.331841256924599293e+01,-2.353563854003277811e+01,-5.229391872460382729e+00,9.523238182067871094e+00,-1.415099620819091797e+00,-3.059675097465515137e-01,4.460000000000000000e+02
-1.382026315011789848e+02,-9.643124125220174392e+01,-3.211727908357761407e+01,7.025049778036054704e+01,-7.755985992792102479e+01,-7.999503076262180912e+01,-2.275789895561274534e+01,-2.232680480641874965e+00,9.523238182067871094e+00,-1.415099620819091797e+00,-3.059675097465515137e-01,4.470000000000000000e+02
-1.375310264069876212e+02,-9.710509908737094520e+01,-3.149982028071053719e+01,7.279126535727073133e+01,-7.640618949055397024e+01,-7.675654370852089414e+01,-2.093279831052632289e+01,3.104180733225803124e-01,9.523238182067871094e+00,-1.415099620819091797e+00,-3.059675097465515137e-01,4.480000000000000000e+02
-1.359955492270355535e+02,-9.823658548253888512e+01,-2.992580168160475296e+01,7.488548841282681678e+01,-7.490188706396884299e+01,-7.394488385467138869e+01,-1.809451289709295452e+01,2.695258065759162491e+00,9.523238182067871094e+00,-1.415099620819091797e+00,-3.059675097465515137e-01,4.490000000000000000e+02
-1.342778923740552273e+02,-9.847884703348563562e+01,-2.826011962473921812e+01,7.710842263211907266e+01,-7.337430388670782122e+01,-7.193067159479051043e+01,-1.500988432386202476e+01,4.572690414752514698e+00,9.523238182067871094e+00,-1.415099620819091797e+00,-3.059675097465515137e-01,4.500000000000000000e+02
-1.334357095366740396e+02,-9.702872690723870619e+01,-2.781083320660832214e+01,7.930612250633475924e+01,-7.285142253820140468e+01,-7.085595465677397442e+01,-1.274705843783431192e+01,5.161594411479882183e+00,9.523238182067871094e+00,-1.415099620819091797e+00,-3.059675097465515137e-01,4.510000000000000000e+02
-1.338058720812186948e+02,-9.420435381829270227e+01,-2.901771306833961717e+01,8.044135707984924011e+01,-7.388650205228168488e+01,-7.048700689387851526e+01,-1.210834613812448879e+01,3.864533791732355894e+00,9.523238182067871094e+00,-1.415099620819091797e+00,-3.059675097465515137e-01,4.520000000000000000e+02
-1.344804058320801232e+02,-9.111271854589244867e+01,-3.092430798646319090e+01,7.937023256317161213e+01,-7.586053348486302639e+01,-7.043622234245049185e+01,-1.325257217570788271e+01,7.570626520039240859e-01,9.523238182067871094e+00,-1.415099620819091797e+00,-3.059675097465515137e-01,4.530000000000000000e+02
-1.339626074099733160e+02,-8.876342918432828810e+01,-3.189685984018456111e+01,7.588601595158070268e+01,-7.736675008211068416e+01,-7.055704973283536674e+01,-1.563144391883588469e+01,-3.367851922665749953e+00,9.523238182067871094e+00,-1.415099620819091797e+00,-3.059675097465515137e-01,4.540000000000000000e+02
-1.314919410180555133e+02,-8.746760774303606922e+01,-3.092366544531910222e+01,7.114835830274341788e+01,-7.723392278103392528e+01,-7.103606629869227618e+01,-1.824261543681996045e+01,-7.347699408932385268e+00,9.523238182067871094e+00,-1.415099620819091797e+00,-3.059675097465515137e-01,4.550000000000000000e+02
-1.278083839108362554e+02,-8.697551641706718328e+01,-2.837426341856848921e+01,6.712760621954930684e+01,-7.525485658702336877e+01,-7.199183326209913503e+01,-2.010941881440794532e+01,-1.011260355310264458e+01,9.523238182067871094e+00,-1.415099620819091797e+00,-3.059675097465515137e-01,4.560000000000000000e+02
-1.245936427620754330e+02,-8.702217355375250918e+01,-2.565704773257107263e+01,6.544797636515886552e+01,-7.213346091646280911e+01,-7.298651254722062731e+01,-2.076297489080343439e+01,-1.103344156809225751e+01,9.523238182067871094e+00,-1.415099620819091797e+00,-3.059675097465515137e-01,4.570000000000000000e+02
-1.230627244240467917e+02,-8.758941861136781881e+01,-2.416080304380125199e+01,6.646966096248797840e+01,-6.892508151389210980e+01,-7.304176598505409856e+01,-2.042000165686931723e+01,-1.008007307205775760e+01,9.523238182067871094e+00,-1.415099620819091797e+00,-3.059675097465515137e-01,4.580000000000000000e+02
-1.229841722788432890e+02,-8.862330504335477599e+01,-2.436198593368999354e+01,6.922654165528092562e+01,-6.652657663929267073e+01,-7.129697727068878521e+01,-1.970198850878750818e+01,-7.814410112397581543e+00,9.523238182067871094e+00,-1.415099620819091797e+00,-3.059675097465515137e-01,4.590000000000000000e+02
-1.229991378303011516e+02,-8.965040986260873979e+01,-2.571757256438559125e+01,7.216408266897087742e+01,-6.548570324964657630e+01,-6.778021209212420217e+01,-1.909561486593474910e+01,-5.247985382802653476e+00,9.523238182067871094e+00,-1.415099620819091797e+00,-3.059675097465515137e-01,4.600000000000000000e+02
-1.218826826560741665e+02,-8.988646228100287772e+01,-2.725195244856854515e+01,7.405966749624212753e+01,-6.599536331770923425e+01,-6.358040502877065592e+01,-1.861953960223308968e+01,-3.551405538613835233e+00,9.523238182067871094e+00,-1.415099620819091797e+00,-3.059675097465515137e-01,4.610000000000000000e+02
-1.195498060055620044e+02,-8.887138043131903942e+01,-2.824685257538749283e+01,7.448603722267944249e+01,-6.784708536211564933e+01,-6.022648474869856727e+01,-1.797544987197397859e+01,-3.626246401103571770e+00,9.523238182067871094e+00,-1.415099620819091797e+00,-3.059675097465515137e-01,4.620000000000000000e+02
-1.169404660218901881e+02,-8.702207581420634597e+01,-2.851662405522461086e+01,7.366655855143199005e+01,-7.034165131328245479e+01,-5.876446826391747891e+01,-1.698437484590294844e+01,-5.661019049568949413e+00,9.523238182067871094e+00,-1.415099620819091797e+00,-3.059675097465515137e-01,4.630000000000000000e+02
-1.150356509937259943e+02,-8.549154319905414923e+01,-2.821818374618715097e+01,7.206221276200358261e+01,-7.234740744060491124e+01,-5.923691097487744628e+01,-1.580807567272449887e+01,-8.900309767486078272e+00,9.523238182067871094e+00,-1.415099620819091797e+00,-3.059675097465515137e-01,4.640000000000000000e+02
-1.140307609698315900e+02,-8.536478114840201670e+01,-2.753400170572012939e+01,7.013561567230453875e+01,-7.264961837846158232e+01,-6.084397588362071474e+01,-1.469984403473199563e+01,-1.184717085972351924e+01,9.523238182067871094e+00,-1.415099620819091797e+00,-3.059675097465515137e-01,4.650000000000000000e+02
-1.133995695277089908e+02,-8.688052087467394813e+01,-2.656165606219587971e+01,6.838665359442893532e+01,-7.049243422965764694e+01,-6.251616643811667018e+01,-1.359559716619787650e+01,-1.292848021791314750e+01,9.523238182067871094e+00,-1.415099620819091797e+00,-3.059675097465515137e-01,4.660000000000000000e+02
-1.126046856517689321e+02,-8.933318881080731444e+01,-2.543087873578087965e+01,6.739086934101806037e+01,-6.601396008010442529e+01,-6.342251849401236541e+01,-1.206652423230411841e+01,-1.132260667220089090e+01,9.523238182067871094e+00,-1.415099620819091797e+00,-3.059675097465515137e-01,4.670000000000000000e+02
-1.116196265458333983e+02,-9.164927322412995636e+01,-2.439579129501817079e+01,6.760679389737288147e+01,-6.028711134510740521e+01,-6.313825594899481075e+01,-9.750032386862585554e+00,-7.454070703213346860e+00,9.523238182067871094e+00,-1.415099620819091797e+00,-3.059675097465515137e-01,4.680000000000000000e+02
-1.107489169838277121e+02,-9.303927206062417099e+01,-2.369811472975266042e+01,6.906726169749208566e+01,-5.488270094527842957e+01,-6.154983607250460409e+01,-6.786565628383414150e+00,-2.802218726820456141e+00,9.523238182067871094e+00,-1.415099620819091797e+00,-3.059675097465515137e-01,4.690000000000000000e+02
-1.100727737221495772e+02,-9.317904770545328574e+01,-2.331848106392089903e+01,7.131910756001798291e+01,-5.116823626532914204e+01,-5.872068998494341940e+01,-3.731532999184764776e+00,8.824085693122469820e-01,9.523238182067871094e+00,-1.415099620819091797e+00,-3.059675097465515137e-01,4.700000000000000000e+02
-1.092412042251398816e+02,-9.194397085427567617e+01,-2.292883509417106325e+01,7.378333706914872892e+01,-4.976150926957302545e+01,-5.484466175293300694e+01,-1.003181864080488594e+00,2.441168177669396755e+00,9.523238182067871094e+00,-1.415099620819091797e+00,-3.059675097465515137e-01,4.710000000000000000e+02
-1.078774809877943426e+02,-8.917447657972593333e+01,-2.219514527572391671e+01,7.623405997388726973e+01,-5.045865459099650252e+01,-5.026969691234444326e+01,1.510992233662818762e+00,1.697752583089140899e+00,9.523238182067871094e+00,-1.415099620819091797e+00,-3.059675097465515137e-01,4.720000000000000000e+02
-1.061148159623026004e+02,-8.484413897868535059e+01,-2.118556572660713755e+01,7.889757681744958973e+01,-5.259144457982165477e+01,-4.549671692985521076e+01,4.203967552837639232e+00,-7.899382907608014648e-01,9.523238182067871094e+00,-1.415099620819091797e+00,-3.059675097465515137e-01,4.730000000000000000e+02
-1.045984452751313256e+02,-7.948454757972967855e+01,-2.042382435331205670e+01,8.200614953929880357e+01,-5.544042149143615461e+01,-4.109168696088954675e+01,7.101277396371642681e+00,-4.288352323328354032e+00,9.408499717712402344e+00,-1.376853704452514648e+00,-3.824593424797058105e-01,4.740000000000000000e+02
-1.038576053526451233e+02,-7.434551080726214423e+01,-2.041591851277416936e+01,8.523170838017995266e+01,-5.834112142470485196e+01,-3.752774892867728340e+01,9.575337186138995094e+00,-8.247878473195669358e+00,9.408499717712402344e+00,-1.376853704452514648e+00,-3.824593424797058105e-01,4.750000000000000000e+02
-1.036799014823604921e+02,-7.094876811547646867e+01,-2.103499685679116737e+01,8.762148020998301945e+01,-6.051578232404972368e+01,-3.504096334297037174e+01,1.083976126233346804e+01,-1.224275579456570995e+01,9.408499717712402344e+00,-1.376853704452514648e+00,-3.824593424797058105e-01,4.760000000000000000e+02
-1.031773760528576531e+02,-7.026255183913121982e+01,-2.138953431709023789e+01,8.821052036011042219e+01,-6.102040482249958586e+01,-3.358775791683092393e+01,1.076844636299142621e+01,-1.572889002861484187e+01,9.408499717712402344e+00,-1.376853704452514648e+00,-3.824593424797058105e-01,4.770000000000000000e+02
-1.015485919623424707e+02,-7.211049828504019388e+01,-2.042631242149809623e+01,8.680079855490748741e+01,-5.911818596551825067e+01,-3.292205303287983043e+01,1.015516459335549371e+01,-1.803759665539041634e+01,9.408499717712402344e+00,-1.376853704452514648e+00,-3.824593424797058105e-01,4.780000000000000000e+02
-9.883404078051967190e+01,-7.527671992017417324e+01,-1.781078736445761024e+01,8.416951369090384105e+01,-5.490530076764457590e+01,-3.274517865222605906e+01,1.005571012647305906e+01,-1.874795722068779469e+01,9.408499717712402344e+00,-1.376853704452514648e+00,-3.824593424797058105e-01,4.790000000000000000e+02
-9.595847919735683718e+01,-7.823282236677619039e+01,-1.431198661542407535e+01,8.146090832593927189e+01,-4.960520669687412010e+01,-3.284725400559864283e+01,1.082182168902158992e+01,-1.813719397479235340e+01,9.408499717712402344e+00,-1.376853704452514648e+00,-3.824593424797058105e-01,4.800000000000000000e+02
-9.402693368243103578e+01,-7.994145195630676426e+01,-1.131816036337454534e+01,7.928114237316231083e+01,-4.509930199290988639e+01,-3.316960926007004673e+01,1.180937422116039670e+01,-1.722577103156527301e+01,9.408499717712402344e+00,-1.376853704452514648e+00,-3.824593424797058105e-01,4.810000000000000000e+02
-9.351307962180635514e+01,-8.020446683700333779e+01,-9.880989898771076696e+00,7.734716780380335877e+01,-4.290302781101354412e+01,-3.377532093590434670e+01,1.206558937038312251e+01,-1.723666279610893071e+01,9.408499717712402344e+00,-1.376853704452514648e+00,-3.824593424797058105e-01,4.820000000000000000e+02
-9.399857643792233830e+01,-7.941682331250990501e+01,-1.009236957153188996e+01,7.506824505867348307e+01,-4.332751467204184337e+01,-3.472443998245535113e+01,1.129720397575192692e+01,-1.880031833958787502e+01,9.408499717712402344e+00,-1.376853704452514648e+00,-3.824593424797058105e-01,4.830000000000000000e+02
-9.455805316968098850e+01,-7.803433024852438393e+01,-1.124276259381440468e+01,7.253356776189275479e+01,-4.545498278588115681e+01,-3.590829949838325774e+01,1.015305359156059239e+01,-2.152121234380092574e+01,9.408499717712402344e+00,-1.376853704452514648e+00,-3.824593424797058105e-01,4.840000000000000000e+02
-9.436567832731861927e+01,-7.622879637921391804e+01,-1.249152203172457121e+01,7.090216930925362249e+01,-4.788798835977354429e+01,-3.696632985209407707e+01,9.589140032523800983e+00,-2.427994095907615701e+01,9.408499717712402344e+00,-1.376853704452514648e+00,-3.824593424797058105e-01,4.850000000000000000e+02
-9.307075817869190359e+01,-7.396978730874229768e+01,-1.339770689782426416e+01,7.164742124832400805e+01,-4.963306466197059308e+01,-3.741829143747327180e+01,9.994633694427193404e+00,-2.605883268304387457e+01,9.408499717712402344e+00,-1.376853704452514648e+00,-3.824593424797058105e-01,4.860000000000000000e+02
-9.083520637806918785e+01,-7.138207749060802598e+01,-1.391526252619610204e+01,7.515175818230409277e+01,-5.047116139111994926e+01,-3.700857847445149673e+01,1.093966361039770163e+01,-2.666373338815310490e+01,9.408499717712402344e+00,-1.376853704452514648e+00,-3.824593424797058105e-01,4.870000000000000000e+02
-8.817827393693187332e+01,-6.898605741421260973e+01,-1.404032672575681318e+01,7.988194198341011543e+01,-5.067161367568655805e+01,-3.600740403426743796e+01,1.170968343798017486e+01,-2.678908183023850142e+01,9.408499717712402344e+00,-1.376853704452514648e+00,-3.824593424797058105e-01,4.880000000000000000e+02
-8.575318012968887160e+01,-6.752172579755824700e+01,-1.361058166439011075e+01,8.303915946847996565e+01,-5.047620435103317504e+01,-3.515544406144431377e+01,1.197736981565367387e+01,-2.740442367711511906e+01,9.408499717712402344e+00,-1.376853704452514648e+00,-3.824593424797058105e-01,4.890000000000000000e+02
-8.405971705371302960e+01,-6.741155270600370386e+01,-1.248007922030501504e+01,8.238829691010801071e+01,-4.985770565675693433e+01,-3.518442390510153928e+01,1.191438990199389991e+01,-2.897848274768170995e+01,9.408499717712402344e+00,-1.376853704452514648e+00,-3.824593424797058105e-01,4.900000000000000000e+02
-8.316733317140506188e+01,-6.827026555779571027e+01,-1.083423175260668359e+01,7.790710648467984356e+01,-4.870372363081514777e+01,-3.625627707143166845e+01,1.173676524895608964e+01,-3.115354407410814019e+01,9.408499717712402344e+00,-1.376853704452514648e+00,-3.824593424797058105e-01,4.910000000000000000e+02
-8.266612924676223884e+01,-6.892702955916570318e+01,-9.236804435160365756e+00,7.191815202353768655e+01,-4.714803863641100179e+01,-3.781709943813984864e+01,1.131888918842219027e+01,-3.306783403891427042e+01,9.408499717712402344e+00,-1.376853704452514648e+00,-3.824593424797058105e-01,4.920000000000000000e+02
-8.199403597730020010e+01,-6.807066375813315062e+01,-8.300818836446524074e+00,6.756001537191355055e+01,-4.566247243782368059e+01,-3.900577005758486848e+01,1.038757123444202080e+01,-3.398139588049457416e+01,9.408499717712402344e+00,-1.376853704452514648e+00,-3.824593424797058105e-01,4.930000000000000000e+02
-8.093699856265584458e+01,-6.512517253129476558e+01,-8.278850944569057901e+00,6.679461680081021768e+01,-4.478509961941676920e+01,-3.923108331357002498e+01,9.114107656443820815e+00,-3.365218530933179863e+01,9.408499717712402344e+00,-1.376853704452514648e+00,-3.824593424797058105e-01,4.940000000000000000e+02
-7.982530604469752689e+01,-6.071420928585462207e+01,-8.941346939030950125e+00,6.944620927344476513e+01,-4.471322515034285061e+01,-3.838862960379697142e+01,8.414117851125411107e+00,-3.221317237802441014e+01,9.408499717712402344e+00,-1.376853704452514648e+00,-2.677215635776519775e-01,4.950000000000000000e+02
-7.917003411387884171e+01,-5.631374894571604273e+01,-9.813211726392523815e+00,7.382519309365102345e+01,-4.512828280369535605e+01,-3.661490602796902749e+01,9.496436355423611531e+00,-2.982337607715226113e+01,9.408499717712402344e+00,-1.376853704452514648e+00,-2.677215635776519775e-01,4.960000000000000000e+02
-7.908434426143526252e+01,-5.330656383914015350e+01,-1.050168961656333977e+01,7.817749637064162016e+01,-4.540993695631289029e+01,-3.397595174461866918e+01,1.295663381845838558e+01,-2.654898552332792860e+01,9.408499717712402344e+00,-1.376853704452514648e+00,-2.677215635776519775e-01,4.970000000000000000e+02
-7.912637964225336873e+01,-5.214015980788576599e+01,-1.082357289518540711e+01,8.167446916009316737e+01,-4.505175656972255638e+01,-3.050542950540625498e+01,1.818192449780406150e+01,-2.262466101818665720e+01,9.408499717712402344e+00,-1.376853704452514648e+00,-2.677215635776519775e-01,4.980000000000000000e+02
-7.879563969515868394e+01,-5.219171165429895609e+01,-1.070803151688767230e+01,8.430802918782205779e+01,-4.394182499154828747e+01,-2.652901074220699229e+01,2.358294964659864945e+01,-1.876925445863639652e+01,9.408499717712402344e+00,-1.376853704452514648e+00,-2.677215635776519775e-01,4.990000000000000000e+02
-7.816003374347405952e+01,-5.237107089367577828e+01,-1.009456925605434208e+01,8.612924775193118876e+01,-4.232908388589896731e+01,-2.279270377443481266e+01,2.746034971247195244e+01,-1.608352330374339090e+01,9.408499717712402344e+00,-1.376853704452514648e+00,-2.677215635776519775e-01,5.000000000000000000e+02
-7.784332031258509232e+01,-5.192233996793117967e+01,-8.989097153655734473e+00,8.676515292187764317e+01,-4.056648307194438985e+01,-2.009969568700034870e+01,2.885255567968943069e+01,-1.545152994160230264e+01,9.408499717712402344e+00,-1.376853704452514648e+00,-2.677215635776519775e-01,5.010000000000000000e+02
-7.825070816806771745e+01,-5.080408710614574375e+01,-7.615892658714528807e+00,8.569861347770574866e+01,-3.889012529823071418e+01,-1.873830853418041897e+01,2.785371161501382176e+01,-1.690504591064177475e+01,9.408499717712402344e+00,-1.376853704452514648e+00,-2.677215635776519775e-01,5.020000000000000000e+02
-7.882295755433210616e+01,-4.947139881900295677e+01,-6.431154286194328051e+00,8.296378348382177137e+01,-3.738825901443067323e+01,-1.829298899824232194e+01,2.538566388222227488e+01,-1.953807018214871505e+01,9.408499717712402344e+00,-1.376853704452514648e+00,-2.677215635776519775e-01,5.030000000000000000e+02
-7.826156819282311972e+01,-4.840488902344691269e+01,-5.887107862056950580e+00,7.949020848804798334e+01,-3.610043697925414108e+01,-1.808493778896934145e+01,2.272898048094566548e+01,-2.210953296311072336e+01,9.408499717712402344e+00,-1.376853704452514648e+00,-2.677215635776519775e-01,5.040000000000000000e+02
-7.573143782488551778e+01,-4.782861828366469581e+01,-6.106952998600320370e+00,7.669491626439548781e+01,-3.509695493600611371e+01,-1.782804166798655388e+01,2.106568984523374866e+01,-2.384437213152557433e+01,9.408499717712402344e+00,-1.376853704452514648e+00,-2.677215635776519775e-01,5.050000000000000000e+02
-7.191037101685532207e+01,-4.774261019603147815e+01,-6.760536926739575847e+00,7.561745457627989708e+01,-3.446131917434723846e+01,-1.785728103710835057e+01,2.110276073990559098e+01,-2.476443469766013550e+01,9.408499717712402344e+00,-1.376853704452514648e+00,-2.677215635776519775e-01,5.060000000000000000e+02
-6.872084915543825900e+01,-4.806556514215287734e+01,-7.271041207716962163e+00,7.625358449664395266e+01,-3.422476729792413153e+01,-1.872477563732161343e+01,2.281612615017149892e+01,-2.534042235660325559e+01,9.408499717712402344e+00,-1.376853704452514648e+00,-2.677215635776519775e-01,5.070000000000000000e+02
-6.778879343622043052e+01,-4.867253569754103637e+01,-7.185886417977826568e+00,7.757134048293005435e+01,-3.431121268855602580e+01,-2.057028106339851092e+01,2.546519515071676665e+01,-2.587244377197012568e+01,9.408499717712402344e+00,-1.376853704452514648e+00,-2.677215635776519775e-01,5.080000000000000000e+02
-6.900780432265413822e+01,-4.934553918307386766e+01,-6.434008052985632276e+00,7.817231804189461286e+01,-3.453342619518245726e+01,-2.287453102227675572e+01,2.796559308423366019e+01,-2.621433577969172291e+01,9.408499717712402344e+00,-1.376853704452514648e+00,-2.677215635776519775e-01,5.090000000000000000e+02
-7.062755651485565522e+01,-4.981159404577478256e+01,-5.334833883416095546e+00,7.713449894800660900e+01,-3.466650633354660727e+01,-2.480243947908010682e+01,2.945698382548620486e+01,-2.605513406474879901e+01,9.408499717712402344e+00,-1.376853704452514648e+00,-2.677215635776519775e-01,5.100000000000000000e+02
-7.085799486892949517e+01,-4.991237302362496564e+01,-4.415958237331452096e+00,7.451874673410337380e+01,-3.458722449463429882e+01,-2.579719470913252621e+01,2.967807192645631886e+01,-2.538390191612021596e+01,9.408499717712402344e+00,-1.376853704452514648e+00,-2.677215635776519775e-01,5.110000000000000000e+02
-6.947813116151999679e+01,-4.972863372008907845e+01,-4.170922759651787715e+00,7.127475292826882480e+01,-3.439227381397330419e+01,-2.590967553976133786e+01,2.888592909707207923e+01,-2.460856535793989508e+01,9.408499717712402344e+00,-1.376853704452514648e+00,-2.677215635776519775e-01,5.120000000000000000e+02
-6.790161342164054759e+01,-4.947984530386861479e+01,-4.838148299207659875e+00,6.865611090869407462e+01,-3.433834241672781218e+01,-2.561859430697279549e+01,2.748018901250429735e+01,-2.418041901927122694e+01,9.408499717712402344e+00,-1.376853704452514648e+00,-2.677215635776519775e-01,5.130000000000000000e+02
-6.764992462865450307e+01,-4.925014079622923191e+01,-6.222857668214089699e+00,6.752968794303325240e+01,-3.453166648397905192e+01,-2.532405568194030820e+01,2.577690954992885963e+01,-2.409517752910079480e+01,9.408499717712402344e+00,-1.376853704452514648e+00,-2.677215635776519775e-01,5.140000000000000000e+02
-6.875326655661649511e+01,-4.881549836007775411e+01,-7.648828324033615900e+00,6.800764832845561614e+01,-3.457174573771374071e+01,-2.492993853913822022e+01,2.413903132796485806e+01,-2.377619707618652001e+01,9.408499717712402344e+00,-1.376853704452514648e+00,-2.677215635776519775e-01,5.150000000000000000e+02
-6.965716559472343761e+01,-4.778437300315391667e+01,-8.190658399146968804e+00,6.957643769168066683e+01,-3.358013290679650709e+01,-2.385898272651991192e+01,2.318041417787793534e+01,-2.249376314031496804e+01,9.408499717712402344e+00,-1.376853704452514648e+00,-2.677215635776519775e-01,5.160000000000000000e+02
-6.870303784748489306e+01,-4.595004179103784736e+01,-7.181405706689702129e+00,7.155330127182708111e+01,-3.082547800760551127e+01,-2.152701157375918228e+01,2.360247050198654506e+01,-1.998018537358439062e+01,9.408499717712402344e+00,-1.376853704452514648e+00,-2.677215635776519775e-01,5.170000000000000000e+02
-6.571523407926508753e+01,-4.352543164260748654e+01,-4.708987560443461007e+00,7.350712291091986117e+01,-2.654224395793551139e+01,-1.794083911462530523e+01,2.562644251029075804e+01,-1.672620613586002492e+01,9.408499717712402344e+00,-1.376853704452514648e+00,-2.677215635776519775e-01,5.180000000000000000e+02
-6.217946598367757360e+01,-4.104408801195609158e+01,-1.684759243177154531e+00,7.535659373980956843e+01,-2.214494982879909912e+01,-1.391239607162333414e+01,2.855607624398021471e+01,-1.370259064737024346e+01,9.408499717712402344e+00,-1.376853704452514648e+00,-2.677215635776519775e-01,5.190000000000000000e+02
-5.992689534873659341e+01,-3.904800043681825628e+01,6.618946725773184880e-01,7.716250953001690505e+01,-1.941788368189065750e+01,-1.061322703222344899e+01,3.105544291461694684e+01,-1.171097136611479073e+01,9.446745872497558594e+00,-1.376853704452514648e+00,-2.294756323099136353e-01,5.200000000000000000e+02
-5.965164031184292526e+01,-3.784578748466992693e+01,1.522025928997209121e+00,7.887532660321994626e+01,-1.919087867898315380e+01,-8.725141648183353027e+00,3.208032199866693190e+01,-1.085157336860197574e+01,9.446745872497558594e+00,-1.376853704452514648e+00,-2.294756323099136353e-01,5.210000000000000000e+02
-6.059890156406754613e+01,-3.749915572194117885e+01,9.035761988180865956e-01,8.026982007839183098e+01,-2.064953464948098372e+01,-7.886492468890764940e+00,3.168733920547947491e+01,-1.051020616279993192e+01,9.446745872497558594e+00,-1.376853704452514648e+00,-2.294756323099136353e-01,5.220000000000000000e+02
-6.150722664150839591e+01,-3.793765422432807100e+01,-5.825978344141731213e-01,8.108940842961942508e+01,-2.199137007557942525e+01,-6.980580550005242912e+00,3.095317075793923323e+01,-9.889072710639993602e+00,9.446745872497558594e+00,-1.376853704452514648e+00,-2.294756323099136353e-01,5.230000000000000000e+02
-6.171584582873083491e+01,-3.900106924573128708e+01,-2.270666098345827777e+00,8.121931630461040186e+01,-2.191299522337294547e+01,-5.110470612822155090e+00,3.102671261374575806e+01,-8.685518652760038094e+00,9.446745872497558594e+00,-1.376853704452514648e+00,-2.294756323099136353e-01,5.240000000000000000e+02
-6.139947336405430178e+01,-4.036840691585734930e+01,-3.777493331162531831e+00,8.073306684955173296e+01,-2.057947481131623135e+01,-2.438657470989710419e+00,3.217293875509358259e+01,-7.378162004420801168e+00,9.446745872497558594e+00,-1.376853704452514648e+00,-2.294756323099136353e-01,5.250000000000000000e+02
-6.095116054314712528e+01,-4.152900745782699232e+01,-4.891665911577320003e+00,7.983187181379662434e+01,-1.920183990952841668e+01,-1.169168764445203124e-01,3.367816907696010276e+01,-6.837880953923558991e+00,9.446745872497558594e+00,-1.376853704452514648e+00,-2.294756323099136353e-01,5.260000000000000000e+02
-6.037786185530239891e+01,-4.192919467857200289e+01,-5.307739154732189490e+00,7.879877278919025230e+01,-1.868747534572048608e+01,6.812592806904831377e-01,3.464439120268616534e+01,-7.511815117209152959e+00,9.446745872497558594e+00,-1.376853704452514648e+00,-2.294756323099136353e-01,5.270000000000000000e+02
-5.936861996589072987e+01,-4.123166933187258110e+01,-4.647243591245342031e+00,7.801966833302685700e+01,-1.872434440796132549e+01,-1.991664582851626619e-01,3.486075025327636467e+01,-8.871077128218530561e+00,9.446745872497558594e+00,-1.376853704452514648e+00,-2.294756323099136353e-01,5.280000000000000000e+02
-5.782130886245613510e+01,-3.949487988466717070e+01,-2.843257896586010247e+00,7.795583690622470385e+01,-1.820433311499664342e+01,-1.695577310646058322e+00,3.491872220983168518e+01,-9.691243934812519001e+00,9.446745872497558594e+00,-1.376853704452514648e+00,-2.294756323099136353e-01,5.290000000000000000e+02
-5.610032221119126916e+01,-3.714084805464995043e+01,-4.626910285171561554e-01,7.894223615277678618e+01,-1.652255478283086632e+01,-2.337960982978984248e+00,3.551444011343255625e+01,-9.048503873313165968e+00,9.446745872497558594e+00,-1.376853704452514648e+00,-2.294756323099136353e-01,5.300000000000000000e+02
-5.470593822601131251e+01,-3.477148725020379061e+01,1.491960885993421471e+00,8.089268784478326779e+01,-1.439562559128307839e+01,-1.380134069532687136e+00,3.668898075131664882e+01,-7.230733596275285890e+00,9.446745872497558594e+00,-1.376853704452514648e+00,-2.294756323099136353e-01,5.310000000000000000e+02
-5.377217470585173942e+01,-3.297710634155191656e+01,2.242975665535595908e+00,8.318424231465451157e+01,-1.332644376171492695e+01,6.572175478122517234e-01,3.776539366534871078e+01,-5.709808792953481316e+00,9.446745872497558594e+00,-1.376853704452514648e+00,-2.294756323099136353e-01,5.320000000000000000e+02
-5.299719263204497111e+01,-3.218669771197301088e+01,1.792127962406993902e+00,8.491608807967622852e+01,-1.421021691560372346e+01,2.395793164560927835e+00,3.800429517636666787e+01,-6.074522577990137506e+00,9.446745872497558594e+00,-1.376853704452514648e+00,-2.294756323099136353e-01,5.330000000000000000e+02
-5.208558862506197329e+01,-3.251926541237116908e+01,8.510951932516945817e-01,8.542109166457521496e+01,-1.643599654576473768e+01,2.564297073357920453e+00,3.729666551330410584e+01,-8.752358790101425257e+00,9.446745872497558594e+00,-1.376853704452514648e+00,-2.294756323099136353e-01,5.340000000000000000e+02
-5.117079810726090727e+01,-3.364248775452415430e+01,1.951963074525338016e-01,8.464499195627786321e+01,-1.835586067636995722e+01,7.823203197749535320e-01,3.621349873450435553e+01,-1.260620035986949006e+01,9.446745872497558594e+00,-1.376853704452514648e+00,-2.294756323099136353e-01,5.350000000000000000e+02
-5.071353616723808955e+01,-3.477527887615315194e+01,3.672050861132447608e-02,8.310103726363058740e+01,-1.868881636121568590e+01,-2.326450261830359523e+00,3.540805024520659572e+01,-1.577481538837491826e+01,9.446745872497558594e+00,-1.376853704452514648e+00,-2.294756323099136353e-01,5.360000000000000000e+02
-5.098257410634232656e+01,-3.499272039085190045e+01,-1.462652576992695685e-02,8.149202808517293306e+01,-1.755218145736625956e+01,-5.636430824886701885e+00,3.501378413588508920e+01,-1.703529815689398674e+01,9.446745872497558594e+00,-1.376853704452514648e+00,-2.294756323099136353e-01,5.370000000000000000e+02
-5.171371862595287894e+01,-3.376431144587695599e+01,-4.187224749966844684e-01,8.035673181824404310e+01,-1.621510198523765212e+01,-8.207544120366947027e+00,3.464395937810695614e+01,-1.653480019155176706e+01,9.446745872497558594e+00,-1.376853704452514648e+00,-2.294756323099136353e-01,5.380000000000000000e+02
-5.231866453920292770e+01,-3.133896385272419138e+01,-1.127250632121558738e+00,8.001511991576307992e+01,-1.586409348996949120e+01,-9.684604735011816956e+00,3.398237388582856511e+01,-1.532482363184544738e+01,9.446745872497558594e+00,-1.376853704452514648e+00,-2.294756323099136353e-01,5.390000000000000000e+02
-5.237460908487855704e+01,-2.860052130334133835e+01,-1.504127639692796947e+00,8.069695863833112526e+01,-1.653463022402092975e+01,-1.020453754431855486e+01,3.334622630083231343e+01,-1.422257679624863158e+01,9.446745872497558594e+00,-1.376853704452514648e+00,-2.294756323099136353e-01,5.400000000000000000e+02
-5.185264483649507383e+01,-2.642023727768082608e+01,-8.198086960542241286e-01,8.252027377944432374e+01,-1.715108413689449662e+01,-9.986981262969493400e+00,3.360115867272179457e+01,-1.309818196625519704e+01,9.446745872497558594e+00,-1.376853704452514648e+00,-2.294756323099136353e-01,5.410000000000000000e+02
-5.089357618105668735e+01,-2.499050785588951840e+01,1.124110839165496145e+00,8.525892253964957490e+01,-1.654998520954586638e+01,-8.979943303832442325e+00,3.543516413171209933e+01,-1.117160947677575678e+01,9.446745872497558594e+00,-1.376853704452514648e+00,-2.294756323099136353e-01,5.420000000000000000e+02
-4.949160223554372351e+01,-2.370704730470424693e+01,3.779563035682258487e+00,8.823290525550874008e+01,-1.447246193113824120e+01,-6.853191964813959203e+00,3.865646879682662984e+01,-7.904109149275427626e+00,9.446745872497558594e+00,-1.376853704452514648e+00,-2.294756323099136353e-01,5.430000000000000000e+02
-4.753172349468422908e+01,-2.173047796248965824e+01,6.209519740268660826e+00,9.064590881795083988e+01,-1.164689028897464596e+01,-3.344045841243314499e+00,4.220006706345247949e+01,-3.565596418678524060e+00,9.446745872497558594e+00,-1.376853704452514648e+00,-2.294756323099136353e-01,5.440000000000000000e+02
-4.514733669588804332e+01,-1.875870446965745941e+01,7.730080266064305761e+00,9.221492198894338799e+01,-8.987463595054578036e+00,1.358686047593437252e+00,4.491462371516990970e+01,1.038293300780424033e+00,9.446745872497558594e+00,-1.376853704452514648e+00,-2.294756323099136353e-01,5.450000000000000000e+02
-4.290581005996409658e+01,-1.534358766069635749e+01,8.348010135655385966e+00,9.347561281632533792e+01,-6.750018360466128797e+00,6.541064629430366040e+00,4.645897145325398014e+01,5.298010054772930744e+00,9.446745872497558594e+00,-1.376853704452514648e+00,-2.294756323099136353e-01,5.460000000000000000e+02
-4.147373621539827582e+01,-1.249695652986338246e+01,8.662167306864830607e+00,9.529576375707347324e+01,-4.466682868381212757e+00,1.126463000190415187e+01,4.747634919790925778e+01,9.153522879430056491e+00,9.446745872497558594e+00,-1.376853704452514648e+00,-2.294756323099136353e-01,5.470000000000000000e+02
-4.101828913267036114e+01,-1.095233843303685717e+01,9.312537892193176958e+00,9.790003151797463943e+01,-1.671418843798164744e+00,1.479725629941003717e+01,4.885053462716405193e+01,1.268344297254225239e+01,9.446745872497558594e+00,-1.376853704452514648e+00,-2.294756323099136353e-01,5.480000000000000000e+02
-4.099287438998271682e+01,-1.071801052707996860e+01,1.040566565090557560e+01,1.003285814391992972e+02,1.334278950030238775e+00,1.684382450240900653e+01,5.068467892027547350e+01,1.541694625450509193e+01,9.446745872497558594e+00,-1.376853704452514648e+00,-2.294756323099136353e-01,5.490000000000000000e+02
-4.060987228309022612e+01,-1.124875635747412161e+01,1.139555806159660278e+01,1.009966258253316482e+02,3.475529666531656403e+00,1.745934661366754881e+01,5.196326581898392760e+01,1.624362051657226402e+01,9.446745872497558594e+00,-1.376853704452514648e+00,-2.294756323099136353e-01,5.500000000000000000e+02
-3.957876161286094430e+01,-1.197768959926997923e+01,1.155548117499984073e+01,9.901806369473706582e+01,3.719985008722687780e+00,1.683196744817723811e+01,5.130185024654747394e+01,1.424676355258088734e+01,9.446745872497558594e+00,-1.376853704452514648e+00,-2.294756323099136353e-01,5.510000000000000000e+02
-3.836327631545555050e+01,-1.267144083089169726e+01,1.067608774692780571e+01,9.513452774276356649e+01,1.983380659210524755e+00,1.519977608961016813e+01,4.820630859033553861e+01,9.797169742938422132e+00,9.446745872497558594e+00,-1.376853704452514648e+00,-2.294756323099136353e-01,5.520000000000000000e+02
-3.767704061754920986e+01,-1.334267737015034072e+01,9.392836383814028522e+00,9.135142398545758624e+01,-6.882540065134890028e-01,1.295765686985760112e+01,4.375552018758025952e+01,4.819556797795485181e+00,9.446745872497558594e+00,-1.376853704452514648e+00,-2.294756323099136353e-01,5.530000000000000000e+02
-3.773205797437913134e+01,-1.392901826468914805e+01,8.792365200079984788e+00,8.950834825187121169e+01,-2.827958613026567036e+00,1.074701824751355161e+01,4.003896876735325350e+01,1.765448990980075905e+00,9.446745872497558594e+00,-1.376853704452514648e+00,-2.294756323099136353e-01,5.540000000000000000e+02
-3.800185333534409438e+01,-1.415043679897644324e+01,9.567261528547533089e+00,8.996582262118226936e+01,-3.530582362936911522e+00,9.306461056221451145e+00,3.873608847846026038e+01,2.001453179255804571e+00,9.446745872497558594e+00,-1.376853704452514648e+00,-2.294756323099136353e-01,5.550000000000000000e+02
-3.773918190785207116e+01,-1.372444561368502036e+01,1.142424915773153771e+01,9.147583743148788926e+01,-2.900424067905987613e+00,9.091332734195020748e+00,3.996404717516816163e+01,4.916612753920162504e+00,9.446745872497558594e+00,-1.376853704452514648e+00,-2.294756323099136353e-01,5.560000000000000000e+02
-3.670986788996742689e+01,-1.270491521968142479e+01,1.327783007169091434e+01,9.225291710572219017e+01,-1.697166222575106076e+00,9.948628580019430956e+00,4.229260765762592200e+01,8.494733805565374496e+00,9.446745872497558594e+00,-1.376853704452514648e+00,-2.294756323099136353e-01,5.570000000000000000e+02
-3.538833835746572731e+01,-1.156894157517490385e+01,1.408925537445611553e+01,9.128013723507956456e+01,-6.059442902342198067e-01,1.115487060904342798e+01,4.385169499699441076e+01,1.083209705473745998e+01,9.446745872497558594e+00,-1.376853704452514648e+00,-2.294756323099136353e-01,5.580000000000000000e+02
-3.444196477758396213e+01,-1.093849927305109304e+01,1.363999220636742393e+01,8.882510793202527566e+01,1.906568421009069425e-01,1.183256679879013973e+01,4.359732385085953865e+01,1.130779903937946074e+01,9.446745872497558594e+00,-1.376853704452514648e+00,-2.294756323099136353e-01,5.590000000000000000e+02
-3.405082230297557544e+01,-1.118002040536521235e+01,1.260518228227738291e+01,8.595314995546868886e+01,8.755150451788722421e-01,1.145636493435085868e+01,4.179298316916720069e+01,1.055848537560359546e+01,9.446745872497558594e+00,-1.376853704452514648e+00,-2.294756323099136353e-01,5.600000000000000000e+02
-3.375154208588355687e+01,-1.222764599735728552e+01,1.193474710767441138e+01,8.364971223494285368e+01,1.601250177776819328e+00,1.008181312823944609e+01,3.951186265102296602e+01,9.547231609148184361e+00,9.446745872497558594e+00,-1.376853704452514648e+00,-2.294756323099136353e-01,5.610000000000000000e+02
-3.293610890182480944e+01,-1.373013619268931507e+01,1.214402028692893509e+01,8.229675233766465681e+01,2.304241536824520153e+00,8.177033207839485840e+00,3.775691465340605646e+01,8.747715668910132081e+00,9.446745872497558594e+00,-1.376853704452514648e+00,-2.294756323099136353e-01,5.620000000000000000e+02
-3.147137022852166410e+01,-1.531116464739625371e+01,1.311816724419259117e+01,8.177113741118228063e+01,2.879537103540315002e+00,6.274998152512125671e+00,3.694763498514475941e+01,8.146894044866712647e+00,9.446745872497558594e+00,-1.376853704452514648e+00,-2.294756323099136353e-01,5.630000000000000000e+02
-2.981709290988146677e+01,-1.667704575120205845e+01,1.446728638649801724e+01,8.185074909509967256e+01,3.428677520645578625e+00,4.765060015610288247e+00,3.701168308993874234e+01,7.802103963835179457e+00,9.446745872497558594e+00,-1.376853704452514648e+00,-2.294756323099136353e-01,5.640000000000000000e+02
-2.855805329848408292e+01,-1.752026584631039441e+01,1.596042260253216227e+01,8.248225333112350199e+01,4.226556449148120009e+00,3.921976647146948380e+00,3.773780615507348557e+01,8.146667771443389938e+00,9.446745872497558594e+00,-1.376853704452514648e+00,-2.294756323099136353e-01,5.650000000000000000e+02
-2.785609863661375130e+01,-1.743220622732769698e+01,1.759132244358806929e+01,8.374181029549617961e+01,5.397524333040564670e+00,3.971959046277333982e+00,3.894290592721699795e+01,9.620683760329484357e+00,9.446745872497558594e+00,-1.376853704452514648e+00,-2.294756323099136353e-01,5.660000000000000000e+02
-2.736331050260196207e+01,-1.602983017740189098e+01,1.932133380422783375e+01,8.565366960100982396e+01,6.665492527750757290e+00,5.002971531246657833e+00,4.039185049872867239e+01,1.206159353440762061e+01,9.446745872497558594e+00,-1.376853704452514648e+00,-2.294756323099136353e-01,5.670000000000000000e+02
-2.666196231657340832e+01,-1.326499311866973585e+01,2.088560813685580797e+01,8.807407254439203825e+01,7.506692911167192506e+00,6.781398749391883030e+00,4.174600504767295206e+01,1.461454073989625613e+01,9.446745872497558594e+00,-1.376853704452514648e+00,-2.294756323099136353e-01,5.680000000000000000e+02
-2.577763126840363839e+01,-9.662501441915082978e+00,2.191247384226880968e+01,9.068748055831019883e+01,7.600015283433094737e+00,8.739211629101191647e+00,4.273401868633482081e+01,1.635887687637296040e+01,9.446745872497558594e+00,-1.376853704452514648e+00,-2.294756323099136353e-01,5.690000000000000000e+02
-2.524683943118179741e+01,-6.238279156568751205e+00,2.221269995694819954e+01,9.304518274472320627e+01,7.112834794588707155e+00,1.026467530848276510e+01,4.337900637594611908e+01,1.704896517509587284e+01,9.446745872497558594e+00,-1.376853704452514648e+00,-2.294756323099136353e-01,5.700000000000000000e+02
-2.565212052579772717e+01,-4.080345889307864127e+00,2.192029591717619041e+01,9.461824048401831533e+01,6.507921852160507115e+00,1.108235250573852682e+01,4.396614771141867095e+01,1.722250641450591502e+01,9.446745872497558594e+00,-1.376853704452514648e+00,-2.294756323099136353e-01,5.710000000000000000e+02
-2.703742997477638710e+01,-3.830536127376035438e+00,2.137129425165767316e+01,9.492538822419010103e+01,6.065608596061792923e+00,1.134923499021351745e+01,4.468672276374309149e+01,1.758752466854275553e+01,9.446745872497558594e+00,-1.376853704452514648e+00,-2.294756323099136353e-01,5.720000000000000000e+02
-2.872653660116884566e+01,-5.382559675072116079e+00,2.090283477663979284e+01,9.376722727182095696e+01,5.651627789202393615e+00,1.136742594244606153e+01,4.529561069311057508e+01,1.832492100312992989e+01,9.446745872497558594e+00,-1.376853704452514648e+00,-2.294756323099136353e-01,5.730000000000000000e+02
-2.972302472504634352e+01,-7.958275084241904551e+00,2.078807132736983476e+01,9.144843366921304550e+01,4.996070925652020378e+00,1.122255915087953326e+01,4.518020850063476246e+01,1.898810346152458806e+01,9.446745872497558594e+00,-1.376853704452514648e+00,-2.294756323099136353e-01,5.740000000000000000e+02
-2.938221299683937104e+01,-1.049453200579409895e+01,2.126995641117537161e+01,8.876005386088945670e+01,4.165792274594423361e+00,1.073793534278411244e+01,4.386353972629331111e+01,1.903365018718068313e+01,9.446745872497558594e+00,-1.376853704452514648e+00,-2.294756323099136353e-01,5.750000000000000000e+02
-2.781637381774635287e+01,-1.211721604045851564e+01,2.250225917737589043e+01,8.661709484828861605e+01,3.663582117324040155e+00,9.776159432854910847e+00,4.152504118734395888e+01,1.840263989554478030e+01,9.446745872497558594e+00,-1.376853704452514648e+00,-2.294756323099136353e-01,5.760000000000000000e+02
-2.572482297839451348e+01,-1.246123152652216959e+01,2.435941487510353909e+01,8.556096877697382297e+01,3.984189934084497509e+00,8.522271389643719885e+00,3.905850337857191334e+01,1.761372866490455635e+01,9.446745872497558594e+00,-1.376853704452514648e+00,-2.294756323099136353e-01,5.770000000000000000e+02
-2.381650353268560139e+01,-1.171901057759350806e+01,2.634483068767622171e+01,8.551808901719414280e+01,5.096404110543517163e+00,7.416710712692292873e+00,3.759020647241777624e+01,1.738218019411579007e+01,9.484992027282714844e+00,-1.338607788085937500e+00,-2.677215635776519775e-01,5.780000000000000000e+02
-2.232197146776525187e+01,-1.044743341452885943e+01,2.782955043146648677e+01,8.601453732979825872e+01,6.456856133412657073e+00,6.813316413899883628e+00,3.782658880731469253e+01,1.819079058010356675e+01,9.484992027282714844e+00,-1.338607788085937500e+00,-2.677215635776519775e-01,5.790000000000000000e+02
-2.098837400320189772e+01,-9.266831449256642372e+00,2.850571219501580345e+01,8.664219019258598564e+01,7.583245674757563393e+00,6.749185866836342029e+00,3.968469416329935484e+01,2.011545032824869850e+01,9.484992027282714844e+00,-1.338607788085937500e+00,-2.677215635776519775e-01,5.800000000000000000e+02
-1.951209197983916965e+01,-8.617040357159567066e+00,2.862157549353833019e+01,8.731562354392190173e+01,8.551825458383973455e+00,7.055451457330491394e+00,4.238886614333387115e+01,2.282986511133640306e+01,9.484992027282714844e+00,-1.338607788085937500e+00,-2.677215635776519775e-01,5.810000000000000000e+02
-1.797841614472054061e+01,-8.654196293071436230e+00,2.870501091496407753e+01,8.808440689713643224e+01,9.829621481347203371e+00,7.614798133239673916e+00,4.487064713699692220e+01,2.562711551078973571e+01,9.484992027282714844e+00,-1.338607788085937500e+00,-2.677215635776519775e-01,5.820000000000000000e+02
-1.689108232971011603e+01,-9.274344064227989293e+00,2.899629297155115637e+01,8.875397337011963828e+01,1.159436891820951132e+01,8.411473228174145333e+00,4.619034390816341329e+01,2.751884712086575746e+01,9.484992027282714844e+00,-1.338607788085937500e+00,-2.677215635776519775e-01,5.830000000000000000e+02
-1.678331563271785853e+01,-1.019546164272469468e+01,2.914802288593818957e+01,8.881793434014434752e+01,1.332278042675170582e+01,9.320574738994764630e+00,4.582228330239922798e+01,2.762466293588840927e+01,9.484992027282714844e+00,-1.338607788085937500e+00,-2.677215635776519775e-01,5.840000000000000000e+02
-1.779587652218106086e+01,-1.103010988996356900e+01,2.853705794348752534e+01,8.791213243701713509e+01,1.418562253694653919e+01,9.975669569805177161e+00,4.381481899654318113e+01,2.580527766768318543e+01,9.484992027282714844e+00,-1.338607788085937500e+00,-2.677215635776519775e-01,5.850000000000000000e+02
-1.958869004876942199e+01,-1.136370585149416002e+01,2.694199104744438955e+01,8.639090948332886910e+01,1.389093491551648185e+01,1.000964818147258484e+01,4.083828520160022890e+01,2.304742526494192134e+01,9.484992027282714844e+00,-1.338607788085937500e+00,-2.677215635776519775e-01,5.860000000000000000e+02
-2.158424367185398296e+01,-1.089872839733106957e+01,2.495918228885966528e+01,8.535065680152183631e+01,1.306565028415388952e+01,9.501454378536436707e+00,3.805561964433582034e+01,2.105997999300234369e+01,9.484992027282714844e+00,-1.338607788085937500e+00,-2.677215635776519775e-01,5.870000000000000000e+02
-2.324262877614455647e+01,-9.645746728630911093e+00,2.374785211033486121e+01,8.587456395112894825e+01,1.271759595851835911e+01,9.136221255615964765e+00,3.674697531428500952e+01,2.116016556331851461e+01,9.484992027282714844e+00,-1.338607788085937500e+00,-2.677215635776519775e-01,5.880000000000000000e+02
-2.412709726122193388e+01,-8.018131609542251681e+00,2.427811162364923803e+01,8.805789834412644268e+01,1.329614756706359913e+01,9.784309132792259334e+00,3.774838265495236556e+01,2.327008933777869970e+01,9.484992027282714844e+00,-1.338607788085937500e+00,-2.677215635776519775e-01,5.890000000000000000e+02
-2.386928945658473822e+01,-6.667428154187291511e+00,2.665000411954679294e+01,9.070519175589288352e+01,1.430008183527388610e+01,1.178972652987795300e+01,4.095009515159654256e+01,2.591176361010730034e+01,9.484992027282714844e+00,-1.338607788085937500e+00,-2.677215635776519775e-01,5.900000000000000000e+02
-2.231446964096539887e+01,-6.078660510636836989e+00,2.996616373862889304e+01,9.208538106836203951e+01,1.480562109564198181e+01,1.460104419428535039e+01,4.516887484637663874e+01,2.730927293603235739e+01,9.484992027282714844e+00,-1.338607788085937500e+00,-2.677215635776519775e-01,5.910000000000000000e+02
-1.984473906178391189e+01,-6.188286947195592802e+00,3.281902578785957303e+01,9.121603471171692945e+01,1.434801238341424323e+01,1.712025355757214129e+01,4.858664704326474748e+01,2.674450754668760055e+01,9.484992027282714844e+00,-1.338607788085937500e+00,-2.677215635776519775e-01,5.920000000000000000e+02
-1.749942591733997688e+01,-6.364245844120887341e+00,3.406111906321166316e+01,8.864325030800682725e+01,1.329059108895671670e+01,1.850800461071776226e+01,4.962574066956585739e+01,2.505452618351046112e+01,9.484992027282714844e+00,-1.338607788085937500e+00,-2.677215635776519775e-01,5.930000000000000000e+02
-1.652597637427788868e+01,-5.843709350680001080e+00,3.340970424420629570e+01,8.608357181627070531e+01,1.242683420347384526e+01,1.879884266988665331e+01,4.783597272036240611e+01,2.391366130869027984e+01,9.484992027282714844e+00,-1.338607788085937500e+00,-2.677215635776519775e-01,5.940000000000000000e+02
-1.752698641626739118e+01,-4.326372322471797816e+00,3.156486299543030327e+01,8.522609755955272703e+01,1.233882228022775962e+01,1.884582093832796090e+01,4.423743268238831661e+01,2.455554710064279789e+01,9.484992027282714844e+00,-1.338607788085937500e+00,-2.677215635776519775e-01,5.950000000000000000e+02
-1.990248514933773549e+01,-2.248659015853263554e+00,2.978028229126539372e+01,8.662694868930338998e+01,1.314711782322774525e+01,1.965417983255611034e+01,4.081196961152090807e+01,2.698331646418046148e+01,9.484992027282714844e+00,-1.338607788085937500e+00,-2.677215635776519775e-01,5.960000000000000000e+02
-2.219155523675726727e+01,-4.906223898033204023e-01,2.911345816142602416e+01,8.947137016692431644e+01,1.469969985308125615e+01,2.161195725407014834e+01,3.937982888851547614e+01,3.019358101329271449e+01,9.484992027282714844e+00,-1.338607788085937500e+00,-2.677215635776519775e-01,5.970000000000000000e+02
-2.314029247860526084e+01,2.518057310844596941e-01,2.981877742385768215e+01,9.226686705899192020e+01,1.677768002364609856e+01,2.418612436133116717e+01,4.057039089747195248e+01,3.306453538412642956e+01,9.484992027282714844e+00,-1.338607788085937500e+00,-2.677215635776519775e-01,5.980000000000000000e+02
-2.261138327572552953e+01,-8.614115920863696374e-02,3.129191061163510312e+01,9.386776185287453700e+01,1.903323470061877742e+01,2.629730310199011001e+01,4.358291024646678125e+01,3.510473729310433555e+01,9.484992027282714844e+00,-1.300361871719360352e+00,-2.294756323099136353e-01,5.990000000000000000e+02
-2.154264830825559329e+01,-9.882073660046444274e-01,3.260069911857135594e+01,9.410023454847396351e+01,2.087360958518911502e+01,2.710932004342612345e+01,4.687761232088450924e+01,3.654555745525249222e+01,9.484992027282714844e+00,-1.300361871719360352e+00,-2.294756323099136353e-01,6.000000000000000000e+02
-2.100612112880480709e+01,-1.773515814453276107e+00,3.318982563372264849e+01,9.366295797659040545e+01,2.167912853290545172e+01,2.666820172319057747e+01,4.924547369687934406e+01,3.789638681790893315e+01,9.484992027282714844e+00,-1.300361871719360352e+00,-2.294756323099136353e-01,6.010000000000000000e+02
-2.124620944314301596e+01,-1.979200583115016343e+00,3.319805801421898650e+01,9.350499399756154162e+01,2.131602901418227702e+01,2.589586940689332550e+01,5.044635472558729816e+01,3.945159436973699485e+01,9.484992027282714844e+00,-1.300361871719360352e+00,-2.294756323099136353e-01,6.020000000000000000e+02
-2.154846094698950765e+01,-1.449247945805836935e+00,3.318711957663253997e+01,9.417404566467666882e+01,2.042953884092639782e+01,2.592075899992778432e+01,5.102517727111990098e+01,4.112476309287376353e+01,9.484992027282714844e+00,-1.300361871719360352e+00,-2.294756323099136353e-01,6.030000000000000000e+02
-2.097056446683927788e+01,-2.247359114626306109e-01,3.361079921537384507e+01,9.555181505390282837e+01,2.009397615741909249e+01,2.724193927270243876e+01,5.160905086110506090e+01,4.261628316140195238e+01,9.484992027282714844e+00,-1.300361871719360352e+00,-2.294756323099136353e-01,6.040000000000000000e+02
-1.918868369153278763e+01,1.509926037164404988e+00,3.454118708730675280e+01,9.704769510438927682e+01,2.102287145247100852e+01,2.938776290210444131e+01,5.234391668390526320e+01,4.366757689540463616e+01,9.484992027282714844e+00,-1.300361871719360352e+00,-2.294756323099136353e-01,6.050000000000000000e+02
-1.669258069615534623e+01,3.349142787454184145e+00,3.583666060558607569e+01,9.801291394633517484e+01,2.302444869558530627e+01,3.133290457434122800e+01,5.289009316355804913e+01,4.417355668228992727e+01,9.484992027282714844e+00,-1.300361871719360352e+00,-2.294756323099136353e-01,6.060000000000000000e+02
-1.426582519121802761e+01,4.660271979413664667e+00,3.744927469301910605e+01,9.806391499886376550e+01,2.520993077239472768e+01,3.229469643463380635e+01,5.285236183806409827e+01,4.413184930391435046e+01,9.484992027282714844e+00,-1.300361871719360352e+00,-2.294756323099136353e-01,6.070000000000000000e+02
-1.233840975873317802e+01,4.850940561642346438e+00,3.944496303185951547e+01,9.716201184775127331e+01,2.675773997232681722e+01,3.222303722555079730e+01,5.217668163562484551e+01,4.354705668786482420e+01,9.484992027282714844e+00,-1.300361871719360352e+00,-2.294756323099136353e-01,6.080000000000000000e+02
-1.081098914695030544e+01,3.789750306958012516e+00,4.169315463584644021e+01,9.552793975909662549e+01,2.751030340413853992e+01,3.161312011433255975e+01,5.118105557392846094e+01,4.240039727907787892e+01,9.484992027282714844e+00,-1.300361871719360352e+00,-2.294756323099136353e-01,6.090000000000000000e+02
-9.400782917669857852e+00,2.005049930317909457e+00,4.361662462070671609e+01,9.354330346495407866e+01,2.787687340979755390e+01,3.091124000073614297e+01,5.028215026229372597e+01,4.072169822554860730e+01,9.484992027282714844e+00,-1.300361871719360352e+00,-2.294756323099136353e-01,6.100000000000000000e+02
-8.071946531701541971e+00,4.096979116256989073e-01,4.437598820302446256e+01,9.167450081384959049e+01,2.819922777949250303e+01,3.012013099707473884e+01,4.970278023419086821e+01,3.868282240362532320e+01,9.484992027282714844e+00,-1.300361871719360352e+00,-2.294756323099136353e-01,6.110000000000000000e+02
-7.127010057349252747e+00,-2.715518998411425855e-01,4.343495881303533679e+01,9.035366683001120691e+01,2.825015690557120251e+01,2.896075424809532706e+01,4.938389852871114272e+01,3.662126307492508204e+01,9.484992027282714844e+00,-1.300361871719360352e+00,-2.294756323099136353e-01,6.120000000000000000e+02
-6.936506109741458204e+00,6.958135531749576330e-02,4.102336785583611345e+01,8.978767586636604392e+01,2.740021120077290107e+01,2.736086952219920931e+01,4.909304934546162258e+01,3.497525128893539659e+01,9.484992027282714844e+00,-1.300361871719360352e+00,-2.294756323099136353e-01,6.130000000000000000e+02
-7.611255596231785603e+00,9.721420720488822553e-01,3.807183530633119517e+01,8.983788450554857263e+01,2.533256416813674150e+01,2.572148226787248859e+01,4.859399859386394382e+01,3.418564144906122237e+01,9.484992027282714844e+00,-1.300361871719360352e+00,-2.294756323099136353e-01,6.140000000000000000e+02
