F3,F4,C3,C4,P3,P4,Cz,Pz,Accel_x,Accel_y,Accel_z,Sample
-3.274180926382541656e-11,-6.184563972055912018e-11,-3.183231456205248833e-11,-4.456524038687348366e-11,-5.820766091346740723e-11,-8.549250196665525436e-11,-4.911271389573812485e-11,-5.456968210637569427e-11,9.446745872497558594e+00,-6.501809358596801758e-01,4.207052886486053467e-01,2.010000000000000000e+02
-2.286445909129906795e+01,-7.520615537422600028e+00,4.056222847981189261e+00,1.058135910018336290e+01,-3.804395159272644378e+00,8.027154011653692578e+00,6.473127075099910144e+00,-1.799683399742207257e+00,9.446745872497558594e+00,-6.501809358596801758e-01,4.207052886486053467e-01,2.020000000000000000e+02
-4.292767965690109122e+01,-2.081429530554578378e+01,2.615167765919977683e+00,1.145467814457606437e+01,-1.030239407397857576e+01,4.631813399722886970e+00,7.919141580724499363e+00,-4.628067879339141655e+00,9.446745872497558594e+00,-6.501809358596801758e-01,4.207052886486053467e-01,2.030000000000000000e+02
-5.930969456456750777e+01,-4.121743076448365173e+01,-4.841422058332682354e+00,1.015899833341791236e+00,-1.984035662890619278e+01,-1.182238130042242119e+01,3.132464873161552532e+00,-8.417620697160600685e+00,9.446745872497558594e+00,-6.501809358596801758e-01,4.207052886486053467e-01,2.040000000000000000e+02
-7.335648391476115648e+01,-6.497049371074081137e+01,-1.368366277949553478e+01,-1.384772733544014045e+01,-3.027923653861580533e+01,-3.285313063315697946e+01,-4.841665542850023485e+00,-1.216858992505331116e+01,9.446745872497558594e+00,-6.501809358596801758e-01,4.207052886486053467e-01,2.050000000000000000e+02
-8.722963725872614305e+01,-8.658892323500822386e+01,-1.871306629283571965e+01,-2.492230500558889617e+01,-3.910058900703279505e+01,-4.871278003232328047e+01,-1.176738069365273986e+01,-1.524193773334445723e+01,9.446745872497558594e+00,-6.501809358596801758e-01,4.207052886486053467e-01,2.060000000000000000e+02
-1.022189210542601359e+02,-1.029908531597529873e+02,-1.881032269870684104e+01,-2.985768604987697472e+01,-4.568533763536652259e+01,-5.711295683647767873e+01,-1.566700963305720506e+01,-1.839448314403307450e+01,9.446745872497558594e+00,-6.501809358596801758e-01,4.207052886486053467e-01,2.070000000000000000e+02
-1.182214499184447050e+02,-1.149593457254868554e+02,-1.732525002461261465e+01,-3.266739822095860291e+01,-5.174091208200843539e+01,-6.355081375242662034e+01,-1.763382272377384652e+01,-2.338921387725440582e+01,9.523238182067871094e+00,-6.119350194931030273e-01,4.589512646198272705e-01,2.080000000000000000e+02
-1.345290757187867712e+02,-1.254193384909813176e+02,-1.842493622928941477e+01,-3.826845274812330899e+01,-5.976222495529964363e+01,-7.423640686019825807e+01,-1.989592647622248478e+01,-3.146564403965930978e+01,9.523238182067871094e+00,-6.119350194931030273e-01,4.589512646198272705e-01,2.090000000000000000e+02
-1.508431465361582013e+02,-1.367950920478815533e+02,-2.340958875238175096e+01,-4.752447488056168368e+01,-7.110010270674865751e+01,-8.979795488485251553e+01,-2.353727354078910139e+01,-4.209512713973981590e+01,9.523238182067871094e+00,-6.119350194931030273e-01,4.589512646198272705e-01,2.100000000000000000e+02
-1.674852083991663676e+02,-1.498206952984255622e+02,-3.035744852229163371e+01,-5.756502337759593502e+01,-8.517215095549727266e+01,-1.058382624316272995e+02,-2.800077691816113656e+01,-5.312233959729383059e+01,9.523238182067871094e+00,-6.119350194931030273e-01,4.589512646198272705e-01,2.110000000000000000e+02
-1.848275726457350174e+02,-1.640859796610102421e+02,-3.663782142248874152e+01,-6.579263743375213380e+01,-1.000238727440309958e+02,-1.183786621811868827e+02,-3.220795260837076057e+01,-6.208155404991794057e+01,9.523238182067871094e+00,-6.119350194931030273e-01,4.589512646198272705e-01,2.120000000000000000e+02
-2.027690089053303382e+02,-1.789624723494052887e+02,-4.127397302851022687e+01,-7.245527819031485706e+01,-1.134739620250784355e+02,-1.275829973825148045e+02,-3.565777656111458782e+01,-6.756439798364317539e+01,9.523238182067871094e+00,-6.119350194931030273e-01,4.589512646198272705e-01,2.130000000000000000e+02
-2.208546414447482675e+02,-1.938475289285870531e+02,-4.504464893595923058e+01,-7.924721360722469399e+01,-1.240708204289248897e+02,-1.362250709493691829e+02,-3.845517532887788548e+01,-6.971770794495569135e+01,9.523238182067871094e+00,-6.119350194931030273e-01,4.589512646198272705e-01,2.140000000000000000e+02
-2.387778376043170283e+02,-2.079889697385560794e+02,-4.896201244986241363e+01,-8.637638829024126608e+01,-1.315674514256415932e+02,-1.456715438389164774e+02,-4.073721515785473457e+01,-6.981378491252235108e+01,9.523238182067871094e+00,-6.119350194931030273e-01,4.589512646198272705e-01,2.150000000000000000e+02
-2.565505611927901555e+02,-2.207023674614192714e+02,-5.316972433218688820e+01,-9.197530359711799974e+01,-1.368782111881209858e+02,-1.543790484051205567e+02,-4.251600046692874457e+01,-6.946407716550493205e+01,9.523238182067871094e+00,-6.119350194931030273e-01,4.589512646198272705e-01,2.160000000000000000e+02
-2.740666264237179348e+02,-2.320244669171433998e+02,-5.718349663062508625e+01,-9.446813162527723762e+01,-1.414641726178215322e+02,-1.602231507262986270e+02,-4.405727607661810907e+01,-6.995799763931699999e+01,9.523238182067871094e+00,-6.119350194931030273e-01,4.589512646198272705e-01,2.170000000000000000e+02
-2.905483550576445850e+02,-2.429774805029173876e+02,-6.068752242388382001e+01,-9.488429918968722632e+01,-1.463662751704750917e+02,-1.634309883152236580e+02,-4.601985248484470503e+01,-7.186485249927409313e+01,9.523238182067871094e+00,-6.119350194931030273e-01,4.589512646198272705e-01,2.180000000000000000e+02
-3.046273494328925153e+02,-2.548653831557539888e+02,-6.375851122978656349e+01,-9.630082028715332854e+01,-1.515499416207967442e+02,-1.666264017596377016e+02,-4.887295980313501786e+01,-7.493632261381753779e+01,9.523238182067871094e+00,-6.119350194931030273e-01,4.589512646198272705e-01,2.190000000000000000e+02
-3.152448954888150183e+02,-2.681122929529665271e+02,-6.646239279046403681e+01,-1.010422016224174513e+02,-1.562198040240527916e+02,-1.722008275987500383e+02,-5.218473610679575359e+01,-7.839951157299492479e+01,9.523238182067871094e+00,-6.119350194931030273e-01,4.589512646198272705e-01,2.200000000000000000e+02
-3.227066209754621013e+02,-2.817840409232321690e+02,-6.863040999894201377e+01,-1.087321463385651441e+02,-1.599466842847195949e+02,-1.801746872629228164e+02,-5.476432060612660280e+01,-8.158498878636873997e+01,9.523238182067871094e+00,-6.119350194931030273e-01,4.589512646198272705e-01,2.210000000000000000e+02
-3.289352787656052897e+02,-2.943246977815215359e+02,-7.023365727597501973e+01,-1.171288271265193544e+02,-1.635454082644373557e+02,-1.887204035739241590e+02,-5.575414396625455993e+01,-8.449703325563496037e+01,9.523238182067871094e+00,-6.119350194931030273e-01,4.589512646198272705e-01,2.220000000000000000e+02
-3.365002437522907712e+02,-3.048510788743751618e+02,-7.186891437986378151e+01,-1.245765876770665272e+02,-1.687540508769798180e+02,-1.963540302161009095e+02,-5.564049632190744887e+01,-8.782209545179284760e+01,9.523238182067871094e+00,-6.119350194931030273e-01,4.589512646198272705e-01,2.230000000000000000e+02
-3.469931411468705846e+02,-3.138127006916456594e+02,-7.464244130798761034e+01,-1.313955160676214291e+02,-1.769032099889918754e+02,-2.032216793438319655e+02,-5.606924260992491327e+01,-9.228704939915496652e+01,9.523238182067871094e+00,-6.119350194931030273e-01,4.589512646198272705e-01,2.240000000000000000e+02
-3.599524421332826023e+02,-3.224893046312554361e+02,-7.941862343171578686e+01,-1.390061704336503681e+02,-1.877918298921849782e+02,-2.103737411987622181e+02,-5.851791813249838015e+01,-9.792829729661025340e+01,9.523238182067871094e+00,-6.119350194931030273e-01,4.589512646198272705e-01,2.250000000000000000e+02
-3.732212294119872240e+02,-3.318954695832317157e+02,-8.611347189349635300e+01,-1.480753925221006284e+02,-1.998055259683760596e+02,-2.182667357000327684e+02,-6.305566528877261590e+01,-1.039999675543940612e+02,9.523238182067871094e+00,-6.119350194931030273e-01,4.589512646198272705e-01,2.260000000000000000e+02
-3.845236429848755506e+02,-3.421135750933553936e+02,-9.363842593142817350e+01,-1.577161665354933575e+02,-2.110880137500189448e+02,-2.262550434423537808e+02,-6.834746616522079421e+01,-1.096722860437839699e+02,9.523238182067871094e+00,-6.119350194931030273e-01,4.589512646198272705e-01,2.270000000000000000e+02
-3.930453434338251100e+02,-3.525819835209949815e+02,-1.004772443224956078e+02,-1.663855692336492211e+02,-2.206384004537958390e+02,-2.334035650198520671e+02,-7.286613167326595430e+01,-1.148705025784920508e+02,9.523238182067871094e+00,-6.119350194931030273e-01,4.589512646198272705e-01,2.280000000000000000e+02
-3.997826992967138722e+02,-3.629347015812327299e+02,-1.053937535705799746e+02,-1.733349674219180088e+02,-2.284366131044562280e+02,-2.394756223776412298e+02,-7.611190771075962402e+01,-1.203727629481309123e+02,9.523238182067871094e+00,-6.119350194931030273e-01,4.589512646198272705e-01,2.290000000000000000e+02
-4.064581820445382618e+02,-3.735066011119033647e+02,-1.078294960641023863e+02,-1.791186648253751628e+02,-2.347505269747161947e+02,-2.450238350552453994e+02,-7.868958639529773791e+01,-1.269439772031646498e+02,9.523238182067871094e+00,-6.119350194931030273e-01,4.589512646198272705e-01,2.300000000000000000e+02
-4.140489379652217394e+02,-3.849827102417102651e+02,-1.079341605775807693e+02,-1.848253272369984188e+02,-2.395104422955473638e+02,-2.506874540250792052e+02,-8.126024059843257419e+01,-1.342599824183889723e+02,9.523238182067871094e+00,-6.119350194931030273e-01,4.589512646198272705e-01,2.310000000000000000e+02
-4.222801189354795497e+02,-3.974947295083102290e+02,-1.063970108707771942e+02,-1.909298795773956954e+02,-2.423984069804319006e+02,-2.565611229654650742e+02,-8.348884866395019344e+01,-1.406958749241421174e+02,9.523238182067871094e+00,-6.119350194931030273e-01,4.589512646198272705e-01,2.320000000000000000e+02
-4.304138567998998042e+02,-4.100322924821748529e+02,-1.042078211660482339e+02,-1.968772943358544580e+02,-2.434388749707368333e+02,-2.622201293806638205e+02,-8.410305916894867551e+01,-1.443343066482420909e+02,9.446745872497558594e+00,-7.266727685928344727e-01,3.442134261131286621e-01,2.330000000000000000e+02
-4.383545805534677129e+02,-4.208210849882643743e+02,-1.023794749705893992e+02,-2.016848933280707570e+02,-2.433683253087319827e+02,-2.672145682504224169e+02,-8.206231133594701532e+01,-1.444305194911157741e+02,9.446745872497558594e+00,-7.266727685928344727e-01,3.442134261131286621e-01,2.340000000000000000e+02
-4.468143722719059951e+02,-4.284997496618598234e+02,-1.016628073691899772e+02,-2.049341178016229605e+02,-2.433664801562199500e+02,-2.714966052936579217e+02,-7.772483967093012325e+01,-1.420937690847003978e+02,9.446745872497558594e+00,-7.266727685928344727e-01,3.442134261131286621e-01,2.350000000000000000e+02
-4.563536062736475287e+02,-4.331696217310286556e+02,-1.023404765013433462e+02,-2.072695666470144715e+02,-2.444156234271285939e+02,-2.754812069093031823e+02,-7.286405115487286821e+01,-1.395875419252779466e+02,9.446745872497558594e+00,-7.266727685928344727e-01,3.442134261131286621e-01,2.360000000000000000e+02
-4.664390586421741318e+02,-4.364029900279974754e+02,-1.041886215234512747e+02,-2.099901299699122319e+02,-2.468692538727682404e+02,-2.797768202375500550e+02,-6.946249552865720034e+01,-1.388408140044193715e+02,9.446745872497558594e+00,-7.266727685928344727e-01,3.442134261131286621e-01,2.370000000000000000e+02
-4.757127553550772063e+02,-4.401677512054807266e+02,-1.066679879019879991e+02,-2.141006902685003297e+02,-2.505595701497113623e+02,-2.848120304257872704e+02,-6.839117130985505355e+01,-1.404094016189183094e+02,9.446745872497558594e+00,-7.266727685928344727e-01,3.442134261131286621e-01,2.380000000000000000e+02
-4.833657741833485488e+02,-4.455341040921503009e+02,-1.092924029124746994e+02,-2.195934332458364224e+02,-2.552258451927364149e+02,-2.905639671414446639e+02,-6.912776338174717239e+01,-1.436187793450071695e+02,9.446745872497558594e+00,-7.266727685928344727e-01,3.442134261131286621e-01,2.390000000000000000e+02
-4.901971284875526180e+02,-4.521819400680719809e+02,-1.119774802911360894e+02,-2.254947078442173733e+02,-2.607700758370074254e+02,-2.965399783434704659e+02,-7.061656745879372465e+01,-1.475058055400404555e+02,9.446745872497558594e+00,-7.266727685928344727e-01,3.442134261131286621e-01,2.400000000000000000e+02
-4.980991181172262259e+02,-4.590242574212084037e+02,-1.151001247737362974e+02,-2.305939396345802379e+02,-2.670908726211964677e+02,-3.020577946304829311e+02,-7.231677849136258374e+01,-1.515749591738303934e+02,9.446745872497558594e+00,-7.266727685928344727e-01,3.442134261131286621e-01,2.410000000000000000e+02
-5.083090486729420263e+02,-4.653208247613938511e+02,-1.191162663254958716e+02,-2.342460257374978028e+02,-2.737379643343374482e+02,-3.066690846176816194e+02,-7.444236566235576902e+01,-1.557972646157377312e+02,9.446745872497558594e+00,-7.266727685928344727e-01,3.442134261131286621e-01,2.420000000000000000e+02
-5.201148654194225855e+02,-4.713041801824851973e+02,-1.239480347981452724e+02,-2.366808814100377276e+02,-2.798521741633749116e+02,-3.104476127555335552e+02,-7.733092888292821954e+01,-1.601475256518142487e+02,9.446745872497558594e+00,-7.266727685928344727e-01,3.442134261131286621e-01,2.430000000000000000e+02
-5.313576371869744435e+02,-4.778696046349482458e+02,-1.286799981076287622e+02,-2.387199311437684628e+02,-2.846232039282326696e+02,-3.139388208556720201e+02,-8.077302529078770021e+01,-1.643998137574872089e+02,9.446745872497558594e+00,-7.266727685928344727e-01,3.442134261131286621e-01,2.440000000000000000e+02
-5.403014118422670435e+02,-4.857216297682143704e+02,-1.319814895011795670e+02,-2.412484257349969994e+02,-2.879657516678316824e+02,-3.178637346996256383e+02,-8.406225201714096329e+01,-1.684422131281635302e+02,9.446745872497558594e+00,-7.266727685928344727e-01,3.442134261131286621e-01,2.450000000000000000e+02
-5.470628139848054161e+02,-4.947709309723072693e+02,-1.330875876771124240e+02,-2.448667251787396708e+02,-2.907965317649554891e+02,-3.228749040357579361e+02,-8.666384413343803317e+01,-1.726435167261024617e+02,9.446745872497558594e+00,-7.266727685928344727e-01,3.442134261131286621e-01,2.460000000000000000e+02
-5.532436057455893206e+02,-5.042119941780856607e+02,-1.325309766563696030e+02,-2.497709761794535552e+02,-2.945119212189965765e+02,-3.294399663897966093e+02,-8.869350858661209713e+01,-1.776449636885927248e+02,9.446745872497558594e+00,-7.266727685928344727e-01,3.442134261131286621e-01,2.470000000000000000e+02
-5.602448090428806609e+02,-5.130745274563473686e+02,-1.319078291907953826e+02,-2.556985362388086287e+02,-2.999701102661688310e+02,-3.376962694928388373e+02,-9.067729298671338256e+01,-1.836228225967070102e+02,9.446745872497558594e+00,-7.266727685928344727e-01,3.442134261131286621e-01,2.480000000000000000e+02
-5.679900524647346174e+02,-5.207399969134962703e+02,-1.328114977734453532e+02,-2.619518911259133347e+02,-3.068175142468921877e+02,-3.472552603383355745e+02,-9.292865015600182232e+01,-1.897926332191473193e+02,9.446745872497558594e+00,-7.266727685928344727e-01,3.442134261131286621e-01,2.490000000000000000e+02
-5.752454311104988847e+02,-5.270899568364561674e+02,-1.358107332472936832e+02,-2.676622673785104780e+02,-3.137811249438618688e+02,-3.571836721044946898e+02,-9.527763041860634985e+01,-1.948144385173150113e+02,9.446745872497558594e+00,-7.266727685928344727e-01,3.442134261131286621e-01,2.500000000000000000e+02
-5.810548976426521222e+02,-5.323211746303500149e+02,-1.403208325417231208e+02,-2.722763580740129328e+02,-3.197326331942799698e+02,-3.663776206522279608e+02,-9.741473102901272796e+01,-1.978845605229375906e+02,9.446745872497558594e+00,-7.266727685928344727e-01,3.442134261131286621e-01,2.510000000000000000e+02
-5.857256488227831142e+02,-5.366515861648390455e+02,-1.453464179490565584e+02,-2.758798444969575030e+02,-3.245730868745640691e+02,-3.741648587951476657e+02,-9.932846518360247501e+01,-1.994841041858671815e+02,9.446745872497558594e+00,-7.266727685928344727e-01,3.442134261131286621e-01,2.520000000000000000e+02
-5.904315987275572297e+02,-5.401556865592997383e+02,-1.503058119912357142e+02,-2.789877039957841589e+02,-3.291579343404901010e+02,-3.806606991430244307e+02,-1.012549662179076222e+02,-2.010118245443441083e+02,9.446745872497558594e+00,-7.266727685928344727e-01,3.442134261131286621e-01,2.530000000000000000e+02
-5.960026808143611561e+02,-5.428358625458654387e+02,-1.551835178437154354e+02,-2.819578528074589485e+02,-3.343822050486419357e+02,-3.865649440872957712e+02,-1.032399893635806620e+02,-2.036014696744468893e+02,9.446745872497558594e+00,-7.266727685928344727e-01,3.442134261131286621e-01,2.540000000000000000e+02
-6.022040845862129572e+02,-5.448227964840957611e+02,-1.599979401089503881e+02,-2.846248751690218342e+02,-3.402804033439670093e+02,-3.925562013836570259e+02,-1.049400156700430671e+02,-2.071897153877571327e+02,9.446745872497558594e+00,-7.266727685928344727e-01,3.442134261131286621e-01,2.550000000000000000e+02
-6.081182415952184783e+02,-5.464628497465555483e+02,-1.642284254612955010e+02,-2.865475239524971585e+02,-3.458963369874240925e+02,-3.987562288645594890e+02,-1.059713804998159503e+02,-2.106104062546019122e+02,9.446745872497558594e+00,-7.266727685928344727e-01,3.442134261131286621e-01,2.560000000000000000e+02
-6.130365140211597463e+02,-5.481455206820555759e+02,-1.668506618132469157e+02,-2.876029801919326019e+02,-3.499409098117139365e+02,-4.046372326428145243e+02,-1.064075031600364127e+02,-2.125309341181082345e+02,9.446745872497558594e+00,-7.266727685928344727e-01,3.442134261131286621e-01,2.570000000000000000e+02
-6.168953079551597511e+02,-5.499857623793541279e+02,-1.670166885533344612e+02,-2.882576690315599990e+02,-3.516210337342590719e+02,-4.093532919836115980e+02,-1.067746550774368188e+02,-2.123816514401819404e+02,9.446745872497558594e+00,-7.266727685928344727e-01,3.442134261131286621e-01,2.580000000000000000e+02
-6.199905980772268776e+02,-5.517017868728985377e+02,-1.648139045029142835e+02,-2.892101047707510588e+02,-3.510432561466686820e+02,-4.122402652984160341e+02,-1.074743291701620365e+02,-2.106262826364350076e+02,9.446745872497558594e+00,-7.266727685928344727e-01,3.442134261131286621e-01,2.590000000000000000e+02
-6.225484173581835421e+02,-5.529090178435285452e+02,-1.614373415157165255e+02,-2.908063612438827477e+02,-3.490917252423728314e+02,-4.132293572801158916e+02,-1.082812597790830296e+02,-2.083997329758276464e+02,9.484992027282714844e+00,-6.119350194931030273e-01,3.824593424797058105e-01,2.600000000000000000e+02
-6.247278330824524346e+02,-5.536026479615989047e+02,-1.585509049316892742e+02,-2.928546927456477533e+02,-3.470110839872968427e+02,-4.129882636540919520e+02,-1.085338535357536784e+02,-2.069292867411782026e+02,9.484992027282714844e+00,-6.119350194931030273e-01,3.824593424797058105e-01,2.610000000000000000e+02
-6.269327343338209175e+02,-5.543053005959704933e+02,-1.572398695183087511e+02,-2.949725236437875537e+02,-3.459009818604422435e+02,-4.126640924765556520e+02,-1.078537137528305720e+02,-2.070266517954823939e+02,9.484992027282714844e+00,-6.119350194931030273e-01,3.824593424797058105e-01,2.620000000000000000e+02
-6.298516825036954287e+02,-5.555884647573625443e+02,-1.573214274628885505e+02,-2.969829550181871127e+02,-3.462516667132936163e+02,-4.132495784320171879e+02,-1.066043410860397671e+02,-2.087151965437092258e+02,9.484992027282714844e+00,-6.119350194931030273e-01,3.824593424797058105e-01,2.630000000000000000e+02
-6.340098294301296846e+02,-5.573603135827966071e+02,-1.576166066736067251e+02,-2.989114893726916762e+02,-3.477203085901210216e+02,-4.149274426704871530e+02,-1.055920383756676983e+02,-2.111275161890414438e+02,9.484992027282714844e+00,-6.119350194931030273e-01,3.824593424797058105e-01,2.640000000000000000e+02
-6.392994980986918563e+02,-5.587149047624126297e+02,-1.570702010301686187e+02,-3.006978256342116538e+02,-3.494075915290742387e+02,-4.169354302225141282e+02,-1.053571857650915717e+02,-2.129531690205774339e+02,9.484992027282714844e+00,-6.119350194931030273e-01,3.824593424797058105e-01,2.650000000000000000e+02
-6.450555049519227850e+02,-5.586984452079818766e+02,-1.558533040810053762e+02,-3.021185772521268973e+02,-3.506140895441917564e+02,-4.181970874750932126e+02,-1.058321026077562692e+02,-2.134334790071065981e+02,9.484992027282714844e+00,-6.119350194931030273e-01,3.824593424797058105e-01,2.660000000000000000e+02
-6.506343021482180120e+02,-5.573888176846506894e+02,-1.554651797455869655e+02,-3.031207334936281086e+02,-3.515449028298146459e+02,-4.182994324466075113e+02,-1.066729574937941152e+02,-2.132331234192561169e+02,9.484992027282714844e+00,-6.119350194931030273e-01,3.824593424797058105e-01,2.670000000000000000e+02
-6.558511820329407556e+02,-5.561636553834034657e+02,-1.575778160551426481e+02,-3.041399188420076598e+02,-3.532319133637319055e+02,-4.179531575355481436e+02,-1.077635446642674424e+02,-2.142332050558915171e+02,9.484992027282714844e+00,-6.119350194931030273e-01,3.824593424797058105e-01,2.680000000000000000e+02
-6.607944939668212783e+02,-5.566681892062961197e+02,-1.624827572203055297e+02,-3.058695718460153330e+02,-3.565180814237471623e+02,-4.184256963873074255e+02,-1.092255666429351777e+02,-2.180224034814558536e+02,9.484992027282714844e+00,-6.119350194931030273e-01,3.824593424797058105e-01,2.690000000000000000e+02
-6.653078663237624824e+02,-5.592823610468306015e+02,-1.684883960016190940e+02,-3.085410455869430280e+02,-3.608972482714867738e+02,-4.203653492184835159e+02,-1.109430050307493048e+02,-2.241678665521479843e+02,9.484992027282714844e+00,-6.119350194931030273e-01,3.824593424797058105e-01,2.700000000000000000e+02
-6.688274614089002625e+02,-5.625486030374370330e+02,-1.729264062561433093e+02,-3.114337723525177353e+02,-3.643900097439172896e+02,-4.230730539260657679e+02,-1.122871067487910750e+02,-2.299288961059337453e+02,9.484992027282714844e+00,-6.119350194931030273e-01,3.824593424797058105e-01,2.710000000000000000e+02
-6.707995403169902602e+02,-5.642411319252598787e+02,-1.740349400669520037e+02,-3.132360539640269508e+02,-3.648553415525311721e+02,-4.249342065681131544e+02,-1.125461968431736750e+02,-2.320193631127560820e+02,9.484992027282714844e+00,-6.119350194931030273e-01,3.824593424797058105e-01,2.720000000000000000e+02
-6.711763225386915792e+02,-5.632222511242302971e+02,-1.721590123145596181e+02,-3.130535859919359609e+02,-3.617719079471235091e+02,-4.246770974406870209e+02,-1.117046007164343564e+02,-2.291411072166296208e+02,9.484992027282714844e+00,-6.119350194931030273e-01,3.824593424797058105e-01,2.730000000000000000e+02
-6.703948520081913784e+02,-5.604327789130423980e+02,-1.693054998629394277e+02,-3.111891506326749095e+02,-3.569341744201863094e+02,-4.224101480966678537e+02,-1.106883774238148135e+02,-2.231294776883300983e+02,9.484992027282714844e+00,-6.119350194931030273e-01,3.824593424797058105e-01,2.740000000000000000e+02
-6.689168919349033331e+02,-5.580897177008475865e+02,-1.675323389730982626e+02,-3.089776348605455496e+02,-3.533332542237784537e+02,-4.195913791523336158e+02,-1.106469463911424782e+02,-2.176423603806763367e+02,9.484992027282714844e+00,-6.119350194931030273e-01,3.824593424797058105e-01,2.750000000000000000e+02
-6.669842990710026243e+02,-5.578091464870941536e+02,-1.676131828784148183e+02,-3.078082153228102129e+02,-3.530469489505102274e+02,-4.179946478167046280e+02,-1.118640542514248182e+02,-2.154889103867006952e+02,9.484992027282714844e+00,-6.119350194931030273e-01,3.824593424797058105e-01,2.760000000000000000e+02
-6.649518811629616266e+02,-5.593185374861525361e+02,-1.689963859686481555e+02,-3.081721896899077819e+02,-3.558459055440083603e+02,-4.185215571349472157e+02,-1.133721239355751322e+02,-2.168578417783496661e+02,9.484992027282714844e+00,-6.119350194931030273e-01,3.824593424797058105e-01,2.770000000000000000e+02
-6.637273402653368066e+02,-5.608180148660272835e+02,-1.707738925123209128e+02,-3.094694089236765535e+02,-3.596049486917844433e+02,-4.207213204785945209e+02,-1.137289523990953057e+02,-2.197850902096250820e+02,9.484992027282714844e+00,-6.119350194931030273e-01,3.824593424797058105e-01,2.780000000000000000e+02
-6.645313700733983069e+02,-5.605272985186820733e+02,-1.725561427314252114e+02,-3.106067830561922278e+02,-3.620670253683089186e+02,-4.232530087635996097e+02,-1.123017703953214550e+02,-2.221294502631570822e+02,9.484992027282714844e+00,-6.119350194931030273e-01,3.824593424797058105e-01,2.790000000000000000e+02
-6.679155014786293805e+02,-5.579643854412621522e+02,-1.744726958681985707e+02,-3.107979754801093577e+02,-3.624244841737257730e+02,-4.248193937772105073e+02,-1.098931291214089470e+02,-2.231263396685455973e+02,9.484992027282714844e+00,-6.119350194931030273e-01,3.824593424797058105e-01,2.800000000000000000e+02
-6.729717484839125063e+02,-5.539458017922099771e+02,-1.765521167312880380e+02,-3.099471656528116910e+02,-3.615027547326099011e+02,-4.248800866456273297e+02,-1.081490883306440764e+02,-2.233417255850146148e+02,9.484992027282714844e+00,-6.119350194931030273e-01,3.824593424797058105e-01,2.810000000000000000e+02
-6.776918764472206931e+02,-5.495797148577541975e+02,-1.783430159718143386e+02,-3.084738464460858722e+02,-3.606554976701104351e+02,-4.237608601108863695e+02,-1.082971517369675212e+02,-2.235650136041197129e+02,9.484992027282714844e+00,-6.119350194931030273e-01,3.824593424797058105e-01,2.820000000000000000e+02
-6.803217332483085329e+02,-5.453362815495083851e+02,-1.792359978588028753e+02,-3.068814914315274791e+02,-3.605315998660814785e+02,-4.222442454551467108e+02,-1.102860899866445834e+02,-2.240457122986596232e+02,9.484992027282714844e+00,-6.119350194931030273e-01,3.824593424797058105e-01,2.830000000000000000e+02
-6.804928796546154217e+02,-5.409823168187103875e+02,-1.790890811049875992e+02,-3.054550847616164901e+02,-3.607737055774803139e+02,-4.210268611936194247e+02,-1.129365240837113333e+02,-2.247344506548460004e+02,9.484992027282714844e+00,-6.119350194931030273e-01,3.824593424797058105e-01,2.840000000000000000e+02
-6.790841005210298817e+02,-5.361949564564725961e+02,-1.783809211949312612e+02,-3.042238446296835264e+02,-3.606884529882576658e+02,-4.203851657993159279e+02,-1.148066896713642109e+02,-2.258700318762623738e+02,9.484992027282714844e+00,-6.119350194931030273e-01,3.824593424797058105e-01,2.850000000000000000e+02
-6.770713334856781103e+02,-5.310989889642837625e+02,-1.776563839960796258e+02,-3.030858246088038186e+02,-3.600476828744112368e+02,-4.201402565802438858e+02,-1.150200678294243062e+02,-2.279260733836312056e+02,9.484992027282714844e+00,-6.119350194931030273e-01,3.824593424797058105e-01,2.860000000000000000e+02
-6.746380230237948581e+02,-5.262595042614786962e+02,-1.768543353126840429e+02,-3.019441750821109736e+02,-3.592123332803901690e+02,-4.198141119542302135e+02,-1.135671260595071317e+02,-2.308613851931971794e+02,9.484992027282714844e+00,-6.119350194931030273e-01,3.824593424797058105e-01,2.870000000000000000e+02
-6.714471856314198703e+02,-5.223174822974362996e+02,-1.753004594096423716e+02,-3.007931045549923397e+02,-3.585781109596800889e+02,-4.188522720798839032e+02,-1.111392039331014985e+02,-2.336592469689614973e+02,9.484992027282714844e+00,-6.119350194931030273e-01,3.824593424797058105e-01,2.880000000000000000e+02
-6.676287339112086556e+02,-5.197080672722593135e+02,-1.724891631597217838e+02,-2.997717278500883822e+02,-3.580465313845091941e+02,-4.168822081919346374e+02,-1.087997467345934410e+02,-2.349723876851480782e+02,9.484992027282714844e+00,-6.119350194931030273e-01,3.824593424797058105e-01,2.890000000000000000e+02
-6.642480886009891492e+02,-5.185861509924216080e+02,-1.689228816039432104e+02,-2.991422740219923071e+02,-3.571261811215467219e+02,-4.139543340041246893e+02,-1.076207618123451084e+02,-2.344215486084196982e+02,9.484992027282714844e+00,-6.119350194931030273e-01,3.824593424797058105e-01,2.900000000000000000e+02
-6.626382425574590798e+02,-5.187560703008805376e+02,-1.661123160013348183e+02,-2.991210198364834127e+02,-3.555603983298946673e+02,-4.106065904588249396e+02,-1.082405567028242785e+02,-2.332083196036851405e+02,9.408499717712402344e+00,-6.501809358596801758e-01,4.207052886486053467e-01,2.910000000000000000e+02
-6.632663103025329292e+02,-5.195050428337860922e+02,-1.655558620523237323e+02,-2.996133759647764236e+02,-3.537984911993597166e+02,-4.075999128415952555e+02,-1.104411180494261089e+02,-2.332412171501409830e+02,9.408499717712402344e+00,-6.501809358596801758e-01,4.207052886486053467e-01,2.920000000000000000e+02
-6.653309182401205817e+02,-5.196201576708629091e+02,-1.674942484123588429e+02,-3.000884109538445159e+02,-3.527877836103186269e+02,-4.054276113834461626e+02,-1.131025574693589988e+02,-2.354824549151478550e+02,9.408499717712402344e+00,-6.501809358596801758e-01,4.207052886486053467e-01,2.930000000000000000e+02
-6.674637923744413683e+02,-5.179145503700904101e+02,-1.705412950247786057e+02,-2.998302108741071379e+02,-3.532283752313792320e+02,-4.039959058779809311e+02,-1.147855506307903397e+02,-2.390615023163056776e+02,9.408499717712402344e+00,-6.501809358596801758e-01,4.207052886486053467e-01,2.940000000000000000e+02
-6.687405094155775487e+02,-5.140663862910373609e+02,-1.725761267375130501e+02,-2.984753838507938326e+02,-3.549454361237528701e+02,-4.028143920196866929e+02,-1.146573180679922643e+02,-2.419788223715672757e+02,9.408499717712402344e+00,-6.501809358596801758e-01,4.207052886486053467e-01,2.950000000000000000e+02
-6.689985074294495462e+02,-5.090478714191364134e+02,-1.722214439136040482e+02,-2.963859388189896436e+02,-3.569329543964489062e+02,-4.015708928969174281e+02,-1.130547309018080568e+02,-2.427003771093546902e+02,9.408499717712402344e+00,-6.501809358596801758e-01,4.207052886486053467e-01,2.960000000000000000e+02
-6.683497090697344447e+02,-5.045884495459056325e+02,-1.697533906771265038e+02,-2.944473039704694202e+02,-3.580363820548901685e+02,-4.005414376369830620e+02,-1.112022753842878728e+02,-2.411638751854329712e+02,9.408499717712402344e+00,-6.501809358596801758e-01,4.207052886486053467e-01,2.970000000000000000e+02
-6.666858189323035049e+02,-5.019674044167118154e+02,-1.667779168539294687e+02,-2.933786964069871601e+02,-3.577179795169206500e+02,-4.003884319325335923e+02,-1.103118621447429177e+02,-2.384354309409031885e+02,9.408499717712402344e+00,-6.501809358596801758e-01,4.207052886486053467e-01,2.980000000000000000e+02
-6.638594700950174001e+02,-5.011351157636687503e+02,-1.650227525152922681e+02,-2.931668331675247714e+02,-3.563474482949379762e+02,-4.015145080248119029e+02,-1.108309602725283867e+02,-2.356270609754408270e+02,9.408499717712402344e+00,-6.501809358596801758e-01,4.207052886486053467e-01,2.990000000000000000e+02
-6.602892703442632865e+02,-5.009366487432538406e+02,-1.652286927103206153e+02,-2.931698462104646410e+02,-3.548631665903876637e+02,-4.036130292175503200e+02,-1.124058449427373034e+02,-2.332150762217678448e+02,9.408499717712402344e+00,-6.501809358596801758e-01,4.207052886486053467e-01,3.000000000000000000e+02
-6.571140137704826429e+02,-5.001672069377469825e+02,-1.668873573060182025e+02,-2.927809707838366080e+02,-3.540676956673223685e+02,-4.058460051321936817e+02,-1.143830392341651532e+02,-2.311733750641707275e+02,9.408499717712402344e+00,-6.501809358596801758e-01,4.207052886486053467e-01,3.010000000000000000e+02
-6.554837625265188308e+02,-4.984263642147369637e+02,-1.688169576043544566e+02,-2.919514267457073515e+02,-3.540149918603166270e+02,-4.074285192786951484e+02,-1.162131608840371655e+02,-2.293581447529037405e+02,9.408499717712402344e+00,-6.501809358596801758e-01,4.207052886486053467e-01,3.020000000000000000e+02
-6.555856833658741607e+02,-4.960248788550691188e+02,-1.699858472646417340e+02,-2.910350816620288015e+02,-3.538880727342179284e+02,-4.080130242026120868e+02,-1.174262117006876451e+02,-2.275007504126159574e+02,9.408499717712402344e+00,-6.501809358596801758e-01,4.207052886486053467e-01,3.030000000000000000e+02
-6.563799260583730302e+02,-4.932364352155785809e+02,-1.699956315945152028e+02,-2.901913399748436291e+02,-3.524807357977726952e+02,-4.075903397762504028e+02,-1.174823983036264963e+02,-2.249165874268803691e+02,9.408499717712402344e+00,-6.501809358596801758e-01,4.207052886486053467e-01,3.040000000000000000e+02
-6.563440023820734268e+02,-4.898441051832243147e+02,-1.690339166082208067e+02,-2.890811807183259816e+02,-3.490120540357310119e+02,-4.062023041468744395e+02,-1.159667930873570185e+02,-2.206233389320306060e+02,9.408499717712402344e+00,-6.501809358596801758e-01,4.207052886486053467e-01,3.050000000000000000e+02
-6.545282162339337901e+02,-4.855215931552266966e+02,-1.675340896799801840e+02,-2.872569428350723229e+02,-3.437594523781948510e+02,-4.039133562908564272e+02,-1.131061429509406935e+02,-2.141872131146693619e+02,9.408499717712402344e+00,-6.501809358596801758e-01,4.207052886486053467e-01,3.060000000000000000e+02
-6.510037607001554534e+02,-4.805721021305982958e+02,-1.658876704150856085e+02,-2.848199521932364178e+02,-3.380493173227683883e+02,-4.010558970769757252e+02,-1.100121912649657361e+02,-2.066014778532792207e+02,9.408499717712402344e+00,-6.501809358596801758e-01,4.207052886486053467e-01,3.070000000000000000e+02
-6.465001487063809691e+02,-4.760762473046299306e+02,-1.643686551842488370e+02,-2.825468031966828448e+02,-3.335526851976684384e+02,-3.983083328478188605e+02,-1.081473516272461666e+02,-2.001387759780427587e+02,9.408499717712402344e+00,-6.501809358596801758e-01,4.207052886486053467e-01,3.080000000000000000e+02
-6.418452180169673511e+02,-4.731236589554441707e+02,-1.631951213902810878e+02,-2.812523496068665736e+02,-3.313423140062661219e+02,-3.963229621042892177e+02,-1.082881678617852685e+02,-1.969555897218091332e+02,9.408499717712402344e+00,-6.501809358596801758e-01,4.207052886486053467e-01,3.090000000000000000e+02
-6.378522343373820149e+02,-4.718327487505634963e+02,-1.625710396095438455e+02,-2.810249567121005612e+02,-3.313895967787181007e+02,-3.952040228284881778e+02,-1.099049032489615456e+02,-1.975107016442944996e+02,9.408499717712402344e+00,-6.501809358596801758e-01,4.207052886486053467e-01,3.100000000000000000e+02
-6.355389239255791836e+02,-4.711767482158920188e+02,-1.626149058541559498e+02,-2.811468327946707859e+02,-3.328386463979798009e+02,-3.944192491999210688e+02,-1.116176389466319279e+02,-2.002343959281815842e+02,9.408499717712402344e+00,-6.501809358596801758e-01,4.207052886486053467e-01,3.110000000000000000e+02
-6.360120992088695857e+02,-4.698683044442572623e+02,-1.632170941743951289e+02,-2.808033564277810683e+02,-3.347546385916878080e+02,-3.933231534612958740e+02,-1.124006052979010519e+02,-2.028266537353895274e+02,9.446745872497558594e+00,-6.501809358596801758e-01,3.824593424797058105e-01,3.120000000000000000e+02
-6.396902470809369561e+02,-4.674993308048168501e+02,-1.640046800240331777e+02,-2.798515377436358449e+02,-3.367062522656244710e+02,-3.918012162461915295e+02,-1.124844235307962208e+02,-2.040856874635753684e+02,9.446745872497558594e+00,-6.501809358596801758e-01,3.824593424797058105e-01,3.130000000000000000e+02
-6.454244333320798432e+02,-4.648616675641151232e+02,-1.645639025586643243e+02,-2.788834932794437691e+02,-3.387672720845961294e+02,-3.903953130911401104e+02,-1.131567906829302501e+02,-2.046811532961431794e+02,9.446745872497558594e+00,-6.501809358596801758e-01,3.824593424797058105e-01,3.140000000000000000e+02
-6.505474172772782140e+02,-4.631490337517625449e+02,-1.648333372563083685e+02,-2.785753106559993739e+02,-3.410860260061185727e+02,-3.897834312818380340e+02,-1.156326203595099287e+02,-2.062581296930043209e+02,9.446745872497558594e+00,-6.501809358596801758e-01,3.824593424797058105e-01,3.150000000000000000e+02
-6.522007271719802475e+02,-4.627825422588325637e+02,-1.653209673310923336e+02,-2.790185666777416600e+02,-3.435071994372060544e+02,-3.901221135708533438e+02,-1.199641546714763081e+02,-2.097355360761546308e+02,9.446745872497558594e+00,-6.501809358596801758e-01,3.824593424797058105e-01,3.160000000000000000e+02
-6.490893248976913128e+02,-4.629307839448348432e+02,-1.668259528133608001e+02,-2.796646318189569911e+02,-3.455797845137869899e+02,-3.908687935205725807e+02,-1.248764588473451340e+02,-2.143117609546810627e+02,9.446745872497558594e+00,-6.501809358596801758e-01,3.824593424797058105e-01,3.170000000000000000e+02
-6.422829539817939803e+02,-4.621337574400736230e+02,-1.697272300414667825e+02,-2.798271585514792150e+02,-3.468689431081270413e+02,-3.911934792136170245e+02,-1.285909989125831316e+02,-2.179899838983823201e+02,9.446745872497558594e+00,-6.501809358596801758e-01,3.824593424797058105e-01,3.180000000000000000e+02
-6.344058385114173007e+02,-4.594769571921705165e+02,-1.733815260264766493e+02,-2.792007728187375051e+02,-3.472329593566689709e+02,-3.905735701558437540e+02,-1.299395571265704348e+02,-2.190967195559304628e+02,9.446745872497558594e+00,-6.501809358596801758e-01,3.824593424797058105e-01,3.190000000000000000e+02
-6.278989112950290519e+02,-4.552992221161218822e+02,-1.762280284376305417e+02,-2.779597544514210767e+02,-3.468143733396302650e+02,-3.890812235341132919e+02,-1.289525303704173211e+02,-2.174777825439691696e+02,9.446745872497558594e+00,-6.501809358596801758e-01,3.824593424797058105e-01,3.200000000000000000e+02
-6.237273803037019206e+02,-4.508649253441826659e+02,-1.766801489963702352e+02,-2.764822199495895347e+02,-3.457967314108934715e+02,-3.872020576098246920e+02,-1.266137514217671196e+02,-2.144378686030512426e+02,9.446745872497558594e+00,-6.501809358596801758e-01,3.824593424797058105e-01,3.210000000000000000e+02
-6.213471837362772021e+02,-4.473324828083909779e+02,-1.741751417457802518e+02,-2.750448221933709192e+02,-3.441791840120852157e+02,-3.854037419951944230e+02,-1.240894931786185680e+02,-2.115798655753034154e+02,9.446745872497558594e+00,-6.501809358596801758e-01,3.824593424797058105e-01,3.220000000000000000e+02
-6.195846414998103455e+02,-4.448995430050490540e+02,-1.695475583861718860e+02,-2.737209366426067163e+02,-3.417810036624075565e+02,-3.838009159321890138e+02,-1.220177901711475670e+02,-2.095610008068308616e+02,9.446745872497558594e+00,-6.501809358596801758e-01,3.824593424797058105e-01,3.230000000000000000e+02
-6.174608801689146276e+02,-4.428108922994924797e+02,-1.644454750447091556e+02,-2.724740401801462895e+02,-3.385022662849980861e+02,-3.821485892161138054e+02,-1.203275991581213020e+02,-2.077829889543789932e+02,9.446745872497558594e+00,-6.501809358596801758e-01,3.824593424797058105e-01,3.240000000000000000e+02
-6.143947253574307297e+02,-4.401508859210914579e+02,-1.602892894384622196e+02,-2.712985041676201945e+02,-3.346242313083853333e+02,-3.801336544250211773e+02,-1.186138157116163256e+02,-2.051919602762275190e+02,9.446745872497558594e+00,-6.501809358596801758e-01,3.824593424797058105e-01,3.250000000000000000e+02
-6.100743858308537710e+02,-4.366729639769515643e+02,-1.575969756017750569e+02,-2.702980663131154415e+02,-3.308582569254833743e+02,-3.777187107739414387e+02,-1.166995345621543265e+02,-2.014456502727376801e+02,9.446745872497558594e+00,-6.501809358596801758e-01,3.824593424797058105e-01,3.260000000000000000e+02
-6.045628016011276031e+02,-4.329258186742283669e+02,-1.560920852295981831e+02,-2.696571771419653487e+02,-3.280169405773557401e+02,-3.752285696848598491e+02,-1.149098314143232074e+02,-1.974041117763849797e+02,9.446745872497558594e+00,-6.501809358596801758e-01,3.824593424797058105e-01,3.270000000000000000e+02
-5.986249951365814468e+02,-4.295915621825606650e+02,-1.552984229647829579e+02,-2.694628883196555762e+02,-3.264775360996148947e+02,-3.730402112938470509e+02,-1.138250115624819045e+02,-1.944554063364093963e+02,9.446745872497558594e+00,-6.501809358596801758e-01,3.824593424797058105e-01,3.280000000000000000e+02
-5.937075304529685127e+02,-4.266824765715823560e+02,-1.549730049815716484e+02,-2.694482314727497396e+02,-3.258500452950605677e+02,-3.711103782359114120e+02,-1.137269308392237690e+02,-1.931987038238669356e+02,9.446745872497558594e+00,-6.501809358596801758e-01,3.824593424797058105e-01,3.290000000000000000e+02
-5.911473756156160562e+02,-4.233711722181933510e+02,-1.550175591335153058e+02,-2.688781170819946738e+02,-3.251632687426921393e+02,-3.687884360840662339e+02,-1.142333802410136059e+02,-1.926287417074618133e+02,9.446745872497558594e+00,-6.501809358596801758e-01,3.824593424797058105e-01,3.300000000000000000e+02
-5.910341496567773447e+02,-4.186339878551824540e+02,-1.551050167140492704e+02,-2.668092954641376764e+02,-3.234809022698751733e+02,-3.651778937172466613e+02,-1.144721234013863977e+02,-1.906484457779932882e+02,9.446745872497558594e+00,-6.501809358596801758e-01,3.824593424797058105e-01,3.310000000000000000e+02
-5.918005505100310302e+02,-4.121467904238351139e+02,-1.545563051049390424e+02,-2.627082313109290226e+02,-3.204912687659716539e+02,-3.598185658963786864e+02,-1.136797897426137069e+02,-1.856663607256847399e+02,9.446745872497558594e+00,-6.501809358596801758e-01,3.824593424797058105e-01,3.320000000000000000e+02
-5.911665461563654844e+02,-4.046642381129403248e+02,-1.527094635619056362e+02,-2.570235262682044777e+02,-3.166107839605382424e+02,-3.531132357060250797e+02,-1.117193372473277577e+02,-1.780357268037819267e+02,9.446745872497558594e+00,-6.501809358596801758e-01,3.824593424797058105e-01,3.330000000000000000e+02
-5.878475639140909834e+02,-3.976190365720030968e+02,-1.494910623669850338e+02,-2.512172796459531128e+02,-3.125890421052577040e+02,-3.461304975089456093e+02,-1.090918994337832828e+02,-1.701036847814957582e+02,9.446745872497558594e+00,-6.501809358596801758e-01,3.824593424797058105e-01,3.340000000000000000e+02
-5.826088124979052054e+02,-3.923329374860161352e+02,-1.456342796808852427e+02,-2.470901803559645487e+02,-3.090398278832067263e+02,-3.399638746742527928e+02,-1.064837670148260713e+02,-1.647136868202444475e+02,9.446745872497558594e+00,-6.501809358596801758e-01,3.824593424797058105e-01,3.350000000000000000e+02
-5.776925965538196124e+02,-3.894303794495610873e+02,-1.422599904407558142e+02,-2.457633687570255461e+02,-3.062989592225914066e+02,-3.351782721397410114e+02,-1.042902094850518324e+02,-1.632609413233564055e+02,9.446745872497558594e+00,-6.501809358596801758e-01,3.824593424797058105e-01,3.360000000000000000e+02
-5.750601195509333365e+02,-3.887242888590228631e+02,-1.401458475829169856e+02,-2.470041508336079232e+02,-3.046185523030308104e+02,-3.317247096855667223e+02,-1.025568829155250796e+02,-1.648272067739997055e+02,9.408499717712402344e+00,-6.884268522262573242e-01,3.824593424797058105e-01,3.370000000000000000e+02
-5.749020886557904078e+02,-3.894107281010346924e+02,-1.392896693792938549e+02,-2.493632369514800757e+02,-3.042781196000642012e+02,-3.292187937542184955e+02,-1.013124159555338792e+02,-1.670137009611694339e+02,9.408499717712402344e+00,-6.884268522262573242e-01,3.824593424797058105e-01,3.380000000000000000e+02
-5.756088647975185495e+02,-3.903309977066869578e+02,-1.391191060108634474e+02,-2.510303696106977895e+02,-3.053043218154067517e+02,-3.272181353341361500e+02,-1.008458511622278593e+02,-1.676910128171484757e+02,9.408499717712402344e+00,-6.884268522262573242e-01,3.824593424797058105e-01,3.390000000000000000e+02
-5.751135833826142516e+02,-3.902756214208865231e+02,-1.390761417641737125e+02,-2.508136044164714349e+02,-3.070253375765241799e+02,-3.252821604438640861e+02,-1.015237655851216232e+02,-1.662134721797146995e+02,9.408499717712402344e+00,-6.884268522262573242e-01,3.824593424797058105e-01,3.400000000000000000e+02
-5.724084067699207026e+02,-3.883983931693127261e+02,-1.389645350950496550e+02,-2.486037417137083594e+02,-3.080282989393313073e+02,-3.229249600922616992e+02,-1.032536883997420318e+02,-1.632659887828585852e+02,9.408499717712402344e+00,-6.884268522262573242e-01,3.824593424797058105e-01,3.410000000000000000e+02
-5.680519425920874710e+02,-3.846197693204493362e+02,-1.387615756074940236e+02,-2.451210127972744885e+02,-3.068350659961140536e+02,-3.196858735496625741e+02,-1.051704447221636656e+02,-1.597807788607747170e+02,9.408499717712402344e+00,-6.884268522262573242e-01,3.824593424797058105e-01,3.420000000000000000e+02
-5.634623336119375381e+02,-3.797075169099254026e+02,-1.382298992447891806e+02,-2.412780556063671611e+02,-3.029364776220709246e+02,-3.153546033143420573e+02,-1.060348621703517438e+02,-1.561032190007838381e+02,9.408499717712402344e+00,-6.884268522262573242e-01,3.824593424797058105e-01,3.430000000000000000e+02
-5.597706200321624692e+02,-3.748509431058965902e+02,-1.369440941111083703e+02,-2.377193781659743763e+02,-2.973811351834231118e+02,-3.101677878465168305e+02,-1.051779881764501852e+02,-1.521170104319371603e+02,9.408499717712402344e+00,-6.884268522262573242e-01,3.824593424797058105e-01,3.440000000000000000e+02
-5.571864702369982751e+02,-3.709682865788947765e+02,-1.348564211272760076e+02,-2.347960227660523742e+02,-2.923304230745434324e+02,-3.047494105964540267e+02,-1.031888763830834250e+02,-1.479252385842805779e+02,9.408499717712402344e+00,-6.884268522262573242e-01,3.824593424797058105e-01,3.450000000000000000e+02
-5.551912227771654216e+02,-3.682410548105060570e+02,-1.327717640504085921e+02,-2.327488655086599465e+02,-2.897748762907185665e+02,-2.997665379560060046e+02,-1.016082689849049530e+02,-1.441290765183227904e+02,9.408499717712402344e+00,-6.884268522262573242e-01,3.824593424797058105e-01,3.460000000000000000e+02
-5.531484656801496840e+02,-3.661574796012062052e+02,-1.319933673317428884e+02,-2.317063913806150595e+02,-2.902864014279339244e+02,-2.955188691677140014e+02,-1.017155597386135923e+02,-1.412754625290338026e+02,9.408499717712402344e+00,-6.884268522262573242e-01,3.824593424797058105e-01,3.470000000000000000e+02
-5.507688642270904893e+02,-3.639312744735821070e+02,-1.332150949777367259e+02,-2.314165122496701770e+02,-2.926918769497513040e+02,-2.917617164527148361e+02,-1.033826483790669499e+02,-1.390727215677111417e+02,9.408499717712402344e+00,-6.884268522262573242e-01,3.824593424797058105e-01,3.480000000000000000e+02
-5.481961597874958443e+02,-3.609397905958212505e+02,-1.356623566215710071e+02,-2.310855464642143033e+02,-2.948682072165479440e+02,-2.879259439602665225e+02,-1.050393621070452355e+02,-1.363401100058799784e+02,9.408499717712402344e+00,-6.884268522262573242e-01,3.824593424797058105e-01,3.490000000000000000e+02
-5.458596200591664456e+02,-3.569732884418810954e+02,-1.374679708329488221e+02,-2.297107247119047315e+02,-2.950597840515008556e+02,-2.835922964033838980e+02,-1.048656792080228115e+02,-1.319308992576138735e+02,9.408499717712402344e+00,-6.884268522262573242e-01,3.824593424797058105e-01,3.500000000000000000e+02
-5.442768518985997162e+02,-3.523147075210158619e+02,-1.371213984019382224e+02,-2.267710919954040492e+02,-2.927919680530799269e+02,-2.788421120353077640e+02,-1.022080703078831903e+02,-1.258179213745188463e+02,9.408499717712402344e+00,-6.884268522262573242e-01,3.824593424797058105e-01,3.510000000000000000e+02
-5.437998701723852264e+02,-3.476828774017071737e+02,-1.346724546958946576e+02,-2.226520501515392425e+02,-2.888253694967638694e+02,-2.741670074824814947e+02,-9.799062047603001702e+01,-1.192515329377333728e+02,9.408499717712402344e+00,-6.884268522262573242e-01,3.824593424797058105e-01,3.520000000000000000e+02
-5.442796588958985922e+02,-3.439612606286873415e+02,-1.314996413323692650e+02,-2.183288199950084163e+02,-2.843415824033634181e+02,-2.699891930438584495e+02,-9.382113342438879044e+01,-1.137664911650699651e+02,9.408499717712402344e+00,-6.884268522262573242e-01,3.824593424797058105e-01,3.530000000000000000e+02
-5.448516481651445247e+02,-3.416775280121523792e+02,-1.288593917670482369e+02,-2.145684886063509111e+02,-2.800838758714257892e+02,-2.662579194308329988e+02,-9.070435341775919369e+01,-1.099571079174193073e+02,9.408499717712402344e+00,-6.884268522262573242e-01,3.824593424797058105e-01,3.540000000000000000e+02
-5.441862407181254184e+02,-3.404981442716621132e+02,-1.266959798055793271e+02,-2.114270588860485987e+02,-2.761022026621117220e+02,-2.625740436425276130e+02,-8.855714042552222054e+01,-1.071654772700555895e+02,9.408499717712402344e+00,-6.884268522262573242e-01,3.824593424797058105e-01,3.550000000000000000e+02
-5.412697171665270162e+02,-3.392178667350510750e+02,-1.239400207920575667e+02,-2.085104466258144384e+02,-2.721715312816195365e+02,-2.587644228112196743e+02,-8.682062055433834757e+01,-1.043059949381568003e+02,9.408499717712402344e+00,-6.884268522262573242e-01,3.824593424797058105e-01,3.560000000000000000e+02
-5.362063440168683428e+02,-3.364528604278407329e+02,-1.199807949679366175e+02,-2.056608892669992201e+02,-2.683841337526562256e+02,-2.553142446876074700e+02,-8.536426798248385239e+01,-1.009601089067996327e+02,9.408499717712402344e+00,-6.884268522262573242e-01,3.824593424797058105e-01,3.570000000000000000e+02
-5.302770657258959091e+02,-3.316241195462846463e+02,-1.157390363042843546e+02,-2.032731101554122688e+02,-2.653406448211092084e+02,-2.531187731880154388e+02,-8.467381269113070630e+01,-9.771029529724319218e+01,9.408499717712402344e+00,-6.884268522262573242e-01,3.824593424797058105e-01,3.580000000000000000e+02
-5.249778655331901973e+02,-3.254377676845649603e+02,-1.131293692859885596e+02,-2.018708921201725843e+02,-2.637601407478884994e+02,-2.526858606399237033e+02,-8.517568823616238660e+01,-9.550943471537630103e+01,9.408499717712402344e+00,-6.884268522262573242e-01,3.824593424797058105e-01,3.590000000000000000e+02
-5.207286553015499067e+02,-3.194225009586207307e+02,-1.133557883228654646e+02,-2.014182936427071127e+02,-2.638689216150005450e+02,-2.535416579487512081e+02,-8.652017486682052549e+01,-9.482715609281331126e+01,9.408499717712402344e+00,-6.884268522262573242e-01,3.824593424797058105e-01,3.600000000000000000e+02
-5.164267294783335274e+02,-3.148814314797657516e+02,-1.157112835540117430e+02,-2.011580757319622990e+02,-2.651473499848175379e+02,-2.544802796565729750e+02,-8.769478559075537305e+01,-9.539637679518682489e+01,9.408499717712402344e+00,-6.884268522262573242e-01,3.824593424797058105e-01,3.610000000000000000e+02
-5.104058449362089505e+02,-3.121365114754053138e+02,-1.180916881925995767e+02,-2.002110585561326843e+02,-2.666738550035881872e+02,-2.544921149679628343e+02,-8.792640279166880646e+01,-9.664004076576793523e+01,9.408499717712402344e+00,-6.884268522262573242e-01,3.824593424797058105e-01,3.620000000000000000e+02
-5.021011524458958775e+02,-3.106135044787790775e+02,-1.187512332432766016e+02,-1.983456776261743926e+02,-2.677571694078681048e+02,-2.535061406457725752e+02,-8.745680034494512256e+01,-9.816201945952479946e+01,9.408499717712402344e+00,-6.884268522262573242e-01,3.824593424797058105e-01,3.630000000000000000e+02
-4.929356413161515320e+02,-3.095250910043380372e+02,-1.176570335377114134e+02,-1.961608822353314281e+02,-2.682970840658299494e+02,-2.522641487190653606e+02,-8.738421129342032145e+01,-9.978581737853869527e+01,9.446745872497558594e+00,-6.501809358596801758e-01,3.824593424797058105e-01,3.640000000000000000e+02
-4.854747833313492720e+02,-3.084251836674413880e+02,-1.162021676673687125e+02,-1.945166044611805773e+02,-2.685368142780725975e+02,-2.514877672761697340e+02,-8.865801685093083506e+01,-1.012348175298898241e+02,9.446745872497558594e+00,-6.501809358596801758e-01,3.824593424797058105e-01,3.650000000000000000e+02
-4.814174463965780433e+02,-3.071849519036420588e+02,-1.156545529967722814e+02,-1.937829450794204149e+02,-2.684734243383593366e+02,-2.511705163521269242e+02,-9.113984705556140398e+01,-1.019719674440029848e+02,9.446745872497558594e+00,-6.501809358596801758e-01,3.824593424797058105e-01,3.660000000000000000e+02
-4.801322664730469114e+02,-3.056663277055195067e+02,-1.159055500444335394e+02,-1.936154185555449203e+02,-2.675708672616585773e+02,-2.506737584203087863e+02,-9.359731504375849909e+01,-1.014921941444385993e+02,9.446745872497558594e+00,-6.501809358596801758e-01,3.824593424797058105e-01,3.670000000000000000e+02
-4.790468523060517327e+02,-3.036558760986279140e+02,-1.156682828228108519e+02,-1.933915120745757577e+02,-2.651326650740277273e+02,-2.494831830914813509e+02,-9.461329502592457175e+01,-9.976634230029571881e+01,9.446745872497558594e+00,-6.501809358596801758e-01,3.824593424797058105e-01,3.680000000000000000e+02
-4.756056262094252816e+02,-3.011977724033072263e+02,-1.138239488423910188e+02,-1.928254832148475089e+02,-2.610375947453539993e+02,-2.478605791932277498e+02,-9.359871312049335756e+01,-9.729363613234204422e+01,9.446745872497558594e+00,-6.501809358596801758e-01,3.824593424797058105e-01,3.690000000000000000e+02
-4.691673354718109294e+02,-2.988555342462245790e+02,-1.105444646937248763e+02,-1.921708397724976294e+02,-2.560980925370499790e+02,-2.467372380488250201e+02,-9.108191813885764532e+01,-9.462597834750658876e+01,9.446745872497558594e+00,-6.501809358596801758e-01,3.824593424797058105e-01,3.700000000000000000e+02
-4.612954807864598479e+02,-2.973855046339658657e+02,-1.071332330086011098e+02,-1.918512630955865461e+02,-2.515607078536829704e+02,-2.469012346683766737e+02,-8.811981025198588213e+01,-9.179477247570457621e+01,9.446745872497558594e+00,-6.501809358596801758e-01,3.824593424797058105e-01,3.710000000000000000e+02
-4.543211767295254049e+02,-2.969732530855696950e+02,-1.048259007922595174e+02,-1.918940881416731372e+02,-2.480988159736348280e+02,-2.481763768946607343e+02,-8.543142687947488412e+01,-8.823598462228869721e+01,9.446745872497558594e+00,-6.501809358596801758e-01,3.824593424797058105e-01,3.720000000000000000e+02
-4.495115603356528027e+02,-2.968070838626749719e+02,-1.037765796257847342e+02,-1.917018479963410300e+02,-2.452517238364644072e+02,-2.493248946682015230e+02,-8.302486505126739758e+01,-8.335497143220527505e+01,9.446745872497558594e+00,-6.501809358596801758e-01,3.824593424797058105e-01,3.730000000000000000e+02
-4.463912738601909496e+02,-2.956072666666123041e+02,-1.031997536102737740e+02,-1.904215554020374839e+02,-2.419597290584777056e+02,-2.488518392620962913e+02,-8.059220441777779342e+01,-7.728287656987208720e+01,9.446745872497558594e+00,-6.501809358596801758e-01,3.824593424797058105e-01,3.740000000000000000e+02
-4.436104410462544365e+02,-2.927920137944151975e+02,-1.024259888565738947e+02,-1.876557085605006705e+02,-2.378025841265887266e+02,-2.461375349290738086e+02,-7.822220478899680529e+01,-7.117976576669252609e+01,9.446745872497558594e+00,-6.501809358596801758e-01,3.824593424797058105e-01,3.750000000000000000e+02
-4.403664386527050283e+02,-2.892085590413016689e+02,-1.017102113901473786e+02,-1.839247554206808672e+02,-2.337635522038731324e+02,-2.419996811486844308e+02,-7.668222397738190921e+01,-6.678421608493067652e+01,9.446745872497558594e+00,-6.501809358596801758e-01,3.824593424797058105e-01,3.760000000000000000e+02
-4.370250431287470292e+02,-2.866286055659631984e+02,-1.019256122670794866e+02,-1.804291616943146437e+02,-2.316458674107384468e+02,-2.381619248796673673e+02,-7.689429039953347456e+01,-6.546170054889898893e+01,9.446745872497558594e+00,-6.501809358596801758e-01,3.824593424797058105e-01,3.770000000000000000e+02
-4.344566198902218730e+02,-2.863013732239917317e+02,-1.034466281470843114e+02,-1.781955690685117588e+02,-2.324847949962693292e+02,-2.359513136508790012e+02,-7.897874743199190561e+01,-6.733975605237037598e+01,9.446745872497558594e+00,-6.501809358596801758e-01,3.824593424797058105e-01,3.780000000000000000e+02
-4.328560402450702895e+02,-2.878037281178094418e+02,-1.054050656646743391e+02,-1.772675591523939147e+02,-2.353514596931354390e+02,-2.352520453516153793e+02,-8.173732787202015970e+01,-7.108310766740964937e+01,9.446745872497558594e+00,-6.501809358596801758e-01,3.824593424797058105e-01,3.790000000000000000e+02
-4.312633794170135388e+02,-2.892184503531939299e+02,-1.061626580032300353e+02,-1.766483964884728266e+02,-2.377081349008126381e+02,-2.346061291547930523e+02,-8.316197168755729763e+01,-7.446015028796500701e+01,9.446745872497558594e+00,-6.501809358596801758e-01,3.824593424797058105e-01,3.800000000000000000e+02
-4.282786097603479902e+02,-2.885271393870339125e+02,-1.046187440631704249e+02,-1.751051236235221040e+02,-2.371195988928823226e+02,-2.324099966754206434e+02,-8.171537235388814224e+01,-7.539629801639193829e+01,9.446745872497558594e+00,-6.501809358596801758e-01,3.824593424797058105e-01,3.810000000000000000e+02
-4.232927882121171024e+02,-2.850769901853032025e+02,-1.011262656671988225e+02,-1.721858172232755351e+02,-2.329174474100586849e+02,-2.282080022432824080e+02,-7.743156126356757341e+01,-7.295183587187830199e+01,9.446745872497558594e+00,-6.501809358596801758e-01,3.824593424797058105e-01,3.820000000000000000e+02
-4.170692115985598321e+02,-2.799793680121815669e+02,-9.716471207864537973e+01,-1.685854355096932977e+02,-2.264909598925748924e+02,-2.229921942602218223e+02,-7.197132432763737597e+01,-6.771584026549862756e+01,9.446745872497558594e+00,-6.501809358596801758e-01,3.824593424797058105e-01,3.830000000000000000e+02
-4.111115298125803292e+02,-2.752439366504249847e+02,-9.412504070418913216e+01,-1.655805478357312950e+02,-2.201243864891023350e+02,-2.183426542500305914e+02,-6.759619691983971279e+01,-6.144976855345703370e+01,9.446745872497558594e+00,-6.501809358596801758e-01,3.824593424797058105e-01,3.840000000000000000e+02
-4.064104789572925256e+02,-2.724259956890805370e+02,-9.236729567917200256e+01,-1.640681302415139271e+02,-2.155036636534300669e+02,-2.152836646936848410e+02,-6.587001016933982100e+01,-5.625188551191376973e+01,9.446745872497558594e+00,-6.501809358596801758e-01,3.824593424797058105e-01,3.850000000000000000e+02
-4.027376997213750656e+02,-2.717961186364568675e+02,-9.135165406366741081e+01,-1.640333509502202105e+02,-2.130795284013506716e+02,-2.138775923516163857e+02,-6.702217063697980848e+01,-5.374417672573736127e+01,9.446745872497558594e+00,-6.501809358596801758e-01,3.824593424797058105e-01,3.860000000000000000e+02
-3.991113521912693614e+02,-2.724857117611948070e+02,-9.052878308832532639e+01,-1.647965162876735121e+02,-2.124888859094949112e+02,-2.137344318014515920e+02,-7.025163740657853850e+01,-5.464566051890687959e+01,9.446745872497558594e+00,-6.501809358596801758e-01,3.824593424797058105e-01,3.870000000000000000e+02
-3.949200777768783155e+02,-2.733168535166448692e+02,-8.995343615288356887e+01,-1.656558478799458953e+02,-2.132532181566061809e+02,-2.146845329733505423e+02,-7.446119349488571970e+01,-5.872159432700482284e+01,9.446745872497558594e+00,-6.501809358596801758e-01,3.824593424797058105e-01,3.880000000000000000e+02
-3.905844065532487548e+02,-2.736505595297385298e+02,-8.998995254071246563e+01,-1.662971772991252237e+02,-2.149576511301606843e+02,-2.168297576137965734e+02,-7.871510959764736981e+01,-6.489181342341635172e+01,9.446745872497558594e+00,-6.501809358596801758e-01,3.824593424797058105e-01,3.890000000000000000e+02
-3.871498978802565034e+02,-2.736806931142566555e+02,-9.052122230490385846e+01,-1.666958743119762403e+02,-2.169145325562817561e+02,-2.199698801503827781e+02,-8.219596910747191032e+01,-7.138127237469507236e+01,9.446745872497558594e+00,-6.501809358596801758e-01,3.824593424797058105e-01,3.900000000000000000e+02
-3.853024875144537873e+02,-2.740376143448561379e+02,-9.062584387613401304e+01,-1.667616852528421987e+02,-2.179912879985167820e+02,-2.231382186256923887e+02,-8.403650314552555756e+01,-7.604955956753201463e+01,9.446745872497558594e+00,-6.501809358596801758e-01,3.824593424797058105e-01,3.910000000000000000e+02
-3.848091885411386102e+02,-2.750451438551747287e+02,-8.918460044101266249e+01,-1.661511312803254441e+02,-2.170822543333442809e+02,-2.248869949879731394e+02,-8.348720489321044624e+01,-7.706797812257309488e+01,9.446745872497558594e+00,-6.501809358596801758e-01,3.824593424797058105e-01,3.920000000000000000e+02
-3.848892727529428157e+02,-2.762503454066666109e+02,-8.590977484661038943e+01,-1.644242327992924402e+02,-2.139303505215152654e+02,-2.241758719496269805e+02,-8.043488176332925832e+01,-7.380137494062955739e+01,9.446745872497558594e+00,-6.501809358596801758e-01,3.824593424797058105e-01,3.930000000000000000e+02
-3.850292116335963328e+02,-2.766946916281560789e+02,-8.182734565347345779e+01,-1.614019519148328072e+02,-2.095244209195707299e+02,-2.211176761751080448e+02,-7.580145965881297343e+01,-6.735187845026894138e+01,9.446745872497558594e+00,-6.501809358596801758e-01,3.824593424797058105e-01,3.940000000000000000e+02
-3.853271007853713854e+02,-2.757899902126187044e+02,-7.870244154566967154e+01,-1.574379414748573254e+02,-2.055812420327006294e+02,-2.169498511841520667e+02,-7.131684224574132713e+01,-6.019268480318669390e+01,9.446745872497558594e+00,-6.119350194931030273e-01,3.442134261131286621e-01,3.950000000000000000e+02
-3.860481563084390473e+02,-2.740564226055225845e+02,-7.783998233335501027e+01,-1.533964514846352358e+02,-2.034244544027769734e+02,-2.132687641373890983e+02,-6.865856815630763776e+01,-5.489464306894751644e+01,9.446745872497558594e+00,-6.119350194931030273e-01,3.442134261131286621e-01,3.960000000000000000e+02
-3.869711394286068753e+02,-2.729524831658404764e+02,-7.921072744531556964e+01,-1.502916778933513342e+02,-2.031206494145462784e+02,-2.111185622635771324e+02,-6.851702655671215325e+01,-5.269795042948135233e+01,9.446745872497558594e+00,-6.119350194931030273e-01,3.442134261131286621e-01,3.970000000000000000e+02
-3.873391271520517876e+02,-2.737577772441736670e+02,-8.153333182540586677e+01,-1.487346087754776818e+02,-2.035409758114933538e+02,-2.105338159265852482e+02,-7.025688005653364598e+01,-5.293652733160706703e+01,9.446745872497558594e+00,-6.119350194931030273e-01,3.442134261131286621e-01,3.980000000000000000e+02
-3.865387802153586563e+02,-2.764076073859623648e+02,-8.315827873756143163e+01,-1.485249339004076319e+02,-2.032719956053483656e+02,-2.107342095436815725e+02,-7.242319067398102561e+01,-5.377331620448330796e+01,9.446745872497558594e+00,-6.119350194931030273e-01,3.442134261131286621e-01,3.990000000000000000e+02
-3.847699993229566644e+02,-2.793617898601110028e+02,-8.304125700897657225e+01,-1.487252997636310283e+02,-2.016424729678387848e+02,-2.107353302323640492e+02,-7.369887348196152743e+01,-5.368268392726076854e+01,9.446745872497558594e+00,-6.119350194931030273e-01,3.442134261131286621e-01,4.000000000000000000e+02
-3.829770560586753163e+02,-2.807447031852243526e+02,-8.117161101571127801e+01,-1.482718077150898353e+02,-1.991118092754777535e+02,-2.099599413306236784e+02,-7.362063914334976289e+01,-5.254023854291199314e+01,9.446745872497558594e+00,-6.119350194931030273e-01,3.442134261131286621e-01,4.010000000000000000e+02
-3.820710968348007555e+02,-2.798171266621229734e+02,-7.833069152849816419e+01,-1.467291170308435539e+02,-1.968095468153737784e+02,-2.085160164601220458e+02,-7.261203722799336902e+01,-5.152776531368272117e+01,9.446745872497558594e+00,-6.119350194931030273e-01,3.442134261131286621e-01,4.020000000000000000e+02
-3.821949187154627907e+02,-2.774913715651791790e+02,-7.552556079132295963e+01,-1.445899927644886702e+02,-1.956473179774570781e+02,-2.070297001210533381e+02,-7.144561817489011446e+01,-5.202896940295158856e+01,9.446745872497558594e+00,-6.119350194931030273e-01,3.442134261131286621e-01,4.030000000000000000e+02
-3.827169751951187209e+02,-2.754611285083387884e+02,-7.351874873299470892e+01,-1.428441799854499550e+02,-1.956778267391600821e+02,-2.061881122199361016e+02,-7.063948609820226920e+01,-5.446686964219588845e+01,9.446745872497558594e+00,-6.119350194931030273e-01,3.442134261131286621e-01,4.040000000000000000e+02
-3.828588316747936915e+02,-2.747669402273372725e+02,-7.263215869099190058e+01,-1.421477718297505817e+02,-1.961130900225762161e+02,-2.062835491849259597e+02,-7.022356137323777148e+01,-5.797649910581458244e+01,9.446745872497558594e+00,-6.119350194931030273e-01,3.442134261131286621e-01,4.050000000000000000e+02
-3.822647225201590118e+02,-2.750709237801424933e+02,-7.274679856361535712e+01,-1.422754173428452305e+02,-1.958867415274439736e+02,-2.070187578736108662e+02,-6.991613753226829431e+01,-6.102650160698749460e+01,9.446745872497558594e+00,-6.119350194931030273e-01,3.442134261131286621e-01,4.060000000000000000e+02
-3.810205891423725006e+02,-2.751756947292074074e+02,-7.340100558292624555e+01,-1.423077489497868555e+02,-1.943259522968019155e+02,-2.076809894895841353e+02,-6.943428227991898893e+01,-6.239678634859774320e+01,9.446745872497558594e+00,-6.119350194931030273e-01,3.442134261131286621e-01,4.070000000000000000e+02
-3.793027082790058557e+02,-2.741587693991086780e+02,-7.397759672662687080e+01,-1.413685746370515517e+02,-1.915313653136117864e+02,-2.075873560333102432e+02,-6.866302822244688286e+01,-6.180508526671064828e+01,9.446745872497558594e+00,-6.119350194931030273e-01,3.442134261131286621e-01,4.080000000000000000e+02
-3.771914986924366531e+02,-2.720542572514109452e+02,-7.399835363409874844e+01,-1.392865680822565082e+02,-1.883028553798517351e+02,-2.065750516865332429e+02,-6.762425733913232762e+01,-5.989585417605758266e+01,9.446745872497558594e+00,-6.119350194931030273e-01,3.442134261131286621e-01,4.090000000000000000e+02
-3.748781214237837958e+02,-2.696107644852495469e+02,-7.341794471314733528e+01,-1.366826338141559063e+02,-1.857217496199359630e+02,-2.052575839262926820e+02,-6.640226647951703853e+01,-5.780712041022752601e+01,9.446745872497558594e+00,-6.119350194931030273e-01,3.442134261131286621e-01,4.100000000000000000e+02
-3.728986545041911995e+02,-2.675401880925965088e+02,-7.267683627553833503e+01,-1.344739336163388543e+02,-1.846078110504763572e+02,-2.048115889736982353e+02,-6.514423234212108582e+01,-5.663765482355393033e+01,9.446745872497558594e+00,-6.119350194931030273e-01,3.442134261131286621e-01,4.110000000000000000e+02
-3.719423484125595678e+02,-2.660194720442291327e+02,-7.238775930041538231e+01,-1.332344142286456190e+02,-1.850867028990587642e+02,-2.062910088528988126e+02,-6.410840605166276873e+01,-5.702168756126911831e+01,9.446745872497558594e+00,-6.119350194931030273e-01,3.442134261131286621e-01,4.120000000000000000e+02
-3.723186088305592421e+02,-2.647832269496821027e+02,-7.285128642417885203e+01,-1.328904679251540983e+02,-1.865009925042459145e+02,-2.098360875528492215e+02,-6.366080019871833429e+01,-5.890866507077134884e+01,9.446745872497558594e+00,-6.119350194931030273e-01,3.442134261131286621e-01,4.130000000000000000e+02
-3.736226058819506761e+02,-2.634982419059324457e+02,-7.384078393078198133e+01,-1.329328726696599006e+02,-1.877876885871401100e+02,-2.143987838645725788e+02,-6.416767609912358239e+01,-6.162656018970528748e+01,9.446745872497558594e+00,-6.119350194931030273e-01,3.442134261131286621e-01,4.140000000000000000e+02
-3.750150474270294580e+02,-2.619731249257538366e+02,-7.486339650471290952e+01,-1.329138776573445284e+02,-1.881435996930285910e+02,-2.183470361883360056e+02,-6.579141918595814786e+01,-6.424447866498212534e+01,9.446745872497558594e+00,-6.119350194931030273e-01,3.442134261131286621e-01,4.150000000000000000e+02
-3.759098741365132810e+02,-2.601143334234566282e+02,-7.561091113445991141e+01,-1.327965873334023854e+02,-1.875077855217691649e+02,-2.205984549216182131e+02,-6.825079890352981238e+01,-6.602515668480555178e+01,9.408499717712402344e+00,-6.501809358596801758e-01,3.059675097465515137e-01,4.160000000000000000e+02
-3.764127516207577173e+02,-2.578660217537017161e+02,-7.611829847314675135e+01,-1.328845304512228722e+02,-1.864501714678954158e+02,-2.213818903211808902e+02,-7.067863663752223147e+01,-6.661844370276958216e+01,9.408499717712402344e+00,-6.501809358596801758e-01,3.059675097465515137e-01,4.170000000000000000e+02
-3.770839373591920776e+02,-2.553229268557038267e+02,-7.646244216254262938e+01,-1.334283392325774003e+02,-1.855327596942825039e+02,-2.219259466380103731e+02,-7.177358895081806622e+01,-6.586104247581442905e+01,9.408499717712402344e+00,-6.501809358596801758e-01,3.059675097465515137e-01,4.180000000000000000e+02
-3.782830727103173558e+02,-2.528824892525399264e+02,-7.639876680395900621e+01,-1.343157682976534488e+02,-1.847232550551075292e+02,-2.233247501447704053e+02,-7.037285394292666751e+01,-6.349274815663966365e+01,9.408499717712402344e+00,-6.501809358596801758e-01,3.059675097465515137e-01,4.190000000000000000e+02
-3.797652675120984895e+02,-2.511383204475700950e+02,-7.550335966950569855e+01,-1.351632194707399321e+02,-1.834638428510138510e+02,-2.256013567004520155e+02,-6.625742264657128544e+01,-5.926123298087031799e+01,9.408499717712402344e+00,-6.501809358596801758e-01,3.059675097465515137e-01,4.200000000000000000e+02
-3.808958493381255721e+02,-2.504527647037130009e+02,-7.381649860282504960e+01,-1.357166565875895685e+02,-1.813563931143717127e+02,-2.278027917291528865e+02,-6.062782734565689680e+01,-5.345643973471533172e+01,9.408499717712402344e+00,-6.501809358596801758e-01,3.059675097465515137e-01,4.210000000000000000e+02
-3.812032946612630440e+02,-2.505698864195719580e+02,-7.228643199953012299e+01,-1.361356688682531058e+02,-1.787456140952090209e+02,-2.289761263716509347e+02,-5.569201299087490042e+01,-4.732193471719710942e+01,9.408499717712402344e+00,-6.501809358596801758e-01,3.059675097465515137e-01,4.220000000000000000e+02
-3.806997885117034457e+02,-2.507264061871373997e+02,-7.233717305172467604e+01,-1.368351353104685586e+02,-1.765477079075153597e+02,-2.290574066004223823e+02,-5.342061108052803320e+01,-4.273202325254715106e+01,9.408499717712402344e+00,-6.501809358596801758e-01,3.059675097465515137e-01,4.230000000000000000e+02
-3.797035697624414752e+02,-2.503166935027156796e+02,-7.472194303018932260e+01,-1.380439841367933695e+02,-1.754412974490846864e+02,-2.288820743053111073e+02,-5.427946286579708612e+01,-4.117628278024631072e+01,9.408499717712402344e+00,-6.501809358596801758e-01,3.059675097465515137e-01,4.240000000000000000e+02
-3.784482434730366549e+02,-2.495880565415818637e+02,-7.867482872996379228e+01,-1.395683107164222747e+02,-1.752411602835172744e+02,-2.294336634327214597e+02,-5.692866258225603815e+01,-4.284437156702597349e+01,9.408499717712402344e+00,-6.501809358596801758e-01,3.059675097465515137e-01,4.250000000000000000e+02
-3.769428027997523714e+02,-2.496711763584794426e+02,-8.227123867583577521e+01,-1.410407213373800914e+02,-1.751281143576120485e+02,-2.311184038827336735e+02,-5.918396645367465680e+01,-4.662781094935326109e+01,9.408499717712402344e+00,-6.501809358596801758e-01,3.059675097465515137e-01,4.260000000000000000e+02
-3.752011041603827834e+02,-2.517324162041672935e+02,-8.382151893572881818e+01,-1.423969150103293941e+02,-1.745114821705119539e+02,-2.336611785052982668e+02,-5.949333504184869525e+01,-5.102385958792365273e+01,9.408499717712402344e+00,-6.501809358596801758e-01,3.059675097465515137e-01,4.270000000000000000e+02
-3.735261937651544031e+02,-2.558333304665593460e+02,-8.310881542117203935e+01,-1.440305704257611978e+02,-1.736147924693882487e+02,-2.364939553961448837e+02,-5.776850037335498200e+01,-5.506287374851990535e+01,9.408499717712402344e+00,-6.501809358596801758e-01,3.059675097465515137e-01,4.280000000000000000e+02
-3.724465302872276879e+02,-2.604866207160898739e+02,-8.135744554249095017e+01,-1.464073683681467628e+02,-1.731529049999699055e+02,-2.391161764789862900e+02,-5.503268166813450080e+01,-5.844623105108257732e+01,9.408499717712402344e+00,-6.501809358596801758e-01,3.059675097465515137e-01,4.290000000000000000e+02
-3.722669889134390360e+02,-2.634033907309285496e+02,-7.998320376575884438e+01,-1.495049410452875236e+02,-1.734309410862697405e+02,-2.411566805268289500e+02,-5.236188331243829452e+01,-6.098173837347485460e+01,9.408499717712402344e+00,-6.501809358596801758e-01,3.059675097465515137e-01,4.300000000000000000e+02
-3.726280601924831899e+02,-2.629563265955389397e+02,-7.932208552760266684e+01,-1.526450888747781391e+02,-1.738384317106642811e+02,-2.423269243108056799e+02,-5.010511362037004801e+01,-6.215316239918593055e+01,9.408499717712402344e+00,-6.501809358596801758e-01,3.059675097465515137e-01,4.310000000000000000e+02
-3.725473912179013496e+02,-2.592625140203808769e+02,-7.851185103789339337e+01,-1.549099326294822276e+02,-1.733230425483766339e+02,-2.425351851503860416e+02,-4.795064589511048325e+01,-6.145351481160241747e+01,9.408499717712402344e+00,-6.501809358596801758e-01,3.059675097465515137e-01,4.320000000000000000e+02
-3.710164106502852519e+02,-2.540613186289738223e+02,-7.653683285516899559e+01,-1.557633167727090040e+02,-1.713515586757948768e+02,-2.420820298862140589e+02,-4.552525675679908090e+01,-5.910179959261995464e+01,9.408499717712402344e+00,-6.501809358596801758e-01,3.059675097465515137e-01,4.330000000000000000e+02
-3.677677417588465687e+02,-2.495275591875515602e+02,-7.334519441114571237e+01,-1.553647745254920665e+02,-1.683706249777997073e+02,-2.416394790154799921e+02,-4.284020043482632900e+01,-5.622836659831500583e+01,9.408499717712402344e+00,-6.501809358596801758e-01,3.059675097465515137e-01,4.340000000000000000e+02
-3.636516741916721003e+02,-2.469526330471130677e+02,-6.994915562365986261e+01,-1.544037361067598795e+02,-1.653172819098026594e+02,-2.419086058163479720e+02,-4.025193817031458821e+01,-5.415920587168147904e+01,9.408499717712402344e+00,-6.501809358596801758e-01,3.059675097465515137e-01,4.350000000000000000e+02
-3.602749969213450640e+02,-2.462190350646719708e+02,-6.749337411064243497e+01,-1.536846587531294972e+02,-1.627307291386241559e+02,-2.432173906428324699e+02,-3.816622114146957756e+01,-5.345270026810567288e+01,9.408499717712402344e+00,-6.501809358596801758e-01,3.059675097465515137e-01,4.360000000000000000e+02
-3.590440947523106843e+02,-2.462952711990192256e+02,-6.630391709571540559e+01,-1.537911383140358339e+02,-1.604301190439005040e+02,-2.454208070111340021e+02,-3.689273640334795346e+01,-5.374750616400615399e+01,9.408499717712402344e+00,-6.501809358596801758e-01,3.059675097465515137e-01,4.370000000000000000e+02
-3.602047393836160154e+02,-2.461935766036112909e+02,-6.587280484975190120e+01,-1.549475604536764877e+02,-1.580760329676932088e+02,-2.481517206268249538e+02,-3.671888649585616804e+01,-5.461779268036389112e+01,9.408499717712402344e+00,-6.501809358596801758e-01,3.059675097465515137e-01,4.380000000000000000e+02
-3.625402144844306349e+02,-2.456378504109788992e+02,-6.569419358560617184e+01,-1.570114798304416581e+02,-1.559262240032412592e+02,-2.511341604072013070e+02,-3.790791178754852808e+01,-5.645014572082482118e+01,9.408499717712402344e+00,-6.501809358596801758e-01,3.059675097465515137e-01,4.390000000000000000e+02
-3.639998004782528369e+02,-2.450397366831957697e+02,-6.594810798001390140e+01,-1.595254404035945299e+02,-1.548424396535083361e+02,-2.542426331131291590e+02,-4.040710318134415502e+01,-6.020011338846552462e+01,9.408499717712402344e+00,-6.501809358596801758e-01,3.059675097465515137e-01,4.400000000000000000e+02
-3.628924987247214631e+02,-2.449131885045126182e+02,-6.722161876522022794e+01,-1.618425231999208336e+02,-1.554043261284637083e+02,-2.573181387343770439e+02,-4.349333881934671808e+01,-6.606822551954883238e+01,9.484992027282714844e+00,-7.266727685928344727e-01,3.824593424797058105e-01,4.410000000000000000e+02
-3.588280303260225992e+02,-2.452144425232822869e+02,-6.952341730951957288e+01,-1.633134965583258236e+02,-1.570031730281634736e+02,-2.600216468743683436e+02,-4.582191767494214218e+01,-7.246877726323100433e+01,9.484992027282714844e+00,-7.266727685928344727e-01,3.824593424797058105e-01,4.420000000000000000e+02
-3.527744299071096066e+02,-2.451224145273095019e+02,-7.170971742607571286e+01,-1.634525844112872619e+02,-1.579665237260269350e+02,-2.619504714415043054e+02,-4.609044592293594178e+01,-7.666435130327772640e+01,9.484992027282714844e+00,-7.266727685928344727e-01,3.824593424797058105e-01,4.430000000000000000e+02
-3.462702593992366928e+02,-2.435019574523730626e+02,-7.211908025088473551e+01,-1.620339924304034867e+02,-1.568152849420325765e+02,-2.629629282789869649e+02,-4.394758734552306123e+01,-7.685998610289288990e+01,9.484992027282714844e+00,-7.266727685928344727e-01,3.824593424797058105e-01,4.440000000000000000e+02
-3.404558648867241573e+02,-2.398025753769375115e+02,-6.997152082669435913e+01,-1.591513056605481324e+02,-1.535640467465677830e+02,-2.634100441616265016e+02,-4.042074347076368213e+01,-7.389826564372697248e+01,9.484992027282714844e+00,-7.266727685928344727e-01,3.824593424797058105e-01,4.450000000000000000e+02
-3.356472132326598512e+02,-2.347266296914958730e+02,-6.620813412994357350e+01,-1.552801695112589186e+02,-1.497972579769698314e+02,-2.640204647382215626e+02,-3.741391074340299383e+01,-7.078791767449456529e+01,9.484992027282714844e+00,-7.266727685928344727e-01,3.824593424797058105e-01,4.460000000000000000e+02
-3.316204029181531041e+02,-2.300097001423137044e+02,-6.288765328247995967e+01,-1.512760072042619868e+02,-1.473452846666141340e+02,-2.654806856628433707e+02,-3.654634940112646291e+01,-7.023087192208595297e+01,9.484992027282714844e+00,-7.266727685928344727e-01,3.824593424797058105e-01,4.470000000000000000e+02
-3.281506448315772104e+02,-2.272900128283008598e+02,-6.161231884248650204e+01,-1.481620715755575475e+02,-1.467030461513745649e+02,-2.680117272845400294e+02,-3.812952461130453230e+01,-7.231469152425415814e+01,9.484992027282714844e+00,-7.266727685928344727e-01,3.824593424797058105e-01,4.480000000000000000e+02
-3.252542634535661819e+02,-2.268648135369062402e+02,-6.238814323781207349e+01,-1.466987435197343075e+02,-1.466375273773678600e+02,-2.712722082540672091e+02,-4.100025964831002057e+01,-7.455527074046131020e+01,9.484992027282714844e+00,-7.266727685928344727e-01,3.824593424797058105e-01,4.490000000000000000e+02
-3.230668435589486762e+02,-2.274060036645814762e+02,-6.392930009478732245e+01,-1.469827267919404221e+02,-1.453779584787807835e+02,-2.746560420198193242e+02,-4.331074932905153219e+01,-7.436264938113708922e+01,9.484992027282714844e+00,-7.266727685928344727e-01,3.824593424797058105e-01,4.500000000000000000e+02
-3.217023843562496950e+02,-2.269962861075689489e+02,-6.502004214289081574e+01,-1.484015333074357841e+02,-1.423057447844475973e+02,-2.777201532108879292e+02,-4.369811470971649214e+01,-7.168718139849352156e+01,9.484992027282714844e+00,-7.266727685928344727e-01,3.824593424797058105e-01,4.510000000000000000e+02
-3.212926125533695085e+02,-2.246632706927637173e+02,-6.557779905829397649e+01,-1.500174129352658383e+02,-1.385944586763994266e+02,-2.803907064234072095e+02,-4.204187204026516156e+01,-6.932837545041456906e+01,9.484992027282714844e+00,-7.266727685928344727e-01,3.824593424797058105e-01,4.520000000000000000e+02
-3.220111663628563292e+02,-2.210846833095229158e+02,-6.646751809827969737e+01,-1.510937237230655228e+02,-1.362460143773605523e+02,-2.828195995643295646e+02,-3.937961919899703389e+01,-7.051044639517158430e+01,9.484992027282714844e+00,-7.266727685928344727e-01,3.824593424797058105e-01,4.530000000000000000e+02
-3.237915409652159724e+02,-2.178640208592296403e+02,-6.839474097411812181e+01,-1.513739760286653109e+02,-1.364244136318784513e+02,-2.851120769163985642e+02,-3.714940709480742953e+01,-7.588766945956012933e+01,9.484992027282714844e+00,-7.266727685928344727e-01,3.824593424797058105e-01,4.540000000000000000e+02
-3.258841511198593253e+02,-2.160787442310045208e+02,-7.104284091007230018e+01,-1.509482163104669326e+02,-1.385409510458976001e+02,-2.872253597372655349e+02,-3.628904229806994408e+01,-8.268267241702460524e+01,9.484992027282714844e+00,-7.266727685928344727e-01,3.824593424797058105e-01,4.550000000000000000e+02
-3.268511295207845251e+02,-2.154499555259237695e+02,-7.324522168602061356e+01,-1.498999597245719997e+02,-1.407664193409445943e+02,-2.890983914721641668e+02,-3.672198696030454812e+01,-8.672987724775111928e+01,9.484992027282714844e+00,-7.266727685928344727e-01,3.824593424797058105e-01,4.560000000000000000e+02
-3.253481016197702047e+02,-2.148198935584468927e+02,-7.391023268356343578e+01,-1.480883636496437248e+02,-1.413663657890028844e+02,-2.908025074855249841e+02,-3.747097965268562803e+01,-8.560974934256773849e+01,9.484992027282714844e+00,-7.266727685928344727e-01,3.824593424797058105e-01,4.570000000000000000e+02
-3.211808313655674283e+02,-2.133553206005778975e+02,-7.277043554547594795e+01,-1.452694771164055965e+02,-1.396876826924708439e+02,-2.925140677404310736e+02,-3.730278387928478878e+01,-8.022845938743967054e+01,9.484992027282714844e+00,-7.266727685928344727e-01,3.824593424797058105e-01,4.580000000000000000e+02
-3.156013189871475788e+02,-2.112898035211583192e+02,-7.038562219124901276e+01,-1.414811950594289556e+02,-1.362137065831839209e+02,-2.943997103578190035e+02,-3.555758313665683090e+01,-7.376835271833260776e+01,9.484992027282714844e+00,-7.266727685928344727e-01,3.824593424797058105e-01,4.590000000000000000e+02
-3.103698711464867301e+02,-2.095971281133479351e+02,-6.761519516427256349e+01,-1.373674322441265758e+02,-1.320200541491374224e+02,-2.966481412024731981e+02,-3.267472828525342265e+01,-6.924791930432093068e+01,9.484992027282714844e+00,-7.266727685928344727e-01,3.824593424797058105e-01,4.600000000000000000e+02
-3.063409643308477825e+02,-2.091030763527548970e+02,-6.516507392539620014e+01,-1.341091528878753252e+02,-1.282851088739153056e+02,-2.996542995244203667e+02,-3.004063067427091482e+01,-6.785820406543098215e+01,9.484992027282714844e+00,-7.266727685928344727e-01,3.824593424797058105e-01,4.610000000000000000e+02
-3.029352845475843878e+02,-2.099933507362497949e+02,-6.350771360140311117e+01,-1.328762945237783697e+02,-1.260965836076438791e+02,-3.040375271154111942e+02,-2.917544648651846728e+01,-6.912025277730026573e+01,9.484992027282714844e+00,-7.266727685928344727e-01,3.824593424797058105e-01,4.620000000000000000e+02
-2.990306329325387651e+02,-2.120621789864997027e+02,-6.295798448677169290e+01,-1.340534777254672463e+02,-1.262621475287724024e+02,-3.102113468189991181e+02,-3.073602469232764633e+01,-7.205879972744787665e+01,9.484992027282714844e+00,-7.266727685928344727e-01,3.824593424797058105e-01,4.630000000000000000e+02
-2.943270777029092642e+02,-2.151713628477648399e+02,-6.359180278631174588e+01,-1.367635122487261015e+02,-1.288634916495368543e+02,-3.177335788492732718e+02,-3.402381427196155528e+01,-7.588505039482151915e+01,9.484992027282714844e+00,-7.266727685928344727e-01,3.824593424797058105e-01,4.640000000000000000e+02
-2.897201979927531283e+02,-2.192407983819050514e+02,-6.503598608036168116e+01,-1.391117751459300962e+02,-1.328331138927164830e+02,-3.250781925108449286e+02,-3.738295244484925206e+01,-7.965377613621171804e+01,9.484992027282714844e+00,-7.266727685928344727e-01,3.824593424797058105e-01,4.650000000000000000e+02
-2.862770090429121410e+02,-2.237863345779803694e+02,-6.647264662195129858e+01,-1.391270649462419442e+02,-1.361524066287088317e+02,-3.302603733349005779e+02,-3.922679622265195576e+01,-8.175662726218092757e+01,9.484992027282714844e+00,-7.266727685928344727e-01,3.824593424797058105e-01,4.660000000000000000e+02
-2.839544229277403247e+02,-2.276941084591082927e+02,-6.705310302630118713e+01,-1.358670857057536523e+02,-1.368604476741606959e+02,-3.319936094177685391e+02,-3.894672695009876406e+01,-8.036242256044874921e+01,9.484992027282714844e+00,-7.266727685928344727e-01,3.824593424797058105e-01,4.670000000000000000e+02
-2.815120590812161936e+02,-2.297496382607180294e+02,-6.646984841602375127e+01,-1.299835026011144237e+02,-1.342731088220659785e+02,-3.304974715935982204e+02,-3.706589658639859408e+01,-7.477023987372831471e+01,9.484992027282714844e+00,-6.884268522262573242e-01,3.442134261131286621e-01,4.680000000000000000e+02
-2.777565723603372589e+02,-2.295834734765910525e+02,-6.518921436820915005e+01,-1.233882864646093367e+02,-1.294550479434180943e+02,-3.273122411967206062e+02,-3.462387262201309568e+01,-6.640060563536076188e+01,9.484992027282714844e+00,-6.884268522262573242e-01,3.442134261131286621e-01,4.690000000000000000e+02
-2.727388006341625442e+02,-2.280975057775408459e+02,-6.407791897434822204e+01,-1.182484006326969848e+02,-1.244938794259689985e+02,-3.242877458575831042e+02,-3.237048835096584298e+01,-5.823149016914203457e+01,9.484992027282714844e+00,-6.884268522262573242e-01,3.442134261131286621e-01,4.700000000000000000e+02
-2.675273949484133027e+02,-2.268314770755937388e+02,-6.367971091901472391e+01,-1.159080537021416148e+02,-1.211014724641540852e+02,-3.225409211749574752e+02,-3.041502092425662340e+01,-5.289845657004434543e+01,9.484992027282714844e+00,-6.884268522262573242e-01,3.442134261131286621e-01,4.710000000000000000e+02
-2.627525593460518394e+02,-2.267889317643023332e+02,-6.373951217937690217e+01,-1.163227984234540600e+02,-1.196252993402063112e+02,-3.220830719365346795e+02,-2.852256561683134350e+01,-5.104316831011828981e+01,9.484992027282714844e+00,-6.884268522262573242e-01,3.442134261131286621e-01,4.720000000000000000e+02
-2.575534080642348727e+02,-2.278232254375354842e+02,-6.341768737636391506e+01,-1.182598273931307631e+02,-1.191860772238010213e+02,-3.221985884179000550e+02,-2.669513061880184068e+01,-5.136365254821339477e+01,9.484992027282714844e+00,-6.884268522262573242e-01,3.442134261131286621e-01,4.730000000000000000e+02
-2.502086254523931075e+02,-2.291624685026903308e+02,-6.206240744712727064e+01,-1.201070992773168200e+02,-1.186891082920780036e+02,-3.221248104947260344e+02,-2.547336364722195867e+01,-5.225373524062752040e+01,9.484992027282714844e+00,-6.884268522262573242e-01,3.442134261131286621e-01,4.740000000000000000e+02
-2.399164558229141448e+02,-2.305126003286891319e+02,-5.986569091355704586e+01,-1.208109330342775820e+02,-1.177564214521188433e+02,-3.215159557405088435e+02,-2.565982321130684340e+01,-5.340473053638959300e+01,9.484992027282714844e+00,-6.884268522262573242e-01,3.442134261131286621e-01,4.750000000000000000e+02
-2.278719831934304239e+02,-2.325658825925469273e+02,-5.776752961443560253e+01,-1.203754955982489037e+02,-1.167740795781511451e+02,-3.204674432231886385e+02,-2.764598320202298964e+01,-5.578468892108719501e+01,9.484992027282714844e+00,-6.884268522262573242e-01,3.442134261131286621e-01,4.760000000000000000e+02
-2.164714298750755006e+02,-2.363517445188909960e+02,-5.660789345950149709e+01,-1.196038625734449852e+02,-1.161203201926999782e+02,-3.192126004154916927e+02,-3.087253168880238263e+01,-6.004228996003837437e+01,9.484992027282714844e+00,-6.884268522262573242e-01,3.442134261131286621e-01,4.770000000000000000e+02
-2.074325258298708832e+02,-2.420667179670908808e+02,-5.628091589571329223e+01,-1.192802095902616202e+02,-1.154445285656634042e+02,-3.177737556691920418e+02,-3.391554839829075263e+01,-6.501874221148545985e+01,9.484992027282714844e+00,-6.884268522262573242e-01,3.442134261131286621e-01,4.780000000000000000e+02
-2.007492442780226156e+02,-2.485962666117588924e+02,-5.575530206339635697e+01,-1.194652028567376192e+02,-1.138018463142653900e+02,-3.158557925846225771e+02,-3.527114118867621073e+01,-6.805802555905881945e+01,9.484992027282714844e+00,-6.884268522262573242e-01,3.442134261131286621e-01,4.790000000000000000e+02
-1.954664931205282414e+02,-2.542765075896974736e+02,-5.406981583713888995e+01,-1.195116898511980139e+02,-1.106007514903029687e+02,-3.130863071444482557e+02,-3.435708885545437852e+01,-6.708218756488179224e+01,9.484992027282714844e+00,-6.884268522262573242e-01,3.442134261131286621e-01,4.800000000000000000e+02
-1.912530641739067505e+02,-2.581890388818220572e+02,-5.141064282044055744e+01,-1.187761919359275566e+02,-1.064668553159071394e+02,-3.094161863434680981e+02,-3.197884569626671691e+01,-6.259331033154973056e+01,9.484992027282714844e+00,-6.884268522262573242e-01,3.442134261131286621e-01,4.810000000000000000e+02
-1.889047983556565100e+02,-2.607560408071068991e+02,-4.917424979346594682e+01,-1.173596174818472946e+02,-1.031112135650484447e+02,-3.053255188582920709e+02,-2.983630896275093392e+01,-5.765070500410769228e+01,9.484992027282714844e+00,-6.884268522262573242e-01,3.442134261131286621e-01,4.820000000000000000e+02
-1.891331373813751213e+02,-2.630861749870086328e+02,-4.880111658033194999e+01,-1.161435842989557159e+02,-1.021543615542476573e+02,-3.015859835249034973e+02,-2.935414278510373265e+01,-5.563980584626722248e+01,9.484992027282714844e+00,-6.884268522262573242e-01,3.442134261131286621e-01,4.830000000000000000e+02
-1.909901217434521925e+02,-2.657576792386656166e+02,-5.040694000789024187e+01,-1.160645306188640973e+02,-1.038475627826388745e+02,-2.987331924333767574e+02,-3.066534603661213509e+01,-5.767247554520469066e+01,9.484992027282714844e+00,-6.884268522262573242e-01,3.442134261131286621e-01,4.840000000000000000e+02
-1.918778958185843635e+02,-2.682663224865371490e+02,-5.255083951678516030e+01,-1.173005964756227684e+02,-1.068225081227799649e+02,-2.967002074845386801e+02,-3.250803622633492296e+01,-6.185320351015861462e+01,9.484992027282714844e+00,-6.884268522262573242e-01,3.442134261131286621e-01,4.850000000000000000e+02
-1.894943941605197324e+02,-2.696426538371828201e+02,-5.345025969751134198e+01,-1.190976823716728035e+02,-1.091438114404512874e+02,-2.949226654724128593e+02,-3.310593380540269948e+01,-6.499821640710294446e+01,9.484992027282714844e+00,-6.884268522262573242e-01,3.442134261131286621e-01,4.860000000000000000e+02
-1.839841185814373148e+02,-2.695706570106117397e+02,-5.254654392569199217e+01,-1.203400260277470579e+02,-1.097991301426852147e+02,-2.927879875053566252e+02,-3.137125160015477832e+01,-6.524928850820313642e+01,9.484992027282714844e+00,-6.884268522262573242e-01,3.442134261131286621e-01,4.870000000000000000e+02
-1.781357285357906903e+02,-2.688544530031967952e+02,-5.092489206970913074e+01,-1.202877435362233314e+02,-1.093661343972877944e+02,-2.900003254173963114e+02,-2.758575924095663368e+01,-6.331695478658230058e+01,9.484992027282714844e+00,-6.884268522262573242e-01,3.442134261131286621e-01,4.880000000000000000e+02
-1.752167849815345448e+02,-2.687552886593992980e+02,-5.019802923857673704e+01,-1.188758219635623732e+02,-1.093206617155310596e+02,-2.866127599728926043e+02,-2.317862782983883108e+01,-6.143948773850689804e+01,9.484992027282714844e+00,-6.884268522262573242e-01,3.442134261131286621e-01,4.890000000000000000e+02
-1.762848133995909166e+02,-2.698372346434280189e+02,-5.095379588821668904e+01,-1.164909341348391081e+02,-1.106338165227023183e+02,-2.828571203137303200e+02,-1.985960193525829709e+01,-6.118767263081622332e+01,9.484992027282714844e+00,-6.884268522262573242e-01,3.442134261131286621e-01,4.900000000000000000e+02
-1.793448516574619589e+02,-2.714210950335943835e+02,-5.225139730319631326e+01,-1.136027067895922755e+02,-1.128819826583797976e+02,-2.790288887334905894e+02,-1.869411091769813993e+01,-6.213529338482612729e+01,9.484992027282714844e+00,-6.884268522262573242e-01,3.442134261131286621e-01,4.910000000000000000e+02
-1.810440580644346937e+02,-2.721695509337923795e+02,-5.257995327771743632e+01,-1.105988289302067642e+02,-1.145981420919484890e+02,-2.754678325272143411e+02,-1.961562894270798552e+01,-6.245884178873825476e+01,9.484992027282714844e+00,-6.884268522262573242e-01,3.442134261131286621e-01,4.920000000000000000e+02
-1.793406421674994817e+02,-2.712919385707070887e+02,-5.128664935898768817e+01,-1.078194966401231341e+02,-1.144936639764456459e+02,-2.724607952304259015e+02,-2.157292307247985264e+01,-6.074251979925622891e+01,9.484992027282714844e+00,-6.884268522262573242e-01,3.442134261131286621e-01,4.930000000000000000e+02
-1.748470965879455434e+02,-2.693075316677867477e+02,-4.909275608780228595e+01,-1.055724971763572739e+02,-1.124468270484417189e+02,-2.700158244413635202e+02,-2.318070651399534654e+01,-5.728355230181637125e+01,9.484992027282714844e+00,-6.884268522262573242e-01,3.442134261131286621e-01,4.940000000000000000e+02
-1.698989531854963388e+02,-2.677122399488403062e+02,-4.729629951615652317e+01,-1.040295827487686893e+02,-1.094344928528171295e+02,-2.677357829144157222e+02,-2.351139734207981746e+01,-5.381245597280917536e+01,9.484992027282714844e+00,-6.884268522262573242e-01,3.442134261131286621e-01,4.950000000000000000e+02
-1.664459354343084669e+02,-2.678673138547435428e+02,-4.654816012340961606e+01,-1.031290936101047464e+02,-1.065723026659495645e+02,-2.650414295881528233e+02,-2.259073489976185556e+01,-5.203216546960925371e+01,9.484992027282714844e+00,-6.884268522262573242e-01,3.442134261131286621e-01,4.960000000000000000e+02
-1.646968314326304608e+02,-2.700454591884531510e+02,-4.641450002651208706e+01,-1.026327524930843538e+02,-1.042144774728838001e+02,-2.616451723294858311e+02,-2.129872405596984208e+01,-5.232016411735389738e+01,9.484992027282714844e+00,-6.884268522262573242e-01,3.442134261131286621e-01,4.970000000000000000e+02
-1.634845547538720893e+02,-2.733769150124230691e+02,-4.606783562708938007e+01,-1.023063115735944848e+02,-1.019421172735753771e+02,-2.578367362075148321e+02,-2.074207559199066964e+01,-5.363064099977736987e+01,9.484992027282714844e+00,-6.884268522262573242e-01,3.442134261131286621e-01,4.980000000000000000e+02
-1.616699852343567727e+02,-2.766747541792290122e+02,-4.531349627696181415e+01,-1.020678854962409332e+02,-9.938318070620016442e+01,-2.542836905010199189e+02,-2.154407657440401636e+01,-5.453850598195708699e+01,9.484992027282714844e+00,-6.501809358596801758e-01,3.442134261131286621e-01,4.990000000000000000e+02
-1.591310942231875742e+02,-2.793711670982359010e+02,-4.489496909523722934e+01,-1.019881950433336897e+02,-9.698607335523593065e+01,-2.515277543150359634e+02,-2.354095891312476851e+01,-5.446008402559414208e+01,9.484992027282714844e+00,-6.501809358596801758e-01,3.442134261131286621e-01,5.000000000000000000e+02
-1.565284736504936518e+02,-2.817368561118346406e+02,-4.577147405360233279e+01,-1.021541718405296706e+02,-9.588712688659461492e+01,-2.496472527316159358e+02,-2.599433835512127189e+01,-5.403974266326031284e+01,9.484992027282714844e+00,-6.501809358596801758e-01,3.442134261131286621e-01,5.010000000000000000e+02
-1.543126265891296498e+02,-2.842473325348626076e+02,-4.804690485443916259e+01,-1.025041659640392027e+02,-9.690237068061651371e+01,-2.483448574345970883e+02,-2.802772103744609922e+01,-5.446076200762990993e+01,9.484992027282714844e+00,-6.501809358596801758e-01,3.442134261131286621e-01,5.020000000000000000e+02
-1.520940222034532781e+02,-2.867597878896117436e+02,-5.057054278854093354e+01,-1.027550210739341310e+02,-9.957695150997960809e+01,-2.472641132986277626e+02,-2.892970955447935921e+01,-5.630252011321272221e+01,9.484992027282714844e+00,-6.501809358596801758e-01,3.442134261131286621e-01,5.030000000000000000e+02
-1.490061520782755906e+02,-2.883610643398860702e+02,-5.163920912880621472e+01,-1.025125972341988927e+02,-1.022776592096233799e+02,-2.461757091216250046e+02,-2.828233850587912457e+01,-5.886626078028803022e+01,9.484992027282714844e+00,-6.501809358596801758e-01,3.442134261131286621e-01,5.040000000000000000e+02
-1.446655027885735763e+02,-2.880994181872479203e+02,-5.024112613697479901e+01,-1.015457399763240574e+02,-1.033674519234391482e+02,-2.449280936301529437e+02,-2.609736762378679487e+01,-6.050549994627181150e+01,9.484992027282714844e+00,-6.501809358596801758e-01,3.442134261131286621e-01,5.050000000000000000e+02
-1.397498980140949243e+02,-2.859104457675580306e+02,-4.681575929816517601e+01,-1.000221213626864483e+02,-1.024408663936742414e+02,-2.433660663466221195e+02,-2.298177309848870209e+01,-5.973618919097771141e+01,9.484992027282714844e+00,-6.501809358596801758e-01,3.442134261131286621e-01,5.060000000000000000e+02
-1.355921277499292046e+02,-2.827906834169384638e+02,-4.290866123555360900e+01,-9.844177428020657317e+01,-1.004842727516147534e+02,-2.414130724071296754e+02,-2.005402030866844143e+01,-5.630786884444842144e+01,9.484992027282714844e+00,-6.501809358596801758e-01,3.442134261131286621e-01,5.070000000000000000e+02
-1.331218994594728429e+02,-2.799620213747184607e+02,-4.002344238946352561e+01,-9.721367700576593052e+01,-9.882037188544745732e+01,-2.392260849527788196e+02,-1.837893933198301966e+01,-5.142297682447315310e+01,9.484992027282714844e+00,-6.501809358596801758e-01,3.442134261131286621e-01,5.080000000000000000e+02
-1.320831548292103435e+02,-2.778128310897818665e+02,-3.862260576728067463e+01,-9.621058354894421427e+01,-9.785884460429224418e+01,-2.371861314572624906e+02,-1.818875059599940869e+01,-4.692966445020965693e+01,9.484992027282714844e+00,-6.501809358596801758e-01,3.442134261131286621e-01,5.090000000000000000e+02
-1.312213717824970445e+02,-2.756779655345790161e+02,-3.804780333843382323e+01,-9.477937319092552571e+01,-9.684793247865900412e+01,-2.356560459125394118e+02,-1.857235778536050930e+01,-4.411005500332248630e+01,9.484992027282714844e+00,-6.501809358596801758e-01,3.442134261131286621e-01,5.100000000000000000e+02
-1.292821540320987879e+02,-2.726801636008704008e+02,-3.731454522197054757e+01,-9.231533778704215365e+01,-9.480839731231526457e+01,-2.347013628510858325e+02,-1.805892316203835435e+01,-4.295143058429084704e+01,9.484992027282714844e+00,-6.501809358596801758e-01,3.442134261131286621e-01,5.110000000000000000e+02
-1.259798447743060024e+02,-2.687818414976186432e+02,-3.602591308556111471e+01,-8.892440328465090715e+01,-9.167477799780726855e+01,-2.340341584316756780e+02,-1.574660059346297203e+01,-4.240760182824851654e+01,9.484992027282714844e+00,-6.501809358596801758e-01,3.442134261131286621e-01,5.120000000000000000e+02
-1.221481156119652951e+02,-2.649715611568226450e+02,-3.462352089230216734e+01,-8.550529632543384650e+01,-8.848336723609509136e+01,-2.332250572904613364e+02,-1.204688432223565542e+01,-4.138332882102440635e+01,9.484992027282714844e+00,-6.501809358596801758e-01,3.442134261131286621e-01,5.130000000000000000e+02
-1.189989838404453621e+02,-2.623935548435174496e+02,-3.385901043014246170e+01,-8.310428996466407625e+01,-8.643826141327190271e+01,-2.320182514387170158e+02,-8.393332640512198850e+00,-3.964038481870011310e+01,9.484992027282714844e+00,-6.501809358596801758e-01,3.442134261131286621e-01,5.140000000000000000e+02
-1.171425236766581293e+02,-2.613208073020214215e+02,-3.405841753155937113e+01,-8.211560592948444537e+01,-8.583497357785563509e+01,-2.305292512608612014e+02,-6.185826768182778324e+00,-3.796764369051834365e+01,9.484992027282714844e+00,-6.501809358596801758e-01,3.442134261131286621e-01,5.150000000000000000e+02
-1.161291958677402363e+02,-2.610036668729990197e+02,-3.482814406648822114e+01,-8.206851941363584046e+01,-8.589233248373329843e+01,-2.291909687027609834e+02,-5.862746706138750596e+00,-3.756069552911412757e+01,9.484992027282714844e+00,-6.501809358596801758e-01,3.442134261131286621e-01,5.160000000000000000e+02
-1.147633436270725724e+02,-2.604489340094132785e+02,-3.533864903337189389e+01,-8.212482424364498002e+01,-8.554842114897837746e+01,-2.284456645313612171e+02,-6.743962890413968125e+00,-3.909352742869850772e+01,9.484992027282714844e+00,-6.501809358596801758e-01,3.442134261131286621e-01,5.170000000000000000e+02
-1.118802741883982890e+02,-2.592464429090023259e+02,-3.483970814511849312e+01,-8.171612108109820838e+01,-8.437514818723138887e+01,-2.283477647580202756e+02,-7.602869725975324400e+00,-4.218429770958118752e+01,9.484992027282714844e+00,-6.501809358596801758e-01,3.442134261131286621e-01,5.180000000000000000e+02
-1.070556491925999580e+02,-2.576427913745719707e+02,-3.302204264951433288e+01,-8.072322696132323472e+01,-8.277817141422747227e+01,-2.283785135269818056e+02,-7.437143039855982352e+00,-4.562794746084000508e+01,9.484992027282714844e+00,-6.501809358596801758e-01,3.442134261131286621e-01,5.190000000000000000e+02
-1.008936511736083048e+02,-2.559979620867825361e+02,-3.011874141576117836e+01,-7.919093751907530532e+01,-8.147229674756817985e+01,-2.277129702411966719e+02,-5.964802356913423864e+00,-4.821850234573412308e+01,9.484992027282714844e+00,-6.501809358596801758e-01,3.824593424797058105e-01,5.200000000000000000e+02
-9.485916256472501118e+01,-2.544324321274079921e+02,-2.686442113507291651e+01,-7.709740774995316315e+01,-8.089893528720949689e+01,-2.258566090460672058e+02,-3.737769695714632689e+00,-4.958846373474534630e+01,9.484992027282714844e+00,-6.501809358596801758e-01,3.824593424797058105e-01,5.210000000000000000e+02
-9.075364039714168030e+01,-2.531107131737180680e+02,-2.436085827026181505e+01,-7.453118349215765193e+01,-8.111518008943221503e+01,-2.231739934703564359e+02,-1.929050502109021181e+00,-5.043336922344042250e+01,9.484992027282714844e+00,-6.501809358596801758e-01,3.824593424797058105e-01,5.220000000000000000e+02
-8.994118632972094929e+01,-2.526876025560341077e+02,-2.371122095440478006e+01,-7.199899420034944342e+01,-8.200944771657850652e+01,-2.207573560645469115e+02,-1.787649555295502068e+00,-5.188125720445896150e+01,9.484992027282714844e+00,-6.501809358596801758e-01,3.824593424797058105e-01,5.230000000000000000e+02
-9.257149446898620226e+01,-2.541199498042806226e+02,-2.540440589569334406e+01,-7.033779056119692541e+01,-8.337249554609297775e+01,-2.195961711199497586e+02,-3.860904053786725854e+00,-5.442008932743101468e+01,9.484992027282714844e+00,-6.501809358596801758e-01,3.824593424797058105e-01,5.240000000000000000e+02
-9.724696632548875641e+01,-2.577614001414431186e+02,-2.878655399353101529e+01,-7.013200039884213766e+01,-8.468748739617240062e+01,-2.196907525996921322e+02,-7.395249897697794950e+00,-5.722977286298191757e+01,9.484992027282714844e+00,-6.501809358596801758e-01,3.824593424797058105e-01,5.250000000000000000e+02
-1.015194670986084020e+02,-2.626088420870755726e+02,-3.210543748209329351e+01,-7.114829950096009270e+01,-8.503699460136976995e+01,-2.199065607189131697e+02,-1.046520492572381045e+01,-5.856631048990857380e+01,9.484992027282714844e+00,-6.501809358596801758e-01,3.824593424797058105e-01,5.260000000000000000e+02
-1.031287082121843923e+02,-2.666394684070837684e+02,-3.331682514166368492e+01,-7.238961309334263206e+01,-8.353049543583711056e+01,-2.187853040166100982e+02,-1.099925662147234107e+01,-5.703884592826761946e+01,9.484992027282714844e+00,-6.501809358596801758e-01,3.824593424797058105e-01,5.270000000000000000e+02
-1.012680874127090647e+02,-2.681626180687162559e+02,-3.123682413639380684e+01,-7.277922054946157004e+01,-8.004298437482248119e+01,-2.156746829488492949e+02,-8.108490172537131002e+00,-5.279257177678573498e+01,9.484992027282714844e+00,-6.501809358596801758e-01,3.824593424797058105e-01,5.280000000000000000e+02
-9.701531367356619739e+01,-2.670719765231706333e+02,-2.630473987636287347e+01,-7.189008855781594320e+01,-7.559291811091952695e+01,-2.112563501295189781e+02,-2.744223932380918995e+00,-4.758248838798590441e+01,9.484992027282714844e+00,-6.501809358596801758e-01,3.824593424797058105e-01,5.290000000000000000e+02
-9.260624479628950212e+01,-2.649043390121751145e+02,-2.042558236446984665e+01,-7.012212637605171039e+01,-7.189027385495228373e+01,-2.070735698401367699e+02,2.842491551042257925e+00,-4.362420529797054769e+01,9.484992027282714844e+00,-6.501809358596801758e-01,3.824593424797058105e-01,5.300000000000000000e+02
-9.005294293161568930e+01,-2.636594765591471514e+02,-1.596323241981917818e+01,-6.827532338939181500e+01,-7.029961652086785762e+01,-2.044881541106096847e+02,6.444454288599445135e+00,-4.217637315246793150e+01,9.484992027282714844e+00,-6.501809358596801758e-01,3.824593424797058105e-01,5.310000000000000000e+02
-9.007146404126069683e+01,-2.643984314960734991e+02,-1.450358263855559926e+01,-6.698631160647710203e+01,-7.101545238831567985e+01,-2.038911732475226017e+02,7.061964722836819419e+00,-4.304082646982169535e+01,9.484992027282714844e+00,-6.501809358596801758e-01,3.824593424797058105e-01,5.320000000000000000e+02
-9.194309602716202789e+01,-2.666756865777142593e+02,-1.608906749669404235e+01,-6.644633064459321758e+01,-7.304612782845106267e+01,-2.046376533946204290e+02,5.193935689329009620e+00,-4.523171835641915095e+01,9.484992027282714844e+00,-6.501809358596801758e-01,3.824593424797058105e-01,5.330000000000000000e+02
-9.420885799443567521e+01,-2.690472040539680165e+02,-1.931189486623134144e+01,-6.645011220309970668e+01,-7.492234675822692225e+01,-2.055767406433060387e+02,2.325089860925800167e+00,-4.795222918883882812e+01,9.484992027282714844e+00,-6.501809358596801758e-01,3.824593424797058105e-01,5.340000000000000000e+02
-9.556956323482700100e+01,-2.700633871415811882e+02,-2.216032332857230358e+01,-6.656502174755587475e+01,-7.553900876655279717e+01,-2.057108002536133426e+02,1.565225596468735603e-01,-5.086070175633904000e+01,9.484992027282714844e+00,-6.501809358596801758e-01,3.824593424797058105e-01,5.350000000000000000e+02
-9.541077007697822410e+01,-2.690268172417236201e+02,-2.312067201781246695e+01,-6.628169054892168788e+01,-7.458597157624535612e+01,-2.046064463734455785e+02,-1.303105898477951996e-02,-5.355312173794482078e+01,9.484992027282714844e+00,-6.501809358596801758e-01,3.824593424797058105e-01,5.360000000000000000e+02
-9.382357436146776308e+01,-2.662379101432525204e+02,-2.191565777513005742e+01,-6.519476717189354531e+01,-7.245721303559548687e+01,-2.024620029585039447e+02,2.280542058048013132e+00,-5.517968020253101713e+01,9.484992027282714844e+00,-6.501809358596801758e-01,3.824593424797058105e-01,5.370000000000000000e+02
-9.133385135633943719e+01,-2.628274489675550285e+02,-1.945998084337679757e+01,-6.323519773987936787e+01,-6.987236661365568580e+01,-1.999032598774738290e+02,6.393960332332426333e+00,-5.494882434204191668e+01,9.484992027282714844e+00,-6.501809358596801758e-01,3.824593424797058105e-01,5.380000000000000000e+02
-8.858892104141887103e+01,-2.603016715025351004e+02,-1.710684380723614595e+01,-6.080946410507385735e+01,-6.749230925720439700e+01,-1.976263243992707430e+02,1.067299568517410080e+01,-5.310399244363543403e+01,9.484992027282714844e+00,-6.501809358596801758e-01,3.824593424797058105e-01,5.390000000000000000e+02
-8.611350385266450758e+01,-2.598614704800856998e+02,-1.571946840430973680e+01,-5.863010306437899999e+01,-6.565909908078720036e+01,-1.960233362550607126e+02,1.319356561778477044e+01,-5.112351211184977728e+01,9.484992027282714844e+00,-6.501809358596801758e-01,3.824593424797058105e-01,5.400000000000000000e+02
-8.414444168741283647e+01,-2.617265208100325253e+02,-1.521443685405029100e+01,-5.726453636519181600e+01,-6.431110406442712701e+01,-1.949801610564281873e+02,1.294885935688216705e+01,-5.054300007491110591e+01,9.484992027282714844e+00,-6.501809358596801758e-01,3.824593424797058105e-01,5.410000000000000000e+02
-8.256787061104660097e+01,-2.649159008768947388e+02,-1.485027136551434523e+01,-5.673750651183581795e+01,-6.311347621523054841e+01,-1.939946786895452533e+02,1.066157407858190709e+01,-5.138413135261180287e+01,9.484992027282714844e+00,-6.501809358596801758e-01,3.824593424797058105e-01,5.420000000000000000e+02
-8.100782803945912747e+01,-2.677615686447043117e+02,-1.394024803874162899e+01,-5.652654442466518958e+01,-6.176132233101452584e+01,-1.925538850064276630e+02,8.427748889995200443e+00,-5.191990854910909547e+01,9.484992027282714844e+00,-6.501809358596801758e-01,3.824593424797058105e-01,5.430000000000000000e+02
-7.903774650517334521e+01,-2.688863714850122051e+02,-1.237273194058798254e+01,-5.596765075841358339e+01,-6.026026541382816504e+01,-1.905217441671411507e+02,8.261042461761462619e+00,-5.038240094453612983e+01,9.484992027282714844e+00,-6.501809358596801758e-01,3.824593424797058105e-01,5.440000000000000000e+02
-7.641895280821518099e+01,-2.679511824530800368e+02,-1.054600814261902997e+01,-5.472727084609323356e+01,-5.894285576858055720e+01,-1.882526742824084067e+02,1.061271009033589507e+01,-4.717510586532807793e+01,9.446745872497558594e+00,-6.119350194931030273e-01,4.971971809864044189e-01,5.450000000000000000e+02
-7.325787292023960617e+01,-2.656370891149708768e+02,-8.880216936520810123e+00,-5.296102538664672466e+01,-5.818327281882011448e+01,-1.863432230040561990e+02,1.408400826260185568e+01,-4.532231194777341443e+01,9.446745872497558594e+00,-6.119350194931030273e-01,4.971971809864044189e-01,5.460000000000000000e+02
-6.999339191625040257e+01,-2.630024920084160840e+02,-7.436071298194292467e+00,-5.110755949458507530e+01,-5.806412197940881015e+01,-1.852305638850375544e+02,1.657561322829496930e+01,-4.836956405166529294e+01,9.446745872497558594e+00,-6.119350194931030273e-01,4.971971809864044189e-01,5.470000000000000000e+02
-6.720203374990160228e+01,-2.608531614335061022e+02,-5.997544386509616743e+00,-4.958317039663779724e+01,-5.833099215717265906e+01,-1.849544583836432139e+02,1.687959788740954536e+01,-5.740953465531129041e+01,9.446745872497558594e+00,-6.119350194931030273e-01,4.971971809864044189e-01,5.480000000000000000e+02
-6.528199533225415507e+01,-2.595892349249479594e+02,-4.482226449648806010e+00,-4.865514943279958970e+01,-5.869490833664895035e+01,-1.852506082547461119e+02,1.538052806139421591e+01,-6.991479561175765411e+01,9.446745872497558594e+00,-6.119350194931030273e-01,4.971971809864044189e-01,5.490000000000000000e+02
-6.415562192938887165e+01,-2.593772440677385021e+02,-3.187854648820575676e+00,-4.848811121225662646e+01,-5.914309013423189754e+01,-1.858367802323336946e+02,1.342164811228030885e+01,-8.146136539741200977e+01,9.446745872497558594e+00,-6.119350194931030273e-01,4.971971809864044189e-01,5.500000000000000000e+02
-6.317450287212159310e+01,-2.601881334637782857e+02,-2.551287223237522994e+00,-4.914698411709287029e+01,-5.986707577444758499e+01,-1.865888370991087868e+02,1.210070494163301191e+01,-8.877892311376308498e+01,9.446745872497558594e+00,-6.119350194931030273e-01,4.971971809864044189e-01,5.510000000000000000e+02
-6.136520995937826228e+01,-2.615981754240874579e+02,-2.640088722282598610e+00,-5.045561511951927969e+01,-6.084194749909875100e+01,-1.874430512760663987e+02,1.160738560884237813e+01,-9.147304707140938262e+01,9.446745872497558594e+00,-6.119350194931030273e-01,4.971971809864044189e-01,5.520000000000000000e+02
-5.796319187979133858e+01,-2.627463332464340056e+02,-2.937609129978227429e+00,-5.188737936974393961e+01,-6.154079252766496211e+01,-1.881608599630962999e+02,1.149824925150096533e+01,-9.122024958424481156e+01,9.446745872497558594e+00,-6.119350194931030273e-01,4.971971809864044189e-01,5.530000000000000000e+02
-5.293609738863233360e+01,-2.628140869953967922e+02,-2.734329228544083890e+00,-5.275271835478815774e+01,-6.121572470991304726e+01,-1.882769314465112984e+02,1.134922981284034904e+01,-8.965387723674757581e+01,9.446745872497558594e+00,-6.119350194931030273e-01,4.971971809864044189e-01,5.540000000000000000e+02
-4.711929840482116560e+01,-2.617536685361101263e+02,-1.806640213735590805e+00,-5.263353957132676442e+01,-5.957958813862205716e+01,-1.873668863863640581e+02,1.104934666883491445e+01,-8.711926328331719560e+01,9.446745872497558594e+00,-6.119350194931030273e-01,4.971971809864044189e-01,5.550000000000000000e+02
-4.180780435424276220e+01,-2.604938299452878709e+02,-7.098736689058569027e-01,-5.168112372522773512e+01,-5.721992905065599189e+01,-1.854140720892937679e+02,1.059408244410769839e+01,-8.321166806141991401e+01,9.446745872497558594e+00,-6.119350194931030273e-01,4.971971809864044189e-01,5.560000000000000000e+02
-3.803581267392655718e+01,-2.602026414765296067e+02,-3.281685818692494649e-01,-5.044827078984599211e+01,-5.523314342869525717e+01,-1.829070084422601212e+02,9.852668849007386598e+00,-7.804990768853167538e+01,9.446745872497558594e+00,-6.119350194931030273e-01,4.971971809864044189e-01,5.570000000000000000e+02
-3.600916122510534478e+01,-2.611504304157842853e+02,-1.032367867399443639e+00,-4.937784953428308654e+01,-5.432396173630149860e+01,-1.805251344104253803e+02,8.731153251703290152e+00,-7.268089662456986844e+01,9.446745872497558594e+00,-6.119350194931030273e-01,4.971971809864044189e-01,5.580000000000000000e+02
-3.505314523769993684e+01,-2.622600432710514724e+02,-2.234812324668382644e+00,-4.844780406627251068e+01,-5.420952824097184930e+01,-1.786779366518130701e+02,7.547197647800203413e+00,-6.821378918462505681e+01,9.446745872497558594e+00,-6.119350194931030273e-01,4.971971809864044189e-01,5.590000000000000000e+02
-3.408146981938989484e+01,-2.618978836567330291e+02,-2.799109119468994322e+00,-4.732540515865730413e+01,-5.392068042695609620e+01,-1.772976325711606478e+02,7.075606762642564718e+00,-6.476868180093515548e+01,9.446745872497558594e+00,-6.119350194931030273e-01,4.971971809864044189e-01,5.600000000000000000e+02
-3.224398709365414106e+01,-2.592836857682777918e+02,-1.956848308853295748e+00,-4.583823745651534409e+01,-5.272711187160894042e+01,-1.760185840085869131e+02,8.052162150466756430e+00,-6.147004926884255838e+01,9.446745872497558594e+00,-6.119350194931030273e-01,4.971971809864044189e-01,5.610000000000000000e+02
-2.933319997221042286e+01,-2.552503134456874250e+02,7.932376123790163547e-02,-4.422307412760346779e+01,-5.079633132117669447e+01,-1.745105917503460660e+02,1.054703369690469117e+01,-5.749569297921698308e+01,9.446745872497558594e+00,-6.119350194931030273e-01,4.971971809864044189e-01,5.620000000000000000e+02
-2.576179875743764569e+01,-2.516678727144899312e+02,2.339296085187015706e+00,-4.288193794576000073e+01,-4.896304028747545090e+01,-1.726639035545704246e+02,1.382684306208830094e+01,-5.303555528073047753e+01,9.446745872497558594e+00,-6.119350194931030273e-01,4.971971809864044189e-01,5.630000000000000000e+02
-2.219681452380609699e+01,-2.500582747032458428e+02,3.924638873735602829e+00,-4.193678585394809488e+01,-4.786828765991594992e+01,-1.705583792467223248e+02,1.688193599378791987e+01,-4.914878663717172458e+01,9.446745872497558594e+00,-6.119350194931030273e-01,4.971971809864044189e-01,5.640000000000000000e+02
-1.913320858800580027e+01,-2.505828194038622314e+02,4.699249351075195591e+00,-4.109660451409945381e+01,-4.732719020586227998e+01,-1.683630261932812573e+02,1.916358246217714623e+01,-4.670701131932582939e+01,9.446745872497558594e+00,-6.119350194931030273e-01,4.971971809864044189e-01,5.650000000000000000e+02
-1.669972919065548922e+01,-2.521344018259078439e+02,5.271012287785197259e+00,-3.996681834167611669e+01,-4.651057243472678238e+01,-1.662573843772333930e+02,2.089347890046337852e+01,-4.551980110919248546e+01,9.446745872497558594e+00,-6.119350194931030273e-01,4.971971809864044189e-01,5.660000000000000000e+02
-1.476406642468282371e+01,-2.532483107320040290e+02,6.362683685703814263e+00,-3.840354811869110563e+01,-4.470049079993987107e+01,-1.642967365866825276e+02,2.274307825414871331e+01,-4.448021079063255456e+01,9.446745872497558594e+00,-6.119350194931030273e-01,4.971971809864044189e-01,5.670000000000000000e+02
-1.319909774910775013e+01,-2.530144414667011006e+02,8.166883864530973369e+00,-3.649424724892742233e+01,-4.186992487638781313e+01,-1.622025807578465901e+02,2.522527631377306534e+01,-4.252459278117021313e+01,9.446745872497558594e+00,-6.119350194931030273e-01,4.971971809864044189e-01,5.680000000000000000e+02
-1.206036516413587378e+01,-2.514231184294148989e+02,1.021027892689380678e+01,-3.425522888293562573e+01,-3.861771680624951841e+01,-1.593223173592050443e+02,2.828333647502950043e+01,-3.948165418540884275e+01,9.446745872497558594e+00,-6.119350194931030273e-01,4.971971809864044189e-01,5.690000000000000000e+02
-1.150266475520038512e+01,-2.491422597951823263e+02,1.178765949303488014e+01,-3.149670370036983513e+01,-3.563868002020899439e+01,-1.550142129334781202e+02,3.131987002256573760e+01,-3.610067864133816329e+01,9.446745872497558594e+00,-6.119350194931030273e-01,4.971971809864044189e-01,5.700000000000000000e+02
-1.151198139663392794e+01,-2.470684252826940792e+02,1.256679003186582122e+01,-2.810307148537685862e+01,-3.328235560894245282e+01,-1.493105652120393643e+02,3.355463352857623249e+01,-3.336007429914388922e+01,9.446745872497558594e+00,-6.119350194931030273e-01,4.971971809864044189e-01,5.710000000000000000e+02
-1.171788763227232266e+01,-2.458952432133191905e+02,1.286430771834784537e+01,-2.441706952889580862e+01,-3.153370285918208538e+01,-1.432592592491419055e+02,3.445706150087062269e+01,-3.170042894074140349e+01,9.446745872497558594e+00,-6.501809358596801758e-01,3.824593424797058105e-01,5.720000000000000000e+02
-1.151501440930587705e+01,-2.457750498984496517e+02,1.338456156859319890e+01,-2.121048655313643394e+01,-3.025978278344700811e+01,-1.384450951334220008e+02,3.404774446627925499e+01,-3.073133675001736265e+01,9.446745872497558594e+00,-6.501809358596801758e-01,3.824593424797058105e-01,5.730000000000000000e+02
-1.046775677898767754e+01,-2.462139770625472011e+02,1.462343425377548556e+01,-1.917367761427885853e+01,-2.939310798473161412e+01,-1.359344878002484620e+02,3.292371509566874010e+01,-2.949913059962636908e+01,9.446745872497558594e+00,-6.501809358596801758e-01,3.824593424797058105e-01,5.740000000000000000e+02
-8.686089950791938463e+00,-2.463757928633640404e+02,1.642877254528502817e+01,-1.840452756430022418e+01,-2.889988775953315780e+01,-1.355165692341470276e+02,3.197691288109126617e+01,-2.704862445392063819e+01,9.446745872497558594e+00,-6.501809358596801758e-01,3.824593424797058105e-01,5.750000000000000000e+02
-6.829080776544287801e+00,-2.457059194257562922e+02,1.810100537521793740e+01,-1.840222729729794082e+01,-2.868488299905220629e+01,-1.359351373159224750e+02,3.190923198494419921e+01,-2.297250852768411278e+01,9.446745872497558594e+00,-6.501809358596801758e-01,3.824593424797058105e-01,5.760000000000000000e+02
-5.662501061546208803e+00,-2.444134995055792388e+02,1.897640306238463381e+01,-1.853282177165601752e+01,-2.862480786593368975e+01,-1.358969351471350819e+02,3.281409275214900845e+01,-1.772290847570548067e+01,9.446745872497558594e+00,-6.501809358596801758e-01,3.824593424797058105e-01,5.770000000000000000e+02
-5.480467663866875228e+00,-2.433107316483728937e+02,1.903078158671269193e+01,-1.844438663360779174e+01,-2.867900850906880805e+01,-1.349114303032692987e+02,3.415839216838867287e+01,-1.250128954336469178e+01,9.446745872497558594e+00,-6.501809358596801758e-01,3.824593424797058105e-01,5.780000000000000000e+02
-5.867014657091203844e+00,-2.430620125354980701e+02,1.895872613376923255e+01,-1.806399367924313992e+01,-2.888683069334365427e+01,-1.332726566965029633e+02,3.522535585799050750e+01,-8.696120293032436166e+00,9.446745872497558594e+00,-6.501809358596801758e-01,3.824593424797058105e-01,5.790000000000000000e+02
-6.030211419314582599e+00,-2.434930504865333205e+02,1.963640143743759836e+01,-1.732973746249263058e+01,-2.916908828993109637e+01,-1.313843024248853908e+02,3.570816155875945697e+01,-7.097632075052388245e+00,9.446745872497558594e+00,-6.501809358596801758e-01,3.824593424797058105e-01,5.800000000000000000e+02
-5.457939340773009462e+00,-2.436199567706535163e+02,2.144438447953143623e+01,-1.607135701903098379e+01,-2.910897725606264430e+01,-1.292357501562182733e+02,3.597957277812383836e+01,-7.356583068140025716e+00,9.446745872497558594e+00,-6.501809358596801758e-01,3.824593424797058105e-01,5.810000000000000000e+02
-4.379070125094585819e+00,-2.424292056162012159e+02,2.402690957558661466e+01,-1.419060839473240776e+01,-2.803121927219763165e+01,-1.265550629359822778e+02,3.676639982000051532e+01,-8.144736808622837998e+00,9.446745872497558594e+00,-6.501809358596801758e-01,3.824593424797058105e-01,5.820000000000000000e+02
-3.666560502984793857e+00,-2.397153826631401898e+02,2.663759043858954101e+01,-1.186413740825446439e+01,-2.546706699690184905e+01,-1.233493995574826840e+02,3.846102484132279642e+01,-8.009919333791913232e+00,9.446745872497558594e+00,-6.501809358596801758e-01,3.824593424797058105e-01,5.830000000000000000e+02
-4.262149642818258144e+00,-2.362069204711624479e+02,2.867537254817216308e+01,-9.461476499607670121e+00,-2.166581520547697437e+01,-1.201365536360972328e+02,4.066125068440669565e+01,-6.331381581374444067e+00,9.446745872497558594e+00,-6.501809358596801758e-01,3.824593424797058105e-01,5.840000000000000000e+02
-6.560810136779764434e+00,-2.328729350602880004e+02,2.992312412454339210e+01,-7.237238575457013212e+00,-1.765880759968058555e+01,-1.175487816585227847e+02,4.238640804733222467e+01,-3.621083524325513281e+00,9.446745872497558594e+00,-6.501809358596801758e-01,3.824593424797058105e-01,5.850000000000000000e+02
-1.016775211496133124e+01,-2.300980926882657513e+02,3.042876108737982577e+01,-5.156776922391145490e+00,-1.467601812434077146e+01,-1.157204469648931990e+02,4.285387252173677552e+01,-9.269532410253304988e-01,9.446745872497558594e+00,-6.501809358596801758e-01,3.824593424797058105e-01,5.860000000000000000e+02
-1.411915346877503907e+01,-2.275267296457277553e+02,3.035203807892685290e+01,-3.064910198430879973e+00,-1.329115436657957616e+01,-1.141325341476913309e+02,4.218844437552616000e+01,1.119923139234742848e+00,9.446745872497558594e+00,-6.501809358596801758e-01,3.824593424797058105e-01,5.870000000000000000e+02
-1.734901987908597221e+01,-2.247203812173829647e+02,3.001786349508984131e+01,-9.969265133258886635e-01,-1.301381180920725456e+01,-1.121189719578251243e+02,4.142885348615527619e+01,2.742886501277098432e+00,9.446745872497558594e+00,-6.501809358596801758e-01,3.824593424797058105e-01,5.880000000000000000e+02
