F3,F4,C3,C4,P3,P4,Cz,Pz,Accel_x,Accel_y,Accel_z,Sample
-3.637978807091712952e-11,-3.456079866737127304e-11,-5.547917680814862251e-11,-4.911271389573812485e-11,-5.456968210637569427e-11,-5.456968210637569427e-11,-4.183675628155469894e-11,-7.094058673828840256e-11,9.484992027282714844e+00,-6.884268522262573242e-01,4.207052886486053467e-01,2.250000000000000000e+02
-4.193513946660277725e+01,-5.454047673506374849e+01,-3.047961859395945794e+01,-4.778472101914121595e+01,-4.524406746223849041e+01,-7.061512967591988854e+01,-3.176538847208394145e+01,-3.227966933301649988e+01,9.484992027282714844e+00,-6.884268522262573242e-01,4.207052886486053467e-01,2.260000000000000000e+02
-8.498222155122584809e+01,-1.044973335260938256e+02,-5.632288555672312214e+01,-8.416639226915413019e+01,-8.612972267635177559e+01,-1.267081635687009111e+02,-5.891495878955265653e+01,-6.188504985594954633e+01,9.484992027282714844e+00,-6.884268522262573242e-01,4.207052886486053467e-01,2.270000000000000000e+02
-1.293750038122798287e+02,-1.482925089681393729e+02,-7.662178023638807645e+01,-1.069220594167782110e+02,-1.216815329711362210e+02,-1.654186289272147405e+02,-7.995596629461215343e+01,-8.764071952214635530e+01,9.484992027282714844e+00,-6.884268522262573242e-01,4.207052886486053467e-01,2.280000000000000000e+02
-1.742329037877752853e+02,-1.878674158143903696e+02,-9.448069970163851394e+01,-1.235736927843508965e+02,-1.547906662124287323e+02,-1.962618501818342338e+02,-9.715141380230670620e+01,-1.104640355096044004e+02,9.408499717712402344e+00,-6.884268522262573242e-01,4.589512646198272705e-01,2.290000000000000000e+02
-2.180886998236164800e+02,-2.265670734763052678e+02,-1.138462375930612325e+02,-1.434719728930413112e+02,-1.895652945585270572e+02,-2.310554979688768071e+02,-1.143833212489935249e+02,-1.327083110619223589e+02,9.408499717712402344e+00,-6.884268522262573242e-01,4.589512646198272705e-01,2.300000000000000000e+02
-2.597365472384353779e+02,-2.665151128858315133e+02,-1.361073629955490105e+02,-1.696590210682716133e+02,-2.280417978376290193e+02,-2.735577138148091763e+02,-1.342308257708000383e+02,-1.566723523767686856e+02,9.408499717712402344e+00,-6.884268522262573242e-01,4.589512646198272705e-01,2.310000000000000000e+02
-2.988328053628338239e+02,-3.076798304732255929e+02,-1.595584961410249889e+02,-1.980670161180205469e+02,-2.690552451964786087e+02,-3.184742189365424565e+02,-1.566251449730334571e+02,-1.832637373413072055e+02,9.408499717712402344e+00,-6.884268522262573242e-01,4.589512646198272705e-01,2.320000000000000000e+02
-3.359847201122965998e+02,-3.489000243392247285e+02,-1.816982639436109821e+02,-2.234539670488447882e+02,-3.098354558228429596e+02,-3.591095167325402144e+02,-1.797705049792029968e+02,-2.117089114412301569e+02,9.408499717712402344e+00,-6.884268522262573242e-01,4.589512646198272705e-01,2.330000000000000000e+02
-3.724068256679265687e+02,-3.893728439490896562e+02,-2.016669914598714968e+02,-2.450081142209173777e+02,-3.484874373060038124e+02,-3.945999700932406995e+02,-2.020804450454697871e+02,-2.404370655252432698e+02,9.408499717712402344e+00,-6.884268522262573242e-01,4.589512646198272705e-01,2.340000000000000000e+02
-4.093646436114295284e+02,-4.291307403628679822e+02,-2.205230935579211291e+02,-2.661574011840848470e+02,-3.851161197030132826e+02,-4.296315113981600007e+02,-2.233483886261901716e+02,-2.683410574415001975e+02,9.408499717712402344e+00,-6.884268522262573242e-01,4.589512646198272705e-01,2.350000000000000000e+02
-4.476239335647069311e+02,-4.684142516265765153e+02,-2.396238569894139800e+02,-2.899769386868729271e+02,-4.209786870403950161e+02,-4.683733678537500964e+02,-2.444079256484310463e+02,-2.953379252519180227e+02,9.408499717712402344e+00,-6.884268522262573242e-01,4.589512646198272705e-01,2.360000000000000000e+02
-4.871359957752920309e+02,-5.069683722920426590e+02,-2.591779776859539197e+02,-3.158397248094179304e+02,-4.568856318542857480e+02,-5.099848897172669240e+02,-2.659419493271598185e+02,-3.218450845298320928e+02,9.408499717712402344e+00,-6.884268522262573242e-01,4.589512646198272705e-01,2.370000000000000000e+02
-5.271511476114346806e+02,-5.440739673866946760e+02,-2.783935039229918402e+02,-3.405605369404856901e+02,-4.924475260925919429e+02,-5.501010259573649819e+02,-2.876185971111372055e+02,-3.478344233362067826e+02,9.408499717712402344e+00,-6.884268522262573242e-01,4.589512646198272705e-01,2.380000000000000000e+02
-5.667258332318579050e+02,-5.791614926700194701e+02,-2.966713306453957557e+02,-3.619686996390919376e+02,-5.266540576169891210e+02,-5.857009089065322769e+02,-3.082265536508866717e+02,-3.725277548670346732e+02,9.408499717712402344e+00,-6.884268522262573242e-01,4.589512646198272705e-01,2.390000000000000000e+02
-6.052441516653370854e+02,-6.123268482079447494e+02,-3.143137606423979378e+02,-3.807469905443213065e+02,-5.589644124393344100e+02,-6.177415157742871088e+02,-3.265704527369562129e+02,-3.950957876225529617e+02,9.408499717712402344e+00,-6.884268522262573242e-01,4.589512646198272705e-01,2.400000000000000000e+02
-6.425101729443231307e+02,-6.442815576800530835e+02,-3.320342478014954395e+02,-3.990535585616889875e+02,-5.897752996868757691e+02,-6.493212698726129020e+02,-3.423319720400222650e+02,-4.156244458349201523e+02,9.408499717712402344e+00,-6.884268522262573242e-01,4.589512646198272705e-01,2.410000000000000000e+02
-6.783669114967215137e+02,-6.758364618410805633e+02,-3.499887120106095608e+02,-4.181285807175354421e+02,-6.198823782803274298e+02,-6.822019332552035848e+02,-3.562344977288885275e+02,-4.352302745141250853e+02,9.408499717712402344e+00,-6.884268522262573242e-01,4.589512646198272705e-01,2.420000000000000000e+02
-7.123556551091032816e+02,-7.073429568424880927e+02,-3.674604395551787093e+02,-4.375741434855390253e+02,-6.495453159725730075e+02,-7.155440451968561320e+02,-3.694497931700425397e+02,-4.550597977658326272e+02,9.408499717712402344e+00,-6.884268522262573242e-01,4.589512646198272705e-01,2.430000000000000000e+02
-7.439638688011646082e+02,-7.384588087290876501e+02,-3.834942147293195376e+02,-4.564975012389068070e+02,-6.780975603627175587e+02,-7.475127357600158575e+02,-3.827972319052360035e+02,-4.751309134482635272e+02,9.408499717712402344e+00,-6.884268522262573242e-01,4.589512646198272705e-01,2.440000000000000000e+02
-7.733466519421072007e+02,-7.683972067700469779e+02,-3.977658330650665448e+02,-4.746885630720216795e+02,-7.045162706119144786e+02,-7.773386171124529938e+02,-3.964335481589268966e+02,-4.942594720203633187e+02,9.408499717712402344e+00,-6.884268522262573242e-01,4.589512646198272705e-01,2.450000000000000000e+02
-8.017076189769513803e+02,-7.965373809725342653e+02,-4.108224099860035494e+02,-4.925335017229917867e+02,-7.284642447890728363e+02,-8.056366842084225937e+02,-4.102333217151490317e+02,-5.112668572768934609e+02,9.408499717712402344e+00,-6.884268522262573242e-01,4.589512646198272705e-01,2.460000000000000000e+02
-8.306706636662647725e+02,-8.230131574847491720e+02,-4.235676621901748149e+02,-5.102493115560509978e+02,-7.508524988986391691e+02,-8.332893874646279073e+02,-4.243858978025727993e+02,-5.263487151976623863e+02,9.408499717712402344e+00,-6.884268522262573242e-01,4.589512646198272705e-01,2.470000000000000000e+02
-8.609642607729147130e+02,-8.487699068311685551e+02,-4.365808591707809683e+02,-5.276624974292735715e+02,-7.733776196638054898e+02,-8.606116277709961651e+02,-4.395033610777454669e+02,-5.412601065455892240e+02,9.408499717712402344e+00,-6.884268522262573242e-01,4.589512646198272705e-01,2.480000000000000000e+02
-8.916226724636908330e+02,-8.749222999022995282e+02,-4.499014032486002179e+02,-5.446997941861191066e+02,-7.974015489831317609e+02,-8.876015344561437814e+02,-4.560379903113234832e+02,-5.580854710476978653e+02,9.408499717712402344e+00,-6.884268522262573242e-01,4.589512646198272705e-01,2.490000000000000000e+02
-9.206410851242590070e+02,-9.018858633761610690e+02,-4.633819285848712752e+02,-5.617154729618368947e+02,-8.231454401573782889e+02,-9.145304608697888398e+02,-4.735841426936331118e+02,-5.777040534286861657e+02,9.408499717712402344e+00,-6.884268522262573242e-01,4.589512646198272705e-01,2.500000000000000000e+02
-9.466672293444071329e+02,-9.290658402676872356e+02,-4.771378344488966832e+02,-5.790725027488815613e+02,-8.498297069923264644e+02,-9.418767827771271186e+02,-4.908245219571208509e+02,-5.992506931628395250e+02,9.408499717712402344e+00,-6.884268522262573242e-01,4.589512646198272705e-01,2.510000000000000000e+02
-9.701887316656202529e+02,-9.554420637652992809e+02,-4.915405193520618923e+02,-5.965079932837452361e+02,-8.764565496014911332e+02,-9.696884433756531507e+02,-5.062498219124263414e+02,-6.208367198178129911e+02,9.408499717712402344e+00,-6.884268522262573242e-01,4.589512646198272705e-01,2.520000000000000000e+02
-9.930334612085634944e+02,-9.804860084877473128e+02,-5.066688965591001761e+02,-6.131466107196465600e+02,-9.023344536949225585e+02,-9.972166533788576999e+02,-5.190016270236928904e+02,-6.406931328499604206e+02,9.408499717712402344e+00,-6.884268522262573242e-01,4.589512646198272705e-01,2.530000000000000000e+02
-1.016605755922465505e+03,-1.004498374417758896e+03,-5.217394023008282602e+02,-6.282229771718366464e+02,-9.268550639880822928e+02,-1.023287915438962045e+03,-5.291127638874922923e+02,-6.578009088202934436e+02,9.446745872497558594e+00,-6.884268522262573242e-01,4.971971809864044189e-01,2.540000000000000000e+02
-1.040591176330829512e+03,-1.028079028358062715e+03,-5.352407912737430706e+02,-6.417216318745322496e+02,-9.490293295745832438e+02,-1.047039386480477333e+03,-5.371329842772179290e+02,-6.718797281411452786e+02,9.446745872497558594e+00,-6.884268522262573242e-01,4.971971809864044189e-01,2.550000000000000000e+02
-1.063485208280857478e+03,-1.051368196351984352e+03,-5.459401723776632025e+02,-6.542734387189275367e+02,-9.676973680664932544e+02,-1.068369697198701033e+03,-5.437565855966076924e+02,-6.832595601254270150e+02,9.446745872497558594e+00,-6.884268522262573242e-01,4.971971809864044189e-01,2.560000000000000000e+02
-1.084469088229699082e+03,-1.073923842370325474e+03,-5.540367690924458657e+02,-6.665323310096628120e+02,-9.825877728150417170e+02,-1.087899366445623855e+03,-5.498912006445075349e+02,-6.929517004408508001e+02,9.446745872497558594e+00,-6.884268522262573242e-01,4.971971809864044189e-01,2.570000000000000000e+02
-1.104712051794789659e+03,-1.095351591818711313e+03,-5.613703632551296323e+02,-6.787490973628155189e+02,-9.952733306118507244e+02,-1.106661210157176356e+03,-5.568831363957647227e+02,-7.026401421445907545e+02,9.446745872497558594e+00,-6.884268522262573242e-01,4.971971809864044189e-01,2.580000000000000000e+02
-1.126632849211354824e+03,-1.115924771095712003e+03,-5.702696128397292341e+02,-6.908917186354847217e+02,-1.008830366295089334e+03,-1.125741041482103356e+03,-5.662545124278290132e+02,-7.141578049364834442e+02,9.446745872497558594e+00,-6.884268522262573242e-01,4.971971809864044189e-01,2.590000000000000000e+02
-1.151612172122039738e+03,-1.136434118406645666e+03,-5.818393575332797809e+02,-7.030149262334921332e+02,-1.026065115167176373e+03,-1.145911506925081994e+03,-5.787963323656940702e+02,-7.285237505800241706e+02,9.446745872497558594e+00,-6.884268522262573242e-01,4.971971809864044189e-01,2.600000000000000000e+02
-1.178284866705735567e+03,-1.157388752224493146e+03,-5.951241705219676987e+02,-7.153958524283916631e+02,-1.047589721118268244e+03,-1.167307508511112246e+03,-5.937363366100203166e+02,-7.452569680922915722e+02,9.446745872497558594e+00,-6.884268522262573242e-01,4.971971809864044189e-01,2.610000000000000000e+02
-1.203144780331225320e+03,-1.178457662132764654e+03,-6.079426930871172772e+02,-7.283558635797039642e+02,-1.071385075347919155e+03,-1.189363254057996528e+03,-6.089066577043831785e+02,-7.626281441028941117e+02,9.446745872497558594e+00,-6.884268522262573242e-01,4.971971809864044189e-01,2.620000000000000000e+02
-1.223075527375316142e+03,-1.198762535170956198e+03,-6.186505010979021790e+02,-7.419988444615323715e+02,-1.094213634595580970e+03,-1.211120097882001573e+03,-6.219709663630869727e+02,-7.786774530665916245e+02,9.446745872497558594e+00,-6.884268522262573242e-01,4.971971809864044189e-01,2.630000000000000000e+02
-1.237608824897070008e+03,-1.217702253901308268e+03,-6.272652902688805625e+02,-7.560621136057811782e+02,-1.113677217879587715e+03,-1.231699889424045978e+03,-6.317836093978517056e+02,-7.921845245511512985e+02,9.446745872497558594e+00,-6.884268522262573242e-01,4.971971809864044189e-01,2.640000000000000000e+02
-1.248950296143111245e+03,-1.235443049612346385e+03,-6.350405491804663143e+02,-7.699059166453612306e+02,-1.129316431871285204e+03,-1.250603295780560984e+03,-6.388345119118789626e+02,-8.029499133813469598e+02,9.446745872497558594e+00,-6.884268522262573242e-01,4.971971809864044189e-01,2.650000000000000000e+02
-1.259886520232291787e+03,-1.252583674747691930e+03,-6.430480765325260109e+02,-7.826124233163272947e+02,-1.142165431230826925e+03,-1.267688206180074303e+03,-6.445456532147595681e+02,-8.114624078120191371e+02,9.446745872497558594e+00,-6.884268522262573242e-01,4.971971809864044189e-01,2.660000000000000000e+02
-1.271582756796811736e+03,-1.269413325232686020e+03,-6.512058451297166357e+02,-7.932808284754264605e+02,-1.153567842291153283e+03,-1.283033932425822968e+03,-6.501578045423316325e+02,-8.184908115409662059e+02,9.446745872497558594e+00,-6.884268522262573242e-01,4.971971809864044189e-01,2.670000000000000000e+02
-1.283222444543186157e+03,-1.285573924285578869e+03,-6.586274890599188439e+02,-8.015292779923288435e+02,-1.164463987989221550e+03,-1.296919858604971523e+03,-6.561329153903525366e+02,-8.249618342757999017e+02,9.446745872497558594e+00,-6.884268522262573242e-01,4.971971809864044189e-01,2.680000000000000000e+02
-1.293609876245458508e+03,-1.300454791027251758e+03,-6.648110815527802515e+02,-8.079084785578861556e+02,-1.175543996337645694e+03,-1.309857980862594559e+03,-6.623656967991350939e+02,-8.319613136541483982e+02,9.446745872497558594e+00,-6.884268522262573242e-01,4.971971809864044189e-01,2.690000000000000000e+02
-1.303026077931152486e+03,-1.313863854557714149e+03,-6.703965494659005344e+02,-8.137628598526257520e+02,-1.187607948429709268e+03,-1.322435269902836808e+03,-6.687461269724435624e+02,-8.404706139272020664e+02,9.446745872497558594e+00,-6.884268522262573242e-01,4.971971809864044189e-01,2.700000000000000000e+02
-1.313505451326606362e+03,-1.326277497291806412e+03,-6.767329457963219284e+02,-8.204805914640173796e+02,-1.201366402081226624e+03,-1.334991724885110671e+03,-6.754525322122640318e+02,-8.508119265001728309e+02,9.446745872497558594e+00,-6.884268522262573242e-01,4.971971809864044189e-01,2.710000000000000000e+02
-1.327293159899678813e+03,-1.338468420278744816e+03,-6.846967885381232009e+02,-8.286658514191040013e+02,-1.216748116660328378e+03,-1.347476793388847909e+03,-6.827721096545556065e+02,-8.622578596169987577e+02,9.446745872497558594e+00,-6.884268522262573242e-01,4.971971809864044189e-01,2.720000000000000000e+02
-1.344915952439620924e+03,-1.350918195500649290e+03,-6.938619929977580796e+02,-8.378599871928217908e+02,-1.232502316756257187e+03,-1.359654071914037559e+03,-6.906979910591444423e+02,-8.732602146479280236e+02,9.446745872497558594e+00,-6.884268522262573242e-01,4.971971809864044189e-01,2.730000000000000000e+02
-1.364584077890645858e+03,-1.363551172666614548e+03,-7.027438061570805985e+02,-8.469940496408394210e+02,-1.246745033215929652e+03,-1.371424932153136979e+03,-6.987111599995437246e+02,-8.822885214836474006e+02,9.446745872497558594e+00,-6.884268522262573242e-01,4.971971809864044189e-01,2.740000000000000000e+02
-1.383365140082765720e+03,-1.375940077594295872e+03,-7.098763284021711115e+02,-8.551823714902761822e+02,-1.258190562807559218e+03,-1.382907565130359217e+03,-7.059772066839541367e+02,-8.887595283162563646e+02,9.446745872497558594e+00,-6.884268522262573242e-01,4.971971809864044189e-01,2.750000000000000000e+02
-1.399038458192768303e+03,-1.387697084556677055e+03,-7.148086992847397596e+02,-8.622530366559913091e+02,-1.267041500776141220e+03,-1.394213766430109899e+03,-7.118500444132109806e+02,-8.933865705125572276e+02,9.446745872497558594e+00,-6.884268522262573242e-01,4.971971809864044189e-01,2.760000000000000000e+02
-1.411133011008241738e+03,-1.398688449477318045e+03,-7.182498925282302480e+02,-8.686794279491464295e+02,-1.274731953800214797e+03,-1.405233414454703961e+03,-7.163310180912521901e+02,-8.977008081245958238e+02,9.446745872497558594e+00,-6.884268522262573242e-01,4.971971809864044189e-01,2.770000000000000000e+02
-1.420583346291781709e+03,-1.408995171375626796e+03,-7.213580787437044819e+02,-8.750835695506534648e+02,-1.282777718701151116e+03,-1.415722587157833004e+03,-7.201566680521291346e+02,-9.030989268358616755e+02,9.446745872497558594e+00,-6.884268522262573242e-01,4.971971809864044189e-01,2.780000000000000000e+02
-1.428662131545446300e+03,-1.418804980261898891e+03,-7.248726090935992943e+02,-8.817664035530710862e+02,-1.291790738363633409e+03,-1.425609769626757043e+03,-7.244205478320664042e+02,-9.100867521293162099e+02,9.446745872497558594e+00,-6.884268522262573242e-01,4.971971809864044189e-01,2.790000000000000000e+02
-1.436215498949373796e+03,-1.428384975366874642e+03,-7.287978359147150513e+02,-8.886099069717201928e+02,-1.301448168962467207e+03,-1.435154668138045963e+03,-7.299249754410593596e+02,-9.181634320079674580e+02,9.446745872497558594e+00,-6.884268522262573242e-01,4.971971809864044189e-01,2.800000000000000000e+02
-1.443654745151269253e+03,-1.438071028639795259e+03,-7.328168159308715985e+02,-8.953598748201306989e+02,-1.311241583412953787e+03,-1.444758111195394122e+03,-7.366921055786069701e+02,-9.263182521785124663e+02,9.484992027282714844e+00,-6.884268522262573242e-01,4.207052886486053467e-01,2.810000000000000000e+02
-1.451336649295670213e+03,-1.448132875390687332e+03,-7.369478805473750072e+02,-9.019774396128450462e+02,-1.321094183711563346e+03,-1.454590940675828733e+03,-7.439808202335793794e+02,-9.336989868806736013e+02,9.484992027282714844e+00,-6.884268522262573242e-01,4.207052886486053467e-01,2.820000000000000000e+02
-1.459669888882933265e+03,-1.458534359696726369e+03,-7.417166989560992079e+02,-9.086889163857999847e+02,-1.331160913020229145e+03,-1.464387318106500061e+03,-7.507655460530495475e+02,-9.399559449199600749e+02,9.484992027282714844e+00,-6.884268522262573242e-01,4.207052886486053467e-01,2.830000000000000000e+02
-1.468760511256605696e+03,-1.468793267208108773e+03,-7.476055679544519990e+02,-9.156516227160395829e+02,-1.341122144330377978e+03,-1.473567853910236408e+03,-7.563130085476259410e+02,-9.451309885518435294e+02,9.484992027282714844e+00,-6.884268522262573242e-01,4.207052886486053467e-01,2.840000000000000000e+02
-1.478030287803839428e+03,-1.478145114503398872e+03,-7.543027268835344330e+02,-9.225703357431734730e+02,-1.349952974226308470e+03,-1.481578981731875956e+03,-7.604932919691782445e+02,-9.494021884122971642e+02,9.484992027282714844e+00,-6.884268522262573242e-01,4.207052886486053467e-01,2.850000000000000000e+02
-1.486366050167147023e+03,-1.485980906627737568e+03,-7.605880244593154202e+02,-9.287388659547254974e+02,-1.356713413972728631e+03,-1.488228312618541622e+03,-7.637521552962325586e+02,-9.530752650070103300e+02,9.484992027282714844e+00,-6.884268522262573242e-01,4.207052886486053467e-01,2.860000000000000000e+02
-1.492815196524637940e+03,-1.492247324596460885e+03,-7.651540974250619911e+02,-9.336101332233188259e+02,-1.361735461209763798e+03,-1.493836707629692228e+03,-7.668920962078282173e+02,-9.568291898517186382e+02,9.484992027282714844e+00,-6.884268522262573242e-01,4.207052886486053467e-01,2.870000000000000000e+02
-1.497232762799198099e+03,-1.497480516248053391e+03,-7.677211756106231633e+02,-9.374156720042785764e+02,-1.366913628537889053e+03,-1.499112382139262991e+03,-7.707600047929356606e+02,-9.617654067039488837e+02,9.484992027282714844e+00,-6.884268522262573242e-01,4.207052886486053467e-01,2.880000000000000000e+02
-1.500274258517725457e+03,-1.502435496261903381e+03,-7.693726603260378170e+02,-9.411718278325352003e+02,-1.374469056894447021e+03,-1.504763427108965516e+03,-7.758325151560916311e+02,-9.688571429784900602e+02,9.484992027282714844e+00,-6.884268522262573242e-01,4.207052886486053467e-01,2.890000000000000000e+02
-1.502730700466278449e+03,-1.507609843825706093e+03,-7.716716117006194509e+02,-9.459251219746456627e+02,-1.385020580085449865e+03,-1.511033671957067327e+03,-7.817784801520637075e+02,-9.780134971328373013e+02,9.484992027282714844e+00,-6.884268522262573242e-01,4.207052886486053467e-01,2.900000000000000000e+02
-1.504847451096019086e+03,-1.513027078907482519e+03,-7.752666611308484335e+02,-9.518478719997248163e+02,-1.396641157243068392e+03,-1.517484589361627286e+03,-7.873224349555706567e+02,-9.875761887656999534e+02,9.484992027282714844e+00,-6.884268522262573242e-01,4.207052886486053467e-01,2.910000000000000000e+02
-1.506286527709978145e+03,-1.518378738964514469e+03,-7.792532031154239576e+02,-9.580101282649405903e+02,-1.405880319669648543e+03,-1.523243776752144186e+03,-7.907748814831522850e+02,-9.949352360276343461e+02,9.484992027282714844e+00,-6.884268522262573242e-01,4.207052886486053467e-01,2.920000000000000000e+02
-1.506738791010059686e+03,-1.523325178653440162e+03,-7.819142828261267368e+02,-9.630735774576270387e+02,-1.410065715924693677e+03,-1.527589731788695872e+03,-7.911398383032739048e+02,-9.980558517756107904e+02,9.484992027282714844e+00,-6.884268522262573242e-01,4.207052886486053467e-01,2.930000000000000000e+02
-1.506497453897197374e+03,-1.527668845397394307e+03,-7.821913634648866491e+02,-9.662907265781620936e+02,-1.409088622117991463e+03,-1.530409922093234172e+03,-7.890474249457745373e+02,-9.968065152806988181e+02,9.484992027282714844e+00,-6.884268522262573242e-01,4.207052886486053467e-01,2.940000000000000000e+02
-1.506321710721100317e+03,-1.531329773642168675e+03,-7.805697266722402219e+02,-9.679306223846620014e+02,-1.405339482195161736e+03,-1.532159640457204659e+03,-7.866236468810424185e+02,-9.930163305732789922e+02,9.484992027282714844e+00,-6.884268522262573242e-01,4.207052886486053467e-01,2.950000000000000000e+02
-1.506680568520235738e+03,-1.534282102297052688e+03,-7.786436638951277018e+02,-9.688349340821235955e+02,-1.402026955589458112e+03,-1.533412219458483605e+03,-7.861448072184441571e+02,-9.892244187164882305e+02,9.484992027282714844e+00,-6.884268522262573242e-01,4.207052886486053467e-01,2.960000000000000000e+02
-1.507187557463423218e+03,-1.536587427653953455e+03,-7.778550225374017373e+02,-9.696168537952426050e+02,-1.401334745846575515e+03,-1.534441350868492464e+03,-7.884059674171815004e+02,-9.871645248621559858e+02,9.484992027282714844e+00,-6.884268522262573242e-01,4.207052886486053467e-01,2.970000000000000000e+02
-1.506942511898422708e+03,-1.538475314974927869e+03,-7.785917212601347046e+02,-9.702687756584055023e+02,-1.403711725092024381e+03,-1.535198364635050439e+03,-7.921491442979267958e+02,-9.871502176024615665e+02,9.484992027282714844e+00,-6.884268522262573242e-01,4.207052886486053467e-01,2.980000000000000000e+02
-1.505566581328843085e+03,-1.540313462387709933e+03,-7.803488064404509714e+02,-9.704483174391574494e+02,-1.408412807262409842e+03,-1.535609814517655650e+03,-7.951029067306868683e+02,-9.886113187406581346e+02,9.484992027282714844e+00,-6.884268522262573242e-01,4.207052886486053467e-01,2.990000000000000000e+02
-1.503925222923744968e+03,-1.542440254383665888e+03,-7.825571554045222911e+02,-9.700530163910319743e+02,-1.414408912709155629e+03,-1.535833211999623472e+03,-7.958047932797635440e+02,-9.909932790298702230e+02,9.484992027282714844e+00,-6.884268522262573242e-01,4.207052886486053467e-01,3.000000000000000000e+02
-1.503693340854981670e+03,-1.544993934773516230e+03,-7.851180556428162163e+02,-9.694882874364030840e+02,-1.420816925333798281e+03,-1.536228564116900088e+03,-7.946631822893755270e+02,-9.940761488502218981e+02,9.484992027282714844e+00,-6.884268522262573242e-01,4.207052886486053467e-01,3.010000000000000000e+02
-1.505964096045558563e+03,-1.547877012936677147e+03,-7.881310547395548838e+02,-9.693660465408171376e+02,-1.426783775503470906e+03,-1.537115373406812978e+03,-7.933831631178006774e+02,-9.975941724969077313e+02,9.484992027282714844e+00,-6.884268522262573242e-01,4.207052886486053467e-01,3.020000000000000000e+02
-1.510067424227705942e+03,-1.550852925732444419e+03,-7.912531021002396301e+02,-9.698922559094082771e+02,-1.431355436406078070e+03,-1.538550178866686110e+03,-7.933514481246360219e+02,-1.000836965274604381e+03,9.484992027282714844e+00,-6.884268522262573242e-01,4.207052886486053467e-01,3.030000000000000000e+02
-1.513718724569553160e+03,-1.553645333458596042e+03,-7.935349824918016566e+02,-9.704545840134112495e+02,-1.433750447501264944e+03,-1.540272932805577739e+03,-7.945052886722812673e+02,-1.002885579288200688e+03,9.484992027282714844e+00,-6.884268522262573242e-01,4.207052886486053467e-01,3.040000000000000000e+02
-1.514509891017046584e+03,-1.555989179928273188e+03,-7.940546739153080580e+02,-9.697690462863765788e+02,-1.433868492781668465e+03,-1.541817201464224127e+03,-7.956906179809770947e+02,-1.003356040234327452e+03,9.484992027282714844e+00,-6.884268522262573242e-01,4.207052886486053467e-01,3.050000000000000000e+02
-1.511603339512270168e+03,-1.557721659341980512e+03,-7.927690124494603197e+02,-9.665560146658506255e+02,-1.432494855858866458e+03,-1.542722341982532953e+03,-7.960444312590611844e+02,-1.002866110428585898e+03,9.484992027282714844e+00,-6.884268522262573242e-01,4.207052886486053467e-01,3.060000000000000000e+02
-1.506288414429710429e+03,-1.558925633742928540e+03,-7.907005909259033842e+02,-9.603307673963690831e+02,-1.430887864243506101e+03,-1.542768970943197019e+03,-7.959393816826554939e+02,-1.002627636808414991e+03,9.484992027282714844e+00,-6.884268522262573242e-01,4.207052886486053467e-01,3.070000000000000000e+02
-1.500978702975606211e+03,-1.559965048223417170e+03,-7.891771425386552892e+02,-9.517570760239844958e+02,-1.429999524708330227e+03,-1.542110859134359544e+03,-7.964865203168027392e+02,-1.003417761928643927e+03,9.484992027282714844e+00,-6.884268522262573242e-01,4.207052886486053467e-01,3.080000000000000000e+02
-1.497499589675800962e+03,-1.561232789456751561e+03,-7.887563450068161046e+02,-9.422618616134121794e+02,-1.429901255520541554e+03,-1.541153881355451176e+03,-7.980757909570955917e+02,-1.004812499819812956e+03,9.484992027282714844e+00,-6.884268522262573242e-01,4.207052886486053467e-01,3.090000000000000000e+02
-1.496014175609180484e+03,-1.562713482569974531e+03,-7.888016532879736360e+02,-9.331446541834109212e+02,-1.429811658068824045e+03,-1.540204065392761777e+03,-7.994679619308230940e+02,-1.005361013171942659e+03,9.484992027282714844e+00,-6.884268522262573242e-01,4.207052886486053467e-01,3.100000000000000000e+02
-1.495322325690502112e+03,-1.563784321234849813e+03,-7.880877315592806553e+02,-9.248638937415381633e+02,-1.428674704401328427e+03,-1.539174113175583443e+03,-7.985011000040570934e+02,-1.003566493792434130e+03,9.484992027282714844e+00,-6.884268522262573242e-01,4.207052886486053467e-01,3.110000000000000000e+02
-1.494127428446739486e+03,-1.563582235656509511e+03,-7.858716338784446407e+02,-9.170812803387941585e+02,-1.425893589289454667e+03,-1.537655944820285640e+03,-7.939347501892824539e+02,-9.989270404119474733e+02,9.446745872497558594e+00,-6.501809358596801758e-01,5.354431271553039551e-01,3.120000000000000000e+02
-1.492148143075282178e+03,-1.561741883660962003e+03,-7.824878751484205850e+02,-9.094069530532073031e+02,-1.421777651823531414e+03,-1.535361377213042942e+03,-7.868075511859458402e+02,-9.923578924940555908e+02,9.446745872497558594e+00,-6.501809358596801758e-01,5.354431271553039551e-01,3.130000000000000000e+02
-1.490186664163487421e+03,-1.558858150173398826e+03,-7.790312809306899453e+02,-9.021306157038040965e+02,-1.417495860990166193e+03,-1.532532877315664336e+03,-7.800446919870171314e+02,-9.858570873401881727e+02,9.446745872497558594e+00,-6.501809358596801758e-01,5.354431271553039551e-01,3.140000000000000000e+02
-1.489204890017720118e+03,-1.556148741770777178e+03,-7.765244301808210139e+02,-8.962001688564988626e+02,-1.414579573360192171e+03,-1.529883886831998780e+03,-7.765555645398299021e+02,-9.816803285933872303e+02,9.446745872497558594e+00,-6.501809358596801758e-01,5.354431271553039551e-01,3.150000000000000000e+02
-1.489303372366336589e+03,-1.554514686890717257e+03,-7.753308056112956592e+02,-8.924207311428735920e+02,-1.414196009006398526e+03,-1.528060897556719056e+03,-7.773315502496243425e+02,-9.813783465586113834e+02,9.446745872497558594e+00,-6.501809358596801758e-01,5.354431271553039551e-01,3.160000000000000000e+02
-1.489510812407078902e+03,-1.553790128443713911e+03,-7.751857981946147902e+02,-8.906107546456764794e+02,-1.416486873168604916e+03,-1.527082607948805162e+03,-7.809716875318940765e+02,-9.849978025699581394e+02,9.446745872497558594e+00,-6.501809358596801758e-01,5.354431271553039551e-01,3.170000000000000000e+02
-1.488559863872766527e+03,-1.552838548583902593e+03,-7.755927882398353859e+02,-8.895349074365014985e+02,-1.420301105055105154e+03,-1.526261276978844990e+03,-7.848079882646707119e+02,-9.907686431662831410e+02,9.446745872497558594e+00,-6.501809358596801758e-01,5.354431271553039551e-01,3.180000000000000000e+02
-1.485936305299187097e+03,-1.550388976347878724e+03,-7.760683602989342944e+02,-8.877188624615473600e+02,-1.423536523972446503e+03,-1.524668306762956945e+03,-7.865644196533042987e+02,-9.955933343118874745e+02,9.446745872497558594e+00,-6.501809358596801758e-01,5.354431271553039551e-01,3.190000000000000000e+02
-1.482272383941281532e+03,-1.545887067822416611e+03,-7.760682235948256675e+02,-8.844470470182717463e+02,-1.424041196154314548e+03,-1.521745816918617948e+03,-7.853457093017068473e+02,-9.963882173578440415e+02,9.446745872497558594e+00,-6.501809358596801758e-01,5.354431271553039551e-01,3.200000000000000000e+02
-1.478780825582904981e+03,-1.539733553376661575e+03,-7.749153737345360469e+02,-8.801143821222758561e+02,-1.420678042267667252e+03,-1.517591514221792295e+03,-7.815760024044928969e+02,-9.917214868743760690e+02,9.446745872497558594e+00,-6.501809358596801758e-01,5.354431271553039551e-01,3.210000000000000000e+02
-1.476256226823759789e+03,-1.532918609585345166e+03,-7.720683404846008671e+02,-8.757252909652738708e+02,-1.413935122193319785e+03,-1.512760593250357715e+03,-7.763714033599171671e+02,-9.827445156007447622e+02,9.446745872497558594e+00,-6.501809358596801758e-01,5.354431271553039551e-01,3.220000000000000000e+02
-1.474489493137352383e+03,-1.526525176418741921e+03,-7.676124444726427782e+02,-8.720904088189872709e+02,-1.405645340568494930e+03,-1.507820196380433117e+03,-7.710071544712583318e+02,-9.726709292089930159e+02,9.446745872497558594e+00,-6.501809358596801758e-01,5.354431271553039551e-01,3.230000000000000000e+02
-1.472508895510514321e+03,-1.521455047899639794e+03,-7.624817446250182229e+02,-8.694316494962422439e+02,-1.397948918047927009e+03,-1.503015099086699365e+03,-7.666723237073260862e+02,-9.650168005705243104e+02,9.446745872497558594e+00,-6.501809358596801758e-01,5.354431271553039551e-01,3.240000000000000000e+02
-1.469328264755016107e+03,-1.518296668633150148e+03,-7.580472371560697411e+02,-8.676008947521065693e+02,-1.392163749334433305e+03,-1.498256152752872367e+03,-7.642816595035073988e+02,-9.617344263133803679e+02,9.446745872497558594e+00,-6.501809358596801758e-01,5.354431271553039551e-01,3.250000000000000000e+02
-1.464557669568233905e+03,-1.517108233933679912e+03,-7.552615857796331511e+02,-8.665033693714372021e+02,-1.388308038952100560e+03,-1.493385282828370237e+03,-7.641652318969751150e+02,-9.624531727823068650e+02,9.446745872497558594e+00,-6.501809358596801758e-01,5.354431271553039551e-01,3.260000000000000000e+02
-1.458510871855920641e+03,-1.517187341794341819e+03,-7.540178715873715873e+02,-8.661918636764424946e+02,-1.385509240942134966e+03,-1.488450748223896881e+03,-7.658093710232169542e+02,-9.651917639439893719e+02,9.446745872497558594e+00,-6.501809358596801758e-01,5.354431271553039551e-01,3.270000000000000000e+02
-1.451917372833268928e+03,-1.517199307915820555e+03,-7.532690392892712907e+02,-8.665559369517012556e+02,-1.382861455144613274e+03,-1.483742870768794091e+03,-7.679987292895135624e+02,-9.678430399885336328e+02,9.446745872497558594e+00,-6.501809358596801758e-01,5.354431271553039551e-01,3.280000000000000000e+02
-1.445545608378801489e+03,-1.515841289814272841e+03,-7.518436800862916698e+02,-8.670464913537484790e+02,-1.380025045283557574e+03,-1.479551893453751745e+03,-7.694404009814245455e+02,-9.693257149406215376e+02,9.446745872497558594e+00,-6.501809358596801758e-01,5.354431271553039551e-01,3.290000000000000000e+02
-1.439894338056628612e+03,-1.512644943184670637e+03,-7.493158181226256147e+02,-8.668741561396470843e+02,-1.377169369157320489e+03,-1.475864324812087943e+03,-7.694858771760232230e+02,-9.697521922297373749e+02,9.446745872497558594e+00,-6.501809358596801758e-01,5.354431271553039551e-01,3.300000000000000000e+02
-1.434964982959532108e+03,-1.508204957209607983e+03,-7.462450375857307563e+02,-8.655951068669667166e+02,-1.374469538274547403e+03,-1.472294905813531841e+03,-7.684060820664467428e+02,-9.697673145869065365e+02,9.446745872497558594e+00,-6.501809358596801758e-01,5.354431271553039551e-01,3.310000000000000000e+02
-1.430182240420718244e+03,-1.503534589831002677e+03,-7.436195017955935782e+02,-8.634944711796168804e+02,-1.371714898344231415e+03,-1.468331791532558327e+03,-7.669983142200053408e+02,-9.697296442713959550e+02,9.446745872497558594e+00,-6.501809358596801758e-01,5.354431271553039551e-01,3.320000000000000000e+02
-1.424620171999723880e+03,-1.499081841911796118e+03,-7.419791490141691384e+02,-8.612887841764631958e+02,-1.368372045391344727e+03,-1.463658090269432023e+03,-7.658331971663742479e+02,-9.693250941451995004e+02,9.446745872497558594e+00,-6.884268522262573242e-01,4.971971809864044189e-01,3.330000000000000000e+02
-1.417533779355194383e+03,-1.494334025867788114e+03,-7.409395546715977616e+02,-8.593452353933328141e+02,-1.363982197155461108e+03,-1.458239332577021059e+03,-7.647385140182502710e+02,-9.677757633712583356e+02,9.446745872497558594e+00,-6.884268522262573242e-01,4.971971809864044189e-01,3.340000000000000000e+02
-1.408878584885119380e+03,-1.488414373096473810e+03,-7.394800825958493533e+02,-8.571931514937214160e+02,-1.358485135367578778e+03,-1.452138858505767303e+03,-7.629043121772926952e+02,-9.643976727714295976e+02,9.446745872497558594e+00,-6.884268522262573242e-01,4.971971809864044189e-01,3.350000000000000000e+02
-1.399396049706695067e+03,-1.481090969636714135e+03,-7.367270796510434820e+02,-8.539007001139530075e+02,-1.352212806414272109e+03,-1.445340143721864479e+03,-7.594886659080068512e+02,-9.591135452558210091e+02,9.446745872497558594e+00,-6.884268522262573242e-01,4.971971809864044189e-01,3.360000000000000000e+02
-1.390153877718607646e+03,-1.473165386711811152e+03,-7.325826487235250397e+02,-8.490335313821799446e+02,-1.345645158229968501e+03,-1.437831712931635593e+03,-7.542427228978281164e+02,-9.526131761204444501e+02,9.446745872497558594e+00,-6.884268522262573242e-01,4.971971809864044189e-01,3.370000000000000000e+02
-1.381916914173663599e+03,-1.465826402773780501e+03,-7.277296992707730396e+02,-8.432627420771225388e+02,-1.339207722791118158e+03,-1.429860712981499091e+03,-7.477093224023249149e+02,-9.460641310679317257e+02,9.446745872497558594e+00,-6.884268522262573242e-01,4.971971809864044189e-01,3.380000000000000000e+02
-1.374860775536210440e+03,-1.459610738263492749e+03,-7.231007814466225909e+02,-8.379490909535870742e+02,-1.333255743390274347e+03,-1.422009695572774945e+03,-7.409285431017708561e+02,-9.405539952967350246e+02,9.446745872497558594e+00,-6.884268522262573242e-01,4.971971809864044189e-01,3.390000000000000000e+02
-1.368755113251360854e+03,-1.454031075257183147e+03,-7.192921620000599887e+02,-8.340401684878061133e+02,-1.328110355062101917e+03,-1.414922117843162141e+03,-7.349375028735807973e+02,-9.366160596005729531e+02,9.446745872497558594e+00,-6.884268522262573242e-01,4.971971809864044189e-01,3.400000000000000000e+02
-1.363251440153546810e+03,-1.448240528829943287e+03,-7.163301168466927038e+02,-8.313266871181376700e+02,-1.323928989207439145e+03,-1.408897871993194713e+03,-7.303991481755692803e+02,-9.341166185818944996e+02,9.446745872497558594e+00,-6.884268522262573242e-01,4.971971809864044189e-01,3.410000000000000000e+02
-1.357899362616221424e+03,-1.442020561584409734e+03,-7.138364380398703588e+02,-8.287824542465934883e+02,-1.320461368745475284e+03,-1.403766445842644089e+03,-7.275110907929636141e+02,-9.325268502118501601e+02,9.446745872497558594e+00,-6.884268522262573242e-01,4.971971809864044189e-01,3.420000000000000000e+02
-1.351962746178993712e+03,-1.436019092376947128e+03,-7.113271390126550386e+02,-8.256390977615442353e+02,-1.316979041888312850e+03,-1.399142971476493585e+03,-7.260899857358577947e+02,-9.312974025325157754e+02,9.446745872497558594e+00,-6.884268522262573242e-01,4.971971809864044189e-01,3.430000000000000000e+02
-1.344470535637444982e+03,-1.430938184737928168e+03,-7.084090757877589795e+02,-8.221155650564408006e+02,-1.312603684538081779e+03,-1.394748258455367477e+03,-7.256634370622462029e+02,-9.300020385674636145e+02,9.446745872497558594e+00,-6.884268522262573242e-01,4.971971809864044189e-01,3.440000000000000000e+02
-1.334740322197984142e+03,-1.426526684587840009e+03,-7.048920986120357384e+02,-8.190901352472492363e+02,-1.306905146312377383e+03,-1.390451783834783782e+03,-7.255395101167235907e+02,-9.282251427581205689e+02,9.446745872497558594e+00,-6.884268522262573242e-01,4.971971809864044189e-01,3.450000000000000000e+02
-1.323028869070318706e+03,-1.421499056330931126e+03,-7.009116775748425425e+02,-8.170819030645540124e+02,-1.300289219476241215e+03,-1.386060362770649590e+03,-7.249355778957485654e+02,-9.254593762444280856e+02,9.446745872497558594e+00,-6.884268522262573242e-01,4.971971809864044189e-01,3.460000000000000000e+02
-1.310665973524550282e+03,-1.414589257475410250e+03,-6.969647497123160065e+02,-8.155670118355046725e+02,-1.293733474032690992e+03,-1.381177093872014666e+03,-7.231831368706472176e+02,-9.212321168698797464e+02,9.446745872497558594e+00,-6.884268522262573242e-01,4.971971809864044189e-01,3.470000000000000000e+02
-1.299362599638400297e+03,-1.405775298105651927e+03,-6.936734622687192768e+02,-8.132913495753332427e+02,-1.287977845144295316e+03,-1.375346878303042104e+03,-7.199394704419936488e+02,-9.153928811326406958e+02,9.446745872497558594e+00,-6.884268522262573242e-01,4.971971809864044189e-01,3.480000000000000000e+02
-1.290100963579749077e+03,-1.396472113008854649e+03,-6.912956733175913087e+02,-8.092695852716994978e+02,-1.282830776259260347e+03,-1.368349441021728353e+03,-7.153073802524413622e+02,-9.082775447287413044e+02,9.446745872497558594e+00,-6.884268522262573242e-01,4.971971809864044189e-01,3.490000000000000000e+02
-1.282453077835389422e+03,-1.388476089609863038e+03,-6.893666139801993040e+02,-8.035770497946384694e+02,-1.277261695225854965e+03,-1.360344756382773085e+03,-7.098232628209298127e+02,-9.005782071499849053e+02,9.446745872497558594e+00,-6.884268522262573242e-01,4.971971809864044189e-01,3.500000000000000000e+02
-1.274899285990180033e+03,-1.382636505039655958e+03,-6.869173805857935804e+02,-7.973233892148407449e+02,-1.270314680455351436e+03,-1.351788911316989470e+03,-7.043488628372047060e+02,-8.930914781445796962e+02,9.446745872497558594e+00,-6.884268522262573242e-01,4.971971809864044189e-01,3.510000000000000000e+02
-1.265947463394138140e+03,-1.378415082132664338e+03,-6.832198882454134719e+02,-7.919105017281543724e+02,-1.262066389204943562e+03,-1.343272533562020044e+03,-6.998370663489043864e+02,-8.865793840770487577e+02,9.446745872497558594e+00,-6.884268522262573242e-01,4.971971809864044189e-01,3.520000000000000000e+02
-1.255261198214099750e+03,-1.374572841206259227e+03,-6.784413696812709986e+02,-7.881675210280835699e+02,-1.253703497646773485e+03,-1.335416623912084560e+03,-6.969282089415863766e+02,-8.817172828454913542e+02,9.446745872497558594e+00,-6.884268522262573242e-01,4.971971809864044189e-01,3.530000000000000000e+02
-1.244018769259460896e+03,-1.370180910852197485e+03,-6.735673037005728929e+02,-7.859148190009314021e+02,-1.246539099542991153e+03,-1.328758037281079851e+03,-6.954992870200404695e+02,-8.788792586992324232e+02,9.446745872497558594e+00,-6.884268522262573242e-01,4.971971809864044189e-01,3.540000000000000000e+02
-1.234264614816067933e+03,-1.365006841096724202e+03,-6.695867693645070631e+02,-7.841452450481369851e+02,-1.240799944199732181e+03,-1.323520564764442497e+03,-6.944976723818145956e+02,-8.776778994966693972e+02,9.446745872497558594e+00,-6.884268522262573242e-01,4.971971809864044189e-01,3.550000000000000000e+02
-1.227664315733226204e+03,-1.359118400494380239e+03,-6.666371278455885658e+02,-7.816317374737061527e+02,-1.235315470038467993e+03,-1.319376550560355327e+03,-6.923460039820995462e+02,-8.766538893524966625e+02,9.446745872497558594e+00,-6.884268522262573242e-01,4.971971809864044189e-01,3.560000000000000000e+02
-1.224434186049865730e+03,-1.352373416513082248e+03,-6.638943783747395173e+02,-7.775806436858453026e+02,-1.228489272469507341e+03,-1.315477838638522371e+03,-6.878227070593736698e+02,-8.737247581313793034e+02,9.446745872497558594e+00,-6.884268522262573242e-01,4.971971809864044189e-01,3.570000000000000000e+02
-1.223148175701796390e+03,-1.344461395009930584e+03,-6.603397810589183337e+02,-7.719725560775553959e+02,-1.219769998906751425e+03,-1.310890584570993951e+03,-6.808947306821125949e+02,-8.674911251840328532e+02,9.523238182067871094e+00,-6.884268522262573242e-01,5.354431271553039551e-01,3.580000000000000000e+02
-1.221585823979795123e+03,-1.335409854478014722e+03,-6.557185612790863161e+02,-7.654176582200286703e+02,-1.210317999228869212e+03,-1.305155456422735142e+03,-6.728853991152343497e+02,-8.585469974184787816e+02,9.523238182067871094e+00,-6.884268522262573242e-01,5.354431271553039551e-01,3.590000000000000000e+02
-1.218085202927715727e+03,-1.325889802234263698e+03,-6.508376067412268640e+02,-7.586771410431052800e+02,-1.202231413324698224e+03,-1.298517685331077473e+03,-6.657724975402057908e+02,-8.495459611402200153e+02,9.523238182067871094e+00,-6.884268522262573242e-01,5.354431271553039551e-01,3.600000000000000000e+02
-1.212475882143890431e+03,-1.316856935620948207e+03,-6.469332101222573783e+02,-7.522274281457686129e+02,-1.196932610518351339e+03,-1.291625732255850608e+03,-6.610346428069735794e+02,-8.435649894798400510e+02,9.523238182067871094e+00,-6.884268522262573242e-01,5.354431271553039551e-01,3.610000000000000000e+02
-1.205907245488047238e+03,-1.308787197572028617e+03,-6.446198915365609992e+02,-7.461495987301168498e+02,-1.194026781576905478e+03,-1.284942394252384247e+03,-6.587813643696688359e+02,-8.417633321549678840e+02,9.523238182067871094e+00,-6.884268522262573242e-01,5.354431271553039551e-01,3.620000000000000000e+02
-1.199701343773666167e+03,-1.301244561845874614e+03,-6.432716966323180259e+02,-7.402966358100107982e+02,-1.191530276815742582e+03,-1.278352227619141559e+03,-6.576955453763953301e+02,-8.421928201322684799e+02,9.523238182067871094e+00,-6.884268522262573242e-01,5.354431271553039551e-01,3.630000000000000000e+02
-1.194131237844785574e+03,-1.293224618360522072e+03,-6.413235796070865717e+02,-7.344546763248940806e+02,-1.187216736397379691e+03,-1.271251229985820601e+03,-6.557842591582787009e+02,-8.409129178448774837e+02,9.523238182067871094e+00,-6.884268522262573242e-01,5.354431271553039551e-01,3.640000000000000000e+02
-1.188127128598581294e+03,-1.283978941888357440e+03,-6.372844909134823865e+02,-7.283541675562840965e+02,-1.180002376383833052e+03,-1.263027886780645531e+03,-6.514783274373324957e+02,-8.347418152208733773e+02,9.523238182067871094e+00,-6.884268522262573242e-01,5.354431271553039551e-01,3.650000000000000000e+02
-1.180195005930247589e+03,-1.273608258397000327e+03,-6.307464571889036051e+02,-7.216833368818470262e+02,-1.170402712525670267e+03,-1.253581726178139888e+03,-6.444807791278570903e+02,-8.235751334095175480e+02,9.523238182067871094e+00,-6.884268522262573242e-01,5.354431271553039551e-01,3.660000000000000000e+02
-1.169809692826347600e+03,-1.262978642321085999e+03,-6.226928976449086122e+02,-7.143006153582707611e+02,-1.159926894699904551e+03,-1.243519711992998509e+03,-6.359477159381127649e+02,-8.104891410354375694e+02,9.523238182067871094e+00,-6.884268522262573242e-01,5.354431271553039551e-01,3.670000000000000000e+02
-1.158103626660328246e+03,-1.253130615213474357e+03,-6.149096422326879292e+02,-7.065501453328095067e+02,-1.150038361787165513e+03,-1.233878889704955554e+03,-6.279087053168452712e+02,-7.995940414097242410e+02,9.523238182067871094e+00,-6.884268522262573242e-01,5.354431271553039551e-01,3.680000000000000000e+02
-1.147234800817363521e+03,-1.244694915167403451e+03,-6.089091328428560246e+02,-6.992909201088418740e+02,-1.141445196651113974e+03,-1.225511886659254287e+03,-6.221923472729187097e+02,-7.933611680999533746e+02,9.523238182067871094e+00,-6.884268522262573242e-01,5.354431271553039551e-01,3.690000000000000000e+02
-1.138922567777889981e+03,-1.237669907855246720e+03,-6.051078000191761248e+02,-6.934316354812101508e+02,-1.134036139240871989e+03,-1.218522272509506138e+03,-6.194309275265850374e+02,-7.914023575176486247e+02,9.523238182067871094e+00,-6.884268522262573242e-01,5.354431271553039551e-01,3.700000000000000000e+02
-1.133308515930607427e+03,-1.231527103732925525e+03,-6.027739293750937577e+02,-6.892797854238544915e+02,-1.127236701743281856e+03,-1.212150852345135263e+03,-6.187243493152491283e+02,-7.913280759613876398e+02,9.523238182067871094e+00,-6.884268522262573242e-01,5.354431271553039551e-01,3.710000000000000000e+02
-1.129001410888150076e+03,-1.225433510824372661e+03,-6.006950898143491031e+02,-6.862941218059065704e+02,-1.120406807217563255e+03,-1.205223630884698650e+03,-6.181954513212371012e+02,-7.906565493881500970e+02,9.523238182067871094e+00,-6.884268522262573242e-01,5.354431271553039551e-01,3.720000000000000000e+02
-1.124190484477546079e+03,-1.218514979586206209e+03,-5.980169780917767639e+02,-6.835265446854261882e+02,-1.113107123292021924e+03,-1.196878420451562533e+03,-6.161214916181481840e+02,-7.881997467152914396e+02,9.523238182067871094e+00,-6.884268522262573242e-01,5.354431271553039551e-01,3.730000000000000000e+02
-1.117891239155152789e+03,-1.210227405534178843e+03,-5.946652944637651217e+02,-6.803981913328279916e+02,-1.105292882180625838e+03,-1.187063963683635620e+03,-6.119165656850757387e+02,-7.841742036867788102e+02,9.523238182067871094e+00,-6.884268522262573242e-01,5.354431271553039551e-01,3.740000000000000000e+02
-1.110403263545314076e+03,-1.200733424626694159e+03,-5.911720077366780970e+02,-6.771333115819334125e+02,-1.097461199184662746e+03,-1.176505430889044874e+03,-6.063268525447761021e+02,-7.794746483134122172e+02,9.523238182067871094e+00,-6.884268522262573242e-01,5.354431271553039551e-01,3.750000000000000000e+02
-1.102797258746347552e+03,-1.190944542950715913e+03,-5.881829177959377830e+02,-6.745124892744709086e+02,-1.090576543958678712e+03,-1.166255788813966774e+03,-6.007585269855824208e+02,-7.750013795077663872e+02,9.523238182067871094e+00,-6.884268522262573242e-01,5.354431271553039551e-01,3.760000000000000000e+02
-1.095979710934390141e+03,-1.181973720907793677e+03,-5.860378760290361697e+02,-6.732147441312231422e+02,-1.085584053661405278e+03,-1.157183130378731221e+03,-5.962547295263327669e+02,-7.714351727200237292e+02,9.523238182067871094e+00,-6.884268522262573242e-01,5.354431271553039551e-01,3.770000000000000000e+02
-1.090054892194131298e+03,-1.174268507589063347e+03,-5.846075357717327279e+02,-6.733035686883345079e+02,-1.082636753889553120e+03,-1.149653033406827944e+03,-5.928456733203070144e+02,-7.691630487399065714e+02,9.523238182067871094e+00,-6.884268522262573242e-01,5.354431271553039551e-01,3.780000000000000000e+02
-1.084337184332230436e+03,-1.167182423632185646e+03,-5.833433693029905953e+02,-6.741885285387129443e+02,-1.080585079113616985e+03,-1.143431316898621844e+03,-5.896782621061813643e+02,-7.680177296121958079e+02,9.523238182067871094e+00,-6.884268522262573242e-01,5.354431271553039551e-01,3.790000000000000000e+02
-1.077873736225103130e+03,-1.159514173805102928e+03,-5.814621536961817583e+02,-6.749812618631844998e+02,-1.077335036443181707e+03,-1.137752232817438198e+03,-5.857481696932982231e+02,-7.670209250343132226e+02,9.523238182067871094e+00,-6.884268522262573242e-01,5.354431271553039551e-01,3.800000000000000000e+02
-1.070104659637328950e+03,-1.150659580162959173e+03,-5.782591285073367544e+02,-6.749485678229632413e+02,-1.071086267163983393e+03,-1.131575520659587937e+03,-5.806333651489605927e+02,-7.646301704350087221e+02,9.523238182067871094e+00,-6.884268522262573242e-01,5.354431271553039551e-01,3.810000000000000000e+02
-1.061299367444508107e+03,-1.141291850929466591e+03,-5.734975896771804855e+02,-6.738044926440015843e+02,-1.061619915559790115e+03,-1.124022821913183179e+03,-5.746810534902383552e+02,-7.595937733682094404e+02,9.523238182067871094e+00,-6.884268522262573242e-01,5.354431271553039551e-01,3.820000000000000000e+02
-1.052518954887805876e+03,-1.132797255183098969e+03,-5.676562886030442314e+02,-6.717423200233665739e+02,-1.050563374950115303e+03,-1.114795226707076381e+03,-5.685613259891561029e+02,-7.518335358534627630e+02,9.523238182067871094e+00,-6.884268522262573242e-01,5.354431271553039551e-01,3.830000000000000000e+02
-1.045041386909392259e+03,-1.125897467910451269e+03,-5.617828796678297749e+02,-6.692176586453135769e+02,-1.040274516111780486e+03,-1.104268768625591520e+03,-5.626306780712861837e+02,-7.425817888148999373e+02,9.523238182067871094e+00,-6.884268522262573242e-01,5.354431271553039551e-01,3.840000000000000000e+02
-1.039481668070849992e+03,-1.119833945017214546e+03,-5.569423139444061235e+02,-6.666061782529343418e+02,-1.032151992164528110e+03,-1.093170066808040474e+03,-5.566985619736653916e+02,-7.336000103509209112e+02,9.484992027282714844e+00,-7.266727685928344727e-01,4.971971809864044189e-01,3.850000000000000000e+02
-1.035175440645323761e+03,-1.113080194430477832e+03,-5.536015221549955641e+02,-6.639716106596781628e+02,-1.025736225626089436e+03,-1.082112012089619839e+03,-5.504194931787210407e+02,-7.261397487789417937e+02,9.484992027282714844e+00,-7.266727685928344727e-01,4.971971809864044189e-01,3.860000000000000000e+02
-1.030417875629099626e+03,-1.104994471495371727e+03,-5.514069061842287738e+02,-6.611389676319815862e+02,-1.019335914964815402e+03,-1.071389601477338601e+03,-5.439365974848803944e+02,-7.204753336730129831e+02,9.484992027282714844e+00,-7.266727685928344727e-01,4.971971809864044189e-01,3.870000000000000000e+02
-1.023583254521292702e+03,-1.096708584542217750e+03,-5.495082464016925314e+02,-6.580242959937550040e+02,-1.011593258062021050e+03,-1.061135975511595916e+03,-5.381137313981998886e+02,-7.162047968777083042e+02,9.484992027282714844e+00,-7.266727685928344727e-01,4.971971809864044189e-01,3.880000000000000000e+02
-1.014348378716723801e+03,-1.090140206695336019e+03,-5.471683458821053136e+02,-6.549051594921893411e+02,-1.002615616461307127e+03,-1.051547145524105872e+03,-5.340346942321339156e+02,-7.127988656326599539e+02,9.484992027282714844e+00,-7.266727685928344727e-01,4.971971809864044189e-01,3.890000000000000000e+02
-1.003971145089585207e+03,-1.085889490144267029e+03,-5.442246039779074636e+02,-6.523312507726311651e+02,-9.937538113666405479e+02,-1.042860682328755047e+03,-5.321489570145072321e+02,-7.098143149745667415e+02,9.484992027282714844e+00,-7.266727685928344727e-01,4.971971809864044189e-01,3.900000000000000000e+02
-9.942814777753628732e+02,-1.082095632429347688e+03,-5.411067879479269322e+02,-6.507094626657392382e+02,-9.863415500613964468e+02,-1.035118088848322714e+03,-5.318145685770543878e+02,-7.067507865707061683e+02,9.484992027282714844e+00,-7.266727685928344727e-01,4.971971809864044189e-01,3.910000000000000000e+02
-9.861812057139386525e+02,-1.075603265128305566e+03,-5.384325790373320615e+02,-6.499298552566626768e+02,-9.805703459011431278e+02,-1.028022715170219271e+03,-5.316557167521111751e+02,-7.030037967253101669e+02,9.484992027282714844e+00,-7.266727685928344727e-01,4.971971809864044189e-01,3.920000000000000000e+02
-9.789521771024546979e+02,-1.064595983885261830e+03,-5.364501583369371929e+02,-6.493847951444981845e+02,-9.753969497913365103e+02,-1.021093783510049889e+03,-5.304125230753857068e+02,-6.981768533220986228e+02,9.484992027282714844e+00,-7.266727685928344727e-01,4.971971809864044189e-01,3.930000000000000000e+02
-9.709441158245226688e+02,-1.050318093096187113e+03,-5.346785036916894569e+02,-6.483545599864412452e+02,-9.693598322448760882e+02,-1.013952723662269364e+03,-5.275295664971583847e+02,-6.924381091163245401e+02,9.484992027282714844e+00,-7.266727685928344727e-01,4.971971809864044189e-01,3.940000000000000000e+02
-9.609476521867350129e+02,-1.036212426078881890e+03,-5.320270868968791547e+02,-6.464153297498376105e+02,-9.614771040860700850e+02,-1.006433841674001087e+03,-5.230588913758599574e+02,-6.863993726404316931e+02,9.484992027282714844e+00,-7.266727685928344727e-01,4.971971809864044189e-01,3.950000000000000000e+02
-9.489771352973993999e+02,-1.025156414382082176e+03,-5.273985135635607548e+02,-6.435445438075137190e+02,-9.515589691843401852e+02,-9.984542411310162606e+02,-5.171615294842936237e+02,-6.804901724276974164e+02,9.484992027282714844e+00,-7.266727685928344727e-01,4.971971809864044189e-01,3.960000000000000000e+02
-9.358875338523992014e+02,-1.017253805451140579e+03,-5.204345297405229758e+02,-6.399247109539712710e+02,-9.399751967283932572e+02,-9.898686908544004837e+02,-5.098526873955693191e+02,-6.744528713958120534e+02,9.484992027282714844e+00,-7.266727685928344727e-01,4.971971809864044189e-01,3.970000000000000000e+02
-9.224686558154642171e+02,-1.010107619691518266e+03,-5.118928296114249861e+02,-6.357198108292661800e+02,-9.273920844258191210e+02,-9.805327967654684471e+02,-5.012876620011070372e+02,-6.675872449618559585e+02,9.484992027282714844e+00,-7.266727685928344727e-01,4.971971809864044189e-01,3.980000000000000000e+02
-9.090578926961229627e+02,-1.001188250787892684e+03,-5.033092374141315304e+02,-6.310461503271430956e+02,-9.147524212604860168e+02,-9.705154364125569373e+02,-4.922028188748447519e+02,-6.596116121692662091e+02,9.484992027282714844e+00,-7.266727685928344727e-01,4.971971809864044189e-01,3.990000000000000000e+02
-8.959188441869393955e+02,-9.900718042510393389e+02,-4.961243339833106347e+02,-6.260979000581764922e+02,-9.032693763265169764e+02,-9.602054701879646927e+02,-4.838839120884263139e+02,-6.512887747174527249e+02,9.484992027282714844e+00,-7.266727685928344727e-01,4.971971809864044189e-01,4.000000000000000000e+02
-8.836574719581371937e+02,-9.786214372509518853e+02,-4.909226123218386419e+02,-6.212101234804895284e+02,-8.940834833830963362e+02,-9.501765712682263256e+02,-4.775101185434486979e+02,-6.440953720147622334e+02,9.484992027282714844e+00,-7.266727685928344727e-01,4.971971809864044189e-01,4.010000000000000000e+02
-8.729293254553726911e+02,-9.691858756940150670e+02,-4.873311222749225635e+02,-6.167115489106054156e+02,-8.876259088983370020e+02,-9.409157374840369812e+02,-4.733846335496114079e+02,-6.391187074560928068e+02,9.484992027282714844e+00,-7.266727685928344727e-01,4.971971809864044189e-01,4.020000000000000000e+02
-8.636552620090162691e+02,-9.626225728312620049e+02,-4.845356223314079216e+02,-6.126704337202900206e+02,-8.832088501536522926e+02,-9.326210218414394149e+02,-4.707440312800258653e+02,-6.361711382603805305e+02,9.484992027282714844e+00,-7.266727685928344727e-01,4.971971809864044189e-01,4.030000000000000000e+02
-8.547854073766102374e+02,-9.578623713246383886e+02,-4.819006968616965878e+02,-6.087962461000836356e+02,-8.793470959706833128e+02,-9.251602313227463128e+02,-4.683414357711224056e+02,-6.339522037091928723e+02,9.484992027282714844e+00,-7.266727685928344727e-01,4.971971809864044189e-01,4.040000000000000000e+02
-8.451759573047031608e+02,-9.531171203154665363e+02,-4.792168514396257706e+02,-6.046558213487601279e+02,-8.747129825877243547e+02,-9.181560539874826645e+02,-4.652967730004259010e+02,-6.311067619644297793e+02,9.484992027282714844e+00,-7.266727685928344727e-01,4.971971809864044189e-01,4.050000000000000000e+02
-8.348079859619429044e+02,-9.473585071502143364e+02,-4.765426005453277867e+02,-6.000696613777745370e+02,-8.689880867432784726e+02,-9.111566532530291624e+02,-4.614979638253755638e+02,-6.271848348240764608e+02,9.484992027282714844e+00,-7.266727685928344727e-01,4.971971809864044189e-01,4.060000000000000000e+02
-8.249454257421232342e+02,-9.407148757540185215e+02,-4.739538484322440581e+02,-5.953258786070978203e+02,-8.628672981187519326e+02,-9.038518039569930806e+02,-4.572894577107570058e+02,-6.226459537012219698e+02,9.484992027282714844e+00,-7.266727685928344727e-01,4.971971809864044189e-01,4.070000000000000000e+02
-8.168068195589494280e+02,-9.337195246990736450e+02,-4.714400853456945697e+02,-5.909604189714607401e+02,-8.571896685667838938e+02,-8.962456011569665861e+02,-4.528463603498601060e+02,-6.180455171428166068e+02,9.484992027282714844e+00,-7.266727685928344727e-01,4.971971809864044189e-01,4.080000000000000000e+02
-8.099887327770377397e+02,-9.264600587171366897e+02,-4.688924111954063392e+02,-5.872337069317486566e+02,-8.519602396270875033e+02,-8.886402219719097957e+02,-4.478902497910914917e+02,-6.133153083174670428e+02,9.484992027282714844e+00,-7.266727685928344727e-01,4.971971809864044189e-01,4.090000000000000000e+02
-8.023985039575181872e+02,-9.185644505800039497e+02,-4.660401610761734901e+02,-5.837743604199890797e+02,-8.461624261607280459e+02,-8.813891961396789156e+02,-4.420150158447138438e+02,-6.078697431452706041e+02,9.484992027282714844e+00,-7.266727685928344727e-01,4.971971809864044189e-01,4.100000000000000000e+02
-7.920564718209254806e+02,-9.099010201075145687e+02,-4.624094374115670689e+02,-5.797783535109349486e+02,-8.385562482184477631e+02,-8.746074696292489534e+02,-4.352646343259877995e+02,-6.013679524186068193e+02,9.484992027282714844e+00,-7.266727685928344727e-01,4.971971809864044189e-01,4.110000000000000000e+02
-7.791480220315352199e+02,-9.010399317414576217e+02,-4.575226056861838515e+02,-5.746570953617913347e+02,-8.287874868623448492e+02,-8.681085882633874462e+02,-4.283536607883102079e+02,-5.942867685277565215e+02,9.484992027282714844e+00,-7.266727685928344727e-01,4.971971809864044189e-01,4.120000000000000000e+02
-7.662548691008787500e+02,-8.928439845383109059e+02,-4.513428233975898820e+02,-5.685837240455143728e+02,-8.178487893668730067e+02,-8.616284657468750083e+02,-4.222601577432080830e+02,-5.876770444862277145e+02,9.484992027282714844e+00,-7.266727685928344727e-01,4.971971809864044189e-01,4.130000000000000000e+02
-7.563446156441564199e+02,-8.855791014542292032e+02,-4.445793070424613234e+02,-5.624161451233010212e+02,-8.074684923678855739e+02,-8.550771336996435821e+02,-4.174998350844095967e+02,-5.822957439428751059e+02,9.484992027282714844e+00,-7.266727685928344727e-01,4.971971809864044189e-01,4.140000000000000000e+02
-7.502954870911239595e+02,-8.785526046036661683e+02,-4.384252251912998872e+02,-5.570362132126094821e+02,-7.989295070412604218e+02,-8.485216359147375442e+02,-4.137175782760207312e+02,-5.779212319668831697e+02,9.484992027282714844e+00,-7.266727685928344727e-01,4.971971809864044189e-01,4.150000000000000000e+02
-7.462178808238390957e+02,-8.707986685476848834e+02,-4.338170752344567518e+02,-5.526943102934360468e+02,-7.922761786375522206e+02,-8.419210797593564166e+02,-4.099939437869952599e+02,-5.734810467869638160e+02,9.408499717712402344e+00,-6.119350194931030273e-01,4.971971809864044189e-01,4.160000000000000000e+02
-7.410708767421233460e+02,-8.622018896399367804e+02,-4.308068926847920466e+02,-5.489049354868129740e+02,-7.864346049964765371e+02,-8.349208137349073695e+02,-4.056163567397270526e+02,-5.678242493918246510e+02,9.408499717712402344e+00,-6.119350194931030273e-01,4.971971809864044189e-01,4.170000000000000000e+02
-7.329282943015027740e+02,-8.538918101165390908e+02,-4.286021355423017667e+02,-5.449095757142749790e+02,-7.800177487776491034e+02,-8.269762425699232153e+02,-4.006585676607119240e+02,-5.604513780845331894e+02,9.408499717712402344e+00,-6.119350194931030273e-01,4.971971809864044189e-01,4.180000000000000000e+02
-7.218814251282124133e+02,-8.473919569594695531e+02,-4.262455215374909585e+02,-5.402252072574960948e+02,-7.721642751129452336e+02,-8.177384142428500127e+02,-3.958941644021560933e+02,-5.516905360312416633e+02,9.408499717712402344e+00,-6.119350194931030273e-01,4.971971809864044189e-01,4.190000000000000000e+02
-7.091561136684904341e+02,-8.432429383727549066e+02,-4.232990251640994757e+02,-5.348280254476680966e+02,-7.629152135933400132e+02,-8.073744239707093584e+02,-3.921477015538712294e+02,-5.423908608917577112e+02,9.408499717712402344e+00,-6.119350194931030273e-01,4.971971809864044189e-01,4.200000000000000000e+02
-6.957953293644095538e+02,-8.403868455704205189e+02,-4.199272885899233643e+02,-5.289666923348804630e+02,-7.530753882154458552e+02,-7.965634385438370373e+02,-3.896357615628980966e+02,-5.335312916831931034e+02,9.408499717712402344e+00,-6.119350194931030273e-01,4.971971809864044189e-01,4.210000000000000000e+02
-6.823713026724763040e+02,-8.369099143080256908e+02,-4.164123201530514962e+02,-5.229112143100001049e+02,-7.437826449238305031e+02,-7.861874472625258932e+02,-3.877897413419591430e+02,-5.259764224917698812e+02,9.408499717712402344e+00,-6.119350194931030273e-01,4.971971809864044189e-01,4.220000000000000000e+02
-6.697034182106553999e+02,-8.314716671770629546e+02,-4.126878682009073600e+02,-5.168702031562888806e+02,-7.359891188306824006e+02,-7.769528347437399134e+02,-3.856118505821616509e+02,-5.202959853588167789e+02,9.408499717712402344e+00,-6.119350194931030273e-01,4.971971809864044189e-01,4.230000000000000000e+02
-6.593126783114234968e+02,-8.241558109687025535e+02,-4.083904643233950083e+02,-5.110278885254374472e+02,-7.299963138704188168e+02,-7.691545510237906456e+02,-3.822373274455210321e+02,-5.165217386081026234e+02,9.408499717712402344e+00,-6.119350194931030273e-01,4.971971809864044189e-01,4.240000000000000000e+02
-6.527312176472264582e+02,-8.161064588281647048e+02,-4.033408459576903624e+02,-5.055430415944210836e+02,-7.252693441277506281e+02,-7.626653387454462063e+02,-3.773481936689629492e+02,-5.139977922547482194e+02,9.408499717712402344e+00,-6.119350194931030273e-01,4.971971809864044189e-01,4.250000000000000000e+02
-6.502655285793130133e+02,-8.084450930786333629e+02,-3.979161087255133680e+02,-5.004973136439016344e+02,-7.207545894838963250e+02,-7.571255684991670023e+02,-3.712969471983196854e+02,-5.116328853226509636e+02,9.408499717712402344e+00,-6.119350194931030273e-01,4.971971809864044189e-01,4.260000000000000000e+02
-6.505934120647380041e+02,-8.014870871694597554e+02,-3.928902108223326195e+02,-4.958886875007915478e+02,-7.155978529148287635e+02,-7.522087508740537487e+02,-3.649659562121030376e+02,-5.085548707287362049e+02,9.408499717712402344e+00,-6.119350194931030273e-01,4.971971809864044189e-01,4.270000000000000000e+02
-6.517305922095106325e+02,-7.947970084389180556e+02,-3.888734913286680239e+02,-4.916877477248849573e+02,-7.097414800226556508e+02,-7.477886527455630130e+02,-3.594016974189969460e+02,-5.046645917569098856e+02,9.408499717712402344e+00,-6.119350194931030273e-01,4.971971809864044189e-01,4.280000000000000000e+02
-6.523908560989493708e+02,-7.877640612683294421e+02,-3.858752298986694313e+02,-4.878414677069658865e+02,-7.038421843414130308e+02,-7.438733752090902271e+02,-3.553049077014895829e+02,-5.005432213918770685e+02,9.408499717712402344e+00,-6.119350194931030273e-01,4.971971809864044189e-01,4.290000000000000000e+02
-6.523559376301327575e+02,-7.800386454419390247e+02,-3.833436250187662608e+02,-4.841646425298772556e+02,-6.984837585430300351e+02,-7.403438640205517913e+02,-3.525925620343632545e+02,-4.967097751771884759e+02,9.408499717712402344e+00,-6.119350194931030273e-01,4.971971809864044189e-01,4.300000000000000000e+02
-6.516555441194964260e+02,-7.715816725122294883e+02,-3.805771792060459120e+02,-4.802647197558126209e+02,-6.933792880179626081e+02,-7.367527350069590284e+02,-3.503613798080118613e+02,-4.929188398940195839e+02,9.408499717712402344e+00,-6.119350194931030273e-01,4.971971809864044189e-01,4.310000000000000000e+02
-6.496988785759940583e+02,-7.625551525354012483e+02,-3.771260516921929593e+02,-4.756830966240245289e+02,-6.874031976492801732e+02,-7.324252955535771434e+02,-3.474310823451414763e+02,-4.882648292583417060e+02,9.408499717712402344e+00,-6.119350194931030273e-01,4.971971809864044189e-01,4.320000000000000000e+02
-6.454926920270463597e+02,-7.533055442091758778e+02,-3.729439929595323520e+02,-4.702104852899287835e+02,-6.795741714306914218e+02,-7.268490395489902767e+02,-3.431848251074497966e+02,-4.820845169635031198e+02,9.408499717712402344e+00,-6.119350194931030273e-01,4.971971809864044189e-01,4.330000000000000000e+02
-6.387374402897471555e+02,-7.443629223225480018e+02,-3.683571065728237954e+02,-4.640843414618016141e+02,-6.701561061852253260e+02,-7.200375605230997280e+02,-3.380793816631521622e+02,-4.748238814549854396e+02,9.408499717712402344e+00,-6.119350194931030273e-01,4.971971809864044189e-01,4.340000000000000000e+02
-6.304836989475802511e+02,-7.362212479566928778e+02,-3.639958376012732515e+02,-4.578404339949602218e+02,-6.608197889569037216e+02,-7.125519399705381147e+02,-3.333571772937516471e+02,-4.679715103976946011e+02,9.408499717712402344e+00,-6.119350194931030273e-01,4.971971809864044189e-01,4.350000000000000000e+02
-6.224540664203336746e+02,-7.289499637517019437e+02,-3.606429159134931979e+02,-4.519357515225356110e+02,-6.535610614159813849e+02,-7.051580060528103786e+02,-3.300928147016716139e+02,-4.629675446720398213e+02,9.408499717712402344e+00,-6.119350194931030273e-01,4.971971809864044189e-01,4.360000000000000000e+02
-6.156616120974422302e+02,-7.220604350161074763e+02,-3.588597882571066293e+02,-4.465079243499890254e+02,-6.492081522877169846e+02,-6.984028780932576410e+02,-3.283122637132564705e+02,-4.600096541521816107e+02,9.446745872497558594e+00,-6.884268522262573242e-01,4.589512646198272705e-01,4.370000000000000000e+02
-6.097935427384063587e+02,-7.149223076019225118e+02,-3.584914561622690599e+02,-4.414707156868621496e+02,-6.467598455829156592e+02,-6.924152526960288014e+02,-3.269287103147439666e+02,-4.578335931725209775e+02,9.446745872497558594e+00,-6.884268522262573242e-01,4.589512646198272705e-01,4.380000000000000000e+02
-6.040006419607857424e+02,-7.074268974816295668e+02,-3.584652575164436712e+02,-4.367651251634292748e+02,-6.440855677830531931e+02,-6.869847524766864808e+02,-3.245726193724499353e+02,-4.546849932183840792e+02,9.446745872497558594e+00,-6.884268522262573242e-01,4.589512646198272705e-01,4.390000000000000000e+02
-5.981517677754300166e+02,-7.002407892313549382e+02,-3.572576239398572397e+02,-4.324363731631083283e+02,-6.393761743539184863e+02,-6.817555026032132446e+02,-3.206390468166268874e+02,-4.496393345919173044e+02,9.446745872497558594e+00,-6.884268522262573242e-01,4.589512646198272705e-01,4.400000000000000000e+02
-5.930899907054631512e+02,-6.943366211826423751e+02,-3.538831209776826654e+02,-4.284724491898009546e+02,-6.321968644451912951e+02,-6.763780827836048957e+02,-3.157078305329869181e+02,-4.431697579617693918e+02,9.446745872497558594e+00,-6.884268522262573242e-01,4.589512646198272705e-01,4.410000000000000000e+02
-5.895680058118468878e+02,-6.901987131702899205e+02,-3.486676435363906421e+02,-4.246691816180464230e+02,-6.234684510049278288e+02,-6.705988995644015631e+02,-3.110599730817275486e+02,-4.366240828387608417e+02,9.446745872497558594e+00,-6.884268522262573242e-01,4.589512646198272705e-01,4.420000000000000000e+02
-5.870570053195947366e+02,-6.874302785016011512e+02,-3.430932435985123448e+02,-4.207718638521305365e+02,-6.146633043883780374e+02,-6.643496792607525094e+02,-3.077699237697761419e+02,-4.312381855635262582e+02,9.446745872497558594e+00,-6.884268522262573242e-01,4.589512646198272705e-01,4.430000000000000000e+02
-5.838322063497230374e+02,-6.850783765885739740e+02,-3.387630659306132657e+02,-4.167894736741482120e+02,-6.070156219818718455e+02,-6.578348559626251699e+02,-3.061336682478649891e+02,-4.275801041312179223e+02,9.446745872497558594e+00,-6.884268522262573242e-01,4.589512646198272705e-01,4.440000000000000000e+02
-5.783887145046473961e+02,-6.822553560046831080e+02,-3.363127579252050054e+02,-4.131108933183777481e+02,-6.012314090540712641e+02,-6.515201745996077989e+02,-3.057633554677622669e+02,-4.257060523997461132e+02,9.446745872497558594e+00,-6.884268522262573242e-01,4.589512646198272705e-01,4.450000000000000000e+02
-5.708083144943930165e+02,-6.784180093419668083e+02,-3.351363083771670972e+02,-4.102125693631883223e+02,-5.975473581782603105e+02,-6.459520424415613888e+02,-3.060352331479907662e+02,-4.255504708921666861e+02,9.446745872497558594e+00,-6.884268522262573242e-01,4.589512646198272705e-01,4.460000000000000000e+02
-5.627301253302975965e+02,-6.731895681391902144e+02,-3.340454461908620942e+02,-4.081627853412419427e+02,-5.957107399075130161e+02,-6.414430707970741423e+02,-3.063429262121103420e+02,-4.269366417199307762e+02,9.446745872497558594e+00,-6.884268522262573242e-01,4.589512646198272705e-01,4.470000000000000000e+02
-5.560125932013670536e+02,-6.662202762560641531e+02,-3.321792654974110519e+02,-4.063975334451583876e+02,-5.947995634606368185e+02,-6.377985752956951728e+02,-3.060039303869643845e+02,-4.291788958084562182e+02,9.446745872497558594e+00,-6.884268522262573242e-01,4.589512646198272705e-01,4.480000000000000000e+02
-5.514400695640474623e+02,-6.575008571445241614e+02,-3.294015355188194007e+02,-4.040299824393182462e+02,-5.932738128185337700e+02,-6.342967672554500496e+02,-3.041907334594429813e+02,-4.308551304444813468e+02,9.446745872497558594e+00,-6.884268522262573242e-01,4.589512646198272705e-01,4.490000000000000000e+02
-5.486328581460343230e+02,-6.478283836888672340e+02,-3.260330196707250252e+02,-4.004678291110963073e+02,-5.896016290272818878e+02,-6.300125328354147314e+02,-3.002681578492802146e+02,-4.302511715181121872e+02,9.446745872497558594e+00,-6.884268522262573242e-01,4.589512646198272705e-01,4.500000000000000000e+02
-5.469730858121847632e+02,-6.386848497039736685e+02,-3.224111955748639957e+02,-3.958285784332588264e+02,-5.832291740784930880e+02,-6.243527008687747184e+02,-2.944140497016483096e+02,-4.263191283073333580e+02,9.446745872497558594e+00,-6.884268522262573242e-01,4.589512646198272705e-01,4.510000000000000000e+02
-5.463566928538612046e+02,-6.312703653805383510e+02,-3.187602090162772583e+02,-3.907952457234032408e+02,-5.751226750984410501e+02,-6.174448033032695093e+02,-2.878968670707276942e+02,-4.194236029177923228e+02,9.446745872497558594e+00,-6.884268522262573242e-01,4.589512646198272705e-01,4.520000000000000000e+02
-5.469514323149883239e+02,-6.254450583204184113e+02,-3.153490029198851516e+02,-3.860404608940639264e+02,-5.672828225344655948e+02,-6.100582299206721473e+02,-2.825241415740233606e+02,-4.112420744233850201e+02,9.446745872497558594e+00,-6.884268522262573242e-01,4.589512646198272705e-01,4.530000000000000000e+02
-5.483518684214491259e+02,-6.197397086819701144e+02,-3.125685698712595695e+02,-3.817265690812473622e+02,-5.614578110832621860e+02,-6.030756900639048581e+02,-2.795257820402325706e+02,-4.038570664494236553e+02,9.446745872497558594e+00,-6.884268522262573242e-01,4.589512646198272705e-01,4.540000000000000000e+02
-5.491987683280890451e+02,-6.127083971206670867e+02,-3.107063459650617006e+02,-3.775166830471694084e+02,-5.580039670972100794e+02,-5.969310484880006697e+02,-2.787377981720169373e+02,-3.986899130126462296e+02,9.446745872497558594e+00,-6.884268522262573242e-01,4.589512646198272705e-01,4.550000000000000000e+02
-5.478183674704700934e+02,-6.044872445349010377e+02,-3.096263801842023895e+02,-3.730671449821711576e+02,-5.557605192261098637e+02,-5.914928168339624790e+02,-2.787701758383836932e+02,-3.959501398398474521e+02,9.446745872497558594e+00,-6.884268522262573242e-01,4.589512646198272705e-01,4.560000000000000000e+02
-5.433722793933570756e+02,-5.969794080926071729e+02,-3.087145591786884324e+02,-3.685140011710827821e+02,-5.529697982249304005e+02,-5.864401197625115856e+02,-2.780074206312101524e+02,-3.948001429301489225e+02,9.446745872497558594e+00,-6.884268522262573242e-01,4.589512646198272705e-01,4.570000000000000000e+02
-5.364951695305730937e+02,-5.922551778464630843e+02,-3.071908993493461821e+02,-3.644463027531946864e+02,-5.484583777238108269e+02,-5.816842014766943976e+02,-2.756096381146935528e+02,-3.939377947887264781e+02,9.446745872497558594e+00,-6.884268522262573242e-01,4.589512646198272705e-01,4.580000000000000000e+02
-5.288999458533248799e+02,-5.905222759027969914e+02,-3.045423313062137822e+02,-3.613377431683429677e+02,-5.421942044216666545e+02,-5.773604437450057958e+02,-2.717901332588330661e+02,-3.921771350383905883e+02,9.446745872497558594e+00,-6.884268522262573242e-01,4.589512646198272705e-01,4.590000000000000000e+02
-5.223299899498288141e+02,-5.896135572743987723e+02,-3.007511324427819090e+02,-3.589569961611700819e+02,-5.349521999001908625e+02,-5.734113246109131978e+02,-2.673455142210495978e+02,-3.887762938460773512e+02,9.446745872497558594e+00,-6.884268522262573242e-01,4.589512646198272705e-01,4.600000000000000000e+02
-5.176789237108296220e+02,-5.866111163149812455e+02,-2.962044319891274426e+02,-3.563494658479517057e+02,-5.275426748578965999e+02,-5.692861032669920860e+02,-2.629885399488930489e+02,-3.834953575087961326e+02,9.446745872497558594e+00,-6.884268522262573242e-01,4.589512646198272705e-01,4.610000000000000000e+02
-5.148041890641170539e+02,-5.802110032100999888e+02,-2.914323641652445076e+02,-3.524736754912169090e+02,-5.202778989797307077e+02,-5.641888953041193417e+02,-2.590086958522019813e+02,-3.765250642563232759e+02,9.408499717712402344e+00,-6.501809358596801758e-01,4.207052886486053467e-01,4.620000000000000000e+02
-5.129314268888151673e+02,-5.716986553844576520e+02,-2.868462247856682552e+02,-3.469641219998793531e+02,-5.129862653765367213e+02,-5.577009493701652900e+02,-2.553253682868339638e+02,-3.684094550284598881e+02,9.408499717712402344e+00,-6.501809358596801758e-01,4.207052886486053467e-01,4.630000000000000000e+02
-5.112309866196192161e+02,-5.637248949295480998e+02,-2.825903117488142016e+02,-3.403767457984176872e+02,-5.054246052749299452e+02,-5.501665744868773800e+02,-2.517093295128497630e+02,-3.600227595873343489e+02,9.408499717712402344e+00,-6.501809358596801758e-01,4.207052886486053467e-01,4.640000000000000000e+02
-5.092301831914696777e+02,-5.581156395288371641e+02,-2.785557338530484230e+02,-3.337596281517321586e+02,-4.976978616921501271e+02,-5.424606353306385245e+02,-2.479914144692220361e+02,-3.525141506626960108e+02,9.408499717712402344e+00,-6.501809358596801758e-01,4.207052886486053467e-01,4.650000000000000000e+02
-5.069383175199459401e+02,-5.547126837973846705e+02,-2.745313459278049777e+02,-3.279793972921534078e+02,-4.903643872355792155e+02,-5.353845694679534972e+02,-2.442134529158838632e+02,-3.470154664633510038e+02,9.408499717712402344e+00,-6.501809358596801758e-01,4.207052886486053467e-01,4.660000000000000000e+02
-5.046973256160258643e+02,-5.520658541356779097e+02,-2.703947818011797608e+02,-3.233416837087415843e+02,-4.841410958947403742e+02,-5.292499887315661908e+02,-2.406682197921368243e+02,-3.440353048191927883e+02,9.408499717712402344e+00,-6.501809358596801758e-01,4.207052886486053467e-01,4.670000000000000000e+02
-5.028491249902581330e+02,-5.489837853807030115e+02,-2.661776184472516888e+02,-3.196636212727808015e+02,-4.793722808456054736e+02,-5.239128002537627253e+02,-2.377150913980917721e+02,-3.428276208125143967e+02,9.408499717712402344e+00,-6.501809358596801758e-01,4.207052886486053467e-01,4.680000000000000000e+02
-5.014368396758227391e+02,-5.453405705943541761e+02,-2.619471466605050409e+02,-3.165518040605725218e+02,-4.756324419675156605e+02,-5.190201483959535835e+02,-2.354178385604450341e+02,-3.413371043490510601e+02,9.408499717712402344e+00,-6.501809358596801758e-01,4.207052886486053467e-01,4.690000000000000000e+02
-5.002165884470141464e+02,-5.415836392608489405e+02,-2.576624317417577004e+02,-3.136128027363956789e+02,-4.718298924636328593e+02,-5.141466343347688053e+02,-2.333313756490060769e+02,-3.371158921098640349e+02,9.408499717712402344e+00,-6.501809358596801758e-01,4.207052886486053467e-01,4.700000000000000000e+02
-4.990659578321351546e+02,-5.378065869179740730e+02,-2.532329181573702499e+02,-3.105549103131293123e+02,-4.668544061918987609e+02,-5.088166835162564894e+02,-2.307597062489626296e+02,-3.288228554399083805e+02,9.408499717712402344e+00,-6.501809358596801758e-01,4.207052886486053467e-01,4.710000000000000000e+02
-4.984476229748788683e+02,-5.335310702028018568e+02,-2.487754121825864786e+02,-3.072550073859165423e+02,-4.603489681923856551e+02,-5.026390861258214500e+02,-2.273631237603547106e+02,-3.172343660029455350e+02,9.408499717712402344e+00,-6.501809358596801758e-01,4.207052886486053467e-01,4.720000000000000000e+02
-4.993622527786737919e+02,-5.283450340327631238e+02,-2.447777730511368190e+02,-3.037728188272672014e+02,-4.529896852068886801e+02,-4.956029361044420511e+02,-2.235161883367522933e+02,-3.048608842636658665e+02,9.408499717712402344e+00,-6.501809358596801758e-01,4.207052886486053467e-01,4.730000000000000000e+02
-5.025781592922980963e+02,-5.225188664013026028e+02,-2.418799219219972656e+02,-3.002219195302473054e+02,-4.460062067658650449e+02,-4.882385188675307290e+02,-2.199519515921833772e+02,-2.943553839448304643e+02,9.408499717712402344e+00,-6.501809358596801758e-01,4.207052886486053467e-01,4.740000000000000000e+02
-5.076861419061447123e+02,-5.168290607654626001e+02,-2.403674382782194243e+02,-2.965739011055097762e+02,-4.403448302053320731e+02,-4.813709205428253881e+02,-2.169856443773467163e+02,-2.869750968947364527e+02,9.408499717712402344e+00,-6.501809358596801758e-01,4.207052886486053467e-01,4.750000000000000000e+02
-5.129159630146159543e+02,-5.118191982635489694e+02,-2.398412794984180891e+02,-2.926607504745384176e+02,-4.361948888110409825e+02,-4.756145608456668015e+02,-2.141643654689034975e+02,-2.823179598996284767e+02,9.408499717712402344e+00,-6.501809358596801758e-01,4.207052886486053467e-01,4.760000000000000000e+02
-5.161597222047494142e+02,-5.073962106070164282e+02,-2.394413729664952371e+02,-2.884858879208436520e+02,-4.332279192040778071e+02,-4.710612135919072898e+02,-2.108437439337956221e+02,-2.793768978323405463e+02,9.408499717712402344e+00,-6.501809358596801758e-01,4.207052886486053467e-01,4.770000000000000000e+02
-5.165436183559045276e+02,-5.032217475733386891e+02,-2.384656755696025812e+02,-2.845340379776064310e+02,-4.311475308477693034e+02,-4.674035845071393851e+02,-2.071524511413285836e+02,-2.777142758431768925e+02,9.408499717712402344e+00,-6.501809358596801758e-01,4.207052886486053467e-01,4.780000000000000000e+02
-5.152066685453903574e+02,-4.993646839756875124e+02,-2.368021653463470102e+02,-2.815966031219311390e+02,-4.298588484133692873e+02,-4.642498300706965892e+02,-2.042100522491937227e+02,-2.775442053911956464e+02,9.408499717712402344e+00,-6.501809358596801758e-01,4.207052886486053467e-01,4.790000000000000000e+02
-5.144740678717662377e+02,-4.963499684370701743e+02,-2.347892249265651117e+02,-2.800760522846430831e+02,-4.290580863789418800e+02,-4.612457072155602873e+02,-2.031430384299947036e+02,-2.787542414977538101e+02,9.408499717712402344e+00,-6.501809358596801758e-01,4.207052886486053467e-01,4.800000000000000000e+02
-5.160230940699639177e+02,-4.944501145505873865e+02,-2.326917948370937665e+02,-2.793758205012886719e+02,-4.277904703213034736e+02,-4.579501277484628190e+02,-2.037522306351288535e+02,-2.800558798169781767e+02,9.408499717712402344e+00,-6.501809358596801758e-01,4.207052886486053467e-01,4.810000000000000000e+02
-5.196287962072165101e+02,-4.929744077057544018e+02,-2.303625413725542330e+02,-2.780709591662819093e+02,-4.246904708466640841e+02,-4.537786708940511744e+02,-2.042540981964893945e+02,-2.793514848178740522e+02,9.408499717712402344e+00,-6.501809358596801758e-01,4.207052886486053467e-01,4.820000000000000000e+02
-5.236161393092063463e+02,-4.904316374913883010e+02,-2.274259181140498640e+02,-2.748904172154889238e+02,-4.189299941759054491e+02,-4.482745662245229141e+02,-2.025931717632886375e+02,-2.751578473182730704e+02,9.408499717712402344e+00,-6.501809358596801758e-01,4.207052886486053467e-01,4.830000000000000000e+02
-5.266024391999046657e+02,-4.855837979433208602e+02,-2.237615817321293434e+02,-2.697129774621396336e+02,-4.110860683468640673e+02,-4.415097707789245760e+02,-1.982440452784139779e+02,-2.678026446447386206e+02,9.408499717712402344e+00,-6.501809358596801758e-01,4.207052886486053467e-01,4.840000000000000000e+02
-5.288942052707241146e+02,-4.784993032020963710e+02,-2.197842145161807821e+02,-2.636970949424887749e+02,-4.030544657317491328e+02,-4.341708941816964398e+02,-1.928120961442891712e+02,-2.592924130551880353e+02,9.408499717712402344e+00,-6.501809358596801758e-01,4.207052886486053467e-01,4.850000000000000000e+02
-5.321950038447091629e+02,-4.706640530086706349e+02,-2.162424556260975805e+02,-2.584504226920992096e+02,-3.969238313388016195e+02,-4.271654373601340922e+02,-1.887928199321397642e+02,-2.519854529199396893e+02,9.408499717712402344e+00,-6.501809358596801758e-01,4.207052886486053467e-01,4.860000000000000000e+02
-5.378610422451213253e+02,-4.640410868477079021e+02,-2.137094219415766929e+02,-2.549825815301564944e+02,-3.936305562148627359e+02,-4.210667715708959804e+02,-1.875600683461034350e+02,-2.472126870563606644e+02,9.408499717712402344e+00,-6.501809358596801758e-01,4.207052886486053467e-01,4.870000000000000000e+02
-5.453187620688154311e+02,-4.598382422711410982e+02,-2.121613959707551658e+02,-2.532710570988160725e+02,-3.924004333021459843e+02,-4.158783426127474740e+02,-1.883437191674522637e+02,-2.448430470477144354e+02,9.408499717712402344e+00,-6.501809358596801758e-01,4.207052886486053467e-01,4.880000000000000000e+02
-5.521444643580932734e+02,-4.578769949622596869e+02,-2.109398125840546072e+02,-2.525878060325680963e+02,-3.913374546480069966e+02,-4.112504887493541901e+02,-1.889988510202601901e+02,-2.438153075857428576e+02,9.484992027282714844e+00,-7.266727685928344727e-01,4.207052886486053467e-01,4.890000000000000000e+02
-5.557985067727483965e+02,-4.568589016604603330e+02,-2.091126537540458230e+02,-2.520768889428186412e+02,-3.886560357070518421e+02,-4.068504445837297681e+02,-1.877418155759698948e+02,-2.429159204919521926e+02,9.484992027282714844e+00,-7.266727685928344727e-01,4.207052886486053467e-01,4.900000000000000000e+02
-5.555356969325064256e+02,-4.551719499833698137e+02,-2.060346225401085576e+02,-2.510667074104646872e+02,-3.836959437320781490e+02,-4.025289300768188241e+02,-1.843000143160859352e+02,-2.412137829701048304e+02,9.484992027282714844e+00,-7.266727685928344727e-01,4.207052886486053467e-01,4.910000000000000000e+02
-5.528803868137213158e+02,-4.516676044589373760e+02,-2.018114357777674286e+02,-2.490726514572463657e+02,-3.771630751704910836e+02,-3.982176943387032679e+02,-1.796716048193206916e+02,-2.381702805012325825e+02,9.484992027282714844e+00,-7.266727685928344727e-01,4.207052886486053467e-01,4.920000000000000000e+02
-5.503210024469133259e+02,-4.460602177369128185e+02,-1.973353986403049021e+02,-2.457937093706077576e+02,-3.705704796951990829e+02,-3.937682478756596538e+02,-1.750223806423480255e+02,-2.337068929878473682e+02,9.484992027282714844e+00,-7.266727685928344727e-01,4.207052886486053467e-01,4.930000000000000000e+02
-5.493822928993386085e+02,-4.389248243855122382e+02,-1.937358509295943350e+02,-2.412670359429616838e+02,-3.652751699332934550e+02,-3.889286023067913902e+02,-1.708495750317915736e+02,-2.282810890096566254e+02,9.484992027282714844e+00,-7.266727685928344727e-01,4.207052886486053467e-01,4.940000000000000000e+02
-5.496580012635904495e+02,-4.314117739971343326e+02,-1.915294107441986853e+02,-2.359883359377247416e+02,-3.616618108060085888e+02,-3.834577335849485280e+02,-1.670159732965598778e+02,-2.227436769934272434e+02,9.484992027282714844e+00,-7.266727685928344727e-01,4.207052886486053467e-01,4.950000000000000000e+02
-5.494697372842533696e+02,-4.247916782723564211e+02,-1.901281029768467761e+02,-2.307510174875887969e+02,-3.589629497916071159e+02,-3.772727556880952307e+02,-1.633170613254333148e+02,-2.178872800448084490e+02,9.484992027282714844e+00,-7.266727685928344727e-01,4.207052886486053467e-01,4.960000000000000000e+02
-5.474342764509256085e+02,-4.199600632695980948e+02,-1.882329425664622704e+02,-2.262349809016640165e+02,-3.558615238578413482e+02,-3.705410352105604943e+02,-1.598501623205712576e+02,-2.139869531196504795e+02,9.484992027282714844e+00,-7.266727685928344727e-01,4.207052886486053467e-01,4.970000000000000000e+02
-5.435525246758038520e+02,-4.170722657099570370e+02,-1.849041841867768881e+02,-2.226562334437538766e+02,-3.514935390150467356e+02,-3.636979792311176425e+02,-1.568585207282600322e+02,-2.107542045550919738e+02,9.484992027282714844e+00,-7.266727685928344727e-01,4.207052886486053467e-01,4.980000000000000000e+02
-5.390080018371570532e+02,-4.154879565912756334e+02,-1.804183572937592999e+02,-2.197627209082525042e+02,-3.461358151768836251e+02,-3.573749861438736843e+02,-1.543800680403999195e+02,-2.077803552034397399e+02,9.484992027282714844e+00,-7.266727685928344727e-01,4.207052886486053467e-01,4.990000000000000000e+02
-5.350545266866674865e+02,-4.141066381457142143e+02,-1.761365788651468165e+02,-2.171545118633559923e+02,-3.410359428829096942e+02,-3.522236730373815590e+02,-1.522100440838075883e+02,-2.050714922083765259e+02,9.484992027282714844e+00,-7.266727685928344727e-01,4.207052886486053467e-01,5.000000000000000000e+02
-5.320783073340353440e+02,-4.119490765521884441e+02,-1.734406452005205210e+02,-2.146348188538597697e+02,-3.374633127746119499e+02,-3.486608177093528411e+02,-1.502429485954741040e+02,-2.031689264493887777e+02,9.484992027282714844e+00,-7.266727685928344727e-01,4.207052886486053467e-01,5.010000000000000000e+02
-5.296337076129453862e+02,-4.086743713809037217e+02,-1.726775979640954120e+02,-2.122999980330754397e+02,-3.357286901896485460e+02,-3.466341510570713353e+02,-1.487809544153033130e+02,-2.027328051680497083e+02,9.484992027282714844e+00,-7.266727685928344727e-01,4.207052886486053467e-01,5.020000000000000000e+02
-5.272695186721070968e+02,-4.047323979937431204e+02,-1.730511286434900171e+02,-2.103202936827501617e+02,-3.349582500223905299e+02,-3.455519728233452952e+02,-1.483789669648252243e+02,-2.039105661660680653e+02,9.484992027282714844e+00,-7.266727685928344727e-01,4.207052886486053467e-01,5.030000000000000000e+02
-5.252052668985620585e+02,-4.010348409202389917e+02,-1.734397454360963025e+02,-2.086166267151363058e+02,-3.337443246011419546e+02,-3.444477998641300474e+02,-1.492457140240512672e+02,-2.059491476967177732e+02,9.484992027282714844e+00,-7.266727685928344727e-01,4.207052886486053467e-01,5.040000000000000000e+02
-5.241326213876488964e+02,-3.983243978750965653e+02,-1.732506647073199701e+02,-2.067105731201859271e+02,-3.310789379981383718e+02,-3.423443390617627529e+02,-1.507173374486117154e+02,-2.073048610132989324e+02,9.484992027282714844e+00,-7.266727685928344727e-01,4.207052886486053467e-01,5.050000000000000000e+02
-5.243829593869688779e+02,-3.966604437882053844e+02,-1.725141242781606934e+02,-2.039174197084329307e+02,-3.268536978780039703e+02,-3.386840091779395721e+02,-1.513754407524801309e+02,-2.062633126020930376e+02,9.484992027282714844e+00,-7.266727685928344727e-01,4.207052886486053467e-01,5.060000000000000000e+02
-5.253854759028909029e+02,-3.953956151064556366e+02,-1.713330283015775990e+02,-1.997918884596444400e+02,-3.217021040584912157e+02,-3.336109677378972833e+02,-1.498914727371906110e+02,-2.018457615554206654e+02,9.484992027282714844e+00,-7.266727685928344727e-01,4.207052886486053467e-01,5.070000000000000000e+02
-5.260883368918293854e+02,-3.936822227738163633e+02,-1.694972356794455095e+02,-1.945238387566749338e+02,-3.165338946134242519e+02,-3.279208339168660018e+02,-1.460452572355651455e+02,-1.945582832491863314e+02,9.484992027282714844e+00,-7.266727685928344727e-01,4.207052886486053467e-01,5.080000000000000000e+02
-5.259898732940462196e+02,-3.911305178427585361e+02,-1.667813061130152334e+02,-1.889634415807402092e+02,-3.121829670884657162e+02,-3.226412665828728450e+02,-1.411008892764090490e+02,-1.864324252989863453e+02,9.484992027282714844e+00,-7.266727685928344727e-01,4.207052886486053467e-01,5.090000000000000000e+02
-5.256765426957283580e+02,-3.880861116843575473e+02,-1.635307243345976076e+02,-1.841950666306909170e+02,-3.092154128811068858e+02,-3.184633419974096569e+02,-1.371107804500021530e+02,-1.800539294532289318e+02,9.484992027282714844e+00,-7.266727685928344727e-01,4.207052886486053467e-01,5.100000000000000000e+02
-5.261511762496971869e+02,-3.852801933683897460e+02,-1.606672275379589792e+02,-1.809155276626474915e+02,-3.076856558081498179e+02,-3.153986968554315808e+02,-1.355180929043749529e+02,-1.769766909150320089e+02,9.484992027282714844e+00,-7.266727685928344727e-01,4.207052886486053467e-01,5.110000000000000000e+02
-5.274737955913428777e+02,-3.831394715793447290e+02,-1.588749359954423426e+02,-1.790358811144378706e+02,-3.068668260093417075e+02,-3.128968129341069471e+02,-1.360588327683703938e+02,-1.766323041034075345e+02,9.484992027282714844e+00,-7.266727685928344727e-01,4.207052886486053467e-01,5.120000000000000000e+02
-5.280759727065395737e+02,-3.813605222619301571e+02,-1.577502305573075319e+02,-1.777726322544179993e+02,-3.053413923169477471e+02,-3.103009472299872868e+02,-1.368672729760489233e+02,-1.767316327596956853e+02,9.484992027282714844e+00,-7.266727685928344727e-01,4.207052886486053467e-01,5.130000000000000000e+02
-5.256612511197646427e+02,-3.791435205794100511e+02,-1.559467989385307192e+02,-1.761444678635009495e+02,-3.017446966788502323e+02,-3.072581789281197189e+02,-1.358240999685129395e+02,-1.750440578729119352e+02,9.484992027282714844e+00,-7.266727685928344727e-01,4.207052886486053467e-01,5.140000000000000000e+02
-5.191167654855247520e+02,-3.758935203499994486e+02,-1.524021779946806419e+02,-1.735334521529835001e+02,-2.958253820353681931e+02,-3.037915667225754532e+02,-1.321867358186868842e+02,-1.711908284813769114e+02,9.484992027282714844e+00,-7.266727685928344727e-01,4.207052886486053467e-01,5.150000000000000000e+02
-5.097744407609246764e+02,-3.717507643178216767e+02,-1.475239696288795130e+02,-1.699745657070291145e+02,-2.889467583874362617e+02,-3.000909380442953989e+02,-1.272190228128654326e+02,-1.669103552632640231e+02,9.484992027282714844e+00,-7.266727685928344727e-01,4.207052886486053467e-01,5.160000000000000000e+02
-5.008104628940750445e+02,-3.674676444448729171e+02,-1.430902051108207615e+02,-1.660414046824209890e+02,-2.833942825244379264e+02,-2.963020053163700140e+02,-1.232538410501449562e+02,-1.644792572607859711e+02,9.484992027282714844e+00,-7.266727685928344727e-01,4.207052886486053467e-01,5.170000000000000000e+02
-4.951984959445921959e+02,-3.637644711624634510e+02,-1.408116119365333816e+02,-1.624467823847172667e+02,-2.808530940299115173e+02,-2.925019490704855798e+02,-1.218981617040876699e+02,-1.646644269268365406e+02,9.484992027282714844e+00,-7.266727685928344727e-01,4.207052886486053467e-01,5.180000000000000000e+02
-4.939217363278544326e+02,-3.607767339945633012e+02,-1.408679533098968477e+02,-1.596186175358725450e+02,-2.812460288669337842e+02,-2.887846595533278560e+02,-1.228302119896260365e+02,-1.660404104544950314e+02,9.484992027282714844e+00,-7.266727685928344727e-01,4.207052886486053467e-01,5.190000000000000000e+02
-4.958537852056010706e+02,-3.581080249365754753e+02,-1.418363544479518623e+02,-1.575083332842050368e+02,-2.828996191687770079e+02,-2.852691188987287205e+02,-1.241655249737902977e+02,-1.662571223384484256e+02,9.446745872497558594e+00,-7.266727685928344727e-01,3.824593424797058105e-01,5.200000000000000000e+02
-4.991542352050373665e+02,-3.553764170321146594e+02,-1.420785476081273373e+02,-1.557350322227566721e+02,-2.838699079054424601e+02,-2.819924402957096845e+02,-1.240388099002802846e+02,-1.640431263319860591e+02,9.446745872497558594e+00,-7.266727685928344727e-01,3.824593424797058105e-01,5.210000000000000000e+02
-5.027367444143039847e+02,-3.526542183847277556e+02,-1.412244260526633752e+02,-1.539415739705577835e+02,-2.832698311182211910e+02,-2.788257592976342494e+02,-1.220234594920702875e+02,-1.601216861967723162e+02,9.446745872497558594e+00,-7.266727685928344727e-01,3.824593424797058105e-01,5.220000000000000000e+02
-5.065436062510405009e+02,-3.503373847298739747e+02,-1.403289900751262849e+02,-1.520916667650935779e+02,-2.815498551647792738e+02,-2.755635040499814750e+02,-1.192360465671340535e+02,-1.563719213118756670e+02,9.446745872497558594e+00,-7.266727685928344727e-01,3.824593424797058105e-01,5.230000000000000000e+02
-5.106834222120576214e+02,-3.485957206427974597e+02,-1.406330779503509802e+02,-1.504695908614232849e+02,-2.797198887793078939e+02,-2.721422838097241765e+02,-1.171915695306179259e+02,-1.542352106933703908e+02,9.446745872497558594e+00,-7.266727685928344727e-01,3.824593424797058105e-01,5.240000000000000000e+02
-5.146045695764901211e+02,-3.470154719741613007e+02,-1.422360608454846442e+02,-1.493890351039831330e+02,-2.784274260716856588e+02,-2.687992154667344948e+02,-1.165434565800528617e+02,-1.539118148401439612e+02,9.446745872497558594e+00,-7.266727685928344727e-01,3.824593424797058105e-01,5.250000000000000000e+02
-5.172753304964026029e+02,-3.448550046650880176e+02,-1.439844178813630151e+02,-1.488627631829021993e+02,-2.777194012642139569e+02,-2.660230296183317478e+02,-1.167863341330032654e+02,-1.548612910101328453e+02,9.446745872497558594e+00,-7.266727685928344727e-01,3.824593424797058105e-01,5.260000000000000000e+02
-5.181104679596273854e+02,-3.416751681869054664e+02,-1.445704700912442604e+02,-1.485033137684231406e+02,-2.774298550512548900e+02,-2.642915509203853617e+02,-1.169507129835665182e+02,-1.566905624657219960e+02,9.446745872497558594e+00,-7.266727685928344727e-01,3.824593424797058105e-01,5.270000000000000000e+02
-5.175470101580212940e+02,-3.377067870609535021e+02,-1.436332610481204028e+02,-1.477294042343587535e+02,-2.774727588288569677e+02,-2.637384464648011999e+02,-1.164155806177054728e+02,-1.592615448059918890e+02,9.446745872497558594e+00,-7.266727685928344727e-01,3.824593424797058105e-01,5.280000000000000000e+02
-5.165855400903064947e+02,-3.335914517691189758e+02,-1.417778823787625697e+02,-1.461162491601917282e+02,-2.776110641305344870e+02,-2.639444003626258564e+02,-1.150739244162141404e+02,-1.619740760988679540e+02,9.446745872497558594e+00,-7.266727685928344727e-01,3.824593424797058105e-01,5.290000000000000000e+02
-5.157715387882562936e+02,-3.297908746070806956e+02,-1.396406412068145073e+02,-1.436397153539101055e+02,-2.770590453689710557e+02,-2.640072817040672817e+02,-1.129416461737282589e+02,-1.633108066973645691e+02,9.446745872497558594e+00,-7.266727685928344727e-01,3.824593424797058105e-01,5.300000000000000000e+02
-5.147326234897336690e+02,-3.262820576955200522e+02,-1.371053621839555490e+02,-1.406734203873775186e+02,-2.746169951825886528e+02,-2.629166469438687272e+02,-1.099110595497354552e+02,-1.615400841863815913e+02,9.446745872497558594e+00,-7.266727685928344727e-01,3.824593424797058105e-01,5.310000000000000000e+02
-5.127913441455561951e+02,-3.228175131368084294e+02,-1.335130190336981286e+02,-1.377615433233963813e+02,-2.695001657541106397e+02,-2.600577229391383298e+02,-1.060696199474705281e+02,-1.561612293740190580e+02,9.446745872497558594e+00,-7.266727685928344727e-01,3.824593424797058105e-01,5.320000000000000000e+02
-5.099824372685852722e+02,-3.193983686600095098e+02,-1.285738781891504914e+02,-1.353001786767154044e+02,-2.621614778973053035e+02,-2.555334999991555378e+02,-1.021744514989518393e+02,-1.486620599292659790e+02,9.446745872497558594e+00,-7.266727685928344727e-01,3.824593424797058105e-01,5.330000000000000000e+02
-5.073217367248962546e+02,-3.163755933278721386e+02,-1.229642290835799940e+02,-1.333077318511650446e+02,-2.542476963633357627e+02,-2.500611289276239404e+02,-9.952408245360038563e+01,-1.416504656848096602e+02,9.446745872497558594e+00,-7.266727685928344727e-01,3.824593424797058105e-01,5.340000000000000000e+02
-5.059390102373463378e+02,-3.140458767585469104e+02,-1.179856744034855183e+02,-1.314428964841836205e+02,-2.476080182574519313e+02,-2.445174828594099381e+02,-9.907472048632735095e+01,-1.370011998603026768e+02,9.446745872497558594e+00,-7.266727685928344727e-01,3.824593424797058105e-01,5.350000000000000000e+02
-5.059255585220403191e+02,-3.121998177808750370e+02,-1.146290521490018364e+02,-1.292943982919891823e+02,-2.431932736771063901e+02,-2.394925090889064450e+02,-1.005296952773010162e+02,-1.346716986304936654e+02,9.446745872497558594e+00,-7.266727685928344727e-01,3.824593424797058105e-01,5.360000000000000000e+02
-5.061213525987127468e+02,-3.101649227694006186e+02,-1.129479350867309222e+02,-1.267479787231250157e+02,-2.407813874879711875e+02,-2.351671944890531449e+02,-1.023337926942031118e+02,-1.332178880345154539e+02,9.446745872497558594e+00,-7.266727685928344727e-01,3.824593424797058105e-01,5.370000000000000000e+02
-5.051469670048240914e+02,-3.073695461049719597e+02,-1.122586315290291168e+02,-1.241329235036096179e+02,-2.396487714818049426e+02,-2.315148556340245705e+02,-1.027343441821476517e+02,-1.314263122496713549e+02,9.446745872497558594e+00,-7.266727685928344727e-01,3.824593424797058105e-01,5.380000000000000000e+02
-5.026955039499334816e+02,-3.038974774930775311e+02,-1.118465581090445085e+02,-1.219986859130603989e+02,-2.394127462574251695e+02,-2.285496080482716934e+02,-1.010800336433662778e+02,-1.294692470416939614e+02,9.446745872497558594e+00,-7.266727685928344727e-01,3.824593424797058105e-01,5.390000000000000000e+02
-4.997908573825225176e+02,-3.004895285731900003e+02,-1.114551881210368265e+02,-1.207068932735828639e+02,-2.401800250685464562e+02,-2.263673871799546760e+02,-9.826962807636391517e+01,-1.285433351425917863e+02,9.446745872497558594e+00,-7.266727685928344727e-01,3.824593424797058105e-01,5.400000000000000000e+02
-4.977508744108781684e+02,-2.979700469692452316e+02,-1.111966011243039247e+02,-1.202132873302571170e+02,-2.419494008079300329e+02,-2.249922744189734658e+02,-9.601282217324569501e+01,-1.294881670696722722e+02,9.408499717712402344e+00,-7.266727685928344727e-01,3.824593424797058105e-01,5.410000000000000000e+02
-4.969024293949069033e+02,-2.966110366868324490e+02,-1.111362167879697154e+02,-1.202127369555382757e+02,-2.440138951096650999e+02,-2.242346636745533033e+02,-9.557370239850934013e+01,-1.317977939636084557e+02,9.408499717712402344e+00,-7.266727685928344727e-01,3.824593424797058105e-01,5.420000000000000000e+02
-4.963207655920468824e+02,-2.959840287114639068e+02,-1.110497375382892642e+02,-1.204350377614473473e+02,-2.450888538488006816e+02,-2.237043466882059874e+02,-9.697870028339275450e+01,-1.339209254608122137e+02,9.408499717712402344e+00,-7.266727685928344727e-01,3.824593424797058105e-01,5.430000000000000000e+02
-4.947945281884694850e+02,-2.953839642471375555e+02,-1.105865967742738576e+02,-1.207416249524876548e+02,-2.441322155853349614e+02,-2.229424409384137107e+02,-9.917267962179903407e+01,-1.344545869151033912e+02,9.408499717712402344e+00,-7.266727685928344727e-01,3.824593424797058105e-01,5.440000000000000000e+02
-4.919645347573432446e+02,-2.944118272436062398e+02,-1.096177457436160694e+02,-1.209471568978824507e+02,-2.411016931881413257e+02,-2.215710115886922722e+02,-1.008028250836405277e+02,-1.330819862200651187e+02,9.408499717712402344e+00,-7.266727685928344727e-01,3.824593424797058105e-01,5.450000000000000000e+02
-4.884672000121436213e+02,-2.931907106706485138e+02,-1.083926887081506720e+02,-1.206693873509739205e+02,-2.369595306582623380e+02,-2.194258086300096693e+02,-1.009596216025447575e+02,-1.305255926184236159e+02,9.408499717712402344e+00,-7.266727685928344727e-01,3.824593424797058105e-01,5.460000000000000000e+02
-4.850180731105156156e+02,-2.920543048116896898e+02,-1.073153384821234795e+02,-1.195021351394989324e+02,-2.329465977741056122e+02,-2.166607187306799460e+02,-9.946375292612174235e+01,-1.277911645453978053e+02,9.408499717712402344e+00,-7.266727685928344727e-01,3.824593424797058105e-01,5.470000000000000000e+02
-4.815267718765817335e+02,-2.910298002949793954e+02,-1.065400101392333454e+02,-1.174189815914505743e+02,-2.298141727887377783e+02,-2.137559363106065575e+02,-9.676946753020638425e+01,-1.255500995065540337e+02,9.408499717712402344e+00,-7.266727685928344727e-01,3.824593424797058105e-01,5.480000000000000000e+02
-4.772907780508294309e+02,-2.896164980398025364e+02,-1.057827924348421220e+02,-1.149666259763198468e+02,-2.276520138655087067e+02,-2.113343622231805057e+02,-9.373591569038580928e+01,-1.241251564417561895e+02,9.408499717712402344e+00,-7.266727685928344727e-01,3.824593424797058105e-01,5.490000000000000000e+02
-4.721017509213079393e+02,-2.871132958978905663e+02,-1.045797312874838099e+02,-1.129615038425336024e+02,-2.263048507097028050e+02,-2.098219028620569588e+02,-9.137698881391952455e+01,-1.237926419867835648e+02,9.408499717712402344e+00,-7.266727685928344727e-01,3.824593424797058105e-01,5.500000000000000000e+02
-4.670490372108715746e+02,-2.832777743126025598e+02,-1.028131509407721751e+02,-1.119126086309261154e+02,-2.257928988378707800e+02,-2.091772783315100241e+02,-9.054511322167309118e+01,-1.248260651494447302e+02,9.408499717712402344e+00,-7.266727685928344727e-01,3.824593424797058105e-01,5.510000000000000000e+02
-4.640400751491661140e+02,-2.787577105988229960e+02,-1.010052539150519806e+02,-1.116771358127407439e+02,-2.262137604311628820e+02,-2.088962735719269403e+02,-9.155548244065721519e+01,-1.270911254315869883e+02,9.408499717712402344e+00,-7.266727685928344727e-01,3.824593424797058105e-01,5.520000000000000000e+02
-4.643456193801293921e+02,-2.748518703094759985e+02,-1.000102821503287487e+02,-1.116276314541946704e+02,-2.272453303882502951e+02,-2.082801088639062073e+02,-9.395036348761823319e+01,-1.296263022384628130e+02,9.408499717712402344e+00,-7.266727685928344727e-01,3.824593424797058105e-01,5.530000000000000000e+02
-4.675041298513897345e+02,-2.726902042955189245e+02,-1.002417345856611064e+02,-1.111077816694469220e+02,-2.278791545868325557e+02,-2.067439443880211911e+02,-9.661636156851182022e+01,-1.307804112761923534e+02,9.408499717712402344e+00,-7.266727685928344727e-01,3.824593424797058105e-01,5.540000000000000000e+02
-4.716189432582723384e+02,-2.724362635529105319e+02,-1.010867490446535157e+02,-1.097556898276470747e+02,-2.268535622029921797e+02,-2.039884163033548248e+02,-9.826763545451831305e+01,-1.290275216065920176e+02,9.408499717712402344e+00,-7.266727685928344727e-01,3.824593424797058105e-01,5.550000000000000000e+02
-4.747671768517420787e+02,-2.731544494539703010e+02,-1.011255873070986127e+02,-1.075304071769405709e+02,-2.235546712056784600e+02,-2.000637892746781290e+02,-9.803366679536793526e+01,-1.239565144971329573e+02,9.408499717712402344e+00,-7.266727685928344727e-01,3.824593424797058105e-01,5.560000000000000000e+02
-4.762046334735205164e+02,-2.734502830001192706e+02,-9.911237189814619342e+01,-1.046058140276782069e+02,-2.185835883825784549e+02,-1.954095164450882294e+02,-9.579200586152728647e+01,-1.166769552020468836e+02,9.408499717712402344e+00,-7.266727685928344727e-01,3.824593424797058105e-01,5.570000000000000000e+02
-4.763690281269191473e+02,-2.723653158457091195e+02,-9.495398746270439005e+01,-1.013310372906325938e+02,-2.134088869758470537e+02,-1.908241286259672052e+02,-9.212170202564266219e+01,-1.092877980279317853e+02,9.408499717712402344e+00,-7.266727685928344727e-01,3.824593424797058105e-01,5.580000000000000000e+02
-4.759461541783384746e+02,-2.698410212558574131e+02,-8.985164044390057825e+01,-9.822016853772947798e+01,-2.093550121157913964e+02,-1.872158339606285153e+02,-8.802208466210322513e+01,-1.037470300541335746e+02,9.408499717712402344e+00,-7.266727685928344727e-01,3.824593424797058105e-01,5.590000000000000000e+02
-4.751274659700557095e+02,-2.665031021081376821e+02,-8.546910226236104791e+01,-9.579904195174458437e+01,-2.067951622060591035e+02,-1.851409454990189261e+02,-8.458195219727531367e+01,-1.008863274887789885e+02,9.408499717712402344e+00,-7.266727685928344727e-01,3.824593424797058105e-01,5.600000000000000000e+02
-4.738222872548394662e+02,-2.631071379175609763e+02,-8.283442555546389485e+01,-9.430602675245063438e+01,-2.052223992593717412e+02,-1.844332834168253612e+02,-8.266699051725390746e+01,-1.001861695311308722e+02,9.408499717712402344e+00,-7.266727685928344727e-01,3.824593424797058105e-01,5.610000000000000000e+02
-4.723992808200400759e+02,-2.601458149353456974e+02,-8.186241705794418522e+01,-9.349130086454351840e+01,-2.040242147946337354e+02,-1.842669802716482081e+02,-8.259713120891228755e+01,-1.003650379263162904e+02,9.408499717712402344e+00,-7.266727685928344727e-01,3.824593424797058105e-01,5.620000000000000000e+02
-4.718571850261014333e+02,-2.578061224081884575e+02,-8.176678666812586016e+01,-9.276483952298440272e+01,-2.031452407775032043e+02,-1.836834660820004501e+02,-8.391486101941882225e+01,-1.003059044881101727e+02,9.408499717712402344e+00,-7.266727685928344727e-01,3.824593424797058105e-01,5.630000000000000000e+02
-4.729395516675995168e+02,-2.560969345550329308e+02,-8.183068053182250878e+01,-9.163451139630706166e+01,-2.029943783821636316e+02,-1.822150019736782269e+02,-8.550627629043810884e+01,-9.968017262599823880e+01,9.408499717712402344e+00,-7.266727685928344727e-01,3.824593424797058105e-01,5.640000000000000000e+02
-4.750017778902529244e+02,-2.548972073556560645e+02,-8.176974009032528556e+01,-9.005874858584138565e+01,-2.037500721751421224e+02,-1.801336488397719222e+02,-8.617527044730013586e+01,-9.889207738456207153e+01,9.408499717712402344e+00,-7.266727685928344727e-01,3.824593424797058105e-01,5.650000000000000000e+02
-4.760029113130876794e+02,-2.539375406293584092e+02,-8.151337135908943310e+01,-8.840791935784000088e+01,-2.048451257920714852e+02,-1.781760930521886621e+02,-8.537240858845689218e+01,-9.849665115742755006e+01,9.484992027282714844e+00,-7.649186849594116211e-01,4.207052886486053467e-01,5.660000000000000000e+02
-4.740533759766803996e+02,-2.528906165846328804e+02,-8.086636511054894072e+01,-8.708907912951508479e+01,-2.052037023037337349e+02,-1.770022688509980071e+02,-8.351394318335769640e+01,-9.861046113938209601e+01,9.484992027282714844e+00,-7.649186849594116211e-01,4.207052886486053467e-01,5.670000000000000000e+02
-4.693073624120152090e+02,-2.515818455092121440e+02,-7.955569813521287870e+01,-8.619467090057332825e+01,-2.040404273360018124e+02,-1.767883026378549403e+02,-8.157975314548457391e+01,-9.878864639286621241e+01,9.484992027282714844e+00,-7.649186849594116211e-01,4.207052886486053467e-01,5.680000000000000000e+02
-4.643244510601198272e+02,-2.501112210600895196e+02,-7.762326708618456905e+01,-8.547680636723089265e+01,-2.014852881754632108e+02,-1.771707273466399784e+02,-8.032509971910440072e+01,-9.843968725182458002e+01,9.484992027282714844e+00,-7.649186849594116211e-01,4.207052886486053467e-01,5.690000000000000000e+02
-4.622352127000249311e+02,-2.487089938184944913e+02,-7.565804921525341342e+01,-8.464145311213724199e+01,-1.984899915449404944e+02,-1.775204755059421586e+02,-7.983115300912686507e+01,-9.742122836664566421e+01,9.484992027282714844e+00,-7.649186849594116211e-01,4.207052886486053467e-01,5.700000000000000000e+02
-4.641277078084458481e+02,-2.474497781288773695e+02,-7.448052510356865241e+01,-8.367609332520987664e+01,-1.961331825640791067e+02,-1.773554843353776960e+02,-7.977736319795621966e+01,-9.629543788124647108e+01,9.484992027282714844e+00,-7.649186849594116211e-01,4.207052886486053467e-01,5.710000000000000000e+02
-4.680007945912293508e+02,-2.461412986336381437e+02,-7.449306253648501297e+01,-8.290926295664939971e+01,-1.949358000304891902e+02,-1.766395629806138459e+02,-8.005375795438521891e+01,-9.599950249945504765e+01,9.484992027282714844e+00,-7.649186849594116211e-01,4.207052886486053467e-01,5.720000000000000000e+02
-4.703597264652435115e+02,-2.445289265618539503e+02,-7.531670799530002114e+01,-8.275236364519150811e+01,-1.946761755333591282e+02,-1.757635869709520193e+02,-8.095652942152628384e+01,-9.715974449752684450e+01,9.484992027282714844e+00,-7.649186849594116211e-01,4.207052886486053467e-01,5.730000000000000000e+02
-4.691388289125115989e+02,-2.425800848417748057e+02,-7.608083173391241871e+01,-8.334550424008739355e+01,-1.947109204853350093e+02,-1.751872171444301785e+02,-8.268839480424685462e+01,-9.957731404853984714e+01,9.484992027282714844e+00,-7.649186849594116211e-01,4.207052886486053467e-01,5.740000000000000000e+02
-4.653665433112782921e+02,-2.405108669040891982e+02,-7.612395299249510572e+01,-8.440609798867990321e+01,-1.944546022411032027e+02,-1.749922328409011243e+02,-8.473574755040135642e+01,-1.022921425580698269e+02,9.484992027282714844e+00,-7.649186849594116211e-01,4.207052886486053467e-01,5.750000000000000000e+02
-4.620951921881187445e+02,-2.385266293393833621e+02,-7.547847824732525623e+01,-8.540503238103156036e+01,-1.936914106056374294e+02,-1.747383199366522604e+02,-8.593236312097906193e+01,-1.041739953090072959e+02,9.484992027282714844e+00,-7.649186849594116211e-01,4.207052886486053467e-01,5.760000000000000000e+02
-4.615988026538561826e+02,-2.365891424623623607e+02,-7.473500383306236472e+01,-8.592482729024231958e+01,-1.925994171220881981e+02,-1.737886052783505875e+02,-8.533022863593578222e+01,-1.045753698933858686e+02,9.484992027282714844e+00,-7.649186849594116211e-01,4.207052886486053467e-01,5.770000000000000000e+02
-4.633690843166023114e+02,-2.344847398815672932e+02,-7.446357581494885380e+01,-8.592375748854101403e+01,-1.915383044160262216e+02,-1.718458548278831586e+02,-8.306687159983630409e+01,-1.035678794694103999e+02,9.484992027282714844e+00,-7.649186849594116211e-01,4.207052886486053467e-01,5.780000000000000000e+02
-4.645875100391367596e+02,-2.321021442913042847e+02,-7.472634567880049872e+01,-8.573089573050128820e+01,-1.907223174485679920e+02,-1.692127585766174889e+02,-8.029658800421566411e+01,-1.016627115358915034e+02,9.484992027282714844e+00,-7.649186849594116211e-01,4.207052886486053467e-01,5.790000000000000000e+02
-4.624664199430553708e+02,-2.295712848251114337e+02,-7.505967986552786897e+01,-8.583704097297595581e+01,-1.899720891869419575e+02,-1.665474272588762688e+02,-7.817244365402439144e+01,-9.934856534989194188e+01,9.484992027282714844e+00,-7.649186849594116211e-01,4.207052886486053467e-01,5.800000000000000000e+02
-4.563075381853323051e+02,-2.271103125638383062e+02,-7.485119972414941003e+01,-8.668384102457639528e+01,-1.887493610887231625e+02,-1.643648543396157038e+02,-7.686584458295874356e+01,-9.686516983202272968e+01,9.484992027282714844e+00,-7.649186849594116211e-01,4.207052886486053467e-01,5.810000000000000000e+02
-4.476484195371212991e+02,-2.248171397078349401e+02,-7.375138009223519475e+01,-8.856361671044760442e+01,-1.865480809016808053e+02,-1.627361094949919789e+02,-7.560414471806871006e+01,-9.432539511610957561e+01,9.484992027282714844e+00,-7.649186849594116211e-01,4.207052886486053467e-01,5.820000000000000000e+02
-4.387571347364082612e+02,-2.227200401006757602e+02,-7.186892248907861358e+01,-9.159440092752083729e+01,-1.834217478491809743e+02,-1.613980970213560795e+02,-7.366919545332712005e+01,-9.193494508717049030e+01,9.484992027282714844e+00,-7.649186849594116211e-01,4.207052886486053467e-01,5.830000000000000000e+02
-4.310701669630761899e+02,-2.210267784152456443e+02,-6.974958959497053002e+01,-9.567628812842667685e+01,-1.802063315369850898e+02,-1.600830496554553974e+02,-7.131767771993872884e+01,-9.001827548093569931e+01,9.484992027282714844e+00,-7.649186849594116211e-01,4.207052886486053467e-01,5.840000000000000000e+02
-4.247908745027471014e+02,-2.201339610345767142e+02,-6.819753262996346166e+01,-1.004236641312581924e+02,-1.781062889176137105e+02,-1.587246197566455521e+02,-6.965111708452423045e+01,-8.880707627831361606e+01,9.484992027282714844e+00,-7.649186849594116211e-01,4.207052886486053467e-01,5.850000000000000000e+02
-4.195246501580513723e+02,-2.201638918261451181e+02,-6.795728308281104546e+01,-1.051813860408419714e+02,-1.778274127260010573e+02,-1.574193233577207138e+02,-6.955068733997723029e+01,-8.822165159486758057e+01,9.484992027282714844e+00,-7.649186849594116211e-01,4.207052886486053467e-01,5.860000000000000000e+02
-4.149714735129200562e+02,-2.204340610073923017e+02,-6.929109387521202734e+01,-1.091991943584871478e+02,-1.789245135405435576e+02,-1.562701576122599363e+02,-7.074851913664861058e+01,-8.789008424636995187e+01,9.484992027282714844e+00,-7.649186849594116211e-01,4.207052886486053467e-01,5.870000000000000000e+02
-4.109920886596082710e+02,-2.195950549558947387e+02,-7.165755698001885321e+01,-1.118968033827186446e+02,-1.799700573977788736e+02,-1.552686325166760071e+02,-7.193991256737172080e+01,-8.739163198459937121e+01,9.484992027282714844e+00,-7.649186849594116211e-01,4.207052886486053467e-01,5.880000000000000000e+02
-4.072582291678190813e+02,-2.166433304922575189e+02,-7.381581433896462840e+01,-1.130759536650148220e+02,-1.795191754685256456e+02,-1.542574609189359762e+02,-7.180251874984060123e+01,-8.648846388083256898e+01,9.484992027282714844e+00,-7.649186849594116211e-01,4.207052886486053467e-01,5.890000000000000000e+02
-4.031336368885131378e+02,-2.120317486052372260e+02,-7.447089126687205862e+01,-1.129990234735632839e+02,-1.771504594834586896e+02,-1.529742592315051297e+02,-6.995777793056549854e+01,-8.517473965065801167e+01,9.484992027282714844e+00,-7.649186849594116211e-01,4.207052886486053467e-01,5.900000000000000000e+02
-3.980392785484036722e+02,-2.077012629512391868e+02,-7.306883827789170027e+01,-1.123254556814172247e+02,-1.737194046438416990e+02,-1.512095666008935950e+02,-6.706297411311606993e+01,-8.358769934972588089e+01,9.484992027282714844e+00,-7.649186849594116211e-01,4.207052886486053467e-01,5.910000000000000000e+02
-3.919639410198178666e+02,-2.056922448835357500e+02,-7.010982576052629156e+01,-1.119060377662754036e+02,-1.706286006281261507e+02,-1.490569761434198881e+02,-6.412780311945061840e+01,-8.197855831457491149e+01,9.484992027282714844e+00,-7.649186849594116211e-01,4.207052886486053467e-01,5.920000000000000000e+02
-3.856325363228061178e+02,-2.064000339487502060e+02,-6.672422734292194946e+01,-1.124467191110525164e+02,-1.687615623352103285e+02,-1.470552721925414517e+02,-6.182827388701844029e+01,-8.080258761794539168e+01,9.484992027282714844e+00,-7.266727685928344727e-01,3.824593424797058105e-01,5.930000000000000000e+02
-3.801898497061665694e+02,-2.080845452791108983e+02,-6.391315249295439571e+01,-1.141384633622910769e+02,-1.679912667379503546e+02,-1.459691346321269521e+02,-6.038921412789568421e+01,-8.072364646424102830e+01,9.484992027282714844e+00,-7.266727685928344727e-01,3.824593424797058105e-01,5.940000000000000000e+02
-3.766650661390303867e+02,-2.082374957390493364e+02,-6.214526935362300719e+01,-1.164999146011250559e+02,-1.676329733136117284e+02,-1.462491729608955211e+02,-5.991504403873477713e+01,-8.232694299100694479e+01,9.484992027282714844e+00,-7.266727685928344727e-01,3.824593424797058105e-01,5.950000000000000000e+02
-3.755389779362885747e+02,-2.056916963292387663e+02,-6.156310493240744108e+01,-1.186456763707974460e+02,-1.673110792800544004e+02,-1.476101947765491786e+02,-6.061262088884177501e+01,-8.563105672617530217e+01,9.484992027282714844e+00,-7.266727685928344727e-01,3.824593424797058105e-01,5.960000000000000000e+02
-3.765721545580308884e+02,-2.015824760428404261e+02,-6.233290992417460075e+01,-1.198679759949009167e+02,-1.673303741350900964e+02,-1.491654211246241175e+02,-6.256234804691484896e+01,-8.978294692841518554e+01,9.484992027282714844e+00,-7.266727685928344727e-01,3.824593424797058105e-01,5.970000000000000000e+02
-3.789217115040883073e+02,-1.982932644085049105e+02,-6.454981599947132054e+01,-1.201104897076766065e+02,-1.681874162847816478e+02,-1.500792258113178832e+02,-6.529810172779252753e+01,-9.330121731833060039e+01,9.484992027282714844e+00,-7.266727685928344727e-01,3.824593424797058105e-01,5.980000000000000000e+02
-3.814824620563558710e+02,-1.973768219116063847e+02,-6.773599128462956287e+01,-1.199429862969482201e+02,-1.697561024569804431e+02,-1.501611525403641281e+02,-6.773919982672305196e+01,-9.483258983453197288e+01,9.484992027282714844e+00,-7.266727685928344727e-01,3.824593424797058105e-01,5.990000000000000000e+02
-3.833217781662751804e+02,-1.983649626743572298e+02,-7.062549773783030105e+01,-1.200646463461998792e+02,-1.710412792195311340e+02,-1.498336929169236100e+02,-6.869195840592510649e+01,-9.390922613352086046e+01,9.484992027282714844e+00,-7.266727685928344727e-01,3.824593424797058105e-01,6.000000000000000000e+02
-3.840008437969481747e+02,-1.994782203438116994e+02,-7.177170717588523985e+01,-1.207796864606534655e+02,-1.708305058468104107e+02,-1.495302738428035809e+02,-6.758308575132832630e+01,-9.113129826242584386e+01,9.484992027282714844e+00,-7.266727685928344727e-01,3.824593424797058105e-01,6.010000000000000000e+02
-3.835942339586763410e+02,-1.993985493324362324e+02,-7.060663124192069517e+01,-1.218632965308897838e+02,-1.686680511406266305e+02,-1.491575951171034831e+02,-6.484447094312781701e+01,-8.766626778239515261e+01,9.484992027282714844e+00,-7.266727685928344727e-01,3.824593424797058105e-01,6.020000000000000000e+02
-3.824175478257166105e+02,-1.983345560465822928e+02,-6.792732332330342615e+01,-1.228357651288679335e+02,-1.652397943144715100e+02,-1.481936511345702456e+02,-6.163979389551968779e+01,-8.449389083530695643e+01,9.484992027282714844e+00,-7.266727685928344727e-01,3.824593424797058105e-01,6.030000000000000000e+02
-3.806952140915818745e+02,-1.974491880013665650e+02,-6.523123021193168825e+01,-1.233041944337674067e+02,-1.618185211052805244e+02,-1.463200729661111836e+02,-5.913417789177037776e+01,-8.197013054911076324e+01,9.484992027282714844e+00,-7.266727685928344727e-01,3.824593424797058105e-01,6.040000000000000000e+02
-3.784032749928555859e+02,-1.973945706662161683e+02,-6.346558871194793028e+01,-1.230805236948508536e+02,-1.592952360314884572e+02,-1.439104418251663446e+02,-5.781653840875878814e+01,-7.992369314116513124e+01,9.484992027282714844e+00,-7.266727685928344727e-01,3.824593424797058105e-01,6.050000000000000000e+02
-3.753271468230195751e+02,-1.975164193894415803e+02,-6.238692698894374189e+01,-1.221019600565778092e+02,-1.576456130441729329e+02,-1.418235598803075845e+02,-5.728897460216103354e+01,-7.801527987714143819e+01,9.484992027282714844e+00,-7.266727685928344727e-01,3.824593424797058105e-01,6.060000000000000000e+02
-3.711982801479825866e+02,-1.964684835795669642e+02,-6.111104440356575651e+01,-1.203602172904174950e+02,-1.561765323461513617e+02,-1.406436599780790857e+02,-5.659784782533097314e+01,-7.595317015494219959e+01,9.484992027282714844e+00,-7.266727685928344727e-01,3.824593424797058105e-01,6.070000000000000000e+02
-3.658264081720481045e+02,-1.935147042063290428e+02,-5.919161971505673137e+01,-1.179426806158735417e+02,-1.541770857850569882e+02,-1.400915930462870165e+02,-5.486631156002476928e+01,-7.346698728765113628e+01,9.484992027282714844e+00,-7.266727685928344727e-01,3.824593424797058105e-01,6.080000000000000000e+02
-3.592745666995251668e+02,-1.892146136661394848e+02,-5.708000341434308211e+01,-1.150961153644675505e+02,-1.513981406318634981e+02,-1.392234373836618033e+02,-5.188014998395738075e+01,-7.032707306678639725e+01,9.484992027282714844e+00,-7.266727685928344727e-01,3.824593424797058105e-01,6.090000000000000000e+02
-3.520539028246457747e+02,-1.849314493074198253e+02,-5.555869908270324231e+01,-1.121983730152533099e+02,-1.481315439603968116e+02,-1.373167606720890035e+02,-4.832387003227631794e+01,-6.663146213153595454e+01,9.484992027282714844e+00,-7.266727685928344727e-01,3.824593424797058105e-01,6.100000000000000000e+02
-3.450734588851919398e+02,-1.817620893751627591e+02,-5.484852660993783502e+01,-1.096462627696637355e+02,-1.450085047490574652e+02,-1.346704829077207251e+02,-4.548472249461337924e+01,-6.310327498945480329e+01,9.484992027282714844e+00,-7.266727685928344727e-01,3.824593424797058105e-01,6.110000000000000000e+02
-3.391488756505605124e+02,-1.799088451224888558e+02,-5.437696333799976856e+01,-1.077435861829872010e+02,-1.427147023874604201e+02,-1.325527591928257607e+02,-4.452572473774853279e+01,-6.093149165542126866e+01,9.484992027282714844e+00,-7.266727685928344727e-01,3.824593424797058105e-01,6.120000000000000000e+02
