F3,F4,C3,C4,P3,P4,Cz,Pz,Accel_x,Accel_y,Accel_z,Sample
-5.911715561524033546e-11,-5.638867150992155075e-11,-4.456524038687348366e-11,-4.820321919396519661e-11,-5.275069270282983780e-11,-5.456968210637569427e-11,-5.366018740460276604e-11,-5.638867150992155075e-11,9.446745872497558594e+00,-6.501809358596801758e-01,4.207052886486053467e-01,2.520000000000000000e+02
-1.588892090253284550e+01,-6.230247382062771067e+00,4.313074070063521503e+00,1.539592625359546219e+00,-6.205879302590801672e+00,-4.158746703778888332e+00,1.590553781979906489e-01,-8.568716704121470684e-01,9.446745872497558594e+00,-6.501809358596801758e-01,4.207052886486053467e-01,2.530000000000000000e+02
-3.022106831099335977e+01,-1.501534676555274928e+01,4.796459969970783277e+00,-1.045676636776988744e-01,-1.344969549588040536e+01,-1.200218167090679344e+01,-1.346055215606611455e+00,-3.302561340025931713e+00,9.446745872497558594e+00,-6.501809358596801758e-01,4.207052886486053467e-01,2.540000000000000000e+02
-4.286171120862218231e+01,-2.713642667378098849e+01,8.423364816280809464e-01,-5.494859944268682739e+00,-2.169554018047529098e+01,-2.399107465648739890e+01,-4.430930748269020114e+00,-7.796686112656061596e+00,9.446745872497558594e+00,-6.501809358596801758e-01,4.207052886486053467e-01,2.550000000000000000e+02
-5.516345703331717232e+01,-4.153300302126717725e+01,-4.817385637818915711e+00,-1.256394993690355477e+01,-3.000571072532147809e+01,-3.730038361928563972e+01,-7.567403260418359423e+00,-1.362576184290810488e+01,9.446745872497558594e+00,-6.501809358596801758e-01,4.207052886486053467e-01,2.560000000000000000e+02
-6.866143452272262948e+01,-5.674678181309354841e+01,-8.976057851976293023e+00,-1.903418138599590748e+01,-3.772134386237030412e+01,-4.880091555036779027e+01,-9.751374679749460483e+00,-1.984235812580755010e+01,9.446745872497558594e+00,-6.501809358596801758e-01,4.207052886486053467e-01,2.570000000000000000e+02
-8.366092698036663933e+01,-7.210116808302700520e+01,-1.074105027187761152e+01,-2.458187781954438833e+01,-4.522027174684990314e+01,-5.794177847864193609e+01,-1.174170931514981930e+01,-2.604471964579988708e+01,9.446745872497558594e+00,-6.501809358596801758e-01,4.207052886486053467e-01,2.580000000000000000e+02
-9.899730526239454775e+01,-8.739161454939767282e+01,-1.161197248752068845e+01,-3.052740323074249318e+01,-5.334371087936870026e+01,-6.669925750683432852e+01,-1.502792705817228125e+01,-3.216023632020096557e+01,9.446745872497558594e+00,-6.501809358596801758e-01,4.207052886486053467e-01,2.590000000000000000e+02
-1.130466899979783193e+02,-1.018187005588197280e+02,-1.329305676053172647e+01,-3.766840134540507279e+01,-6.219483377274264058e+01,-7.697719310720094654e+01,-1.972390996744707081e+01,-3.765660341978764336e+01,9.446745872497558594e+00,-6.501809358596801758e-01,4.207052886486053467e-01,2.600000000000000000e+02
-1.249689190510771368e+02,-1.138683320932814240e+02,-1.593139210033405107e+01,-4.485973424823714595e+01,-7.080584389269188250e+01,-8.840080432822469447e+01,-2.396937259736660053e+01,-4.134560945849170821e+01,9.561484336853027344e+00,-6.884268522262573242e-01,4.971971809864044189e-01,2.610000000000000000e+02
-1.351756202679707712e+02,-1.226436985306827410e+02,-1.856465496536566206e+01,-4.995164606058278878e+01,-7.816220113445342577e+01,-9.874017354125680868e+01,-2.576995826379152277e+01,-4.229490344840814942e+01,9.561484336853027344e+00,-6.884268522262573242e-01,4.971971809864044189e-01,2.620000000000000000e+02
-1.448813897352238200e+02,-1.292271262847771141e+02,-2.086829637850678409e+01,-5.203886170205623785e+01,-8.447328098272191710e+01,-1.063005643937685818e+02,-2.539902473816346173e+01,-4.104487081156366912e+01,9.561484336853027344e+00,-6.884268522262573242e-01,4.971971809864044189e-01,2.630000000000000000e+02
-1.553316565759359946e+02,-1.363263359103675612e+02,-2.391995616347321629e+01,-5.254515286439709598e+01,-9.122500345110620401e+01,-1.116502670860627404e+02,-2.566508594045808422e+01,-3.978968244343195693e+01,9.561484336853027344e+00,-6.884268522262573242e-01,4.971971809864044189e-01,2.640000000000000000e+02
-1.672700548660295681e+02,-1.462283107119665146e+02,-2.905810605210808717e+01,-5.401505453113804833e+01,-9.984011880871457834e+01,-1.170221649277773395e+02,-2.952939454388888407e+01,-4.108769613786353148e+01,9.561484336853027344e+00,-6.884268522262573242e-01,4.971971809864044189e-01,2.650000000000000000e+02
-1.807541834867606667e+02,-1.589572839467000449e+02,-3.618657868950504053e+01,-5.792814397466918308e+01,-1.102662855886328543e+02,-1.242635918705091171e+02,-3.736459387239847274e+01,-4.611991637526807608e+01,9.561484336853027344e+00,-6.884268522262573242e-01,4.971971809864044189e-01,2.660000000000000000e+02
-1.951843973914483286e+02,-1.724394812654718407e+02,-4.345643266141541972e+01,-6.370932339391674759e+01,-1.208846771828102646e+02,-1.334965771892475459e+02,-4.654922342292684334e+01,-5.399321204458738066e+01,9.561484336853027344e+00,-6.884268522262573242e-01,4.971971809864044189e-01,2.670000000000000000e+02
-2.095053515374675044e+02,-1.844902612449104709e+02,-4.869340546532748704e+01,-6.969579817988778814e+01,-1.297912685428154873e+02,-1.435922935839626007e+02,-5.374277151822025189e+01,-6.262967587163711869e+01,9.561484336853027344e+00,-6.884268522262573242e-01,4.971971809864044189e-01,2.680000000000000000e+02
-2.226315083100262200e+02,-1.946749796981384861e+02,-5.108730336416829232e+01,-7.480517945647261513e+01,-1.362030765785721087e+02,-1.535538317753344018e+02,-5.757560281839778327e+01,-7.036519848532407195e+01,9.561484336853027344e+00,-6.884268522262573242e-01,4.971971809864044189e-01,2.690000000000000000e+02
-2.339719364943066466e+02,-2.043725970125315143e+02,-5.155230537159150117e+01,-7.923467141251421708e+01,-1.408070821123819769e+02,-1.632448578860257840e+02,-5.930078430185858451e+01,-7.685934690527756175e+01,9.561484336853027344e+00,-6.884268522262573242e-01,4.971971809864044189e-01,2.700000000000000000e+02
-2.437000261122484517e+02,-2.152060627496257439e+02,-5.166720618315048341e+01,-8.381011241587020777e+01,-1.450077269680150494e+02,-1.729517023024682203e+02,-6.112119264722150547e+01,-8.269713100027729524e+01,9.561484336853027344e+00,-6.884268522262573242e-01,4.971971809864044189e-01,2.710000000000000000e+02
-2.525207300574566034e+02,-2.274580057752455104e+02,-5.241670297970358661e+01,-8.895252233876635728e+01,-1.499358839184005774e+02,-1.825860329322449616e+02,-6.405615044133446645e+01,-8.829049966164166108e+01,9.561484336853027344e+00,-6.884268522262573242e-01,4.971971809864044189e-01,2.720000000000000000e+02
-2.610969717904863501e+02,-2.398496337759097514e+02,-5.381685577532789466e+01,-9.431319686380174971e+01,-1.559587809957129139e+02,-1.915133739983830310e+02,-6.730588390650427755e+01,-9.318366311132012925e+01,9.561484336853027344e+00,-6.884268522262573242e-01,4.971971809864044189e-01,2.730000000000000000e+02
-2.696216476831277760e+02,-2.506261953440898651e+02,-5.537690803040459286e+01,-9.913442510265485907e+01,-1.627191025715055730e+02,-1.990412010450709204e+02,-6.934128120817877061e+01,-9.632289560678509588e+01,9.561484336853027344e+00,-6.884268522262573242e-01,4.971971809864044189e-01,2.740000000000000000e+02
-2.778977430563663802e+02,-2.588434263708168146e+02,-5.668374413195579109e+01,-1.027428669487298976e+02,-1.693804579247444053e+02,-2.049066150868902696e+02,-6.940428263401099684e+01,-9.695738789682945935e+01,9.561484336853027344e+00,-6.884268522262573242e-01,4.971971809864044189e-01,2.750000000000000000e+02
-2.858043862784224984e+02,-2.648748677877938462e+02,-5.763779580797108792e+01,-1.048079040632001124e+02,-1.749482670331162808e+02,-2.093254085028675036e+02,-6.808362299068630819e+01,-9.538178424079160322e+01,9.561484336853027344e+00,-6.884268522262573242e-01,4.971971809864044189e-01,2.760000000000000000e+02
-2.936672012968265335e+02,-2.699823615766954390e+02,-5.843247432159387245e+01,-1.054882346493031946e+02,-1.787351739166751941e+02,-2.127893949077388243e+02,-6.677305729726231220e+01,-9.296469339161194512e+01,9.561484336853027344e+00,-6.884268522262573242e-01,4.971971809864044189e-01,2.770000000000000000e+02
-3.021244024246607296e+02,-2.754696612285042647e+02,-5.950113812402651092e+01,-1.056147847048450785e+02,-1.808705864611492871e+02,-2.160023330016574619e+02,-6.678083452850933099e+01,-9.152259246405537851e+01,9.561484336853027344e+00,-6.884268522262573242e-01,4.971971809864044189e-01,2.780000000000000000e+02
-3.115705965166016540e+02,-2.820013354820985114e+02,-6.136699346308523673e+01,-1.066053210303189189e+02,-1.824352789717540873e+02,-2.198859443561432272e+02,-6.879492910423869034e+01,-9.248920341121720412e+01,9.561484336853027344e+00,-6.884268522262573242e-01,4.971971809864044189e-01,2.790000000000000000e+02
-3.216642555136795636e+02,-2.894063876884119964e+02,-6.427526645405669115e+01,-1.097694288116126700e+02,-1.849105698498633501e+02,-2.253023276945650650e+02,-7.278313545707896992e+01,-9.632038431101682363e+01,9.561484336853027344e+00,-6.884268522262573242e-01,4.971971809864044189e-01,2.800000000000000000e+02
-3.313750263671081484e+02,-2.970129728317151603e+02,-6.782742940603475290e+01,-1.153183921126474161e+02,-1.892313177342603012e+02,-2.324738910191699688e+02,-7.805381665174263617e+01,-1.023579726761890925e+02,9.561484336853027344e+00,-6.884268522262573242e-01,4.971971809864044189e-01,2.810000000000000000e+02
-3.396307599469992056e+02,-3.042966507359797106e+02,-7.107040787247115077e+01,-1.219883508629363860e+02,-1.952091982699694199e+02,-2.406232124064426898e+02,-8.338433966041520762e+01,-1.091637973858523765e+02,9.561484336853027344e+00,-6.884268522262573242e-01,4.971971809864044189e-01,2.820000000000000000e+02
-3.460791598119476475e+02,-3.113849333327625573e+02,-7.314942966192938911e+01,-1.278706301927322784e+02,-2.018084161338674676e+02,-2.483643073758030368e+02,-8.738074695847717521e+01,-1.151557282636686068e+02,9.561484336853027344e+00,-6.884268522262573242e-01,4.971971809864044189e-01,2.830000000000000000e+02
-3.513315609869359832e+02,-3.189713948881499164e+02,-7.398941009832560667e+01,-1.318970187867762434e+02,-2.079956270869352011e+02,-2.546536046691608135e+02,-8.910750584742072533e+01,-1.192879174792915364e+02,9.561484336853027344e+00,-6.884268522262573242e-01,4.971971809864044189e-01,2.840000000000000000e+02
-3.564494228984995061e+02,-3.276637891551672510e+02,-7.432147545883435669e+01,-1.346848831718270958e+02,-2.133818025966156711e+02,-2.594974161411228124e+02,-8.865038845190883876e+01,-1.214604459942738686e+02,9.561484336853027344e+00,-6.884268522262573242e-01,4.971971809864044189e-01,2.850000000000000000e+02
-3.620981231670766647e+02,-3.373481588964914408e+02,-7.497304825947912832e+01,-1.379458130569782952e+02,-2.181327922472946739e+02,-2.637819473172467042e+02,-8.711678954126637109e+01,-1.224212496380532684e+02,9.561484336853027344e+00,-6.884268522262573242e-01,4.971971809864044189e-01,2.860000000000000000e+02
-3.681501503009667431e+02,-3.471881263943200793e+02,-7.612826053592107201e+01,-1.429951816058601253e+02,-2.224153028284736138e+02,-2.684187468707550579e+02,-8.595682340912935615e+01,-1.232224148030845754e+02,9.561484336853027344e+00,-6.884268522262573242e-01,4.971971809864044189e-01,2.870000000000000000e+02
-3.741154390580086329e+02,-3.562792887718414931e+02,-7.734998171977213133e+01,-1.497511099404528068e+02,-2.260881552769760674e+02,-2.736367774259979342e+02,-8.608063932814820873e+01,-1.245947920495100334e+02,9.561484336853027344e+00,-6.884268522262573242e-01,4.971971809864044189e-01,2.880000000000000000e+02
-3.799259752877401297e+02,-3.642730459291024090e+02,-7.831872158150099494e+01,-1.570397637122468950e+02,-2.289751721121074297e+02,-2.789930393784252374e+02,-8.741711434496755828e+01,-1.266329938271246647e+02,9.561484336853027344e+00,-6.884268522262573242e-01,4.971971809864044189e-01,2.890000000000000000e+02
-3.861823315549872859e+02,-3.713359016190061084e+02,-7.945892501333582914e+01,-1.637447807827302313e+02,-2.313536756471467015e+02,-2.839399103478881443e+02,-8.918770064354202987e+01,-1.289517982522593229e+02,9.561484336853027344e+00,-6.884268522262573242e-01,4.971971809864044189e-01,2.900000000000000000e+02
-3.934907259345168313e+02,-3.775700681167554649e+02,-8.170623392794504980e+01,-1.696183635336983571e+02,-2.340260758133399577e+02,-2.883128454955731286e+02,-9.058705825963579628e+01,-1.311277876437252417e+02,9.561484336853027344e+00,-6.884268522262573242e-01,4.971971809864044189e-01,2.910000000000000000e+02
-4.015087946566736719e+02,-3.826310924563413209e+02,-8.553769210373548049e+01,-1.750570554914984314e+02,-2.377412518318860748e+02,-2.922837770788401031e+02,-9.123173603505347273e+01,-1.330208902634749393e+02,9.370253562927246094e+00,-6.501809358596801758e-01,3.442134261131286621e-01,2.920000000000000000e+02
-4.087836512694743760e+02,-3.860698833269143506e+02,-9.022019841726523737e+01,-1.802806822115935574e+02,-2.424510309601282643e+02,-2.959511586877233640e+02,-9.105901984000047378e+01,-1.347197190027063698e+02,9.370253562927246094e+00,-6.501809358596801758e-01,3.442134261131286621e-01,2.930000000000000000e+02
-4.137805855584028905e+02,-3.880544303910069175e+02,-9.410995294358781393e+01,-1.848751281858640141e+02,-2.471458635714843695e+02,-2.990591689039238190e+02,-8.995554170964078367e+01,-1.362336679169775380e+02,9.370253562927246094e+00,-6.501809358596801758e-01,3.442134261131286621e-01,2.940000000000000000e+02
-4.162510005949634433e+02,-3.896284052016167152e+02,-9.585427477752045888e+01,-1.881902774150003097e+02,-2.505173991110227689e+02,-3.011730825474705853e+02,-8.767031320356727520e+01,-1.373129092445924471e+02,9.370253562927246094e+00,-6.501809358596801758e-01,3.442134261131286621e-01,2.950000000000000000e+02
-4.175890763594848067e+02,-3.921085251505114684e+02,-9.546656496431660344e+01,-1.901647392601762476e+02,-2.519343168011960188e+02,-3.021901171652634730e+02,-8.423578638140497787e+01,-1.376667145370456637e+02,9.370253562927246094e+00,-6.501809358596801758e-01,3.442134261131286621e-01,2.960000000000000000e+02
-4.197279757827727735e+02,-3.961781114981308747e+02,-9.434782465621583469e+01,-1.917288039071013372e+02,-2.519267650970346040e+02,-3.027378447914225035e+02,-8.050156985636022000e+01,-1.374409863238815888e+02,9.370253562927246094e+00,-6.501809358596801758e-01,3.442134261131286621e-01,2.970000000000000000e+02
-4.235459382635117436e+02,-4.015574510531050691e+02,-9.424330933541114064e+01,-1.943471161702609606e+02,-2.517888525463549740e+02,-3.040587354542467438e+02,-7.809186297736823690e+01,-1.374581957277632682e+02,9.370253562927246094e+00,-6.501809358596801758e-01,3.442134261131286621e-01,2.980000000000000000e+02
-4.282453313201817764e+02,-4.074876480259540585e+02,-9.598340181163894158e+01,-1.990210588210784408e+02,-2.526433827385681070e+02,-3.073217204762831898e+02,-7.850210597539080482e+01,-1.387966273092661140e+02,9.370253562927246094e+00,-6.501809358596801758e-01,3.442134261131286621e-01,2.990000000000000000e+02
-4.322003918431564671e+02,-4.134117655604868560e+02,-9.898553577706070428e+01,-2.055334387763400628e+02,-2.547283924419562027e+02,-3.127745483854550912e+02,-8.188271674824454749e+01,-1.418432322375906551e+02,9.370253562927246094e+00,-6.501809358596801758e-01,3.442134261131286621e-01,3.000000000000000000e+02
-4.343624824637608981e+02,-4.191110665929959396e+02,-1.017915163757375012e+02,-2.125060331130039231e+02,-2.573937109157745908e+02,-3.193846137588288912e+02,-8.651334675791304107e+01,-1.455575159455197536e+02,9.370253562927246094e+00,-6.501809358596801758e-01,3.442134261131286621e-01,3.010000000000000000e+02
-4.349061361856433905e+02,-4.242822253575918694e+02,-1.030933461882227675e+02,-2.181962251236845987e+02,-2.596818364338500942e+02,-3.253405936792041757e+02,-8.956586342452646932e+01,-1.477380972408104753e+02,9.370253562927246094e+00,-6.501809358596801758e-01,3.442134261131286621e-01,3.020000000000000000e+02
-4.347462065561580857e+02,-4.282537600249165735e+02,-1.024906057325824804e+02,-2.214548728433815086e+02,-2.610010159398202632e+02,-3.291596888725671306e+02,-8.879800626957330678e+01,-1.464267291199744250e+02,9.370253562927246094e+00,-6.501809358596801758e-01,3.442134261131286621e-01,3.030000000000000000e+02
-4.347166113166922514e+02,-4.303784781691738317e+02,-1.006317667590287783e+02,-2.222455172673758170e+02,-2.614657171286230550e+02,-3.306327934721612110e+02,-8.404514909011095369e+01,-1.415872713548410502e+02,9.370253562927246094e+00,-6.501809358596801758e-01,3.442134261131286621e-01,3.040000000000000000e+02
-4.353021922692278167e+02,-4.307806814865898559e+02,-9.887299682302409565e+01,-2.214938851480992525e+02,-2.617913832505787468e+02,-3.308971371810339406e+02,-7.744323063769570581e+01,-1.356972767447714432e+02,9.370253562927246094e+00,-6.501809358596801758e-01,3.442134261131286621e-01,3.050000000000000000e+02
-4.369378258888123128e+02,-4.306083983742000783e+02,-9.873963608807116543e+01,-2.204930354046500725e+02,-2.629146135392820725e+02,-3.316092280835300699e+02,-7.222426381982722887e+01,-1.325297307912978795e+02,9.370253562927246094e+00,-6.501809358596801758e-01,3.442134261131286621e-01,3.060000000000000000e+02
-4.401637168765691968e+02,-4.313555360398581797e+02,-1.013245760104891815e+02,-2.202842743443616200e+02,-2.655228671468821631e+02,-3.338817809729762303e+02,-7.089116651517861101e+01,-1.347727065320218571e+02,9.370253562927246094e+00,-6.501809358596801758e-01,3.442134261131286621e-01,3.070000000000000000e+02
-4.452075043751328849e+02,-4.337692633420324455e+02,-1.066916831099993033e+02,-2.213096911169750456e+02,-2.696370809562995419e+02,-3.377424805534674306e+02,-7.392743690734187112e+01,-1.421709322507749675e+02,9.370253562927246094e+00,-6.501809358596801758e-01,3.442134261131286621e-01,3.080000000000000000e+02
-4.514527204518967665e+02,-4.373491517516313252e+02,-1.135647471865154330e+02,-2.234003498366068925e+02,-2.744320710042507017e+02,-3.423496638713195352e+02,-7.975203660744728040e+01,-1.516228122097077176e+02,9.370253562927246094e+00,-6.501809358596801758e-01,3.442134261131286621e-01,3.090000000000000000e+02
-4.575788209395673221e+02,-4.409086587199053611e+02,-1.197153713143138702e+02,-2.259979172422490592e+02,-2.785014929449889678e+02,-3.465944062515200130e+02,-8.579246781794972776e+01,-1.592092823551683978e+02,9.370253562927246094e+00,-6.501809358596801758e-01,3.442134261131286621e-01,3.100000000000000000e+02
-4.624456382094890614e+02,-4.436851663681036371e+02,-1.231170381044112219e+02,-2.284797136795955339e+02,-2.805690399941786382e+02,-3.496018503574709939e+02,-8.992176573475717305e+01,-1.626160217121191636e+02,9.370253562927246094e+00,-6.501809358596801758e-01,3.442134261131286621e-01,3.110000000000000000e+02
-4.658813495846748083e+02,-4.460078647054961039e+02,-1.232077225223429195e+02,-2.304567009170746132e+02,-2.802626095481709854e+02,-3.509481388793237784e+02,-9.140312685056096598e+01,-1.621438971352640692e+02,9.370253562927246094e+00,-6.501809358596801758e-01,3.442134261131286621e-01,3.120000000000000000e+02
-4.685489844904273014e+02,-4.489783496155400826e+02,-1.212700998378481927e+02,-2.319247667990734953e+02,-2.784003995937814580e+02,-3.507149281063429953e+02,-9.091618955760213794e+01,-1.597748194462978972e+02,9.484992027282714844e+00,-7.649186849594116211e-01,3.824593424797058105e-01,3.130000000000000000e+02
-4.710581625033582895e+02,-4.535226310669445411e+02,-1.195112098402373704e+02,-2.332026892282169683e+02,-2.765360291604056329e+02,-3.495061987018325453e+02,-8.984833446712900695e+01,-1.573970454999976027e+02,9.484992027282714844e+00,-7.649186849594116211e-01,3.824593424797058105e-01,3.140000000000000000e+02
-4.733347523270172132e+02,-4.596470664056552096e+02,-1.195281081147305713e+02,-2.347107628806872981e+02,-2.761034549868847989e+02,-3.483561970648462420e+02,-8.942863525541167746e+01,-1.558203102491304435e+02,9.484992027282714844e+00,-7.649186849594116211e-01,3.824593424797058105e-01,3.150000000000000000e+02
-4.749395271822056088e+02,-4.664461928030352738e+02,-1.214574146568347714e+02,-2.367791354241328463e+02,-2.778202088145994821e+02,-3.484380260359994281e+02,-9.026385192841462413e+01,-1.552143727132377080e+02,9.484992027282714844e+00,-7.649186849594116211e-01,3.824593424797058105e-01,3.160000000000000000e+02
-4.759056153267896434e+02,-4.727199418692189283e+02,-1.244679422372603312e+02,-2.396037796833476250e+02,-2.816814765190474645e+02,-3.506333306419129485e+02,-9.241407652610689638e+01,-1.560860628202414091e+02,9.484992027282714844e+00,-7.649186849594116211e-01,3.824593424797058105e-01,3.170000000000000000e+02
-4.770391276268631486e+02,-4.776397552596604328e+02,-1.279417945745379939e+02,-2.432798668549808099e+02,-2.872924662819693822e+02,-3.551815262236108310e+02,-9.571309695609170376e+01,-1.594389305644562000e+02,9.484992027282714844e+00,-7.649186849594116211e-01,3.824593424797058105e-01,3.180000000000000000e+02
-4.792057966884808593e+02,-4.810398672363281776e+02,-1.320282720683717343e+02,-2.477529030035411779e+02,-2.940343863984825248e+02,-3.615976701390283097e+02,-9.993210670984035460e+01,-1.657644671227014896e+02,9.484992027282714844e+00,-7.649186849594116211e-01,3.824593424797058105e-01,3.190000000000000000e+02
-4.823291589604912133e+02,-4.832983474997470239e+02,-1.370012970697291621e+02,-2.526823307847174647e+02,-3.009323067660341167e+02,-3.688782624432939201e+02,-1.046791329243735618e+02,-1.739357625038576316e+02,9.484992027282714844e+00,-7.649186849594116211e-01,3.824593424797058105e-01,3.200000000000000000e+02
-4.852405248649780560e+02,-4.850439077873451197e+02,-1.422338785918067288e+02,-2.574310279007803501e+02,-3.066343756505906413e+02,-3.758969135927554817e+02,-1.092739486876918136e+02,-1.813723150141098586e+02,9.484992027282714844e+00,-7.649186849594116211e-01,3.824593424797058105e-01,3.210000000000000000e+02
-4.866581553404975011e+02,-4.868804296675121464e+02,-1.461347705184080041e+02,-2.613433770458748313e+02,-3.099219482702430923e+02,-3.818461402297192535e+02,-1.128792262650383691e+02,-1.856558680196845899e+02,9.484992027282714844e+00,-7.649186849594116211e-01,3.824593424797058105e-01,3.220000000000000000e+02
-4.863491903309853797e+02,-4.891893687323217250e+02,-1.474309038258373903e+02,-2.641400134980449366e+02,-3.105651966388142000e+02,-3.865346957559241901e+02,-1.148912424913555697e+02,-1.862787870325681752e+02,9.484992027282714844e+00,-7.649186849594116211e-01,3.824593424797058105e-01,3.230000000000000000e+02
-4.853072234941967054e+02,-4.920153013617787678e+02,-1.466605258613030855e+02,-2.660306339550675148e+02,-3.097460594789977222e+02,-3.903470301895430339e+02,-1.152802993154170963e+02,-1.849311552071501410e+02,9.484992027282714844e+00,-7.649186849594116211e-01,3.824593424797058105e-01,3.240000000000000000e+02
-4.847997623936055334e+02,-4.950708720695974989e+02,-1.462699027116310617e+02,-2.673709895108064529e+02,-3.094466968903587940e+02,-3.938144852084536751e+02,-1.145677118255260893e+02,-1.840077202725537973e+02,9.484992027282714844e+00,-7.649186849594116211e-01,3.824593424797058105e-01,3.250000000000000000e+02
-4.852884579899625237e+02,-4.978995961754773703e+02,-1.488975861614488849e+02,-2.681951386368618842e+02,-3.111003626516127269e+02,-3.970608329137414785e+02,-1.134440145313218409e+02,-1.846412420371410690e+02,9.484992027282714844e+00,-7.649186849594116211e-01,3.824593424797058105e-01,3.260000000000000000e+02
-4.862822996568575036e+02,-5.001281072494797399e+02,-1.551748477705034475e+02,-2.681609628850744684e+02,-3.145524086331156468e+02,-3.995911386165416843e+02,-1.123527710730805893e+02,-1.859638604695320510e+02,9.484992027282714844e+00,-7.649186849594116211e-01,3.824593424797058105e-01,3.270000000000000000e+02
-4.871052215308658901e+02,-5.016228910870586901e+02,-1.629334898913293728e+02,-2.670295151677706826e+02,-3.181728114296306558e+02,-4.006572400537560270e+02,-1.113419116258110080e+02,-1.860997317796606012e+02,9.484992027282714844e+00,-7.649186849594116211e-01,3.824593424797058105e-01,3.280000000000000000e+02
-4.876264647551809048e+02,-5.024481018169227582e+02,-1.685867491808414798e+02,-2.651734402367848134e+02,-3.200339110911153284e+02,-3.999378464427546760e+02,-1.102414771667230298e+02,-1.838797314092839770e+02,9.484992027282714844e+00,-7.649186849594116211e-01,3.824593424797058105e-01,3.290000000000000000e+02
-4.881545173364801826e+02,-5.027173615539849152e+02,-1.696333958070631525e+02,-2.634924001329918610e+02,-3.192150118522829416e+02,-3.979452455461430418e+02,-1.089711814885536114e+02,-1.797765220280907670e+02,9.484992027282714844e+00,-7.649186849594116211e-01,3.824593424797058105e-01,3.300000000000000000e+02
-4.887199253444304645e+02,-5.025213540715797080e+02,-1.663314099908958497e+02,-2.627257049967450939e+02,-3.162698023371489171e+02,-3.957839643546516299e+02,-1.077230453602192028e+02,-1.754294672933315269e+02,9.484992027282714844e+00,-7.649186849594116211e-01,3.824593424797058105e-01,3.310000000000000000e+02
-4.886776080137208851e+02,-5.020010424943774296e+02,-1.613223113018398180e+02,-2.628216034565051586e+02,-3.126400809263714109e+02,-3.944465421163870360e+02,-1.068921761774741981e+02,-1.723723391961028710e+02,9.484992027282714844e+00,-7.649186849594116211e-01,3.824593424797058105e-01,3.320000000000000000e+02
-4.871521757041037972e+02,-5.014413764377106872e+02,-1.576334415651101608e+02,-2.630081792873373843e+02,-3.096060463409460226e+02,-3.942190008239925874e+02,-1.068117372440310646e+02,-1.710760740523925278e+02,9.484992027282714844e+00,-7.649186849594116211e-01,3.824593424797058105e-01,3.330000000000000000e+02
-4.838626817303973553e+02,-5.011970056198357497e+02,-1.566399500408646190e+02,-2.624972220125713989e+02,-3.075784818483946310e+02,-3.946395741036508298e+02,-1.074767281402245089e+02,-1.709076104319052547e+02,9.484992027282714844e+00,-7.649186849594116211e-01,3.824593424797058105e-01,3.340000000000000000e+02
-4.794289653169654457e+02,-5.014326600862802366e+02,-1.574422592444127531e+02,-2.611209226661779894e+02,-3.061257587699383862e+02,-3.949719482002391260e+02,-1.084652283964765047e+02,-1.707843030860805129e+02,9.484992027282714844e+00,-7.649186849594116211e-01,3.824593424797058105e-01,3.350000000000000000e+02
-4.748505919702267875e+02,-5.018970564478411234e+02,-1.579479011877171502e+02,-2.593402747782815823e+02,-3.045619261344505162e+02,-3.947934460112634270e+02,-1.091697511561101237e+02,-1.699293423421484022e+02,9.484992027282714844e+00,-7.649186849594116211e-01,3.824593424797058105e-01,3.360000000000000000e+02
-4.707649702035685664e+02,-5.019835329399376178e+02,-1.566888985874508080e+02,-2.577451403743887113e+02,-3.026155534491332446e+02,-3.942943089003971409e+02,-1.092399464226763257e+02,-1.683272229488394487e+02,9.484992027282714844e+00,-7.649186849594116211e-01,3.824593424797058105e-01,3.370000000000000000e+02
-4.672872729557284970e+02,-5.011054555602442520e+02,-1.540025876690380073e+02,-2.566352021109991597e+02,-3.007600302542009558e+02,-3.941314064631839074e+02,-1.089490536057171539e+02,-1.667855686991688344e+02,9.446745872497558594e+00,-7.266727685928344727e-01,4.207052886486053467e-01,3.380000000000000000e+02
-4.644924633518187420e+02,-4.991343399280286235e+02,-1.517525460149190621e+02,-2.560349810352159352e+02,-3.000057503506702119e+02,-3.949622557406421492e+02,-1.091336931255835907e+02,-1.665833979445238811e+02,9.446745872497558594e+00,-7.266727685928344727e-01,4.207052886486053467e-01,3.390000000000000000e+02
-4.628083697749110570e+02,-4.965955205715943066e+02,-1.518700503286058847e+02,-2.559375541162969512e+02,-3.012272313991745705e+02,-3.969490222984879892e+02,-1.106195569605666833e+02,-1.687196029669709105e+02,9.446745872497558594e+00,-7.266727685928344727e-01,4.207052886486053467e-01,3.400000000000000000e+02
-4.626822818694722628e+02,-4.944771773655423317e+02,-1.548355303822811493e+02,-2.563607165640553376e+02,-3.043892977117898226e+02,-3.995601362056554535e+02,-1.134848514915452142e+02,-1.730293866081644865e+02,9.446745872497558594e+00,-7.266727685928344727e-01,4.207052886486053467e-01,3.410000000000000000e+02
-4.637921140858459808e+02,-4.937475692183737692e+02,-1.592041799667811688e+02,-2.571280331996806581e+02,-3.081842672542078958e+02,-4.018294017377624527e+02,-1.167115215286231660e+02,-1.777715947284377762e+02,9.446745872497558594e+00,-7.266727685928344727e-01,4.207052886486053467e-01,3.420000000000000000e+02
-4.647705294667601947e+02,-4.948129338587796155e+02,-1.624961722866835316e+02,-2.577096855505878921e+02,-3.104731224730975896e+02,-4.029202550334601938e+02,-1.185871541712717772e+02,-1.802615832685913801e+02,9.446745872497558594e+00,-7.266727685928344727e-01,4.207052886486053467e-01,3.430000000000000000e+02
-4.640149692697095816e+02,-4.972047917026697519e+02,-1.627874678295106605e+02,-2.574213889827357207e+02,-3.094350261702340390e+02,-4.025948561106102943e+02,-1.176890936562635943e+02,-1.784203774741645248e+02,9.446745872497558594e+00,-7.266727685928344727e-01,4.207052886486053467e-01,3.440000000000000000e+02
-4.610093443714994237e+02,-4.997261823945258357e+02,-1.598784580427227979e+02,-2.558616736992067899e+02,-3.047767098732011846e+02,-4.012525014513624342e+02,-1.138340229464356526e+02,-1.722699029127134054e+02,9.446745872497558594e+00,-7.266727685928344727e-01,4.207052886486053467e-01,3.450000000000000000e+02
-4.569067598472619238e+02,-5.010568842735858652e+02,-1.552919601062914126e+02,-2.531956508925089793e+02,-2.981335588079649028e+02,-3.995681977742679010e+02,-1.083395362562678201e+02,-1.642006374399220476e+02,9.446745872497558594e+00,-7.266727685928344727e-01,4.207052886486053467e-01,3.460000000000000000e+02
-4.537162599139928716e+02,-5.005040024600804145e+02,-1.512163045822249501e+02,-2.500472033848881210e+02,-2.922482841077850253e+02,-3.980788465822539592e+02,-1.033700210628446712e+02,-1.576442529980507743e+02,9.446745872497558594e+00,-7.266727685928344727e-01,4.207052886486053467e-01,3.470000000000000000e+02
-4.527287574441556330e+02,-4.983939823498398027e+02,-1.491819990244786140e+02,-2.471241966553066050e+02,-2.893642079041609918e+02,-3.970160242002392579e+02,-1.007353476778561117e+02,-1.550115941027910367e+02,9.446745872497558594e+00,-7.266727685928344727e-01,4.207052886486053467e-01,3.480000000000000000e+02
-4.535628927344372414e+02,-4.957870437653135696e+02,-1.493127454595735344e+02,-2.448910442918120225e+02,-2.898933110243125952e+02,-3.963773836738084810e+02,-1.008701838945917189e+02,-1.563633868293673004e+02,9.446745872497558594e+00,-7.266727685928344727e-01,4.207052886486053467e-01,3.490000000000000000e+02
-4.546553982516057886e+02,-4.937071170598952108e+02,-1.504922038556502457e+02,-2.434501362468616321e+02,-2.922928997223324927e+02,-3.960140502647057588e+02,-1.026373087176374383e+02,-1.597022358013783787e+02,9.446745872497558594e+00,-7.266727685928344727e-01,4.207052886486053467e-01,3.500000000000000000e+02
-4.546998984547052487e+02,-4.924941171491207115e+02,-1.512070466566210030e+02,-2.425770771282836904e+02,-2.942213411637643503e+02,-3.956280906408793498e+02,-1.040874440106048269e+02,-1.624895255951712443e+02,9.446745872497558594e+00,-7.266727685928344727e-01,4.207052886486053467e-01,3.510000000000000000e+02
-4.537168369183544883e+02,-4.917856300469485973e+02,-1.504935599611833368e+02,-2.418127586635690704e+02,-2.940927239325617393e+02,-3.947992860029712574e+02,-1.036796306567617876e+02,-1.631412969070227064e+02,9.446745872497558594e+00,-7.266727685928344727e-01,4.207052886486053467e-01,3.520000000000000000e+02
-4.528648148517797836e+02,-4.910583140240880766e+02,-1.484581307743619618e+02,-2.406197633505589693e+02,-2.919096318491104967e+02,-3.931732462900188239e+02,-1.011752923013244754e+02,-1.615282241432380488e+02,9.446745872497558594e+00,-7.266727685928344727e-01,4.207052886486053467e-01,3.530000000000000000e+02
-4.532835438200747831e+02,-4.901415853093139390e+02,-1.461252560473659514e+02,-2.386467654461890788e+02,-2.888943467561720126e+02,-3.907189725704311059e+02,-9.766668143139702352e+01,-1.584936120672981588e+02,9.446745872497558594e+00,-7.266727685928344727e-01,4.207052886486053467e-01,3.540000000000000000e+02
-4.550563428086891236e+02,-4.892149903201808456e+02,-1.447626997676968585e+02,-2.359989381342977026e+02,-2.864227621753791482e+02,-3.878008182943287920e+02,-9.481575668079346997e+01,-1.551598793764175070e+02,9.446745872497558594e+00,-7.266727685928344727e-01,4.207052886486053467e-01,3.550000000000000000e+02
-4.571355269694332719e+02,-4.884123999753953740e+02,-1.451193586985578463e+02,-2.332983224055813594e+02,-2.851999058915536125e+02,-3.849740474949965119e+02,-9.388843310693528110e+01,-1.526021864665698331e+02,9.446745872497558594e+00,-7.266727685928344727e-01,4.207052886486053467e-01,3.560000000000000000e+02
-4.581685951769159715e+02,-4.875713784894707601e+02,-1.470164430093630585e+02,-2.313881314329292991e+02,-2.851765930507447138e+02,-3.826824631333885236e+02,-9.516616495472010229e+01,-1.517412243276156687e+02,9.446745872497558594e+00,-7.266727685928344727e-01,4.207052886486053467e-01,3.570000000000000000e+02
-4.574658763897512586e+02,-4.864489466142315450e+02,-1.495249011004351019e+02,-2.308098463923735721e+02,-2.859771240744024681e+02,-3.811131108516390213e+02,-9.795562481413514888e+01,-1.530247218152054529e+02,9.446745872497558594e+00,-7.266727685928344727e-01,4.207052886486053467e-01,3.580000000000000000e+02
-4.553776733142313446e+02,-4.851247492519761408e+02,-1.515935632970190454e+02,-2.314225359131905293e+02,-2.872579546883728199e+02,-3.802556201633219644e+02,-1.010280597534696199e+02,-1.559288288242390763e+02,9.446745872497558594e+00,-7.266727685928344727e-01,4.207052886486053467e-01,3.590000000000000000e+02
-4.529046272997871370e+02,-4.840247060653813378e+02,-1.526793200476769812e+02,-2.324577080574484853e+02,-2.887040821931329333e+02,-3.799853566908150242e+02,-1.031736451488302464e+02,-1.588814790813243008e+02,9.446745872497558594e+00,-7.266727685928344727e-01,4.207052886486053467e-01,3.600000000000000000e+02
-4.509309201046785347e+02,-4.834424572800278952e+02,-1.529384360915321963e+02,-2.330020417520323122e+02,-2.899010575334507394e+02,-3.800631852115482161e+02,-1.036740214826847932e+02,-1.600959736230073531e+02,9.446745872497558594e+00,-7.266727685928344727e-01,4.207052886486053467e-01,3.610000000000000000e+02
-4.496436671981699646e+02,-4.830853884678364238e+02,-1.528662878108677319e+02,-2.325674027350610231e+02,-2.904287041025579583e+02,-3.801514975972194179e+02,-1.025914595511543439e+02,-1.589297461360343959e+02,9.446745872497558594e+00,-7.266727685928344727e-01,4.207052886486053467e-01,3.620000000000000000e+02
-4.484952006707721921e+02,-4.822299227917865778e+02,-1.527091570674162426e+02,-2.313284997021240770e+02,-2.901485842711477972e+02,-3.799631558190782243e+02,-1.007638349280061902e+02,-1.565990435021160465e+02,9.446745872497558594e+00,-7.266727685928344727e-01,4.207052886486053467e-01,3.630000000000000000e+02
-4.467027517629896920e+02,-4.804370313965065975e+02,-1.521677336087262233e+02,-2.298760687894670127e+02,-2.893250944897226873e+02,-3.794565477617165925e+02,-9.941836337571237436e+01,-1.554070324049027931e+02,9.446745872497558594e+00,-7.266727685928344727e-01,4.207052886486053467e-01,3.640000000000000000e+02
-4.439743509696897945e+02,-4.781245778657480514e+02,-1.506791844424136571e+02,-2.287248716261011623e+02,-2.883629257229051746e+02,-3.788420252913531385e+02,-9.951736796643206162e+01,-1.569489257462299747e+02,9.446745872497558594e+00,-6.884268522262573242e-01,3.824593424797058105e-01,3.650000000000000000e+02
-4.409765734418514285e+02,-4.763614910007796652e+02,-1.480547280768374776e+02,-2.279947538946714758e+02,-2.874011787802329536e+02,-3.783372633459373446e+02,-1.011930373670911649e+02,-1.607791089676994716e+02,9.446745872497558594e+00,-6.884268522262573242e-01,3.824593424797058105e-01,3.660000000000000000e+02
-4.391719656911076299e+02,-4.760079051911623083e+02,-1.448633579700351106e+02,-2.274924115086223537e+02,-2.862106629664227739e+02,-3.779048110264750449e+02,-1.036430716234112879e+02,-1.647164381905161008e+02,9.446745872497558594e+00,-6.884268522262573242e-01,3.824593424797058105e-01,3.670000000000000000e+02
-4.399945304269941744e+02,-4.769922488962347416e+02,-1.421210555953214225e+02,-2.270295300986231268e+02,-2.845159074034328341e+02,-3.772603109217277506e+02,-1.055651473817067654e+02,-1.665280528109772149e+02,9.446745872497558594e+00,-6.884268522262573242e-01,3.824593424797058105e-01,3.680000000000000000e+02
-4.438028251594844278e+02,-4.783696522747898143e+02,-1.404519500927646050e+02,-2.266006904684326173e+02,-2.823603114155647518e+02,-3.761418126907035457e+02,-1.058326222956784477e+02,-1.654966325073294229e+02,9.446745872497558594e+00,-6.884268522262573242e-01,3.824593424797058105e-01,3.690000000000000000e+02
-4.493651029438350406e+02,-4.790288867478947168e+02,-1.394684991445919877e+02,-2.262482543809212530e+02,-2.800869882118938676e+02,-3.745427836426534896e+02,-1.040263678310531077e+02,-1.626009407267999904e+02,9.446745872497558594e+00,-6.884268522262573242e-01,3.824593424797058105e-01,3.700000000000000000e+02
-4.543873610315642964e+02,-4.783422160155911342e+02,-1.380490528571480127e+02,-2.258234559296311090e+02,-2.779751805727455576e+02,-3.726778465246733276e+02,-1.006330577626654303e+02,-1.593958224683251501e+02,9.446745872497558594e+00,-6.884268522262573242e-01,3.824593424797058105e-01,3.710000000000000000e+02
-4.568524522180243821e+02,-4.762468651775803892e+02,-1.353803317074900860e+02,-2.249672352775255604e+02,-2.759933838665083385e+02,-3.707668375537078873e+02,-9.689427101908268014e+01,-1.567962241595909063e+02,9.446745872497558594e+00,-6.884268522262573242e-01,3.824593424797058105e-01,3.720000000000000000e+02
-4.562502267934601150e+02,-4.729070846222836053e+02,-1.318388379770810843e+02,-2.233595532782840110e+02,-2.739950570817741209e+02,-3.688968101862237745e+02,-9.433100191262292356e+01,-1.547994148402801784e+02,9.446745872497558594e+00,-6.884268522262573242e-01,3.824593424797058105e-01,3.730000000000000000e+02
-4.537679074426116586e+02,-4.684961512679772113e+02,-1.288222357696987501e+02,-2.209579851166361095e+02,-2.721242911536709244e+02,-3.670767178601308842e+02,-9.401408795450424805e+01,-1.530663687535407007e+02,9.446745872497558594e+00,-6.884268522262573242e-01,3.824593424797058105e-01,3.740000000000000000e+02
-4.512700865853751111e+02,-4.633504512187079172e+02,-1.275515004207995844e+02,-2.179539544764523953e+02,-2.708666180575962699e+02,-3.653335719510880608e+02,-9.585789315912688835e+01,-1.514534665258806854e+02,9.446745872497558594e+00,-6.884268522262573242e-01,3.824593424797058105e-01,3.750000000000000000e+02
-4.498933537116887464e+02,-4.582196364205456121e+02,-1.278848408881304977e+02,-2.145432698443141817e+02,-2.705553367806506913e+02,-3.636875349176849568e+02,-9.844887829404547119e+01,-1.499014541298827226e+02,9.446745872497558594e+00,-6.884268522262573242e-01,3.824593424797058105e-01,3.760000000000000000e+02
-4.494329818164059134e+02,-4.541400262289625971e+02,-1.282678316117534223e+02,-2.108389458231142726e+02,-2.707893637721728055e+02,-3.620584079103687145e+02,-9.976026173589366408e+01,-1.480152968059753675e+02,9.446745872497558594e+00,-6.884268522262573242e-01,3.824593424797058105e-01,3.770000000000000000e+02
-4.490035337287102948e+02,-4.518412425569451898e+02,-1.269377584703629509e+02,-2.070440825345893927e+02,-2.704433622723179269e+02,-3.602634402721530478e+02,-9.844287304294664409e+01,-1.450895096667342159e+02,9.446745872497558594e+00,-6.884268522262573242e-01,3.824593424797058105e-01,3.780000000000000000e+02
-4.482820702224385059e+02,-4.511617378738658317e+02,-1.233529867831302909e+02,-2.036258298880952680e+02,-2.684362808234770910e+02,-3.581564544877185199e+02,-9.478314256256749104e+01,-1.407978471837408279e+02,9.446745872497558594e+00,-6.884268522262573242e-01,3.824593424797058105e-01,3.790000000000000000e+02
-4.480496409716795370e+02,-4.510174475210412766e+02,-1.185980345706856269e+02,-2.011287636155980181e+02,-2.646328502365861368e+02,-3.557471133549543083e+02,-9.048305462216762862e+01,-1.358714105158754819e+02,9.446745872497558594e+00,-6.884268522262573242e-01,3.824593424797058105e-01,3.800000000000000000e+02
-4.493967527767492811e+02,-4.500300129643711671e+02,-1.144578720763363435e+02,-1.996810554781877727e+02,-2.600578536338975937e+02,-3.531626314217237450e+02,-8.734780603049603087e+01,-1.319349153855706618e+02,9.446745872497558594e+00,-6.884268522262573242e-01,3.824593424797058105e-01,3.810000000000000000e+02
-4.522996206954657055e+02,-4.473836919358722071e+02,-1.120278870360120891e+02,-1.986939820514724033e+02,-2.561980481965977106e+02,-3.505179413883956840e+02,-8.593585539314403832e+01,-1.304352342274125931e+02,9.446745872497558594e+00,-6.884268522262573242e-01,3.824593424797058105e-01,3.820000000000000000e+02
-4.550155875057505455e+02,-4.432977473884269557e+02,-1.110332653221876171e+02,-1.971603424466152319e+02,-2.539698380827082929e+02,-3.478589359701386456e+02,-8.529694701092000741e+01,-1.315152199512797324e+02,9.446745872497558594e+00,-6.884268522262573242e-01,3.824593424797058105e-01,3.830000000000000000e+02
-4.551069466003104935e+02,-4.388071232469613960e+02,-1.103100708266877064e+02,-1.943875158412506607e+02,-2.532015905204725641e+02,-3.452299446701549641e+02,-8.399570057252583410e+01,-1.338224628951890054e+02,9.446745872497558594e+00,-6.884268522262573242e-01,3.824593424797058105e-01,3.840000000000000000e+02
-4.513619107853198784e+02,-4.350552516153154556e+02,-1.088885303367590041e+02,-1.905270482896348767e+02,-2.529739493729250626e+02,-3.427250482321273921e+02,-8.149303099740666312e+01,-1.354325233419344841e+02,9.446745872497558594e+00,-6.884268522262573242e-01,3.824593424797058105e-01,3.850000000000000000e+02
-4.449042497097768774e+02,-4.326005223860486240e+02,-1.067246820132893390e+02,-1.864321333347515974e+02,-2.524174341415706522e+02,-3.404075382222854387e+02,-7.868082373462800660e+01,-1.351145988800618625e+02,9.446745872497558594e+00,-6.884268522262573242e-01,3.824593424797058105e-01,3.860000000000000000e+02
-4.384196056498892631e+02,-4.311592809211630311e+02,-1.045899307699000929e+02,-1.830092234255773747e+02,-2.512636330745312989e+02,-3.381950375539588549e+02,-7.715319840656184169e+01,-1.329636616529294315e+02,9.446745872497558594e+00,-6.884268522262573242e-01,3.824593424797058105e-01,3.870000000000000000e+02
-4.341368907597686757e+02,-4.299029126305953241e+02,-1.033724869544830653e+02,-1.806674594578400956e+02,-2.497843233769607423e+02,-3.359116807811860781e+02,-7.791190240585535776e+01,-1.300624241079210606e+02,9.446745872497558594e+00,-6.884268522262573242e-01,3.824593424797058105e-01,3.880000000000000000e+02
-4.323252466928980766e+02,-4.280732984780599963e+02,-1.034181706276938257e+02,-1.792957744378998086e+02,-2.483468190140090428e+02,-3.335327046002903444e+02,-8.062371944577591876e+01,-1.276478180245994736e+02,9.446745872497558594e+00,-6.884268522262573242e-01,3.824593424797058105e-01,3.890000000000000000e+02
-4.315409461331977354e+02,-4.254840621932250997e+02,-1.043479485129980731e+02,-1.786285159134972673e+02,-2.470800682026647337e+02,-3.313709036937552810e+02,-8.396438529184240451e+01,-1.264774771013271675e+02,9.446745872497558594e+00,-6.884268522262573242e-01,3.824593424797058105e-01,3.900000000000000000e+02
-4.301976781262436589e+02,-4.225477854192607765e+02,-1.053438357869598576e+02,-1.785240070841326769e+02,-2.458975132772102370e+02,-3.299372589836686984e+02,-8.660321013305144788e+01,-1.266642371089851622e+02,9.446745872497558594e+00,-6.884268522262573242e-01,3.824593424797058105e-01,3.910000000000000000e+02
-4.278836374469982502e+02,-4.198012801806604557e+02,-1.055982912802058991e+02,-1.788705719250153834e+02,-2.446907015521069297e+02,-3.294969958611006859e+02,-8.791588445594015866e+01,-1.277564328875669162e+02,9.446745872497558594e+00,-6.884268522262573242e-01,3.824593424797058105e-01,3.920000000000000000e+02
-4.253150645098838822e+02,-4.173256718742075009e+02,-1.046365929502819654e+02,-1.792873781475584565e+02,-2.433838991372247165e+02,-3.296788570495921249e+02,-8.791759986168153773e+01,-1.288137607693020072e+02,9.446745872497558594e+00,-6.884268522262573242e-01,3.824593424797058105e-01,3.930000000000000000e+02
-4.232924851489253797e+02,-4.145987405574345530e+02,-1.024019050109549198e+02,-1.790292906738322927e+02,-2.417813180857147017e+02,-3.295238790587866333e+02,-8.670110329619217282e+01,-1.285650246076245367e+02,9.446745872497558594e+00,-6.884268522262573242e-01,3.824593424797058105e-01,3.940000000000000000e+02
-4.219333171479199791e+02,-4.110095253678814515e+02,-9.917968308411877842e+01,-1.773255850398149960e+02,-2.394883707113224318e+02,-3.280462224973628054e+02,-8.411016805840108645e+01,-1.259132979662099387e+02,9.446745872497558594e+00,-6.884268522262573242e-01,3.824593424797058105e-01,3.950000000000000000e+02
-4.208999827776399343e+02,-4.066296215995655530e+02,-9.549008432978496330e+01,-1.739540249063677493e+02,-2.361745226259279207e+02,-3.249554056920969742e+02,-8.004792420554235832e+01,-1.207182061852240622e+02,9.446745872497558594e+00,-6.884268522262573242e-01,4.207052886486053467e-01,3.960000000000000000e+02
-4.200673091925966673e+02,-4.024650711430854244e+02,-9.198433831280624418e+01,-1.695587201119683414e+02,-2.320242536962123268e+02,-3.209845957269869814e+02,-7.505993530239686606e+01,-1.142454018245341558e+02,9.446745872497558594e+00,-6.884268522262573242e-01,4.207052886486053467e-01,3.970000000000000000e+02
-4.195937763849242401e+02,-3.997762190866794754e+02,-8.925688774773232126e+01,-1.653300195614147015e+02,-2.278605163582110436e+02,-3.174755956823423730e+02,-7.042285586004391007e+01,-1.086149986416940010e+02,9.446745872497558594e+00,-6.884268522262573242e-01,4.207052886486053467e-01,3.980000000000000000e+02
-4.192453288870967754e+02,-3.989236191918444092e+02,-8.752242474736635813e+01,-1.621709030800952860e+02,-2.246004167248772774e+02,-3.154117328850859394e+02,-6.738969799725987286e+01,-1.053466106129446871e+02,9.446745872497558594e+00,-6.884268522262573242e-01,4.207052886486053467e-01,3.990000000000000000e+02
-4.179629961355656178e+02,-3.987832160177779315e+02,-8.633454756980881939e+01,-1.599736991986028443e+02,-2.223758073759988747e+02,-3.145924999076150925e+02,-6.614571516090427394e+01,-1.040754542706240500e+02,9.446745872497558594e+00,-6.884268522262573242e-01,4.207052886486053467e-01,4.000000000000000000e+02
-4.146414316292991771e+02,-3.973988045492562833e+02,-8.468686567963050038e+01,-1.576628072787596011e+02,-2.201668237613496331e+02,-3.136657520206388199e+02,-6.548080763414054672e+01,-1.026410120456625918e+02,9.446745872497558594e+00,-6.884268522262573242e-01,4.207052886486053467e-01,4.010000000000000000e+02
-4.096769435705145952e+02,-3.934390633255964076e+02,-8.164821499635536384e+01,-1.540809456964495894e+02,-2.165159180204598215e+02,-3.111289348715949927e+02,-6.366894358441413715e+01,-9.872704629137479060e+01,9.446745872497558594e+00,-6.884268522262573242e-01,4.207052886486053467e-01,4.020000000000000000e+02
-4.055826090205575838e+02,-3.872328881405228458e+02,-7.719056106585821908e+01,-1.490248249049136575e+02,-2.108889944476488836e+02,-3.065595803356550277e+02,-5.992224393449168929e+01,-9.183276757934390844e+01,9.446745872497558594e+00,-6.884268522262573242e-01,4.207052886486053467e-01,4.030000000000000000e+02
-4.054899967220726467e+02,-3.804842676596406363e+02,-7.251956173845928788e+01,-1.435231438189016444e+02,-2.044924740951648801e+02,-3.010269969962671439e+02,-5.515911605748669899e+01,-8.390464827502978551e+01,9.446745872497558594e+00,-6.884268522262573242e-01,4.207052886486053467e-01,4.040000000000000000e+02
-4.103981937896219279e+02,-3.749832681487607715e+02,-6.944172453753458285e+01,-1.390697299279631807e+02,-1.996670512270889049e+02,-2.962696126266753254e+02,-5.135957225219135580e+01,-7.801918470436794451e+01,9.446745872497558594e+00,-6.884268522262573242e-01,4.207052886486053467e-01,4.050000000000000000e+02
-4.176158472075851478e+02,-3.714941668971964646e+02,-6.908493552976278806e+01,-1.364761387495364033e+02,-1.982024268519135148e+02,-2.933282290764323079e+02,-5.004515727385887658e+01,-7.619119123724567544e+01,9.446745872497558594e+00,-6.884268522262573242e-01,4.207052886486053467e-01,4.060000000000000000e+02
-4.221671380222799144e+02,-3.696849801245723484e+02,-7.096083777187914166e+01,-1.353575579325454328e+02,-1.999527974526322396e+02,-2.918447697489878010e+02,-5.119379192189853711e+01,-7.811684979700407894e+01,9.446745872497558594e+00,-6.884268522262573242e-01,4.207052886486053467e-01,4.070000000000000000e+02
-4.203402491469023516e+02,-3.688447142404857004e+02,-7.319049760609982513e+01,-1.346344212458284346e+02,-2.029341878137950062e+02,-2.906099285065429285e+02,-5.345209497595737957e+01,-8.174885876708412979e+01,9.446745872497558594e+00,-6.884268522262573242e-01,4.207052886486053467e-01,4.080000000000000000e+02
-4.124719890873927852e+02,-3.684398911477182992e+02,-7.378461608729367072e+01,-1.334443562658225346e+02,-2.047947777447652697e+02,-2.887293338514850802e+02,-5.527760745561590738e+01,-8.494380442818328447e+01,9.446745872497558594e+00,-6.884268522262573242e-01,4.207052886486053467e-01,4.090000000000000000e+02
-4.025681010201408299e+02,-3.680064241098025377e+02,-7.199199083436633373e+01,-1.315477929605972349e+02,-2.043808114845865020e+02,-2.862339197452010922e+02,-5.589673422434952954e+01,-8.665182955569071055e+01,9.446745872497558594e+00,-6.884268522262573242e-01,4.207052886486053467e-01,4.100000000000000000e+02
-3.950663655403905068e+02,-3.668237207284346368e+02,-6.865718989657671045e+01,-1.289863475992979147e+02,-2.021196524487770603e+02,-2.836307726614807052e+02,-5.535121878412064689e+01,-8.682603250752322310e+01,9.446745872497558594e+00,-6.884268522262573242e-01,4.207052886486053467e-01,4.110000000000000000e+02
-3.915194449467751383e+02,-3.641234202853165698e+02,-6.535728649048905936e+01,-1.255969399635901027e+02,-1.991045240327423471e+02,-2.810318925553433473e+02,-5.390873975065960622e+01,-8.560906799029953618e+01,9.446745872497558594e+00,-6.884268522262573242e-01,4.207052886486053467e-01,4.120000000000000000e+02
-3.899309216022859346e+02,-3.598585650975762746e+02,-6.312891083139402326e+01,-1.210805032275320627e+02,-1.959576836840756187e+02,-2.779188788521951210e+02,-5.170015067245662976e+01,-8.296795116207408682e+01,9.446745872497558594e+00,-6.884268522262573242e-01,4.207052886486053467e-01,4.130000000000000000e+02
-3.870086612184686601e+02,-3.551573482741739554e+02,-6.184876371034670228e+01,-1.155807386116309772e+02,-1.925698518320673429e+02,-2.738283624613584379e+02,-4.898225490644699676e+01,-7.918878524701017341e+01,9.446745872497558594e+00,-6.884268522262573242e-01,4.207052886486053467e-01,4.140000000000000000e+02
-3.811190131473483689e+02,-3.517067537740385887e+02,-6.068690844392972394e+01,-1.100440593870334851e+02,-1.888135668304482806e+02,-2.691790577685947028e+02,-4.658412161293426834e+01,-7.549612477809523625e+01,9.446745872497558594e+00,-6.884268522262573242e-01,4.207052886486053467e-01,4.150000000000000000e+02
-3.734183648928662933e+02,-3.504104765265399237e+02,-5.909651489286261494e+01,-1.058052359227112902e+02,-1.853034250648611305e+02,-2.652658213314502973e+02,-4.580709208947746447e+01,-7.378137388373284011e+01,9.446745872497558594e+00,-6.884268522262573242e-01,4.207052886486053467e-01,4.160000000000000000e+02
-3.665132403668042116e+02,-3.505553684812389292e+02,-5.738408774562753933e+01,-1.036705346774892860e+02,-1.832537257702335864e+02,-2.633027149724293849e+02,-4.762114202868815482e+01,-7.535229487819924543e+01,9.446745872497558594e+00,-6.501809358596801758e-01,4.207052886486053467e-01,4.170000000000000000e+02
-3.621736272407711112e+02,-3.503510887771574289e+02,-5.637733075004098282e+01,-1.033350781635247131e+02,-1.834755836044919306e+02,-2.633887922468402394e+02,-5.181489638314587864e+01,-7.975132537976469393e+01,9.446745872497558594e+00,-6.501809358596801758e-01,4.207052886486053467e-01,4.180000000000000000e+02
-3.601274643892772929e+02,-3.483817853800835564e+02,-5.655246827782502805e+01,-1.036566429311603770e+02,-1.854706010533179779e+02,-2.643637530564706140e+02,-5.690203688241217606e+01,-8.479622799295248115e+01,9.446745872497558594e+00,-6.501809358596801758e-01,4.207052886486053467e-01,4.190000000000000000e+02
-3.586803273093341886e+02,-3.446324866530605959e+02,-5.746257638527663403e+01,-1.035026459882087693e+02,-1.875597739930753960e+02,-2.646707702462763336e+02,-6.093995899156402629e+01,-8.796835815554277360e+01,9.446745872497558594e+00,-6.501809358596801758e-01,4.207052886486053467e-01,4.200000000000000000e+02
-3.562610360802250398e+02,-3.402142770258878954e+02,-5.800756295630526438e+01,-1.024230353982172801e+02,-1.880300545360921660e+02,-2.634457874273657580e+02,-6.263310435735002102e+01,-8.807118565089194817e+01,9.446745872497558594e+00,-6.501809358596801758e-01,4.207052886486053467e-01,4.210000000000000000e+02
-3.524860797699582236e+02,-3.362140782322844643e+02,-5.728613307886325856e+01,-1.006833296891982172e+02,-1.863283676012974865e+02,-2.609365660194230259e+02,-6.191822052231486850e+01,-8.585496910524079794e+01,9.446745872497558594e+00,-6.501809358596801758e-01,4.207052886486053467e-01,4.220000000000000000e+02
-3.480989812689717837e+02,-3.328631266229758694e+02,-5.524705419270549100e+01,-9.880752464295255777e+01,-1.832879702165087110e+02,-2.580251978699739084e+02,-5.973018548645154624e+01,-8.320922478918646448e+01,9.446745872497558594e+00,-6.501809358596801758e-01,4.207052886486053467e-01,4.230000000000000000e+02
-3.441652758413390529e+02,-3.297244736302279762e+02,-5.258016724019353205e+01,-9.710842978896107525e+01,-1.802602544702326668e+02,-2.553969842939050068e+02,-5.729168548458983423e+01,-8.168627799482896990e+01,9.446745872497558594e+00,-6.501809358596801758e-01,4.207052886486053467e-01,4.240000000000000000e+02
-3.412896628466128277e+02,-3.264883031330884933e+02,-5.001010997505409250e+01,-9.553558621518550353e+01,-1.779892532208002649e+02,-2.530952376545701554e+02,-5.549255543181857320e+01,-8.154151942018870614e+01,9.446745872497558594e+00,-6.501809358596801758e-01,4.207052886486053467e-01,4.250000000000000000e+02
-3.393312873574896003e+02,-3.234329003581401594e+02,-4.770058805425264836e+01,-9.385065608711511231e+01,-1.762112028056280906e+02,-2.507569572297311424e+02,-5.465956336655881387e+01,-8.190909848436331231e+01,9.446745872497558594e+00,-6.501809358596801758e-01,4.207052886486053467e-01,4.260000000000000000e+02
-3.376285895650814837e+02,-3.211260929416982890e+02,-4.533227304550928238e+01,-9.192574618513117457e+01,-1.742220106487909561e+02,-2.482064741938679617e+02,-5.466374169217829149e+01,-8.177876811128567169e+01,9.446745872497558594e+00,-6.501809358596801758e-01,4.207052886486053467e-01,4.270000000000000000e+02
-3.355026380866445379e+02,-3.198262418679682924e+02,-4.272027159905587723e+01,-8.993960687910384877e+01,-1.717444422716725967e+02,-2.458145867942898803e+02,-5.516887966680292266e+01,-8.088263014316407862e+01,9.446745872497558594e+00,-6.501809358596801758e-01,4.207052886486053467e-01,4.280000000000000000e+02
-3.327501147916468653e+02,-3.192715977686675615e+02,-4.028004997774655749e+01,-8.833577925507620421e+01,-1.692509649819207880e+02,-2.442969236699018438e+02,-5.589407890600818973e+01,-7.983750010472363101e+01,9.446745872497558594e+00,-6.501809358596801758e-01,4.207052886486053467e-01,4.290000000000000000e+02
-3.298373899599662309e+02,-3.190026493805351038e+02,-3.880208242281810271e+01,-8.751728122476015415e+01,-1.675041278398339273e+02,-2.441226266412281802e+02,-5.679849591989045621e+01,-7.954357314714752647e+01,9.446745872497558594e+00,-6.501809358596801758e-01,4.207052886486053467e-01,4.300000000000000000e+02
-3.276048973124429722e+02,-3.187621967868049069e+02,-3.872569376693741106e+01,-8.748072208274720651e+01,-1.668587492041135647e+02,-2.450693828764869977e+02,-5.808616372121673521e+01,-8.041246554712870420e+01,9.446745872497558594e+00,-6.501809358596801758e-01,4.207052886486053467e-01,4.310000000000000000e+02
-3.266186414040023465e+02,-3.185105567113914731e+02,-3.964148237761696691e+01,-8.771755881803051125e+01,-1.670265831652766337e+02,-2.463187326145730367e+02,-5.997366488339230273e+01,-8.204394197661986254e+01,9.446745872497558594e+00,-6.501809358596801758e-01,4.207052886486053467e-01,4.320000000000000000e+02
-3.266574968493389406e+02,-3.181145081405454675e+02,-4.055145375688539389e+01,-8.754317488130618585e+01,-1.674577283688226998e+02,-2.469844223328955195e+02,-6.235007955681840031e+01,-8.353746011439397989e+01,9.446745872497558594e+00,-6.501809358596801758e-01,4.207052886486053467e-01,4.330000000000000000e+02
-3.268284443420620846e+02,-3.171501327869152647e+02,-4.067780509169620018e+01,-8.661799803677740783e+01,-1.678646326731561658e+02,-2.465911875983720165e+02,-6.463076464850200864e+01,-8.411554855183749169e+01,9.446745872497558594e+00,-6.501809358596801758e-01,4.207052886486053467e-01,4.340000000000000000e+02
-3.263081455192038902e+02,-3.150892587871317119e+02,-4.006987866854296954e+01,-8.517445001022952056e+01,-1.683206237782524113e+02,-2.451180327587831016e+02,-6.601067149561231417e+01,-8.352958894483435870e+01,9.446745872497558594e+00,-6.501809358596801758e-01,4.207052886486053467e-01,4.350000000000000000e+02
-3.251069012072578062e+02,-3.116865625785662814e+02,-3.944156473947623454e+01,-8.371377003286124818e+01,-1.688802247469875510e+02,-2.427006791009466724e+02,-6.597565038934544646e+01,-8.198175526212207842e+01,9.446745872497558594e+00,-6.501809358596801758e-01,4.207052886486053467e-01,4.360000000000000000e+02
-3.241430113144378993e+02,-3.071561361100889371e+02,-3.941250858650982991e+01,-8.245813293225569396e+01,-1.692023763801751102e+02,-2.394167123522875045e+02,-6.465896518986050978e+01,-7.976420645604912352e+01,9.446745872497558594e+00,-6.501809358596801758e-01,4.207052886486053467e-01,4.370000000000000000e+02
-3.244682334387716764e+02,-3.019735405055603223e+02,-3.988118903862891784e+01,-8.111279647185756403e+01,-1.686546920539881285e+02,-2.353961928944381725e+02,-6.272115109176502301e+01,-7.705512943328858455e+01,9.446745872497558594e+00,-6.501809358596801758e-01,4.207052886486053467e-01,4.380000000000000000e+02
-3.262581948193787866e+02,-2.965357564857063153e+02,-4.013219661740617994e+01,-7.918902610973100309e+01,-1.668644681276391566e+02,-2.310485048569184983e+02,-6.086226839313758319e+01,-7.410340737671322131e+01,9.446745872497558594e+00,-6.501809358596801758e-01,4.207052886486053467e-01,4.390000000000000000e+02
-3.284525751000765013e+02,-2.910318946376355598e+02,-3.958644018029667677e+01,-7.656487212742331394e+01,-1.642039318364822975e+02,-2.270214545080125390e+02,-5.944551235585663562e+01,-7.156035739921935601e+01,9.446745872497558594e+00,-6.501809358596801758e-01,4.207052886486053467e-01,4.400000000000000000e+02
-3.293972262813185807e+02,-2.856193500252397826e+02,-3.847054805594416393e+01,-7.370705966107607310e+01,-1.617032586914883723e+02,-2.238292492896525800e+02,-5.856244130380287061e+01,-7.046427505984956952e+01,9.446745872497558594e+00,-6.501809358596801758e-01,4.207052886486053467e-01,4.410000000000000000e+02
-3.279910246924466719e+02,-2.806703608820509999e+02,-3.773264926009846931e+01,-7.134193149921838994e+01,-1.603998339257072985e+02,-2.215233526021393118e+02,-5.838014426944982915e+01,-7.168873948805139662e+01,9.408499717712402344e+00,-6.884268522262573242e-01,4.589512646198272705e-01,4.420000000000000000e+02
-3.244325534940717262e+02,-2.767821947849467961e+02,-3.821546490167543197e+01,-6.991542484049750783e+01,-1.606308338191774965e+02,-2.197755300690869262e+02,-5.928722507852239687e+01,-7.524055796740458391e+01,9.408499717712402344e+00,-6.884268522262573242e-01,4.589512646198272705e-01,4.430000000000000000e+02
-3.199984325220652863e+02,-2.744767910607888552e+02,-3.980911098501360357e+01,-6.936105974675228936e+01,-1.618315858818959896e+02,-2.182895571999347339e+02,-6.156612381078730323e+01,-8.004895135904962444e+01,9.408499717712402344e+00,-6.884268522262573242e-01,4.589512646198272705e-01,4.440000000000000000e+02
-3.160699060412225663e+02,-2.738043344679877009e+02,-4.138319938037057000e+01,-6.932805641141067099e+01,-1.629729389952540259e+02,-2.170808261622091777e+02,-6.487821849754868708e+01,-8.451312628091091028e+01,9.408499717712402344e+00,-6.884268522262573242e-01,4.589512646198272705e-01,4.450000000000000000e+02
-3.132003773049409574e+02,-2.741659155492266109e+02,-4.163784310325013394e+01,-6.954811390437180307e+01,-1.632582647487670329e+02,-2.163282253926663543e+02,-6.813980523386817367e+01,-8.739577996144817007e+01,9.408499717712402344e+00,-6.884268522262573242e-01,4.589512646198272705e-01,4.460000000000000000e+02
-3.109193873790018188e+02,-2.745149924341433234e+02,-4.016551884207865442e+01,-6.993735926126782942e+01,-1.625292734732829558e+02,-2.160036387583140822e+02,-7.005295036349889415e+01,-8.833607310057095674e+01,9.408499717712402344e+00,-6.884268522262573242e-01,4.589512646198272705e-01,4.470000000000000000e+02
-3.083537499619187656e+02,-2.738375341072242009e+02,-3.778300286614899051e+01,-7.038316821583111960e+01,-1.611250359117539119e+02,-2.157367048572450585e+02,-6.992662185099902672e+01,-8.762959217962361436e+01,9.408499717712402344e+00,-6.884268522262573242e-01,4.589512646198272705e-01,4.480000000000000000e+02
-3.050849963260711775e+02,-2.716199177772232360e+02,-3.580919325382387797e+01,-7.054341962988519299e+01,-1.593976536043824126e+02,-2.150842574360558501e+02,-6.809637764585204422e+01,-8.561878155788963340e+01,9.408499717712402344e+00,-6.884268522262573242e-01,4.589512646198272705e-01,4.490000000000000000e+02
-3.015296016289162253e+02,-2.680221748786420903e+02,-3.492332503746752081e+01,-6.996647925222396225e+01,-1.573457643810306763e+02,-2.138917230814013237e+02,-6.559314945211826853e+01,-8.236970600665245001e+01,9.408499717712402344e+00,-6.884268522262573242e-01,4.589512646198272705e-01,4.500000000000000000e+02
-2.985916319151028802e+02,-2.636712935215086873e+02,-3.464052831033723123e+01,-6.847525082780111916e+01,-1.546817852607891837e+02,-2.123457300666550509e+02,-6.337685807855154962e+01,-7.794325389063760667e+01,9.408499717712402344e+00,-6.884268522262573242e-01,4.589512646198272705e-01,4.510000000000000000e+02
-2.969174576767291001e+02,-2.592249800606718964e+02,-3.386912304292650333e+01,-6.640659587776372064e+01,-1.512228025762624384e+02,-2.106757003566312960e+02,-6.176113360191538959e+01,-7.287326864634906087e+01,9.408499717712402344e+00,-6.884268522262573242e-01,4.589512646198272705e-01,4.520000000000000000e+02
-2.963766502455805494e+02,-2.549971274411573177e+02,-3.199363963444307046e+01,-6.438714414965670585e+01,-1.472348784076193624e+02,-2.088448722604284740e+02,-6.040973612974130447e+01,-6.821633123683704980e+01,9.408499717712402344e+00,-6.884268522262573242e-01,4.589512646198272705e-01,4.530000000000000000e+02
-2.961515574493669192e+02,-2.508771087998425173e+02,-2.944546532936715266e+01,-6.278506033643770934e+01,-1.434152168045611688e+02,-2.065620437967518228e+02,-5.877816428878759325e+01,-6.498498018956797750e+01,9.408499717712402344e+00,-6.884268522262573242e-01,4.589512646198272705e-01,4.540000000000000000e+02
-2.952890360007668278e+02,-2.465783607353278057e+02,-2.725326633153690636e+01,-6.134386453553906904e+01,-1.405460115299983954e+02,-2.035871491728075853e+02,-5.660817030353609880e+01,-6.346344635417790414e+01,9.408499717712402344e+00,-6.884268522262573242e-01,4.589512646198272705e-01,4.550000000000000000e+02
-2.932424575313293644e+02,-2.420360602025821208e+02,-2.608629058022120262e+01,-5.940917339452835222e+01,-1.391243501364838266e+02,-2.000363063981071718e+02,-5.418642879885010188e+01,-6.310763438613093967e+01,9.408499717712402344e+00,-6.884268522262573242e-01,4.589512646198272705e-01,4.560000000000000000e+02
-2.900533783449718612e+02,-2.376511885227191669e+02,-2.575256396408258297e+01,-5.661525946813253540e+01,-1.392021225722883173e+02,-1.964297291024427068e+02,-5.229048888757597524e+01,-6.317319838455978243e+01,9.408499717712402344e+00,-6.884268522262573242e-01,4.589512646198272705e-01,4.570000000000000000e+02
-2.861970512420925843e+02,-2.341742623667169028e+02,-2.555922369127370075e+01,-5.338475922816132879e+01,-1.404288709653342266e+02,-1.934558338526503576e+02,-5.185923302127503121e+01,-6.346532759339879703e+01,9.408499717712402344e+00,-6.884268522262573242e-01,4.589512646198272705e-01,4.580000000000000000e+02
-2.823366607152811412e+02,-2.322689342467760980e+02,-2.505732121262190049e+01,-5.069881159262013171e+01,-1.421703370177947363e+02,-1.916113455270651684e+02,-5.347464072813818348e+01,-6.445977050529018015e+01,9.408499717712402344e+00,-6.884268522262573242e-01,4.589512646198272705e-01,4.590000000000000000e+02
-2.791218714408000778e+02,-2.320364516527574779e+02,-2.438401264572485161e+01,-4.928563139306879748e+01,-1.436589201961724029e+02,-1.909282217093800682e+02,-5.688895249311008229e+01,-6.668869857496883924e+01,9.408499717712402344e+00,-6.884268522262573242e-01,4.589512646198272705e-01,4.600000000000000000e+02
-2.769551568017536738e+02,-2.328196822604750196e+02,-2.392660656282714626e+01,-4.896620270410949161e+01,-1.442253369346008185e+02,-1.909392187893085975e+02,-6.094296304292265631e+01,-7.000640675228032705e+01,9.408499717712402344e+00,-6.884268522262573242e-01,4.589512646198272705e-01,4.610000000000000000e+02
-2.757164160033366898e+02,-2.334580398338566738e+02,-2.378473501092457809e+01,-4.880243488392989093e+01,-1.436090879465291437e+02,-1.909217764234472270e+02,-6.408582549138463946e+01,-7.348207368610292178e+01,9.408499717712402344e+00,-6.884268522262573242e-01,4.589512646198272705e-01,4.620000000000000000e+02
-2.746656746375142575e+02,-2.328649423512429166e+02,-2.365613892130113527e+01,-4.791832193430900588e+01,-1.421424461646856798e+02,-1.902910100069393593e+02,-6.525748926245205439e+01,-7.603255334365348972e+01,9.408499717712402344e+00,-6.884268522262573242e-01,4.589512646198272705e-01,4.630000000000000000e+02
-2.727727124789903428e+02,-2.305488543287365246e+02,-2.319149493101485859e+01,-4.617052073576860494e+01,-1.405428537203770247e+02,-1.888647417726087951e+02,-6.447826333191233061e+01,-7.716096889916707369e+01,9.408499717712402344e+00,-6.884268522262573242e-01,4.589512646198272705e-01,4.640000000000000000e+02
-2.694160685489414391e+02,-2.267541171823945660e+02,-2.234451652064808513e+01,-4.401536323673326478e+01,-1.393753852905069834e+02,-1.868024174206761927e+02,-6.267758295849716887e+01,-7.711941271569594392e+01,9.408499717712402344e+00,-6.884268522262573242e-01,4.589512646198272705e-01,4.650000000000000000e+02
-2.649498648447556661e+02,-2.221830437754415470e+02,-2.131284522131500125e+01,-4.178376766618202964e+01,-1.385954248893999647e+02,-1.843165557258103036e+02,-6.092018975306564244e+01,-7.643323151246477209e+01,9.408499717712402344e+00,-6.884268522262573242e-01,4.589512646198272705e-01,4.660000000000000000e+02
-2.605892746145755154e+02,-2.175536336317909445e+02,-2.019832909771912455e+01,-3.921885553175297900e+01,-1.376124733043216111e+02,-1.814902759306933149e+02,-5.971560465571792520e+01,-7.536935127679271318e+01,9.408499717712402344e+00,-6.884268522262573242e-01,4.589512646198272705e-01,4.670000000000000000e+02
-2.575870971279177866e+02,-2.133258570597199650e+02,-1.884714958765653137e+01,-3.582812518617902242e+01,-1.358563339904949316e+02,-1.784046884539648090e+02,-5.896511167988592206e+01,-7.390251791354512534e+01,9.408499717712402344e+00,-6.884268522262573242e-01,4.589512646198272705e-01,4.680000000000000000e+02
-2.563166764702095861e+02,-2.097220764279572904e+02,-1.707735986643092474e+01,-3.166479848215203674e+01,-1.333185298030621198e+02,-1.753886582881345930e+02,-5.842637155783086200e+01,-7.210376957318067070e+01,9.523238182067871094e+00,-6.501809358596801758e-01,4.207052886486053467e-01,4.690000000000000000e+02
-2.560035933830895374e+02,-2.068847232903276563e+02,-1.499026003395283624e+01,-2.760764052162721782e+01,-1.305581922508317803e+02,-1.729936671103805566e+02,-5.808793972024022878e+01,-7.039185661682586215e+01,9.523238182067871094e+00,-6.501809358596801758e-01,4.207052886486053467e-01,4.700000000000000000e+02
-2.553113085428649356e+02,-2.049126106874223296e+02,-1.295023290840481422e+01,-2.470865661890047704e+01,-1.281749707748135734e+02,-1.715806362129696936e+02,-5.804506961618244532e+01,-6.926009076463697056e+01,9.523238182067871094e+00,-6.501809358596801758e-01,4.207052886486053467e-01,4.710000000000000000e+02
-2.532816604251052013e+02,-2.037062285896909088e+02,-1.122624632585029758e+01,-2.320177719857611010e+01,-1.262880593704821877e+02,-1.709009065880177332e+02,-5.810640805750335858e+01,-6.874209751713351579e+01,9.523238182067871094e+00,-6.501809358596801758e-01,4.207052886486053467e-01,4.720000000000000000e+02
-2.498610553489188533e+02,-2.028013529827690036e+02,-9.727382259540718223e+00,-2.220596599208283806e+01,-1.245494145114253115e+02,-1.701747998951354930e+02,-5.769636594023813814e+01,-6.826053003740435088e+01,9.523238182067871094e+00,-6.501809358596801758e-01,4.207052886486053467e-01,4.730000000000000000e+02
-2.456633816843204841e+02,-2.014628720797422829e+02,-8.147189498544321395e+00,-2.048751138215266110e+01,-1.226429378694392653e+02,-1.687122430065805929e+02,-5.627650997813634604e+01,-6.713388739169295150e+01,9.523238182067871094e+00,-6.501809358596801758e-01,4.207052886486053467e-01,4.740000000000000000e+02
-2.413022815210565568e+02,-1.990881396694030627e+02,-6.349982524520783045e+00,-1.755503337897425808e+01,-1.207262561279435431e+02,-1.665304695553891179e+02,-5.389041015095881448e+01,-6.530705371175645269e+01,9.523238182067871094e+00,-6.501809358596801758e-01,4.207052886486053467e-01,4.750000000000000000e+02
-2.369429498999015777e+02,-1.956492918214112251e+02,-4.549488060348721774e+00,-1.402709487361926222e+01,-1.193539032447652062e+02,-1.643658407091388653e+02,-5.126207533219940160e+01,-6.356232879116760159e+01,9.523238182067871094e+00,-6.501809358596801758e-01,4.207052886486053467e-01,4.760000000000000000e+02
-2.324296312155979649e+02,-1.917960479215835221e+02,-3.053976694367065647e+00,-1.095491638415660418e+01,-1.189507323458474275e+02,-1.630368757703536176e+02,-4.930524393609630351e+01,-6.291501743765320498e+01,9.523238182067871094e+00,-6.501809358596801758e-01,4.207052886486053467e-01,4.770000000000000000e+02
-2.277663353857396942e+02,-1.884720736976901208e+02,-1.860566207824831508e+00,-8.837056528667289967e+00,-1.193422662889879575e+02,-1.627406150754877672e+02,-4.848758158299096976e+01,-6.370171001252674614e+01,9.523238182067871094e+00,-6.501809358596801758e-01,4.207052886486053467e-01,4.780000000000000000e+02
-2.234145662225032538e+02,-1.862893427962121677e+02,-5.764510336016428482e-01,-7.328313945891295589e+00,-1.197540604161831652e+02,-1.629117169836563335e+02,-4.859726636682125900e+01,-6.520295850582897401e+01,9.523238182067871094e+00,-6.501809358596801758e-01,4.207052886486053467e-01,4.790000000000000000e+02
-2.200642333120731564e+02,-1.851167338599907453e+02,1.213183735504117067e+00,-5.854379652147144952e+00,-1.192419059782732802e+02,-1.627124014429841736e+02,-4.902600321563386387e+01,-6.615893641603543074e+01,9.523238182067871094e+00,-6.501809358596801758e-01,4.207052886486053467e-01,4.800000000000000000e+02
-2.180399444170880088e+02,-1.841867856612866490e+02,3.502113476409249415e+00,-4.394567585625736683e+00,-1.171936561968277601e+02,-1.616558430755885638e+02,-4.922317402870976366e+01,-6.571960933497848600e+01,9.523238182067871094e+00,-6.501809358596801758e-01,4.207052886486053467e-01,4.810000000000000000e+02
-2.168752008829774240e+02,-1.826206206463180024e+02,5.813255505412598723e+00,-3.560886161710186570e+00,-1.135923637176570082e+02,-1.598192020729902652e+02,-4.893190876205244422e+01,-6.400743838773360039e+01,9.523238182067871094e+00,-6.501809358596801758e-01,4.207052886486053467e-01,4.820000000000000000e+02
-2.155080385521982862e+02,-1.799874008632650657e+02,7.577685651976935333e+00,-3.914173651843611879e+00,-1.090173937557433419e+02,-1.575816491917234998e+02,-4.816970761934408074e+01,-6.189962527964826222e+01,9.523238182067871094e+00,-6.501809358596801758e-01,4.207052886486053467e-01,4.830000000000000000e+02
-2.130583349184275903e+02,-1.765226299586734058e+02,8.530528004175266688e+00,-5.305224590677426022e+00,-1.044907927604881479e+02,-1.552746528016282355e+02,-4.715764156360182824e+01,-6.033838818490175981e+01,9.523238182067871094e+00,-6.501809358596801758e-01,4.207052886486053467e-01,4.840000000000000000e+02
-2.096268843292700694e+02,-1.729160408069215009e+02,8.735075952926763421e+00,-7.013346190487936838e+00,-1.011950366549149294e+02,-1.531059956429389786e+02,-4.629654774308437482e+01,-5.979744697001751774e+01,9.523238182067871094e+00,-6.501809358596801758e-01,4.207052886486053467e-01,4.850000000000000000e+02
-2.064319366963686662e+02,-1.698587146458521602e+02,8.297958944925539981e+00,-8.580213413000365108e+00,-1.000302435774933656e+02,-1.513399406516764429e+02,-4.607033981178619797e+01,-6.025884073426095711e+01,9.523238182067871094e+00,-6.501809358596801758e-01,4.207052886486053467e-01,4.860000000000000000e+02
-2.050633122762369567e+02,-1.676294150269168313e+02,7.169012195853611047e+00,-1.042640116270376893e+01,-1.011260214887033726e+02,-1.503886936985054490e+02,-4.675621317679178901e+01,-6.152241552302984928e+01,9.523238182067871094e+00,-6.501809358596801758e-01,4.207052886486053467e-01,4.870000000000000000e+02
-2.063268952724470182e+02,-1.659212447687718850e+02,5.279910909532190999e+00,-1.349270514360932793e+01,-1.036482425904164302e+02,-1.505592082976163510e+02,-4.811346549686595608e+01,-6.343004888519817541e+01,9.523238182067871094e+00,-6.501809358596801758e-01,4.207052886486053467e-01,4.880000000000000000e+02
-2.095373320552130281e+02,-1.639834792033366284e+02,2.818102250899300998e+00,-1.817093636724939643e+01,-1.062158862521546325e+02,-1.516381544330542965e+02,-4.943324170833602693e+01,-6.585197785888385624e+01,9.523238182067871094e+00,-6.501809358596801758e-01,4.207052886486053467e-01,4.890000000000000000e+02
-2.128071936801488846e+02,-1.610360334413812780e+02,2.345846912235174386e-01,-2.364285053634057476e+01,-1.077625516592429449e+02,-1.527784177517510216e+02,-5.004381688439116260e+01,-6.858672604743924239e+01,9.523238182067871094e+00,-6.501809358596801758e-01,4.207052886486053467e-01,4.900000000000000000e+02
-2.141188934645060726e+02,-1.567522398367973437e+02,-2.085175699125102255e+00,-2.846712034102756661e+01,-1.081758522707423253e+02,-1.529647500003293317e+02,-4.983305496680850410e+01,-7.133232452029506021e+01,9.523238182067871094e+00,-6.501809358596801758e-01,4.207052886486053467e-01,4.910000000000000000e+02
-2.124131308775386060e+02,-1.514958057507801641e+02,-4.121898607914317836e+00,-3.201990758482816091e+01,-1.081238575434149425e+02,-1.517749019664138359e+02,-4.922318541537197234e+01,-7.371101476552121312e+01,9.523238182067871094e+00,-6.501809358596801758e-01,4.207052886486053467e-01,4.920000000000000000e+02
-2.079724032249087031e+02,-1.460728707091388969e+02,-6.116306994575552380e+00,-3.540383205365333197e+01,-1.081642758646321454e+02,-1.497536735119206242e+02,-4.852558887670784316e+01,-7.523545083041744874e+01,9.523238182067871094e+00,-6.501809358596801758e-01,4.207052886486053467e-01,4.930000000000000000e+02
-2.019594101100119587e+02,-1.411128568398808056e+02,-8.128704612434376031e+00,-4.078262149802731074e+01,-1.079602968485833117e+02,-1.479704125568728159e+02,-4.732633336906110344e+01,-7.528115984459736865e+01,9.523238182067871094e+00,-6.501809358596801758e-01,4.207052886486053467e-01,4.940000000000000000e+02
-1.955729120410405812e+02,-1.365646397111518127e+02,-9.775075754781710202e+00,-4.957039717000816381e+01,-1.064527213760184168e+02,-1.470671952278189565e+02,-4.466891610370930721e+01,-7.330291948258218326e+01,9.523238182067871094e+00,-6.501809358596801758e-01,4.207052886486053467e-01,4.950000000000000000e+02
-1.894519364588286408e+02,-1.317915946540092591e+02,-1.051682047813892495e+01,-6.107235735855329040e+01,-1.029604312977580776e+02,-1.466511134608545035e+02,-4.003503019769004823e+01,-6.933990320737621005e+01,9.523238182067871094e+00,-6.501809358596801758e-01,4.207052886486053467e-01,4.960000000000000000e+02
-1.836603764054907515e+02,-1.262508125623849082e+02,-1.025725344283273444e+01,-7.285467834130304254e+01,-9.819894754382721658e+01,-1.456350200398164816e+02,-3.421143250852173878e+01,-6.443114567935390369e+01,9.523238182067871094e+00,-6.501809358596801758e-01,4.207052886486053467e-01,4.970000000000000000e+02
-1.780928494631716603e+02,-1.201811507460843131e+02,-9.589122257320013887e+00,-8.253648739096388454e+01,-9.413000558050862310e+01,-1.432528573412300830e+02,-2.905799225359578486e+01,-6.040049465523588879e+01,9.523238182067871094e+00,-6.501809358596801758e-01,4.207052886486053467e-01,4.980000000000000000e+02
-1.728709161030401447e+02,-1.146579400949585761e+02,-9.356436501221423896e+00,-8.940063209948039002e+01,-9.258881029995109202e+01,-1.398182206236078855e+02,-2.618735482990223318e+01,-5.889527895327455553e+01,9.523238182067871094e+00,-6.501809358596801758e-01,4.207052886486053467e-01,4.990000000000000000e+02
-1.683826606547786469e+02,-1.108994578932993136e+02,-9.945696353511721099e+00,-9.446468823436725870e+01,-9.384188122976411250e+01,-1.365145491287016739e+02,-2.569306989780352524e+01,-6.030189758543338030e+01,9.446745872497558594e+00,-7.266727685928344727e-01,4.589512646198272705e-01,5.000000000000000000e+02
-1.649231255107101788e+02,-1.093867660317635000e+02,-1.104822319129448260e+01,-9.916472956093684843e+01,-9.638250929208470552e+01,-1.344271408539784716e+02,-2.612649404069611592e+01,-6.343304463106551339e+01,9.446745872497558594e+00,-7.266727685928344727e-01,4.589512646198272705e-01,5.010000000000000000e+02
-1.622535226242280260e+02,-1.095296291276265492e+02,-1.212278845316495790e+01,-1.040291840925979159e+02,-9.814796560251625124e+01,-1.337123818272202698e+02,-2.577250185195748600e+01,-6.630814972840562405e+01,9.446745872497558594e+00,-7.266727685928344727e-01,4.589512646198272705e-01,5.020000000000000000e+02
-1.595391190642812944e+02,-1.101220628180028598e+02,-1.302069747907444253e+01,-1.085179031819820921e+02,-9.801932588588215367e+01,-1.335973221361414289e+02,-2.403523582547995829e+01,-6.743340859506952256e+01,9.446745872497558594e+00,-7.266727685928344727e-01,4.589512646198272705e-01,5.030000000000000000e+02
-1.559055062158349756e+02,-1.101534503202715314e+02,-1.407774318187239260e+01,-1.119201980028378784e+02,-9.629102195414543530e+01,-1.330794168184615955e+02,-2.167988758015962958e+01,-6.658351575586812032e+01,9.446745872497558594e+00,-7.266727685928344727e-01,4.589512646198272705e-01,5.040000000000000000e+02
-1.513211519736278206e+02,-1.093140853709564908e+02,-1.560271483475571586e+01,-1.142204185405516910e+02,-9.389969882131163104e+01,-1.316265617114972883e+02,-1.985235846680689065e+01,-6.458309735150123743e+01,9.446745872497558594e+00,-7.266727685928344727e-01,4.589512646198272705e-01,5.050000000000000000e+02
-1.470735594658724494e+02,-1.079165024431365509e+02,-1.742186510345482020e+01,-1.161055138469441772e+02,-9.142994418437001514e+01,-1.293654163621604312e+02,-1.898610047011948154e+01,-6.248676376600224103e+01,9.446745872497558594e+00,-7.266727685928344727e-01,4.589512646198272705e-01,5.060000000000000000e+02
-1.452059839381583970e+02,-1.064511959250990003e+02,-1.905883921831014050e+01,-1.182833758344897888e+02,-8.894966935528782415e+01,-1.268205157035167758e+02,-1.865277092322935459e+01,-6.094723244156057262e+01,9.446745872497558594e+00,-7.266727685928344727e-01,4.589512646198272705e-01,5.070000000000000000e+02
-1.470402457645473078e+02,-1.051812408783730461e+02,-2.034667699327155788e+01,-1.209156612033229976e+02,-8.662066382423404320e+01,-1.245892717201163578e+02,-1.829791690774641211e+01,-6.016184072100577396e+01,9.446745872497558594e+00,-7.266727685928344727e-01,4.589512646198272705e-01,5.080000000000000000e+02
-1.518202538848834138e+02,-1.039926549338842960e+02,-2.170509771046863534e+01,-1.236584483969686517e+02,-8.507378281795627117e+01,-1.231450848104836950e+02,-1.787329305887010378e+01,-6.010991382883389633e+01,9.446745872497558594e+00,-7.266727685928344727e-01,4.589512646198272705e-01,5.090000000000000000e+02
-1.566888581111677468e+02,-1.024790786778098663e+02,-2.367410544593167288e+01,-1.260749437815579768e+02,-8.487707632099659349e+01,-1.226715764138671148e+02,-1.763232075143923794e+01,-6.061845371817025807e+01,9.446745872497558594e+00,-7.266727685928344727e-01,4.589512646198272705e-01,5.100000000000000000e+02
-1.582984984970221376e+02,-1.001733441038802539e+02,-2.620300718516955385e+01,-1.279120601441004510e+02,-8.563077795939852876e+01,-1.228827501145447059e+02,-1.744771105293875735e+01,-6.120587252491782237e+01,9.446745872497558594e+00,-7.266727685928344727e-01,4.589512646198272705e-01,5.110000000000000000e+02
-1.550027472536366986e+02,-9.685390149232193835e+01,-2.856208223919679767e+01,-1.290755659251512952e+02,-8.587033962138434617e+01,-1.230244536155651076e+02,-1.661263406170746748e+01,-6.107660735487206694e+01,9.446745872497558594e+00,-7.266727685928344727e-01,4.589512646198272705e-01,5.120000000000000000e+02
-1.479501517990770481e+02,-9.280312212827402618e+01,-3.007462398555753680e+01,-1.295387189268108159e+02,-8.419977476002395633e+01,-1.222397558059565199e+02,-1.451914854805704636e+01,-5.954469398805485980e+01,9.446745872497558594e+00,-7.266727685928344727e-01,4.589512646198272705e-01,5.130000000000000000e+02
-1.401805931525923370e+02,-8.879151170930867920e+01,-3.090645170190396129e+01,-1.293893726665785380e+02,-8.065449304357048277e+01,-1.201201289960281429e+02,-1.151756468303528891e+01,-5.662126170562555671e+01,9.446745872497558594e+00,-7.266727685928344727e-01,4.589512646198272705e-01,5.140000000000000000e+02
-1.344592013338035486e+02,-8.566891736115326239e+01,-3.201617260366288065e+01,-1.289330031072111069e+02,-7.685898579012723530e+01,-1.169848086192432675e+02,-8.941941077714091080e+00,-5.320543107514868097e+01,9.446745872497558594e+00,-7.266727685928344727e-01,4.589512646198272705e-01,5.150000000000000000e+02
-1.316030797693642853e+02,-8.376785516371046469e+01,-3.425446665180334094e+01,-1.286253724172020156e+02,-7.466483032913674833e+01,-1.136144101294298707e+02,-8.125764695450243380e+00,-5.059500869736507411e+01,9.446745872497558594e+00,-7.266727685928344727e-01,4.589512646198272705e-01,5.160000000000000000e+02
-1.305129663237489694e+02,-8.257306748743326352e+01,-3.751656483511874285e+01,-1.288126127487325903e+02,-7.451461988234723322e+01,-1.106781819913514937e+02,-9.302668338274997950e+00,-4.964109214280279048e+01,9.446745872497558594e+00,-7.266727685928344727e-01,4.589512646198272705e-01,5.170000000000000000e+02
-1.295931795965725541e+02,-8.098364874439698724e+01,-4.082750370683015717e+01,-1.295071497680251014e+02,-7.512775177167463880e+01,-1.083710785282967208e+02,-1.143497605410220785e+01,-5.021597961461520754e+01,9.446745872497558594e+00,-7.266727685928344727e-01,4.589512646198272705e-01,5.180000000000000000e+02
-1.281147415911766529e+02,-7.801332726507507687e+01,-4.325021661771165782e+01,-1.304103145810770457e+02,-7.480108481090428540e+01,-1.065197609069232385e+02,-1.308100933046534919e+01,-5.137680449689651141e+01,9.446745872497558594e+00,-7.266727685928344727e-01,4.589512646198272705e-01,5.190000000000000000e+02
-1.263756724396803293e+02,-7.339015603845632540e+01,-4.464303214264032249e+01,-1.311296573059851198e+02,-7.301297231297689905e+01,-1.049179387685601341e+02,-1.341977914874496491e+01,-5.202652252925645371e+01,9.446745872497558594e+00,-7.266727685928344727e-01,4.589512646198272705e-01,5.200000000000000000e+02
-1.248275759463003851e+02,-6.759739353927989214e+01,-4.551469714674317402e+01,-1.313760565466673143e+02,-7.077201526357066541e+01,-1.034967613010167042e+02,-1.253363924580344246e+01,-5.155109436659449784e+01,9.408499717712402344e+00,-7.266727685928344727e-01,3.824593424797058105e-01,5.210000000000000000e+02
-1.232948711480187285e+02,-6.137007940776265968e+01,-4.622247157823130692e+01,-1.310101673060464691e+02,-6.944267201280536028e+01,-1.022082887355522871e+02,-1.088522958173166444e+01,-5.003052345329160744e+01,9.408499717712402344e+00,-7.266727685928344727e-01,3.824593424797058105e-01,5.220000000000000000e+02
-1.211315978936981992e+02,-5.510650250752178181e+01,-4.644639282360208199e+01,-1.299941939903906132e+02,-6.929007270697070453e+01,-1.008578998236205280e+02,-8.714054452012760521e+00,-4.801044974785781960e+01,9.408499717712402344e+00,-7.266727685928344727e-01,3.824593424797058105e-01,5.230000000000000000e+02
-1.180664765830094893e+02,-4.866984018965922587e+01,-4.555554194283104152e+01,-1.283733106738295646e+02,-6.921349618503427337e+01,-9.916139496665937259e+01,-6.015826588707454903e+00,-4.610931815706862835e+01,9.408499717712402344e+00,-7.266727685928344727e-01,3.824593424797058105e-01,5.240000000000000000e+02
-1.147273962786179027e+02,-4.169398027428815112e+01,-4.349367026760114641e+01,-1.263018726278058921e+02,-6.787273936069288993e+01,-9.698857855682945228e+01,-2.993400808491514908e+00,-4.471239660586684295e+01,9.408499717712402344e+00,-7.266727685928344727e-01,3.824593424797058105e-01,5.250000000000000000e+02
-1.122253706861347382e+02,-3.408608872172112569e+01,-4.124371759955681682e+01,-1.240596272767893424e+02,-6.506924815423258224e+01,-9.453455988600603632e+01,-3.412658511540485051e-01,-4.386161858993659735e+01,9.408499717712402344e+00,-7.266727685928344727e-01,3.824593424797058105e-01,5.260000000000000000e+02
-1.112042051243028027e+02,-2.629803383078433399e+01,-4.033556934577916309e+01,-1.220175504576352523e+02,-6.207400688510722375e+01,-9.224135426714042296e+01,1.047996588515047733e+00,-4.334088320342891620e+01,9.408499717712402344e+00,-7.266727685928344727e-01,3.824593424797058105e-01,5.270000000000000000e+02
-1.112990524447654934e+02,-1.915471606421419892e+01,-4.175931304899552288e+01,-1.205541667572248343e+02,-6.063019395613741835e+01,-9.053632114522383745e+01,7.298398631502323042e-01,-4.286550966216157121e+01,9.408499717712402344e+00,-7.266727685928344727e-01,3.824593424797058105e-01,5.280000000000000000e+02
-1.115121003976888687e+02,-1.335596346159320547e+01,-4.518567071285201564e+01,-1.199272863073402959e+02,-6.156003978757200912e+01,-8.960454426898093061e+01,-8.872093261426243771e-01,-4.223254368969423922e+01,9.408499717712402344e+00,-7.266727685928344727e-01,3.824593424797058105e-01,5.290000000000000000e+02
-1.110909189006794122e+02,-9.015794324089256406e+00,-4.912142121572139786e+01,-1.201122684021618170e+02,-6.415365841037396422e+01,-8.934169560236637153e+01,-2.739625062319532844e+00,-4.133838017927268993e+01,9.408499717712402344e+00,-7.266727685928344727e-01,3.824593424797058105e-01,5.300000000000000000e+02
-1.100601369434683079e+02,-5.582303371625926047e+00,-5.186464760823207598e+01,-1.206967629259588648e+02,-6.674518612086950498e+01,-8.947330568208735713e+01,-3.747522901080685642e+00,-4.008475981312756176e+01,9.408499717712402344e+00,-7.266727685928344727e-01,3.824593424797058105e-01,5.310000000000000000e+02
-1.089912948125547700e+02,-2.239722457516506893e+00,-5.253063696665924454e+01,-1.209796503070896847e+02,-6.790304086288188046e+01,-8.972256068710100863e+01,-3.424708970288122600e+00,-3.829846065703287650e+01,9.408499717712402344e+00,-7.266727685928344727e-01,3.824593424797058105e-01,5.320000000000000000e+02
-1.083524072160302012e+02,1.459320587617810361e+00,-5.143195046747302968e+01,-1.203133685257179764e+02,-6.728764861601632674e+01,-8.990808509862870324e+01,-2.087291916927370039e+00,-3.579968291359483601e+01,9.408499717712402344e+00,-7.266727685928344727e-01,3.824593424797058105e-01,5.330000000000000000e+02
-1.080776394053092417e+02,5.199613308779248655e+00,-4.960996848004313620e+01,-1.184873865498127543e+02,-6.561394426084376619e+01,-8.990547889975283624e+01,-5.896927267055787070e-01,-3.258282929829098862e+01,9.408499717712402344e+00,-7.266727685928344727e-01,3.824593424797058105e-01,5.340000000000000000e+02
-1.076924757802898398e+02,8.086794084502969326e+00,-4.794571588047898558e+01,-1.158516628447631120e+02,-6.391866399923318909e+01,-8.953654084985657846e+01,1.900474735049186847e-01,-2.893616225039599499e+01,9.408499717712402344e+00,-7.266727685928344727e-01,3.824593424797058105e-01,5.350000000000000000e+02
-1.067768489694969389e+02,9.308257194754276043e+00,-4.656684767243289969e+01,-1.130756379571427743e+02,-6.278433225142342167e+01,-8.854484316199130944e+01,-1.798642301760153828e-01,-2.534513851178226673e+01,9.408499717712402344e+00,-7.266727685928344727e-01,3.824593424797058105e-01,5.360000000000000000e+02
-1.053168645307084716e+02,8.782147413170946493e+00,-4.500397936347218319e+01,-1.107499381332533090e+02,-6.207907051458887793e+01,-8.676398357266569406e+01,-1.493971821525278187e+00,-2.222676058892076867e+01,9.408499717712402344e+00,-7.266727685928344727e-01,3.824593424797058105e-01,5.370000000000000000e+02
-1.037051031298744874e+02,7.293736202043135108e+00,-4.291869231464278300e+01,-1.091419133550838296e+02,-6.129264839644389440e+01,-8.437704574747920105e+01,-3.080495660035069250e+00,-1.970177069715242624e+01,9.408499717712402344e+00,-7.266727685928344727e-01,3.824593424797058105e-01,5.380000000000000000e+02
-1.024605359385049042e+02,6.012127989173393416e+00,-4.070620895516202609e+01,-1.082193145172409459e+02,-6.008985315420409279e+01,-8.199333652336576961e+01,-4.212619785705612685e+00,-1.757421690470994236e+01,9.408499717712402344e+00,-7.266727685928344727e-01,3.824593424797058105e-01,5.390000000000000000e+02
-1.018733310359887696e+02,5.758328722165060753e+00,-3.935721247472292816e+01,-1.077969077257256458e+02,-5.858873763645317467e+01,-8.036121594196583828e+01,-4.488074651791635006e+00,-1.551412346581923885e+01,9.408499717712402344e+00,-7.266727685928344727e-01,3.824593424797058105e-01,5.400000000000000000e+02
-1.017622142826370464e+02,6.571603598339265773e+00,-3.959710475109818617e+01,-1.076088819825189375e+02,-5.716894035014399833e+01,-7.987523230624958614e+01,-3.949023358450517662e+00,-1.329244402457845808e+01,9.408499717712402344e+00,-7.266727685928344727e-01,3.824593424797058105e-01,5.410000000000000000e+02
-1.014886954108185364e+02,7.860696496785976706e+00,-4.104718482045745986e+01,-1.072932779085311950e+02,-5.605718217140451998e+01,-8.028571336010122650e+01,-2.937356279431924122e+00,-1.093264969462336467e+01,9.408499717712402344e+00,-7.266727685928344727e-01,3.824593424797058105e-01,5.420000000000000000e+02
-1.002994565343303748e+02,8.966284887983874796e+00,-4.228146035153622506e+01,-1.064383253699618308e+02,-5.513838570239249748e+01,-8.088250792065696260e+01,-1.873036011393196532e+00,-8.741376758007504577e+00,9.408499717712402344e+00,-7.266727685928344727e-01,3.824593424797058105e-01,5.430000000000000000e+02
-9.785971610546766897e+01,9.661594583057421914e+00,-4.189258014794143037e+01,-1.047573771812753876e+02,-5.417162719496764112e+01,-8.099595757065981161e+01,-1.120217111197007398e+00,-7.197751153791841716e+00,9.408499717712402344e+00,-7.266727685928344727e-01,3.824593424797058105e-01,5.440000000000000000e+02
-9.459267278670540691e+01,1.021776054410429424e+01,-3.969622001058553451e+01,-1.022479644882974981e+02,-5.313272609543867020e+01,-8.035983216742988589e+01,-8.959983462136733579e-01,-6.664543137083455804e+00,9.408499717712402344e+00,-7.266727685928344727e-01,3.824593424797058105e-01,5.450000000000000000e+02
-9.147129725950867396e+01,1.103100463096780004e+01,-3.694167603713299286e+01,-9.915743702147119620e+01,-5.224582045080819626e+01,-7.906284652801218726e+01,-1.096372401721623646e+00,-6.993850176774230931e+00,9.446745872497558594e+00,-6.501809358596801758e-01,4.589512646198272705e-01,5.460000000000000000e+02
-8.930966991505124497e+01,1.215522646525596429e+01,-3.521702877460256786e+01,-9.577016256187198451e+01,-5.161545872875649366e+01,-7.724365433965294869e+01,-1.105470882019290002e+00,-7.307658235471990338e+00,9.446745872497558594e+00,-6.501809358596801758e-01,4.589512646198272705e-01,5.470000000000000000e+02
-8.809228218060798099e+01,1.313551845625192982e+01,-3.497249487429212422e+01,-9.222467404240524047e+01,-5.087236869963362551e+01,-7.491118512713887867e+01,1.009328680815997359e-01,-6.293608494390582564e+00,9.446745872497558594e+00,-6.501809358596801758e-01,4.589512646198272705e-01,5.480000000000000000e+02
-8.696265522307680840e+01,1.327973445591578638e+01,-3.505365210658192154e+01,-8.854252683100162358e+01,-4.933898694075901403e+01,-7.206588171148359834e+01,3.331648661637018449e+00,-3.043053596770732838e+00,9.446745872497558594e+00,-6.501809358596801758e-01,4.589512646198272705e-01,5.490000000000000000e+02
-8.494634084367953619e+01,1.214104321712443380e+01,-3.378191874434492092e+01,-8.482268870424877605e+01,-4.670809460403552293e+01,-6.892640097731555215e+01,8.322313461953399383e+00,2.082350182218988266e+00,9.446745872497558594e+00,-6.501809358596801758e-01,4.589512646198272705e-01,5.500000000000000000e+02
-8.180678941833980389e+01,9.808722498202314455e+00,-3.064744700014875889e+01,-8.138039973066679522e+01,-4.359533281591984633e+01,-6.595930831638634118e+01,1.340866747871541520e+01,7.334690826171481604e+00,9.446745872497558594e+00,-6.501809358596801758e-01,4.589512646198272705e-01,5.510000000000000000e+02
-7.827656800598128939e+01,6.774912111081448529e+00,-2.700217123745687786e+01,-7.865590243980955165e+01,-4.129228613311875051e+01,-6.364240913542289491e+01,1.630028405878533704e+01,1.055145818397431867e+01,9.446745872497558594e+00,-6.501809358596801758e-01,4.589512646198272705e-01,5.520000000000000000e+02
-7.547502531304962758e+01,3.503394805209836704e+00,-2.500668569895833571e+01,-7.695208100080935765e+01,-4.078475142632987627e+01,-6.218201318831279423e+01,1.562234249176844969e+01,1.062373416745504073e+01,9.446745872497558594e+00,-6.501809358596801758e-01,4.589512646198272705e-01,5.530000000000000000e+02
-7.405098701870974764e+01,9.668417277589469450e-02,-2.570850330460370969e+01,-7.622675208427972393e+01,-4.187930948402163267e+01,-6.143187576505624747e+01,1.205974762814457790e+01,8.301690034491457482e+00,9.446745872497558594e+00,-6.501809358596801758e-01,4.589512646198272705e-01,5.540000000000000000e+02
-7.379901423987485032e+01,-3.624468469090061262e+00,-2.801567538585618422e+01,-7.610939696337754867e+01,-4.328046348658654097e+01,-6.104134866258073089e+01,8.044517759341943020e+00,5.615928617869030859e+00,9.446745872497558594e+00,-6.501809358596801758e-01,4.589512646198272705e-01,5.550000000000000000e+02
-7.399968430328817703e+01,-7.718060554311705346e+00,-2.955822804263380021e+01,-7.611717929463929977e+01,-4.360378275604170994e+01,-6.067077027315099258e+01,6.091866462951657013e+00,4.345828423395687423e+00,9.446745872497558594e+00,-6.501809358596801758e-01,4.589512646198272705e-01,5.560000000000000000e+02
-7.405376925050268255e+01,-1.182648991497171664e+01,-2.867085108858145759e+01,-7.590256244992542634e+01,-4.241819929871462591e+01,-6.012283347802622302e+01,7.074557678893597767e+00,4.798822115413258871e+00,9.446745872497558594e+00,-6.501809358596801758e-01,4.589512646198272705e-01,5.570000000000000000e+02
-7.380189181206515059e+01,-1.537212276535092315e+01,-2.568794227747457626e+01,-7.536481382811598451e+01,-4.040816030394762493e+01,-5.937196377694135663e+01,9.817497509740860551e+00,5.873627799594032695e+00,9.446745872497558594e+00,-6.501809358596801758e-01,4.589512646198272705e-01,5.580000000000000000e+02
-7.334524938745425970e+01,-1.816762338685748546e+01,-2.243953589681950689e+01,-7.460094779062592352e+01,-3.863198869759344234e+01,-5.855398784448334482e+01,1.224237801199524256e+01,6.205262046574262058e+00,9.446745872497558594e+00,-6.501809358596801758e-01,4.589512646198272705e-01,5.590000000000000000e+02
-7.269579028444786672e+01,-2.088664797966657716e+01,-2.056059903264485911e+01,-7.380717527680553758e+01,-3.769647469751316748e+01,-5.794252043282449449e+01,1.295086365971110354e+01,5.262429093215359899e+00,9.446745872497558594e+00,-6.501809358596801758e-01,4.589512646198272705e-01,5.600000000000000000e+02
-7.166929306752172124e+01,-2.483727285579334421e+01,-2.025653659006502494e+01,-7.323455504889398071e+01,-3.759682203340344131e+01,-5.787572493860534451e+01,1.190924011000333849e+01,3.482556770746668917e+00,9.446745872497558594e+00,-6.501809358596801758e-01,4.589512646198272705e-01,5.610000000000000000e+02
-7.010352599031330101e+01,-3.102665558526905443e+01,-2.056633648445222207e+01,-7.317648984270590518e+01,-3.813239889359419976e+01,-5.859966447840179171e+01,9.902445576996797172e+00,1.583176134374298272e+00,9.446745872497558594e+00,-6.501809358596801758e-01,4.589512646198272705e-01,5.620000000000000000e+02
-6.813331264198359349e+01,-3.917191955615498955e+01,-2.061812680549701327e+01,-7.386573587401471741e+01,-3.919973826951309093e+01,-6.006941565679335326e+01,7.605353136490521138e+00,-3.956758350705058547e-02,9.446745872497558594e+00,-6.501809358596801758e-01,4.589512646198272705e-01,5.630000000000000000e+02
-6.624424802241765065e+01,-4.751540047489015706e+01,-2.047641265132369881e+01,-7.525393628465280926e+01,-4.058576492795828017e+01,-6.185630511700401257e+01,5.267600738100554736e+00,-1.224646644785025273e+00,9.446745872497558594e+00,-6.501809358596801758e-01,4.589512646198272705e-01,5.640000000000000000e+02
-6.505129339342920503e+01,-5.376047575645588950e+01,-2.077896017677176133e+01,-7.683442674018579055e+01,-4.164251913856060128e+01,-6.327565296993998345e+01,3.140498837854465819e+00,-1.598009818317223107e+00,9.446745872497558594e+00,-6.501809358596801758e-01,4.589512646198272705e-01,5.650000000000000000e+02
-6.498098420134920161e+01,-5.654574658242700025e+01,-2.171647301663460894e+01,-7.776436626811209862e+01,-4.150562609430653538e+01,-6.372676428664999548e+01,1.891957686092155200e+00,-5.667293156520827324e-01,9.446745872497558594e+00,-6.501809358596801758e-01,4.589512646198272705e-01,5.660000000000000000e+02
-6.604553579184994305e+01,-5.635846409200894414e+01,-2.255767441231000703e+01,-7.732517810344506870e+01,-3.988434853718717932e+01,-6.304363072649357491e+01,2.339241692187897570e+00,2.017716175338136964e+00,9.446745872497558594e+00,-6.501809358596801758e-01,4.589512646198272705e-01,5.670000000000000000e+02
-6.777817392856377410e+01,-5.514052884625198203e+01,-2.223526928871115160e+01,-7.538902227525068156e+01,-3.760236957058350526e+01,-6.155962053151324653e+01,4.731744479723602126e+00,5.266607840055257839e+00,9.446745872497558594e+00,-6.501809358596801758e-01,4.589512646198272705e-01,5.680000000000000000e+02
-6.934966087840803084e+01,-5.486315241570991930e+01,-2.034712811654253528e+01,-7.247182470574807667e+01,-3.612895113112972467e+01,-5.978616888939905039e+01,8.407235189376478957e+00,7.602074523865667288e+00,9.446745872497558594e+00,-6.501809358596801758e-01,4.589512646198272705e-01,5.690000000000000000e+02
-6.989368782982455741e+01,-5.618267405248570867e+01,-1.752921649034215079e+01,-6.929883376292855246e+01,-3.636867348028317792e+01,-5.797319783583770914e+01,1.225125025970828574e+01,7.966938463823680650e+00,9.446745872497558594e+00,-6.501809358596801758e-01,4.589512646198272705e-01,5.700000000000000000e+02
-6.898180240163947019e+01,-5.820705111770075746e+01,-1.487130297043859173e+01,-6.629244730835216615e+01,-3.783872991177486256e+01,-5.598983602296084428e+01,1.551126735627622111e+01,6.805671014260951779e+00,9.446745872497558594e+00,-6.501809358596801758e-01,4.589512646198272705e-01,5.710000000000000000e+02
-6.700312770832988463e+01,-5.944158301230709185e+01,-1.302078765098849544e+01,-6.345869484646209457e+01,-3.907547474839520874e+01,-5.367162172810367338e+01,1.815576613028042630e+01,5.795683605983867892e+00,9.446745872497558594e+00,-6.501809358596801758e-01,4.589512646198272705e-01,5.720000000000000000e+02
-6.512322602703898156e+01,-5.905948134990467224e+01,-1.184801321608210856e+01,-6.072200456432074134e+01,-3.892016180607151909e+01,-5.126375845148231747e+01,2.048229833969071478e+01,6.483296409889589995e+00,9.484992027282714844e+00,-7.266727685928344727e-01,4.589512646198272705e-01,5.730000000000000000e+02
-6.468223993492301815e+01,-5.750062846235232428e+01,-1.085653093434029870e+01,-5.827356421314289037e+01,-3.741607308021775680e+01,-4.940293902429129957e+01,2.251549244451507548e+01,9.089266488395878696e+00,9.484992027282714844e+00,-7.266727685928344727e-01,4.589512646198272705e-01,5.740000000000000000e+02
-6.632987105530173721e+01,-5.608470350745028554e+01,-9.785642918720441230e+00,-5.651006452474121033e+01,-3.549547039813023730e+01,-4.854519853292185871e+01,2.387583018915665889e+01,1.253891643174756609e+01,9.484992027282714844e+00,-7.266727685928344727e-01,4.589512646198272705e-01,5.750000000000000000e+02
-6.950459823669552861e+01,-5.615027309504421282e+01,-8.808483932598392130e+00,-5.565019697805564647e+01,-3.392363626202313753e+01,-4.841994255344980047e+01,2.417694861496784142e+01,1.549979432955933589e+01,9.484992027282714844e+00,-7.266727685928344727e-01,4.589512646198272705e-01,5.760000000000000000e+02
-7.269286868681319902e+01,-5.841801162164574635e+01,-8.239370501144549053e+00,-5.548334044797957176e+01,-3.265925169979800557e+01,-4.817641007423117117e+01,2.342995671557400783e+01,1.729469341735057242e+01,9.484992027282714844e+00,-7.266727685928344727e-01,4.589512646198272705e-01,5.770000000000000000e+02
-7.435105970941549458e+01,-6.285043716762083932e+01,-8.148689254690907546e+00,-5.553937668466733157e+01,-3.124617609044344135e+01,-4.719875799087640189e+01,2.200236365094588109e+01,1.788323827092608553e+01,9.484992027282714844e+00,-7.266727685928344727e-01,4.589512646198272705e-01,5.780000000000000000e+02
-7.385547081738150155e+01,-6.879480276898357261e+01,-8.262709609055491455e+00,-5.546254754546043841e+01,-2.966700266037878464e+01,-4.577237157645140542e+01,2.028296458267959679e+01,1.726790376669032412e+01,9.484992027282714844e+00,-7.266727685928344727e-01,4.589512646198272705e-01,5.790000000000000000e+02
-7.180344707375752478e+01,-7.517385422155348351e+01,-8.167355215196948848e+00,-5.514730644583596586e+01,-2.861065086768667243e+01,-4.482812608825952339e+01,1.853081180031767872e+01,1.529407028982132033e+01,9.484992027282714844e+00,-7.266727685928344727e-01,4.589512646198272705e-01,5.800000000000000000e+02
-6.948814527426202403e+01,-8.077186192565295642e+01,-7.583667083310501766e+00,-5.453781895656811685e+01,-2.881452142558373453e+01,-4.493845687015345902e+01,1.706063175422968925e+01,1.218806893303190009e+01,9.484992027282714844e+00,-7.266727685928344727e-01,4.589512646198272705e-01,5.810000000000000000e+02
-6.797988666763831134e+01,-8.472867414116262808e+01,-6.506869553398246353e+00,-5.344043644140219840e+01,-3.019119950129606877e+01,-4.559619161108093977e+01,1.640403581122973264e+01,9.103099586962343892e+00,9.484992027282714844e+00,-7.266727685928344727e-01,4.589512646198272705e-01,5.820000000000000000e+02
-6.749612166898350551e+01,-8.706330887808235275e+01,-5.167370482091428130e+00,-5.168337528184474650e+01,-3.169852475296283956e+01,-4.559326087421868579e+01,1.705016193139363168e+01,7.731997189361209166e+00,9.484992027282714844e+00,-7.266727685928344727e-01,4.589512646198272705e-01,5.830000000000000000e+02
-6.745111625524987176e+01,-8.875742252133204602e+01,-3.890640035874639580e+00,-4.947779589857054816e+01,-3.213260573770276096e+01,-4.418112694717819977e+01,1.891059701406356908e+01,9.042634641962649766e+00,9.484992027282714844e+00,-7.266727685928344727e-01,4.589512646198272705e-01,5.840000000000000000e+02
-6.704271680505280528e+01,-9.116269344953161635e+01,-2.941866503710116376e+00,-4.749216203975447570e+01,-3.110198507950190105e+01,-4.185216887643764494e+01,2.109705723011029477e+01,1.230107362882699817e+01,9.484992027282714844e+00,-7.266727685928344727e-01,4.589512646198272705e-01,5.850000000000000000e+02
-6.587390691590371716e+01,-9.511106224438026402e+01,-2.432405012576964509e+00,-4.641988541619321040e+01,-2.931474808968596335e+01,-3.994832410429444280e+01,2.238031182643771899e+01,1.546068147727419273e+01,9.484992027282714844e+00,-7.266727685928344727e-01,4.589512646198272705e-01,5.860000000000000000e+02
-6.417482626630589948e+01,-1.004572594377696078e+02,-2.356700309820553230e+00,-4.641723515133526234e+01,-2.801088243854974280e+01,-3.949706734824394516e+01,2.201054812037273223e+01,1.671375812697988295e+01,9.484992027282714844e+00,-7.266727685928344727e-01,4.589512646198272705e-01,5.870000000000000000e+02
-6.255215049287471629e+01,-1.064136842450097902e+02,-2.708438956946338294e+00,-4.699039267296575417e+01,-2.808563703636536957e+01,-4.041337438633127022e+01,2.018661525286188407e+01,1.585260715302320023e+01,9.484992027282714844e+00,-7.266727685928344727e-01,4.589512646198272705e-01,5.880000000000000000e+02
-6.153155086304468568e+01,-1.122918911624747125e+02,-3.497045513801822381e+00,-4.745643235552233818e+01,-2.954854433094078558e+01,-4.175709302853283589e+01,1.780598977560657659e+01,1.425831444206778542e+01,9.484992027282714844e+00,-7.266727685928344727e-01,4.589512646198272705e-01,5.890000000000000000e+02
-6.125111363009818888e+01,-1.179194306577228417e+02,-4.571851109229100985e+00,-4.749513839599967469e+01,-3.155960277093072364e+01,-4.264440025955991587e+01,1.582109240441968723e+01,1.362851224090809410e+01,9.484992027282714844e+00,-7.266727685928344727e-01,4.589512646198272705e-01,5.900000000000000000e+02
-6.149724140595935751e+01,-1.234018768926798657e+02,-5.403652154487645021e+00,-4.723407195397157921e+01,-3.288510719035730290e+01,-4.286524357073903957e+01,1.481403064338701370e+01,1.466009105922785238e+01,9.484992027282714844e+00,-7.266727685928344727e-01,4.589512646198272705e-01,5.910000000000000000e+02
-6.200012062055611750e+01,-1.286214536089482863e+02,-5.173774136126667145e+00,-4.684895284464982979e+01,-3.251531267187601770e+01,-4.273100969980441732e+01,1.501997293898966745e+01,1.677217558893426030e+01,9.484992027282714844e+00,-7.266727685928344727e-01,4.589512646198272705e-01,5.920000000000000000e+02
-6.272577488834940596e+01,-1.330889460824855632e+02,-3.309674998066839180e+00,-4.618168406701443018e+01,-3.022668812943447847e+01,-4.252486191012940253e+01,1.648564776175044244e+01,1.885107657677144744e+01,9.484992027282714844e+00,-7.266727685928344727e-01,4.589512646198272705e-01,5.930000000000000000e+02
-6.392590826017112704e+01,-1.363081193142570555e+02,-1.127708548265218269e-01,-4.482860536449152278e+01,-2.683208934516551381e+01,-4.223671881760128599e+01,1.897086068007774884e+01,2.012803680423712649e+01,9.484992027282714844e+00,-7.266727685928344727e-01,4.589512646198272705e-01,5.940000000000000000e+02
-6.590128530575202603e+01,-1.382098440290701546e+02,3.151183929183389409e+00,-4.259334411157396971e+01,-2.386434079501123051e+01,-4.178718496723195130e+01,2.168478801120545540e+01,2.045844356172347034e+01,9.484992027282714844e+00,-7.266727685928344727e-01,4.589512646198272705e-01,5.950000000000000000e+02
-6.867693513526501192e+01,-1.391744072783949377e+02,4.986531844480850850e+00,-3.979630709968660085e+01,-2.271127448888910294e+01,-4.134918164775262994e+01,2.337045853213930968e+01,2.005767974051013880e+01,9.484992027282714844e+00,-7.266727685928344727e-01,4.589512646198272705e-01,5.960000000000000000e+02
-7.187757325769052841e+01,-1.396551159276896215e+02,4.754075964205185301e+00,-3.708638624239029014e+01,-2.369861334863162483e+01,-4.130546086485992419e+01,2.301810726363146387e+01,1.924087699925803463e+01,9.484992027282714844e+00,-7.266727685928344727e-01,4.589512646198272705e-01,5.970000000000000000e+02
-7.493005510148759640e+01,-1.398444097679312108e+02,3.191560186292917933e+00,-3.492078656036574102e+01,-2.583303031030482089e+01,-4.184886603640734393e+01,2.077257141645532101e+01,1.845062030727422098e+01,9.484992027282714844e+00,-7.266727685928344727e-01,4.589512646198272705e-01,5.980000000000000000e+02
-7.742440577040906646e+01,-1.397340826491490589e+02,1.840045170192752266e+00,-3.321043356648260669e+01,-2.748760592135840852e+01,-4.266696566178143257e+01,1.816635542980111495e+01,1.832357294045687013e+01,9.484992027282714844e+00,-7.266727685928344727e-01,4.589512646198272705e-01,5.990000000000000000e+02
-7.930677001932053827e+01,-1.394206758951186202e+02,1.801255156522529433e+00,-3.144491522485986934e+01,-2.756131266131706070e+01,-4.307553083849052200e+01,1.722379788127545908e+01,1.945743409430178872e+01,9.484992027282714844e+00,-7.266727685928344727e-01,4.589512646198272705e-01,6.000000000000000000e+02
-8.072003736958322406e+01,-1.392236410316818365e+02,2.902607564143181662e+00,-2.914978163489467988e+01,-2.619677894463166012e+01,-4.251028818144550314e+01,1.898740396327593771e+01,2.196589880179453758e+01,9.484992027282714844e+00,-7.266727685928344727e-01,4.589512646198272705e-01,6.010000000000000000e+02
-8.165619367535691708e+01,-1.394359683649745421e+02,4.006596405068194144e+00,-2.626199060518410988e+01,-2.449343121256060840e+01,-4.094793843879961059e+01,2.265014993709701230e+01,2.526748443394535570e+01,9.484992027282714844e+00,-7.266727685928344727e-01,4.589512646198272705e-01,6.020000000000000000e+02
-8.180750733737841074e+01,-1.400009043729987752e+02,4.173991387271598796e+00,-2.314444285622448660e+01,-2.350959755027361098e+01,-3.890073817093070829e+01,2.607704117376852082e+01,2.839210469622776145e+01,9.484992027282714844e+00,-7.266727685928344727e-01,4.589512646198272705e-01,6.030000000000000000e+02
-8.083937998727742524e+01,-1.405326372463478037e+02,3.599274448153664707e+00,-2.029735401279685902e+01,-2.343628259059369157e+01,-3.701426389542757533e+01,2.734452969694575586e+01,3.055768059030560835e+01,9.446745872497558594e+00,-7.266727685928344727e-01,3.824593424797058105e-01,6.040000000000000000e+02
-7.887456324653066986e+01,-1.407184968033980113e+02,3.422920348813931923e+00,-1.805349672666307015e+01,-2.362395137061321293e+01,-3.563005506548506673e+01,2.603297673382257926e+01,3.148050601104478119e+01,9.446745872497558594e+00,-7.266727685928344727e-01,3.824593424797058105e-01,6.050000000000000000e+02
-7.669963667854972300e+01,-1.407065444990621472e+02,4.585534505060422816e+00,-1.648855162569452659e+01,-2.333951063998938480e+01,-3.465973520003899466e+01,2.325481753731583012e+01,3.121059007474650571e+01,9.446745872497558594e+00,-7.266727685928344727e-01,3.824593424797058105e-01,6.060000000000000000e+02
-7.540918722082642489e+01,-1.410721584720813553e+02,6.813620203913160367e+00,-1.554897472298762295e+01,-2.250833399803377688e+01,-3.382564988276499207e+01,2.053225048873719061e+01,2.980823638917900098e+01,9.446745872497558594e+00,-7.266727685928344727e-01,3.824593424797058105e-01,6.070000000000000000e+02
-7.570134568146750098e+01,-1.423581754736169387e+02,8.744323842864105245e+00,-1.520198748076836637e+01,-2.176780722664625500e+01,-3.300746234858161188e+01,1.862259670813728007e+01,2.730768589920444356e+01,9.446745872497558594e+00,-7.266727685928344727e-01,3.824593424797058105e-01,6.080000000000000000e+02
-7.738497859505150700e+01,-1.446142495897620392e+02,9.136461294845503289e+00,-1.543172890240930428e+01,-2.182806877802795498e+01,-3.236518820477067493e+01,1.730671676045312779e+01,2.402270652073093515e+01,9.446745872497558594e+00,-7.266727685928344727e-01,3.824593424797058105e-01,6.090000000000000000e+02
-7.952371911752197775e+01,-1.473317515359831305e+02,8.050309214211665676e+00,-1.609927490081827273e+01,-2.278775172515634040e+01,-3.215744584262210992e+01,1.611623067215441552e+01,2.074710201587004121e+01,9.446745872497558594e+00,-7.266727685928344727e-01,3.824593424797058105e-01,6.100000000000000000e+02
-8.110463971433819097e+01,-1.497830343841815193e+02,6.849164684579591267e+00,-1.684348413390580390e+01,-2.404869300631071383e+01,-3.246254065054381499e+01,1.507890938052878482e+01,1.844012628018390387e+01,9.446745872497558594e+00,-7.266727685928344727e-01,3.824593424797058105e-01,6.110000000000000000e+02
-8.167986117129839840e+01,-1.514376787375167623e+02,6.965858837560517713e+00,-1.718107551627690555e+01,-2.487356105522121652e+01,-3.307930894465971505e+01,1.467747995256286231e+01,1.756754733642446809e+01,9.446745872497558594e+00,-7.266727685928344727e-01,3.824593424797058105e-01,6.120000000000000000e+02
-8.149087077909643995e+01,-1.521224950545565662e+02,8.569346652444437495e+00,-1.676149525568325771e+01,-2.502321520935583976e+01,-3.367366956501427921e+01,1.515893499281446566e+01,1.773526140666581341e+01,9.446745872497558594e+00,-7.266727685928344727e-01,3.824593424797058105e-01,6.130000000000000000e+02
-8.106276480624001124e+01,-1.518850189231598051e+02,1.041730578086026071e+01,-1.555183095381653402e+01,-2.484088042893563397e+01,-3.397608447644233820e+01,1.607434255321095407e+01,1.808038795367610874e+01,9.446745872497558594e+00,-7.266727685928344727e-01,3.824593424797058105e-01,6.140000000000000000e+02
-8.069411363067774801e+01,-1.507985327802289248e+02,1.107057162791170413e+01,-1.378578893978192355e+01,-2.472366536000845372e+01,-3.382820217003973085e+01,1.665973966207093326e+01,1.815612290640638093e+01,9.446745872497558594e+00,-7.266727685928344727e-01,3.824593424797058105e-01,6.150000000000000000e+02
-8.029258986316563096e+01,-1.489360364872372884e+02,1.032565894880644919e+01,-1.173687745524875936e+01,-2.456333143184383516e+01,-3.310754962335704477e+01,1.669702304856764385e+01,1.846984983826041571e+01,9.446745872497558594e+00,-7.266727685928344727e-01,3.824593424797058105e-01,6.160000000000000000e+02
-7.962213771824826836e+01,-1.464990513961420220e+02,9.465316542517030030e+00,-9.526820535797014600e+00,-2.379645420810629730e+01,-3.171775821904520853e+01,1.690479145904828329e+01,2.006101081823726417e+01,9.446745872497558594e+00,-7.266727685928344727e-01,3.824593424797058105e-01,6.170000000000000000e+02
-7.862689305024468922e+01,-1.438872175967626390e+02,1.004347730600784416e+01,-7.118278429828933440e+00,-2.208102598932237015e+01,-2.971778649949919782e+01,1.834154079497966450e+01,2.339603281256859191e+01,9.446745872497558594e+00,-7.266727685928344727e-01,3.824593424797058105e-01,6.180000000000000000e+02
-7.748851694621043862e+01,-1.415623349890302052e+02,1.233688288043595094e+01,-4.465684318791318219e+00,-1.993196432374679716e+01,-2.743892594717908651e+01,2.132439146580509259e+01,2.757620774559109122e+01,9.446745872497558594e+00,-7.266727685928344727e-01,3.824593424797058105e-01,6.190000000000000000e+02
-7.640073522605962353e+01,-1.398033759176578315e+02,1.494886656377639156e+01,-1.666859094002575148e+00,-1.857419543439027620e+01,-2.536655360504664714e+01,2.492202757071572705e+01,3.067780441492868704e+01,9.446745872497558594e+00,-7.266727685928344727e-01,3.824593424797058105e-01,6.200000000000000000e+02
-7.536251200936021633e+01,-1.385918960252565739e+02,1.598224808117811335e+01,9.925637431551876944e-01,-1.898176295517259859e+01,-2.381931766749039525e+01,2.755638375454873312e+01,3.107121551630189060e+01,9.446745872497558594e+00,-7.266727685928344727e-01,3.824593424797058105e-01,6.210000000000000000e+02
-7.424016036274770158e+01,-1.377430829594595707e+02,1.474390236820545397e+01,3.113863505066547077e+00,-2.089526250417475239e+01,-2.271807909758354072e+01,2.819847351794669521e+01,2.867867629842658062e+01,9.446745872497558594e+00,-7.266727685928344727e-01,3.824593424797058105e-01,6.220000000000000000e+02
-7.302048050079611130e+01,-1.371425961047207238e+02,1.245081767612282420e+01,4.348880097400979139e+00,-2.276067550572770415e+01,-2.169256015746213961e+01,2.711009322095196694e+01,2.512318026724824449e+01,9.446745872497558594e+00,-7.266727685928344727e-01,3.824593424797058105e-01,6.230000000000000000e+02
-7.192796645079579321e+01,-1.368321472220741271e+02,1.132154007895587711e+01,4.613056307112856302e+00,-2.277965827733351034e+01,-2.043376991241893847e+01,2.555634108882077271e+01,2.264185468801224488e+01,9.446745872497558594e+00,-7.266727685928344727e-01,3.824593424797058105e-01,6.240000000000000000e+02
-7.122681390172874671e+01,-1.368184229944417893e+02,1.287659852429351304e+01,4.259412857169081690e+00,-2.026275795907713473e+01,-1.892902420602331404e+01,2.485275288886987255e+01,2.266454876961142872e+01,9.446745872497558594e+00,-6.884268522262573242e-01,3.824593424797058105e-01,6.250000000000000000e+02
-7.090871738644636935e+01,-1.367755956081018667e+02,1.688741914069760242e+01,4.051067335898551391e+00,-1.616182242435024818e+01,-1.735345766291720793e+01,2.559834226820021286e+01,2.516691216458639246e+01,9.446745872497558594e+00,-6.884268522262573242e-01,3.824593424797058105e-01,6.260000000000000000e+02
-7.067063669868730358e+01,-1.359862138741445960e+02,2.174553904342610622e+01,4.838841429558669915e+00,-1.233114789073806605e+01,-1.576294778239389416e+01,2.761160820695295115e+01,2.915685126075550215e+01,9.446745872497558594e+00,-6.884268522262573242e-01,3.824593424797058105e-01,6.270000000000000000e+02
-7.029781908610311802e+01,-1.337192234329486382e+02,2.578423935248065391e+01,7.086438037680636626e+00,-1.013501934489977430e+01,-1.394252960751691717e+01,3.037495855148881674e+01,3.366949986559848185e+01,9.446745872497558594e+00,-6.884268522262573242e-01,3.824593424797058105e-01,6.280000000000000000e+02
-7.006375241689966060e+01,-1.298515265606220055e+02,2.839469841171012376e+01,1.058226617674881709e+01,-9.542447989013453480e+00,-1.159689477982465178e+01,3.343844400772286463e+01,3.831608833669451997e+01,9.446745872497558594e+00,-6.884268522262573242e-01,3.824593424797058105e-01,6.290000000000000000e+02
-7.063224481308134273e+01,-1.252518983447698702e+02,3.012541850324123516e+01,1.457884500567888608e+01,-9.378881807955622207e+00,-8.704615389782702550e+00,3.647257373582397122e+01,4.301680975819544983e+01,9.446745872497558594e+00,-6.884268522262573242e-01,3.824593424797058105e-01,6.300000000000000000e+02
-7.241808969103658455e+01,-1.215198131576944434e+02,3.189652895724066184e+01,1.824885999814068782e+01,-8.416688165136292810e+00,-5.689718453602836234e+00,3.911789974758357857e+01,4.739427423063534661e+01,9.446745872497558594e+00,-6.884268522262573242e-01,3.824593424797058105e-01,6.310000000000000000e+02
-7.499161309471310233e+01,-1.201322258067848452e+02,3.411471075075314729e+01,2.108015438195070601e+01,-6.341391472782561323e+00,-3.231654064413305605e+00,4.094902534148786799e+01,5.059338122225744883e+01,9.446745872497558594e+00,-6.884268522262573242e-01,3.824593424797058105e-01,6.320000000000000000e+02
-7.719503958553468692e+01,-1.215354088590756874e+02,3.638231140979041811e+01,2.293715170214272803e+01,-3.864221058989642188e+00,-1.847229779203189537e+00,4.164678433087465237e+01,5.177607516657371889e+01,9.446745872497558594e+00,-6.884268522262573242e-01,3.824593424797058105e-01,6.330000000000000000e+02
-7.799305134386304417e+01,-1.248284624514199095e+02,3.789567486666783225e+01,2.386545421568007441e+01,-2.043920180065470049e+00,-1.568130787200061604e+00,4.117658762208520784e+01,5.079457995266420767e+01,9.446745872497558594e+00,-6.884268522262573242e-01,3.824593424797058105e-01,6.340000000000000000e+02
-7.730094069408733048e+01,-1.282793425800264231e+02,3.811928497257031268e+01,2.393099074936253601e+01,-1.498054456191312056e+00,-1.960506992123555392e+00,3.976183126591058681e+01,4.834969952384562930e+01,9.446745872497558594e+00,-6.884268522262573242e-01,3.824593424797058105e-01,6.350000000000000000e+02
-7.598469818551529897e+01,-1.303196215206990018e+02,3.721445783460148959e+01,2.325160071452773991e+01,-2.130595560509391362e+00,-2.472884920025535394e+00,3.768175762045575539e+01,4.545395068529251148e+01,9.446745872497558594e+00,-6.884268522262573242e-01,3.824593424797058105e-01,6.360000000000000000e+02
-7.502498000252671773e+01,-1.303318379980373720e+02,3.595664862286866992e+01,2.209059576732761343e+01,-3.443441039056779118e+00,-2.852913651237031445e+00,3.511979210162098752e+01,4.270423478733209777e+01,9.446745872497558594e+00,-6.884268522262573242e-01,3.824593424797058105e-01,6.370000000000000000e+02
-7.467949274199418142e+01,-1.287518295065783605e+02,3.524137744152540108e+01,2.080939332521302276e+01,-5.024148408683686284e+00,-3.293691747792763636e+00,3.221629654405478504e+01,4.002620338525593979e+01,9.446745872497558594e+00,-6.884268522262573242e-01,3.824593424797058105e-01,6.380000000000000000e+02
-7.447782135673696757e+01,-1.265806153110279411e+02,3.547871636369018233e+01,1.967058995545085054e+01,-6.792324937658122508e+00,-4.179893849475774914e+00,2.922004572521109367e+01,3.704816056138952263e+01,9.446745872497558594e+00,-6.884268522262573242e-01,3.824593424797058105e-01,6.390000000000000000e+02
-7.400490507017457276e+01,-1.248013257980419439e+02,3.622637964166642632e+01,1.869252906751353294e+01,-8.913859812011651229e+00,-5.647887510822329205e+00,2.650719604895493831e+01,3.365165317006176338e+01,9.446745872497558594e+00,-6.884268522262573242e-01,3.824593424797058105e-01,6.400000000000000000e+02
