F3,F4,C3,C4,P3,P4,Cz,Pz,Accel_x,Accel_y,Accel_z,Sample
-5.093170329928398132e-11,-9.094947017729282379e-11,-8.003553375601768494e-11,-5.275069270282983780e-11,-6.912159733474254608e-11,-9.458744898438453674e-11,-5.820766091346740723e-11,-8.367351256310939789e-11,9.446745872497558594e+00,-3.824593871831893921e-02,7.266727685928344727e-01,2.260000000000000000e+02
-3.801578155563220207e+01,-5.028312883670878364e+01,-1.979962543810324860e+01,-1.956686406412700308e+01,-1.371641348748926248e+01,-3.203509905622559018e+01,-8.521821558590090717e+00,-2.265538694763199601e+01,9.446745872497558594e+00,-3.824593871831893921e-02,7.266727685928344727e-01,2.270000000000000000e+02
-7.871413825725630886e+01,-9.701564685158518841e+01,-4.587822282454362721e+01,-4.296942992347612744e+01,-4.756454523716456606e+01,-7.346474940126790898e+01,-2.869540867562864150e+01,-4.836458171303820563e+01,9.446745872497558594e+00,-3.824593871831893921e-02,7.266727685928344727e-01,2.280000000000000000e+02
-1.218384373676299219e+02,-1.390416616859056376e+02,-7.866843044255438144e+01,-7.052664875803202449e+01,-1.039911887849266350e+02,-1.255243223884608597e+02,-6.141520991616198444e+01,-7.769414716263963783e+01,9.446745872497558594e+00,-3.824593871831893921e-02,7.266727685928344727e-01,2.290000000000000000e+02
-1.644424704062648743e+02,-1.779232018857201183e+02,-1.126015448051766725e+02,-9.893147659050009679e+01,-1.671988921537267743e+02,-1.809406341770209110e+02,-9.671470878336731403e+01,-1.085158567174439668e+02,9.446745872497558594e+00,-3.824593871831893921e-02,7.266727685928344727e-01,2.300000000000000000e+02
-2.039832575875961993e+02,-2.161142254844689887e+02,-1.415079363768272742e+02,-1.244845693428123923e+02,-2.192164170123342046e+02,-2.312166797131194471e+02,-1.239136558833251911e+02,-1.380730045490217890e+02,9.446745872497558594e+00,-3.824593871831893921e-02,7.266727685928344727e-01,2.310000000000000000e+02
-2.407779835533447113e+02,-2.548667235084103595e+02,-1.639789558847878652e+02,-1.463273143026744947e+02,-2.557307180139232514e+02,-2.739264444417149207e+02,-1.413507164079619542e+02,-1.651755737697967561e+02,9.446745872497558594e+00,-3.824593871831893921e-02,7.266727685928344727e-01,2.320000000000000000e+02
-2.771715713605481142e+02,-2.937347097568035679e+02,-1.836519586855702073e+02,-1.666470059753755777e+02,-2.867133232404703449e+02,-3.131894161776963301e+02,-1.563213154584100266e+02,-1.905489150611319928e+02,9.332008361816406250e+00,-1.147378161549568176e-01,6.884268522262573242e-01,2.330000000000000000e+02
-3.144992481712915833e+02,-3.317369378174171288e+02,-2.049215356067288667e+02,-1.880680367492532241e+02,-3.236500166626028658e+02,-3.540255672311104718e+02,-1.765159475423206459e+02,-2.154317840997500753e+02,9.332008361816406250e+00,-1.147378161549568176e-01,6.884268522262573242e-01,2.340000000000000000e+02
-3.513710354230051962e+02,-3.686546258956623205e+02,-2.289563086047201068e+02,-2.110933005608394524e+02,-3.681588690838780167e+02,-3.971884673323766037e+02,-2.025526619329830282e+02,-2.401745329756431602e+02,9.332008361816406250e+00,-1.147378161549568176e-01,6.884268522262573242e-01,2.350000000000000000e+02
-3.852406802409586817e+02,-4.051114723453201805e+02,-2.537533217975760635e+02,-2.339612098049665292e+02,-4.129856491279424517e+02,-4.394798495037557586e+02,-2.287992558760124666e+02,-2.642088290909596253e+02,9.332008361816406250e+00,-1.147378161549568176e-01,6.884268522262573242e-01,2.360000000000000000e+02
-4.154759906119543302e+02,-4.416047894995435854e+02,-2.772192581257422717e+02,-2.545813489769197986e+02,-4.518284419300780428e+02,-4.780866566588138085e+02,-2.502482207066550473e+02,-2.870662902928415861e+02,9.332008361816406250e+00,-1.147378161549568176e-01,6.884268522262573242e-01,2.370000000000000000e+02
-4.444910346701217350e+02,-4.777466798487239430e+02,-2.994265923338098219e+02,-2.723993918793212288e+02,-4.859886692540185322e+02,-5.136499745077817352e+02,-2.674783275914251135e+02,-3.091180014825604303e+02,9.332008361816406250e+00,-1.147378161549568176e-01,6.884268522262573242e-01,2.380000000000000000e+02
-4.756121435919994838e+02,-5.125629145960601818e+02,-3.218810027802865079e+02,-2.886294470977600213e+02,-5.214042151678077062e+02,-5.491000656528231048e+02,-2.850346956556095392e+02,-3.312944379985456180e+02,9.332008361816406250e+00,-1.147378161549568176e-01,6.884268522262573242e-01,2.390000000000000000e+02
-5.098564777238134411e+02,-5.454657036882790635e+02,-3.453027533073163795e+02,-3.051287091251415404e+02,-5.610766958397671260e+02,-5.863019233002651163e+02,-3.060916172609740897e+02,-3.542597696039265429e+02,9.332008361816406250e+00,-1.147378161549568176e-01,6.884268522262573242e-01,2.400000000000000000e+02
-5.449171959338373199e+02,-5.768525022840285601e+02,-3.687592875388309039e+02,-3.231912387407255665e+02,-6.020216568148935039e+02,-6.244714185693064792e+02,-3.295377425524766295e+02,-3.779660036103778111e+02,9.332008361816406250e+00,-1.147378161549568176e-01,6.884268522262573242e-01,2.410000000000000000e+02
-5.772990663703321843e+02,-6.077636202985386262e+02,-3.909161705864662508e+02,-3.430342427673413113e+02,-6.393245057337935577e+02,-6.616243937674680637e+02,-3.519253596565304179e+02,-4.018850358192139538e+02,9.332008361816406250e+00,-1.147378161549568176e-01,6.884268522262573242e-01,2.420000000000000000e+02
-6.053983877595464946e+02,-6.390211884757691223e+02,-4.116049243308953010e+02,-3.638957033940969268e+02,-6.716827524974596599e+02,-6.968601622178775870e+02,-3.712767219690140337e+02,-4.254756961783687075e+02,9.332008361816406250e+00,-1.147378161549568176e-01,6.884268522262573242e-01,2.430000000000000000e+02
-6.306183319882456999e+02,-6.706807559892613426e+02,-4.318082662949163932e+02,-3.844278241162783161e+02,-7.021509871905436739e+02,-7.308814292702445528e+02,-3.884959311762231664e+02,-4.483793944534245384e+02,9.332008361816406250e+00,-1.147378161549568176e-01,6.884268522262573242e-01,2.440000000000000000e+02
-6.557909564198807857e+02,-7.021769010983562112e+02,-4.523071479966656625e+02,-4.033134001612343127e+02,-7.341726605607109377e+02,-7.646820934779680101e+02,-4.055703587274056190e+02,-4.703530534856799932e+02,9.332008361816406250e+00,-1.147378161549568176e-01,6.884268522262573242e-01,2.450000000000000000e+02
-6.827143334663542191e+02,-7.328665157244049624e+02,-4.727924474091396405e+02,-4.199910690273554792e+02,-7.681056066679357173e+02,-7.983503528450819431e+02,-4.232301677633122381e+02,-4.912466292775980037e+02,9.332008361816406250e+00,-1.147378161549568176e-01,6.884268522262573242e-01,2.460000000000000000e+02
-7.110682315977983308e+02,-7.624166734708323929e+02,-4.924432169412684743e+02,-4.350058547631024339e+02,-8.018206576861584836e+02,-8.312642651532696618e+02,-4.405518609961873153e+02,-5.110861894719546399e+02,9.332008361816406250e+00,-1.147378161549568176e-01,6.884268522262573242e-01,2.470000000000000000e+02
-7.392794572877064638e+02,-7.907987226531777196e+02,-5.111060080203678808e+02,-4.495596532015624689e+02,-8.337563768575255381e+02,-8.630469569856250018e+02,-4.563575149214566409e+02,-5.300721279355911975e+02,9.332008361816406250e+00,-1.147378161549568176e-01,6.884268522262573242e-01,2.480000000000000000e+02
-7.660897469855599411e+02,-8.180882205761836303e+02,-5.295553356989994427e+02,-4.645302542410781825e+02,-8.644527882556785698e+02,-8.939164118774606322e+02,-4.705066548093736856e+02,-5.483970908525925552e+02,9.332008361816406250e+00,-1.147378161549568176e-01,6.884268522262573242e-01,2.490000000000000000e+02
-7.913424294733958959e+02,-8.443905103293209322e+02,-5.485588170801183878e+02,-4.798777058429905082e+02,-8.952055593307231902e+02,-9.241539953583678653e+02,-4.839052091493158514e+02,-5.660939163054190431e+02,9.332008361816406250e+00,-1.147378161549568176e-01,6.884268522262573242e-01,2.500000000000000000e+02
-8.156521908063359660e+02,-8.699889114367970251e+02,-5.679421401529143623e+02,-4.950477281793682778e+02,-9.261163941724425968e+02,-9.536288298654599203e+02,-4.977320863823051695e+02,-5.831627299152887645e+02,9.332008361816406250e+00,-1.147378161549568176e-01,6.884268522262573242e-01,2.510000000000000000e+02
-8.396770355268135972e+02,-8.954851634204433140e+02,-5.867586784339828228e+02,-5.098714795103469442e+02,-9.560197377855720333e+02,-9.820501819764522224e+02,-5.128264937517060389e+02,-5.998461039303338111e+02,9.332008361816406250e+00,-1.147378161549568176e-01,6.884268522262573242e-01,2.520000000000000000e+02
-8.637379120071100260e+02,-9.216215494005782602e+02,-6.043274286902242238e+02,-5.249019665777532282e+02,-9.840707004044334099e+02,-1.009533741062748959e+03,-5.294755720303710405e+02,-6.166897038491051717e+02,9.332008361816406250e+00,-1.147378161549568176e-01,6.884268522262573242e-01,2.530000000000000000e+02
-8.878329956538282204e+02,-9.487532712495067244e+02,-6.209127878174977013e+02,-5.407557792999941739e+02,-1.010794403426834833e+03,-1.036629465201604944e+03,-5.472827196548141728e+02,-6.342239434641960543e+02,9.332008361816406250e+00,-1.147378161549568176e-01,6.884268522262573242e-01,2.540000000000000000e+02
-9.117030069651882513e+02,-9.763410531427598471e+02,-6.373140228653801387e+02,-5.572062384485207076e+02,-1.037382014541965873e+03,-1.063718390118024217e+03,-5.651035883854192434e+02,-6.525424609956080531e+02,9.332008361816406250e+00,-1.147378161549568176e-01,6.884268522262573242e-01,2.550000000000000000e+02
-9.348259342843521154e+02,-1.002999088967827447e+03,-6.539100096113324980e+02,-5.731208214834277896e+02,-1.064291573965330826e+03,-1.090540963509206449e+03,-5.814602476651316465e+02,-6.711870704194834616e+02,9.332008361816406250e+00,-1.147378161549568176e-01,6.884268522262573242e-01,2.560000000000000000e+02
-9.565523292949783354e+02,-1.027276193343544946e+03,-6.702370551252033692e+02,-5.873926579918797870e+02,-1.090822599854047439e+03,-1.116440616723313724e+03,-5.954392175293342007e+02,-6.893992165748577463e+02,9.332008361816406250e+00,-1.147378161549568176e-01,6.884268522262573242e-01,2.570000000000000000e+02
-9.765245625322650085e+02,-1.048689521988742854e+03,-6.855009978652042264e+02,-5.999096023857564433e+02,-1.115955660005121899e+03,-1.141030788197846050e+03,-6.073710105252885114e+02,-7.064622946866020357e+02,9.332008361816406250e+00,-1.147378161549568176e-01,6.884268522262573242e-01,2.580000000000000000e+02
-9.950611780016242847e+02,-1.068147533581061907e+03,-6.993772451500517491e+02,-6.115356942549233281e+02,-1.139285807362269225e+03,-1.164493512846687736e+03,-6.185272584321846807e+02,-7.218767952465832423e+02,9.332008361816406250e+00,-1.147378161549568176e-01,6.884268522262573242e-01,2.590000000000000000e+02
-1.013027271402581391e+03,-1.087267660812442045e+03,-7.122396837311025592e+02,-6.231500009934597983e+02,-1.161077055471281710e+03,-1.187211172829089264e+03,-6.300138769154018519e+02,-7.354119700380224458e+02,9.370253562927246094e+00,-7.649187743663787842e-02,8.031646609306335449e-01,2.600000000000000000e+02
-1.031161119838808190e+03,-1.107063805671266891e+03,-7.246926438046912153e+02,-6.348113544144089246e+02,-1.181731964913984484e+03,-1.209249899781547356e+03,-6.419304221873717324e+02,-7.472336503333017390e+02,9.370253562927246094e+00,-7.649187743663787842e-02,8.031646609306335449e-01,2.610000000000000000e+02
-1.049442234490172268e+03,-1.127130478495430907e+03,-7.370252184566325013e+02,-6.459222488401828741e+02,-1.201524103620357891e+03,-1.230320600828874376e+03,-6.535791172804811140e+02,-7.580652232058664595e+02,9.370253562927246094e+00,-7.649187743663787842e-02,8.031646609306335449e-01,2.620000000000000000e+02
-1.067172429930421913e+03,-1.146083263322182574e+03,-7.491993220186186591e+02,-6.561549424188215198e+02,-1.220840404125870919e+03,-1.250242392704629310e+03,-6.644418000375981137e+02,-7.690844055757634123e+02,9.370253562927246094e+00,-7.649187743663787842e-02,8.031646609306335449e-01,2.630000000000000000e+02
-1.083777233273197908e+03,-1.162889470271255959e+03,-7.613001806388901969e+02,-6.660858251259742246e+02,-1.240332301792364888e+03,-1.269330572521091199e+03,-6.748548767675965792e+02,-7.813846074660077647e+02,9.370253562927246094e+00,-7.649187743663787842e-02,8.031646609306335449e-01,2.640000000000000000e+02
-1.099553931644061777e+03,-1.177882900753854301e+03,-7.738372716485037017e+02,-6.768444093383723157e+02,-1.260504442869289960e+03,-1.288263118580894115e+03,-6.857159568106653751e+02,-7.953185976780623605e+02,9.370253562927246094e+00,-7.649187743663787842e-02,8.031646609306335449e-01,2.650000000000000000e+02
-1.115538223629690037e+03,-1.192533969329521824e+03,-7.874494677042857802e+02,-6.891569057229498867e+02,-1.281125219765646762e+03,-1.307593533275106893e+03,-6.976193629420331490e+02,-8.102883055996626354e+02,9.370253562927246094e+00,-7.649187743663787842e-02,8.031646609306335449e-01,2.660000000000000000e+02
-1.132512383398948714e+03,-1.208225281692008139e+03,-8.022288704516586222e+02,-7.027575640448512786e+02,-1.301203684403307307e+03,-1.327399062920138022e+03,-7.103293131548171004e+02,-8.252154558404645286e+02,9.370253562927246094e+00,-7.649187743663787842e-02,8.031646609306335449e-01,2.670000000000000000e+02
-1.150095210913779738e+03,-1.225186316895115397e+03,-8.173342275210970911e+02,-7.167132925996274935e+02,-1.319740836627472163e+03,-1.347351005075100147e+03,-7.230545040408187560e+02,-8.393257538310081145e+02,9.370253562927246094e+00,-7.649187743663787842e-02,8.031646609306335449e-01,2.680000000000000000e+02
-1.166847752297285751e+03,-1.242509435189820124e+03,-8.313316660679420238e+02,-7.302274425364039416e+02,-1.336553415122745719e+03,-1.367006452738075495e+03,-7.351011114346256363e+02,-8.525952289723163631e+02,9.370253562927246094e+00,-7.649187743663787842e-02,8.031646609306335449e-01,2.690000000000000000e+02
-1.181392980537498715e+03,-1.259077220959453371e+03,-8.430706805959907797e+02,-7.430725177363428884e+02,-1.352351066392736357e+03,-1.385982091318291168e+03,-7.461851492141631752e+02,-8.655405393878563700e+02,9.370253562927246094e+00,-7.649187743663787842e-02,8.031646609306335449e-01,2.700000000000000000e+02
-1.193546563638799398e+03,-1.274392524069740830e+03,-8.524221355614909044e+02,-7.553009169653578283e+02,-1.368040667116624718e+03,-1.403944277523279197e+03,-7.562101121347659500e+02,-8.786055437042004996e+02,9.370253562927246094e+00,-7.649187743663787842e-02,8.031646609306335449e-01,2.710000000000000000e+02
-1.204420323380310947e+03,-1.288576148874568844e+03,-8.602845281153922770e+02,-7.666645725128282720e+02,-1.383881843377724181e+03,-1.420535120950366036e+03,-7.648913554716273211e+02,-8.916729032405273756e+02,9.370253562927246094e+00,-7.649187743663787842e-02,8.031646609306335449e-01,2.720000000000000000e+02
-1.215441035615162946e+03,-1.301766747377111642e+03,-8.678686255430438905e+02,-7.764518259012143062e+02,-1.399175991523124139e+03,-1.435359546545032572e+03,-7.717362150188691885e+02,-9.040445910500557147e+02,9.370253562927246094e+00,-7.649187743663787842e-02,8.031646609306335449e-01,2.730000000000000000e+02
-1.227245621492439568e+03,-1.313726796598755300e+03,-8.758700781063471368e+02,-7.839932002738901247e+02,-1.412761549405434380e+03,-1.448097168387240345e+03,-7.765208016929500445e+02,-9.148531114430343223e+02,9.370253562927246094e+00,-7.649187743663787842e-02,8.031646609306335449e-01,2.740000000000000000e+02
-1.239444154296660599e+03,-1.324104691154027023e+03,-8.842063485074268101e+02,-7.893838945338316080e+02,-1.423973346457240950e+03,-1.458695193606895373e+03,-7.798471956534294804e+02,-9.236171304296722155e+02,9.370253562927246094e+00,-7.649187743663787842e-02,8.031646609306335449e-01,2.750000000000000000e+02
-1.251282060389553408e+03,-1.333011455475497769e+03,-8.924406445168397113e+02,-7.937329015660970981e+02,-1.433351473587978944e+03,-1.467536082016489672e+03,-7.831826145463601279e+02,-9.306467261677735223e+02,9.370253562927246094e+00,-7.649187743663787842e-02,8.031646609306335449e-01,2.760000000000000000e+02
-1.262370293384460183e+03,-1.341219719391875969e+03,-9.003957094637444243e+02,-7.986728047980477641e+02,-1.442515082661027009e+03,-1.475469711621854913e+03,-7.881676634918130731e+02,-9.370840922034221876e+02,9.370253562927246094e+00,-7.649187743663787842e-02,8.031646609306335449e-01,2.770000000000000000e+02
-1.272762152113669799e+03,-1.349727549738150174e+03,-9.083515738382548079e+02,-8.055005326682558007e+02,-1.453203661707670108e+03,-1.483612633444133280e+03,-7.956315504917392900e+02,-9.444731325520015162e+02,9.370253562927246094e+00,-7.649187743663787842e-02,8.031646609306335449e-01,2.780000000000000000e+02
-1.282513732272263042e+03,-1.359113482089918307e+03,-9.166998746485878655e+02,-8.145876849168616900e+02,-1.466169853034781227e+03,-1.492960972174599192e+03,-8.051048591638509606e+02,-9.539789244080297976e+02,9.370253562927246094e+00,-7.649187743663787842e-02,8.031646609306335449e-01,2.790000000000000000e+02
-1.291428447006726856e+03,-1.369283207867611964e+03,-9.254670250845674673e+02,-8.253880326042367415e+02,-1.480762829115040859e+03,-1.504003826890682831e+03,-8.152450901053553025e+02,-9.656585751596289811e+02,9.370253562927246094e+00,-7.649187743663787842e-02,8.031646609306335449e-01,2.800000000000000000e+02
-1.299371319790720463e+03,-1.379758342549204372e+03,-9.342078899191456003e+02,-8.368759995350942518e+02,-1.495487946925094548e+03,-1.516532470794676556e+03,-8.248042512223482845e+02,-9.782787867273636948e+02,9.370253562927246094e+00,-7.649187743663787842e-02,8.031646609306335449e-01,2.810000000000000000e+02
-1.306750006460530585e+03,-1.390126905224235998e+03,-9.423461387113566161e+02,-8.480194270468400646e+02,-1.509040603750507671e+03,-1.529724284124767109e+03,-8.332981747403764530e+02,-9.898883668860312355e+02,9.370253562927246094e+00,-7.649187743663787842e-02,8.031646609306335449e-01,2.820000000000000000e+02
-1.314448424438471648e+03,-1.400200560998245237e+03,-9.495549177963912371e+02,-8.580394886422795935e+02,-1.520943837283256016e+03,-1.542438145593588615e+03,-8.408495700861381010e+02,-9.988202687913176305e+02,9.370253562927246094e+00,-7.649187743663787842e-02,8.031646609306335449e-01,2.830000000000000000e+02
-1.323104559890010933e+03,-1.409851611448592394e+03,-9.557949184177355164e+02,-8.665077954508028597e+02,-1.531387481216635933e+03,-1.553624870468474910e+03,-8.475385583259703708e+02,-1.004483894094251355e+03,9.370253562927246094e+00,-7.649187743663787842e-02,8.031646609306335449e-01,2.840000000000000000e+02
-1.332423245299778500e+03,-1.418849163160455191e+03,-9.610476721364761943e+02,-8.734021381873399150e+02,-1.540642946744544588e+03,-1.562742087764952885e+03,-8.530700452264518390e+02,-1.007479197393520280e+03,9.370253562927246094e+00,-7.649187743663787842e-02,8.031646609306335449e-01,2.850000000000000000e+02
-1.341268209050836504e+03,-1.426924498928854518e+03,-9.651297159225177893e+02,-8.791004701778729213e+02,-1.548730270720458066e+03,-1.570013533027168251e+03,-8.571615764447215042e+02,-1.009094374805110419e+03,9.370253562927246094e+00,-7.649187743663787842e-02,8.031646609306335449e-01,2.860000000000000000e+02
-1.348534072255504270e+03,-1.433957893713185058e+03,-9.678697885086107817e+02,-8.842082927006317732e+02,-1.555609533043702413e+03,-1.576345886769335266e+03,-8.601997917819253416e+02,-1.010652274503161152e+03,9.370253562927246094e+00,-7.649187743663787842e-02,8.031646609306335449e-01,2.870000000000000000e+02
-1.354016120978983963e+03,-1.440044561380123469e+03,-9.695026029635937448e+02,-8.892427583323742510e+02,-1.561552456443344454e+03,-1.582848410904337015e+03,-8.633358744174265667e+02,-1.013105142753395285e+03,9.370253562927246094e+00,-7.649187743663787842e-02,8.031646609306335449e-01,2.880000000000000000e+02
-1.358518047380519874e+03,-1.445389549837537515e+03,-9.708547876838089223e+02,-8.943975483162952287e+02,-1.567214551119604266e+03,-1.590203508521622553e+03,-8.677456911838334008e+02,-1.016923299094146842e+03,9.370253562927246094e+00,-7.649187743663787842e-02,8.031646609306335449e-01,2.890000000000000000e+02
-1.363166016812580438e+03,-1.450209663693866560e+03,-9.730306315529521726e+02,-8.995773171536046675e+02,-1.573297939557045311e+03,-1.598318348968690998e+03,-8.736645619883255449e+02,-1.022065191629444143e+03,9.370253562927246094e+00,-7.649187743663787842e-02,8.031646609306335449e-01,2.900000000000000000e+02
-1.368577490456240639e+03,-1.454785898427942129e+03,-9.767547079081803076e+02,-9.046431263980243784e+02,-1.580119486510189290e+03,-1.606528210502451657e+03,-8.801157453004751687e+02,-1.027951508634278980e+03,9.408499717712402344e+00,-7.649187743663787842e-02,8.031646609306335449e-01,2.910000000000000000e+02
-1.374532406400643595e+03,-1.459502332099653813e+03,-9.818633259733921932e+02,-9.095851771819967553e+02,-1.587454732791552260e+03,-1.614162801393200880e+03,-8.856153211071708711e+02,-1.033602154305265231e+03,9.408499717712402344e+00,-7.649187743663787842e-02,8.031646609306335449e-01,2.920000000000000000e+02
-1.380248386250666044e+03,-1.464599398481904245e+03,-9.873395107457780568e+02,-9.143969556969831274e+02,-1.594717416011490286e+03,-1.620951732532894539e+03,-8.891999625332346113e+02,-1.038037326316932422e+03,9.408499717712402344e+00,-7.649187743663787842e-02,8.031646609306335449e-01,2.930000000000000000e+02
-1.384911444010417881e+03,-1.469735992950715172e+03,-9.919142375658703941e+02,-9.188077547187812115e+02,-1.601315989010798148e+03,-1.626960246085160861e+03,-8.909005651707982452e+02,-1.040778237732326716e+03,9.408499717712402344e+00,-7.649187743663787842e-02,8.031646609306335449e-01,2.940000000000000000e+02
-1.388098615424728450e+03,-1.473878438386250082e+03,-9.948651714804174162e+02,-9.222521905886957256e+02,-1.606982054761302606e+03,-1.632234045908823191e+03,-8.913833333982242948e+02,-1.042074780834354442e+03,9.408499717712402344e+00,-7.649187743663787842e-02,8.031646609306335449e-01,2.950000000000000000e+02
-1.389962054725241615e+03,-1.475936134946896345e+03,-9.964848428902598698e+02,-9.242418462597886446e+02,-1.611915445713235613e+03,-1.636605118425846285e+03,-8.912713514187501005e+02,-1.042635393550856861e+03,9.408499717712402344e+00,-7.649187743663787842e-02,8.031646609306335449e-01,2.960000000000000000e+02
-1.391188962609578766e+03,-1.475830222045129403e+03,-9.978923107468483522e+02,-9.248567013922948945e+02,-1.616657080645242104e+03,-1.639887497669506729e+03,-8.908486263001478846e+02,-1.043070982934118092e+03,9.408499717712402344e+00,-7.649187743663787842e-02,8.031646609306335449e-01,2.970000000000000000e+02
-1.392727118967040951e+03,-1.475014452706208431e+03,-1.000285600356069608e+03,-9.248774116090602320e+02,-1.621724244104587797e+03,-1.642220742239353740e+03,-8.903113490131794379e+02,-1.043546402871804730e+03,9.408499717712402344e+00,-7.649187743663787842e-02,8.031646609306335449e-01,2.980000000000000000e+02
-1.395278105725144997e+03,-1.475702406196966194e+03,-1.004128870792659200e+03,-9.253565266059246142e+02,-1.627233503335983642e+03,-1.644154751122602192e+03,-8.901276940259454022e+02,-1.043940300567824352e+03,9.408499717712402344e+00,-7.649187743663787842e-02,8.031646609306335449e-01,2.990000000000000000e+02
-1.398800535794320240e+03,-1.479203884350969020e+03,-1.008849380769373624e+03,-9.269487125008267867e+02,-1.632818586637023827e+03,-1.646369347660529229e+03,-8.909919272830081809e+02,-1.044324497392604826e+03,9.408499717712402344e+00,-7.649187743663787842e-02,8.031646609306335449e-01,3.000000000000000000e+02
-1.402442691545076059e+03,-1.484761466401160533e+03,-1.013252687726778504e+03,-9.295674232299003279e+02,-1.637925976064332190e+03,-1.649303167267157050e+03,-8.933319726933389120e+02,-1.045241299031234121e+03,9.408499717712402344e+00,-7.649187743663787842e-02,8.031646609306335449e-01,3.010000000000000000e+02
-1.405096098494433136e+03,-1.490031344940887266e+03,-1.016326236990627535e+03,-9.326447170682137084e+02,-1.642218586808472992e+03,-1.653019526232968701e+03,-8.968351844575911400e+02,-1.047428737438811368e+03,9.408499717712402344e+00,-7.649187743663787842e-02,8.031646609306335449e-01,3.020000000000000000e+02
-1.406233959112774983e+03,-1.492921434376338311e+03,-1.017823988000789655e+03,-9.357047459661363291e+02,-1.645711283014931269e+03,-1.657336057727051411e+03,-9.005070146312485804e+02,-1.051171318125327616e+03,9.408499717712402344e+00,-7.649187743663787842e-02,8.031646609306335449e-01,3.030000000000000000e+02
-1.406365584180330416e+03,-1.493218728817570536e+03,-1.018236450303042943e+03,-9.387118738954734454e+02,-1.648576104397234076e+03,-1.661984068129007483e+03,-9.033172721025812280e+02,-1.055841829155294135e+03,9.408499717712402344e+00,-7.649187743663787842e-02,8.031646609306335449e-01,3.040000000000000000e+02
-1.406682739910833561e+03,-1.492585881795379009e+03,-1.018267950119664192e+03,-9.418996241322187188e+02,-1.650888678295301361e+03,-1.666594689047463589e+03,-9.049094318052865447e+02,-1.060063406237863774e+03,9.408499717712402344e+00,-7.649187743663787842e-02,8.031646609306335449e-01,3.050000000000000000e+02
-1.408154866671203536e+03,-1.492991348273365247e+03,-1.018318680841950027e+03,-9.453020472092748605e+02,-1.652609146056876398e+03,-1.670596508084057177e+03,-9.057568822686203021e+02,-1.062436251765823727e+03,9.408499717712402344e+00,-7.649187743663787842e-02,8.031646609306335449e-01,3.060000000000000000e+02
-1.410819742899097946e+03,-1.495051581357245823e+03,-1.018383208147684172e+03,-9.484899889862176678e+02,-1.653759914637119664e+03,-1.673295965488918227e+03,-9.066298140005158075e+02,-1.062339445614229135e+03,9.408499717712402344e+00,-7.649187743663787842e-02,8.031646609306335449e-01,3.070000000000000000e+02
-1.413829276851936356e+03,-1.497733656156445704e+03,-1.018343914752112596e+03,-9.507855153039090510e+02,-1.654521894024415360e+03,-1.674234678562918589e+03,-9.078566797438368212e+02,-1.060272303981021423e+03,9.408499717712402344e+00,-7.649187743663787842e-02,8.031646609306335449e-01,3.080000000000000000e+02
-1.416143304086408079e+03,-1.499474742429389380e+03,-1.018283032042104196e+03,-9.517637337168968088e+02,-1.655118828887965719e+03,-1.673583032272276341e+03,-9.090728096746511255e+02,-1.057536884979614115e+03,9.408499717712402344e+00,-7.649187743663787842e-02,8.031646609306335449e-01,3.090000000000000000e+02
-1.417222349870989319e+03,-1.499456086409209775e+03,-1.018466100747550513e+03,-9.515482672254522640e+02,-1.655643179090662670e+03,-1.672171595801018157e+03,-9.096556282026011786e+02,-1.055484901418610207e+03,9.408499717712402344e+00,-7.649187743663787842e-02,8.031646609306335449e-01,3.100000000000000000e+02
-1.417172831735473665e+03,-1.497857472062351007e+03,-1.019012976786685840e+03,-9.506113003423183727e+02,-1.656020191701953081e+03,-1.671021030266022080e+03,-9.093600742559071932e+02,-1.054802461392166833e+03,9.408499717712402344e+00,-7.649187743663787842e-02,8.031646609306335449e-01,3.110000000000000000e+02
-1.416374091386002874e+03,-1.495170169936631737e+03,-1.019600438683057178e+03,-9.492883377214218399e+02,-1.656086310288345430e+03,-1.670680588815896044e+03,-9.084877088364407882e+02,-1.055255820604737664e+03,9.370253562927246094e+00,-3.824593871831893921e-02,7.649186849594116211e-01,3.120000000000000000e+02
-1.415064555679474324e+03,-1.491603846804920749e+03,-1.019528794277292718e+03,-9.474989831498672856e+02,-1.655619585931270194e+03,-1.670891211832827594e+03,-9.074498217557703583e+02,-1.056014424893199703e+03,9.370253562927246094e+00,-3.824593871831893921e-02,7.649186849594116211e-01,3.130000000000000000e+02
-1.413291775183943628e+03,-1.487285008842330626e+03,-1.018163604249698892e+03,-9.449533526066096556e+02,-1.654319894250777907e+03,-1.670853125366539643e+03,-9.062709075825837317e+02,-1.056262392033895139e+03,9.370253562927246094e+00,-3.824593871831893921e-02,7.649186849594116211e-01,3.140000000000000000e+02
-1.411163818472484763e+03,-1.482817803762490030e+03,-1.015432430740296468e+03,-9.416166307939329272e+02,-1.651913820465040544e+03,-1.669872159321947038e+03,-9.046319452741064424e+02,-1.055633320353727413e+03,9.370253562927246094e+00,-3.824593871831893921e-02,7.649186849594116211e-01,3.150000000000000000e+02
-1.409003456314816276e+03,-1.479265264123965608e+03,-1.011979310396155597e+03,-9.379319626842525395e+02,-1.648446247502745337e+03,-1.667841270402767350e+03,-9.024218315751967339e+02,-1.054192883777027646e+03,9.370253562927246094e+00,-3.824593871831893921e-02,7.649186849594116211e-01,3.160000000000000000e+02
-1.407149547588752966e+03,-1.477303449734751439e+03,-1.008824784240417785e+03,-9.345476245989847257e+02,-1.644477070959965204e+03,-1.665172919858991236e+03,-9.001199079078129444e+02,-1.052099204422335333e+03,9.370253562927246094e+00,-3.824593871831893921e-02,7.649186849594116211e-01,3.170000000000000000e+02
-1.405602414983822882e+03,-1.476395922819732277e+03,-1.006772672596547977e+03,-9.318185634404667326e+02,-1.640834757905234710e+03,-1.662308006082923839e+03,-8.984675742295175951e+02,-1.049353522589088698e+03,9.370253562927246094e+00,-3.824593871831893921e-02,7.649186849594116211e-01,3.180000000000000000e+02
-1.403952466409192084e+03,-1.475026555226398386e+03,-1.005997718529382382e+03,-9.296018807549073699e+02,-1.638032810983422451e+03,-1.659318966245100910e+03,-8.977174635084144256e+02,-1.045919601043208331e+03,9.370253562927246094e+00,-3.824593871831893921e-02,7.649186849594116211e-01,3.190000000000000000e+02
-1.401737736681711340e+03,-1.471979596593049564e+03,-1.006063096138397668e+03,-9.275384240918830301e+02,-1.635889814899136354e+03,-1.655976544142138209e+03,-8.972947904106631540e+02,-1.042036139958768217e+03,9.370253562927246094e+00,-3.824593871831893921e-02,7.649186849594116211e-01,3.200000000000000000e+02
-1.398890315356011797e+03,-1.467495572721286862e+03,-1.006263787915010425e+03,-9.254831282092615083e+02,-1.633751939361470249e+03,-1.652148934904875659e+03,-8.963211498196789080e+02,-1.038265076938659831e+03,9.370253562927246094e+00,-3.824593871831893921e-02,7.649186849594116211e-01,3.210000000000000000e+02
-1.395790585620060483e+03,-1.463139032172097359e+03,-1.005965897695799640e+03,-9.235800301522043583e+02,-1.631083942594443670e+03,-1.648061182222780872e+03,-8.944977677498056892e+02,-1.035066809250460210e+03,9.370253562927246094e+00,-3.824593871831893921e-02,7.649186849594116211e-01,3.220000000000000000e+02
-1.392820249468739803e+03,-1.460445848580473921e+03,-1.004710308215774148e+03,-9.218980867678867526e+02,-1.627787266571114287e+03,-1.644113092725022398e+03,-8.923882705312767030e+02,-1.032261435300805260e+03,9.370253562927246094e+00,-3.824593871831893921e-02,7.649186849594116211e-01,3.230000000000000000e+02
-1.389864207539544623e+03,-1.459607160259675084e+03,-1.002171286502813473e+03,-9.200822618279731842e+02,-1.623959956680971118e+03,-1.640466001951802355e+03,-8.907430750776792365e+02,-1.029001186466104173e+03,9.370253562927246094e+00,-3.824593871831893921e-02,7.649186849594116211e-01,3.240000000000000000e+02
-1.386309140962473066e+03,-1.459362915677155797e+03,-9.982028146099542028e+02,-9.174998578108701395e+02,-1.619505975587507237e+03,-1.636864815057590931e+03,-8.895332174415589179e+02,-1.024465749967862621e+03,9.370253562927246094e+00,-3.824593871831893921e-02,7.649186849594116211e-01,3.250000000000000000e+02
-1.381616573121141528e+03,-1.458076630592738184e+03,-9.930429127473709059e+02,-9.138159812607278809e+02,-1.614199191609791569e+03,-1.632908098955373589e+03,-8.877390940228038971e+02,-1.018750284599058659e+03,9.370253562927246094e+00,-3.824593871831893921e-02,7.649186849594116211e-01,3.260000000000000000e+02
-1.375966201453531994e+03,-1.454901821297522929e+03,-9.874564497984247282e+02,-9.094132798984912824e+02,-1.608227377963696654e+03,-1.628491194911780440e+03,-8.842125489655960564e+02,-1.013105557240495614e+03,9.370253562927246094e+00,-3.824593871831893921e-02,7.649186849594116211e-01,3.270000000000000000e+02
-1.370341263703489176e+03,-1.450028753995944044e+03,-9.825301460713127426e+02,-9.051613090895137930e+02,-1.602545463619671409e+03,-1.623942048694185587e+03,-8.788397417558519464e+02,-1.009179062746859699e+03,9.370253562927246094e+00,-3.824593871831893921e-02,7.649186849594116211e-01,3.280000000000000000e+02
-1.365910099622288726e+03,-1.444061513722827385e+03,-9.791182819641851438e+02,-9.017088393890298903e+02,-1.598438435298331115e+03,-1.619715639505693161e+03,-8.729047239221883956e+02,-1.007807769546275495e+03,9.370253562927246094e+00,-3.824593871831893921e-02,7.649186849594116211e-01,3.290000000000000000e+02
-1.363186749721717888e+03,-1.437399842739785072e+03,-9.773129901374588826e+02,-8.989874640498869667e+02,-1.596502427175000776e+03,-1.615958085960089193e+03,-8.682683096121061226e+02,-1.008356277395366533e+03,9.370253562927246094e+00,-3.824593871831893921e-02,7.649186849594116211e-01,3.300000000000000000e+02
-1.361651216288490332e+03,-1.430285090211899842e+03,-9.763770619321694539e+02,-8.964174440319694668e+02,-1.595949638962833887e+03,-1.612354677312318927e+03,-8.660348260986788773e+02,-1.009145743102059441e+03,9.370253562927246094e+00,-3.824593871831893921e-02,7.649186849594116211e-01,3.310000000000000000e+02
-1.360132649841340253e+03,-1.423304278971044369e+03,-9.752599435696599812e+02,-8.936002533035696160e+02,-1.594970025826926758e+03,-1.608377614379558736e+03,-8.658269326699743260e+02,-1.008613653058791670e+03,9.370253562927246094e+00,-3.824593871831893921e-02,7.649186849594116211e-01,3.320000000000000000e+02
-1.357655035663213312e+03,-1.417582549098710160e+03,-9.733443614982659255e+02,-8.907945659449455889e+02,-1.591962722837602996e+03,-1.603687768529174264e+03,-8.662361434319071805e+02,-1.006295820391277744e+03,9.370253562927246094e+00,-3.824593871831893921e-02,7.649186849594116211e-01,3.330000000000000000e+02
-1.354099411311555059e+03,-1.414237097164138049e+03,-9.708729661775792010e+02,-8.887101332281825989e+02,-1.586696431574865073e+03,-1.598398671292423160e+03,-8.660174741117873509e+02,-1.002965804221447115e+03,9.370253562927246094e+00,-3.824593871831893921e-02,7.649186849594116211e-01,3.340000000000000000e+02
-1.350208289646958747e+03,-1.413484642790573844e+03,-9.687155092403040726e+02,-8.878247525541667073e+02,-1.580486953452495527e+03,-1.593061118742605231e+03,-8.649921693759688424e+02,-9.999428624112251782e+02,9.370253562927246094e+00,-3.824593871831893921e-02,7.649186849594116211e-01,3.350000000000000000e+02
-1.346947644630742843e+03,-1.414217823253630286e+03,-9.676077749686696734e+02,-8.878596119308042489e+02,-1.575240085614729651e+03,-1.588379296523536368e+03,-8.639043092081705026e+02,-9.981245377520316424e+02,9.370253562927246094e+00,-3.824593871831893921e-02,7.649186849594116211e-01,3.360000000000000000e+02
-1.344699681837128537e+03,-1.414500137841446303e+03,-9.674088716871042379e+02,-8.878707112436686657e+02,-1.572065216261919431e+03,-1.584771454066937622e+03,-8.634017957219425625e+02,-9.973867170901162353e+02,9.408499717712402344e+00,-3.824593871831893921e-02,7.649186849594116211e-01,3.370000000000000000e+02
-1.342880086910108730e+03,-1.412657126591248471e+03,-9.669543154527752904e+02,-8.868412713084295547e+02,-1.570457886769195056e+03,-1.581976674773082777e+03,-8.630865746564802521e+02,-9.966715253935751662e+02,9.408499717712402344e+00,-3.824593871831893921e-02,7.649186849594116211e-01,3.380000000000000000e+02
-1.340281670143929659e+03,-1.408179149229181803e+03,-9.647077552424652822e+02,-8.842719648594977571e+02,-1.568649003754662772e+03,-1.579014119680866315e+03,-8.615626179613514068e+02,-9.946635276970239374e+02,9.408499717712402344e+00,-3.824593871831893921e-02,7.649186849594116211e-01,3.390000000000000000e+02
-1.335908660896353922e+03,-1.401857051705127333e+03,-9.598149869770581972e+02,-8.803435015606812613e+02,-1.564871620955706021e+03,-1.574676018384001509e+03,-8.575367132790084952e+02,-9.906334307797271777e+02,9.408499717712402344e+00,-3.824593871831893921e-02,7.649186849594116211e-01,3.400000000000000000e+02
-1.329670617701063975e+03,-1.395147380856237305e+03,-9.527784721216548860e+02,-8.756229963159864838e+02,-1.558586113004188974e+03,-1.568321226114281444e+03,-8.510218639304964654e+02,-9.849116107311569976e+02,9.408499717712402344e+00,-3.824593871831893921e-02,7.649186849594116211e-01,3.410000000000000000e+02
-1.322391362738632324e+03,-1.389254661020815092e+03,-9.451689733699427052e+02,-8.706320838508286215e+02,-1.550726743305369382e+03,-1.560369594775355154e+03,-8.435113741604486677e+02,-9.786622289476263177e+02,9.408499717712402344e+00,-3.824593871831893921e-02,7.649186849594116211e-01,3.420000000000000000e+02
-1.315140695764124757e+03,-1.384488138530455444e+03,-9.385296600112171745e+02,-8.656133831969651737e+02,-1.542802811389405633e+03,-1.552009119930597080e+03,-8.368708331670226244e+02,-9.730866377369679867e+02,9.408499717712402344e+00,-3.824593871831893921e-02,7.649186849594116211e-01,3.430000000000000000e+02
-1.308472422614178413e+03,-1.380204347536509886e+03,-9.333265491112269956e+02,-8.605950954833128890e+02,-1.535649475493374666e+03,-1.544282523587074138e+03,-8.318981764232947853e+02,-9.686190088209857549e+02,9.408499717712402344e+00,-3.824593871831893921e-02,7.649186849594116211e-01,3.440000000000000000e+02
-1.302226431519472953e+03,-1.375310446872795410e+03,-9.288151022835750155e+02,-8.555922255123355171e+02,-1.528897831833204009e+03,-1.537306258616705691e+03,-8.278434301695232307e+02,-9.647194090621534315e+02,9.408499717712402344e+00,-3.824593871831893921e-02,7.649186849594116211e-01,3.450000000000000000e+02
-1.296025284360229080e+03,-1.368990904950024969e+03,-9.239213721350403148e+02,-8.506933998784389814e+02,-1.521540625677390608e+03,-1.530284987704952073e+03,-8.233067724214256486e+02,-9.603945895927620313e+02,9.408499717712402344e+00,-3.824593871831893921e-02,7.649186849594116211e-01,3.460000000000000000e+02
-1.289920601166014421e+03,-1.361214217759015355e+03,-9.183299097876401902e+02,-8.459320364853032288e+02,-1.512955977849121155e+03,-1.522262047209565026e+03,-8.176463416346171016e+02,-9.549804860250276306e+02,9.408499717712402344e+00,-3.824593871831893921e-02,7.649186849594116211e-01,3.470000000000000000e+02
-1.284500366764640376e+03,-1.352740490843031012e+03,-9.127900360380988332e+02,-8.411209702064094245e+02,-1.503409540238066711e+03,-1.512916635377249349e+03,-8.115752480582191311e+02,-9.485504111564694085e+02,9.408499717712402344e+00,-3.824593871831893921e-02,7.649186849594116211e-01,3.480000000000000000e+02
-1.280291770727088988e+03,-1.344665273772753835e+03,-9.083850513935849449e+02,-8.359403671320237663e+02,-1.493682996375557195e+03,-1.502780975452162465e+03,-8.064688615700597438e+02,-9.417133579314313465e+02,9.408499717712402344e+00,-3.824593871831893921e-02,7.649186849594116211e-01,3.490000000000000000e+02
-1.277015665940610234e+03,-1.337820504649314444e+03,-9.054582932800449271e+02,-8.303266418400968405e+02,-1.484351028569504706e+03,-1.492835481944819549e+03,-8.031080857250461804e+02,-9.350974089368755813e+02,9.408499717712402344e+00,-3.824593871831893921e-02,7.649186849594116211e-01,3.500000000000000000e+02
-1.273455162960920461e+03,-1.332424785375532792e+03,-9.031763163396362870e+02,-8.248311114072313330e+02,-1.475445024204870379e+03,-1.483930652241770986e+03,-8.010252101686614878e+02,-9.289975447717923771e+02,9.408499717712402344e+00,-3.824593871831893921e-02,7.649186849594116211e-01,3.510000000000000000e+02
-1.268162144336807387e+03,-1.328117446821361682e+03,-9.000837496457068028e+02,-8.204778090584266010e+02,-1.466686272844962787e+03,-1.476430621474937197e+03,-7.989315352010430615e+02,-9.233711473481325811e+02,9.408499717712402344e+00,-3.824593871831893921e-02,7.649186849594116211e-01,3.520000000000000000e+02
-1.260482221111978561e+03,-1.324204138803765318e+03,-8.951525579837812074e+02,-8.180258608753375711e+02,-1.457878888563290730e+03,-1.470136878939624921e+03,-7.957165480133296569e+02,-9.180321298129651950e+02,9.408499717712402344e+00,-3.824593871831893921e-02,7.649186849594116211e-01,3.530000000000000000e+02
-1.251081011553386816e+03,-1.319892248216037842e+03,-8.884994604309292754e+02,-8.171780814464248124e+02,-1.449070225248741053e+03,-1.464388402803429926e+03,-7.911532486694723048e+02,-9.128350530731465824e+02,9.408499717712402344e+00,-3.824593871831893921e-02,7.649186849594116211e-01,3.540000000000000000e+02
-1.241543970191237122e+03,-1.314461623199687892e+03,-8.813099796156227512e+02,-8.164830320267255956e+02,-1.440475931144191463e+03,-1.458298088851056036e+03,-7.858640660347418816e+02,-9.077806777585662985e+02,9.408499717712402344e+00,-3.824593871831893921e-02,7.649186849594116211e-01,3.550000000000000000e+02
-1.233342874221102193e+03,-1.307464984478769338e+03,-8.751311315410077896e+02,-8.141785467010988668e+02,-1.432387722326025369e+03,-1.451144458320098011e+03,-7.807558293816762216e+02,-9.030809087593656841e+02,9.408499717712402344e+00,-3.824593871831893921e-02,7.649186849594116211e-01,3.560000000000000000e+02
-1.226907712630764081e+03,-1.298977781501742129e+03,-8.710323230879862422e+02,-8.093874389129622386e+02,-1.425114335459980339e+03,-1.442771704180723646e+03,-7.764216692787872489e+02,-8.991298664351529624e+02,9.408499717712402344e+00,-3.824593871831893921e-02,7.649186849594116211e-01,3.570000000000000000e+02
-1.221439856990920134e+03,-1.289704270575775809e+03,-8.690552019095612195e+02,-8.026936678665210820e+02,-1.418798109011874885e+03,-1.433672587887684131e+03,-7.728401729813695056e+02,-8.962534679480979776e+02,9.408499717712402344e+00,-3.824593871831893921e-02,7.649186849594116211e-01,3.580000000000000000e+02
-1.215567549909960462e+03,-1.280708093486213556e+03,-8.681829944576036269e+02,-7.956299755263264615e+02,-1.413142227736838322e+03,-1.424602305355643693e+03,-7.694490096990889469e+02,-8.942913035493882035e+02,9.408499717712402344e+00,-3.824593871831893921e-02,7.649186849594116211e-01,3.590000000000000000e+02
-1.208364742933017624e+03,-1.272812811925033202e+03,-8.668414588976736468e+02,-7.895210654245320256e+02,-1.407359811489978938e+03,-1.415990215866267590e+03,-7.654969247993954014e+02,-8.923504311918379699e+02,9.408499717712402344e+00,-3.824593871831893921e-02,7.649186849594116211e-01,3.600000000000000000e+02
-1.200007491993674194e+03,-1.266062454165025201e+03,-8.637172316711855728e+02,-7.846231902813833585e+02,-1.400563375135652905e+03,-1.407648701144124288e+03,-7.604776997925082469e+02,-8.890814568105208764e+02,9.408499717712402344e+00,-3.824593871831893921e-02,7.649186849594116211e-01,3.610000000000000000e+02
-1.191603833257089036e+03,-1.259678946197697314e+03,-8.584385697243703817e+02,-7.801654365402332587e+02,-1.392346545955346301e+03,-1.399007631418275878e+03,-7.544017495201655947e+02,-8.834326907397726245e+02,9.408499717712402344e+00,-3.824593871831893921e-02,7.649186849594116211e-01,3.620000000000000000e+02
-1.184331116831757299e+03,-1.252571358615571171e+03,-8.516588230158395163e+02,-7.750976347633481964e+02,-1.382992225644650489e+03,-1.389610350102962911e+03,-7.477274277670244373e+02,-8.753499996340269718e+02,9.408499717712402344e+00,-3.824593871831893921e-02,7.649186849594116211e-01,3.630000000000000000e+02
-1.178527064137421121e+03,-1.244028574543260675e+03,-8.444606872332205967e+02,-7.688600005925709411e+02,-1.373092223032239190e+03,-1.379431554561282155e+03,-7.410277060611333582e+02,-8.658500125702569221e+02,9.370253562927246094e+00,-7.649187743663787842e-02,7.649186849594116211e-01,3.640000000000000000e+02
-1.173431296763860246e+03,-1.234132190764007191e+03,-8.375515032171329040e+02,-7.616345091226112345e+02,-1.362994676339042599e+03,-1.368824501393497712e+03,-7.346740904770567795e+02,-8.563950361939255345e+02,9.370253562927246094e+00,-7.649187743663787842e-02,7.649186849594116211e-01,3.650000000000000000e+02
-1.167750946227754412e+03,-1.223672299260435011e+03,-8.309110667238019232e+02,-7.540570575287415522e+02,-1.352673346989492757e+03,-1.358267138762606692e+03,-7.287672437194637496e+02,-8.480625378346526304e+02,9.370253562927246094e+00,-7.649187743663787842e-02,7.649186849594116211e-01,3.660000000000000000e+02
-1.160555575570027713e+03,-1.213674413319276937e+03,-8.241328483206975761e+02,-7.467324213867452727e+02,-1.342084554819892446e+03,-1.348157845488200564e+03,-7.232591751600534735e+02,-8.411060517152973262e+02,9.370253562927246094e+00,-7.649187743663787842e-02,7.649186849594116211e-01,3.670000000000000000e+02
-1.151774444547790154e+03,-1.204832774962659641e+03,-8.170484223236508114e+02,-7.398855248848317387e+02,-1.331494973907675785e+03,-1.338715449696848054e+03,-7.180276127105917112e+02,-8.351042748523802857e+02,9.370253562927246094e+00,-7.649187743663787842e-02,7.649186849594116211e-01,3.680000000000000000e+02
-1.141996289270315629e+03,-1.197123804974376526e+03,-8.099954235138206968e+02,-7.333034546520973436e+02,-1.321339341431109915e+03,-1.329915861144746486e+03,-7.128315156050737187e+02,-8.294285649358371302e+02,9.370253562927246094e+00,-7.649187743663787842e-02,7.649186849594116211e-01,3.690000000000000000e+02
-1.131907175494749026e+03,-1.189803250475816412e+03,-8.034812549028818012e+02,-7.265527048956969338e+02,-1.311758558183483501e+03,-1.321472975331797443e+03,-7.073214180419574859e+02,-8.236280815935419923e+02,9.370253562927246094e+00,-7.649187743663787842e-02,7.649186849594116211e-01,3.700000000000000000e+02
-1.121952449111676742e+03,-1.181874896952161635e+03,-7.976391014251435081e+02,-7.193523533503184808e+02,-1.302384822627430367e+03,-1.312976045542578959e+03,-7.012665482644661097e+02,-8.175701784000102634e+02,9.370253562927246094e+00,-7.649187743663787842e-02,7.649186849594116211e-01,3.710000000000000000e+02
-1.112451273282149032e+03,-1.172835901941763723e+03,-7.920846204214938098e+02,-7.118870475920223271e+02,-1.292663743326239910e+03,-1.304195158168762418e+03,-6.948585696211005143e+02,-8.114247341104751285e+02,9.370253562927246094e+00,-7.649187743663787842e-02,7.649186849594116211e-01,3.720000000000000000e+02
-1.103832601798518226e+03,-1.163185824528701232e+03,-7.863272794905701630e+02,-7.048058977449450140e+02,-1.282383157557033655e+03,-1.295310255180509330e+03,-6.887198147720496308e+02,-8.055675002680095531e+02,9.370253562927246094e+00,-7.649187743663787842e-02,7.649186849594116211e-01,3.730000000000000000e+02
-1.096539879590455939e+03,-1.154200396253874487e+03,-7.803101345920049425e+02,-6.988314234192425829e+02,-1.271872739496668146e+03,-1.286792633736039306e+03,-6.834691499896043752e+02,-8.003734658967034648e+02,9.370253562927246094e+00,-7.649187743663787842e-02,7.649186849594116211e-01,3.740000000000000000e+02
-1.090599731698063124e+03,-1.147004930806370567e+03,-7.745279227721612187e+02,-6.942355348234698340e+02,-1.261715704742101934e+03,-1.278982030196398910e+03,-6.791776003292529822e+02,-7.959310128476372483e+02,9.370253562927246094e+00,-7.649187743663787842e-02,7.649186849594116211e-01,3.750000000000000000e+02
-1.085347287225489481e+03,-1.141642169955579902e+03,-7.695826615841615421e+02,-6.906117943208869292e+02,-1.252303392185941675e+03,-1.271725803231766122e+03,-6.752500269076131190e+02,-7.918539053008012161e+02,9.370253562927246094e+00,-7.649187743663787842e-02,7.649186849594116211e-01,3.760000000000000000e+02
-1.079745348177654705e+03,-1.136971479643685598e+03,-7.655689303744629797e+02,-6.871586904361199686e+02,-1.243614173807493898e+03,-1.264428801491082595e+03,-6.709057621146052952e+02,-7.874049159209282607e+02,9.370253562927246094e+00,-7.649187743663787842e-02,7.649186849594116211e-01,3.770000000000000000e+02
-1.073128020284530976e+03,-1.131565183231314222e+03,-7.618571303493845335e+02,-6.832435527267055022e+02,-1.235291310342578754e+03,-1.256478063919738815e+03,-6.658546802962882794e+02,-7.819525377942579780e+02,9.370253562927246094e+00,-7.649187743663787842e-02,7.649186849594116211e-01,3.780000000000000000e+02
-1.065692599572828385e+03,-1.124843968431559460e+03,-7.574940802225187326e+02,-6.787529050858859136e+02,-1.226869802497085857e+03,-1.247654018592856346e+03,-6.605652344984869160e+02,-7.754639270688940087e+02,9.370253562927246094e+00,-7.649187743663787842e-02,7.649186849594116211e-01,3.790000000000000000e+02
-1.058242600382120600e+03,-1.117426306241294014e+03,-7.519126636321707338e+02,-6.739539189031970636e+02,-1.218012339639833499e+03,-1.238185671413788441e+03,-6.558917013907364435e+02,-7.686110362845452073e+02,9.370253562927246094e+00,-7.649187743663787842e-02,7.649186849594116211e-01,3.800000000000000000e+02
-1.051409921978503917e+03,-1.110395544531221276e+03,-7.453936332812099863e+02,-6.690879847324772527e+02,-1.208724844793473949e+03,-1.228480248356870788e+03,-6.523994652491808210e+02,-7.623514387986758720e+02,9.370253562927246094e+00,-7.649187743663787842e-02,7.649186849594116211e-01,3.810000000000000000e+02
-1.045104403838675807e+03,-1.104217532750621785e+03,-7.388986928494593940e+02,-6.641597829098370767e+02,-1.199457735831671243e+03,-1.218831250572441604e+03,-6.499531697139723292e+02,-7.572756687785433769e+02,9.370253562927246094e+00,-7.649187743663787842e-02,7.649186849594116211e-01,3.820000000000000000e+02
-1.038707169863605486e+03,-1.098354659360685446e+03,-7.333779575106934772e+02,-6.591024539539346279e+02,-1.190899535868680459e+03,-1.209338067231242803e+03,-6.478537775709587549e+02,-7.531991951971904200e+02,9.370253562927246094e+00,-7.649187743663787842e-02,7.649186849594116211e-01,3.830000000000000000e+02
-1.031761861350295021e+03,-1.091883721740054170e+03,-7.290621501744944908e+02,-6.540371672033627419e+02,-1.183459995593607800e+03,-1.200005345879916604e+03,-6.453335894314852794e+02,-7.492746274431358415e+02,9.370253562927246094e+00,-7.649187743663787842e-02,7.649186849594116211e-01,3.840000000000000000e+02
-1.024429308789510742e+03,-1.084408635720670418e+03,-7.252735231959404700e+02,-6.492228787479871244e+02,-1.176786702859566049e+03,-1.190814889676579696e+03,-6.419712242567193243e+02,-7.445035242846497567e+02,9.370253562927246094e+00,-7.649187743663787842e-02,7.649186849594116211e-01,3.850000000000000000e+02
-1.017258019287474326e+03,-1.076341221034868795e+03,-7.209234024156894520e+02,-6.446694232950108017e+02,-1.169797379821414324e+03,-1.181683479835343860e+03,-6.377504678840314227e+02,-7.382785499930987498e+02,9.370253562927246094e+00,-7.649187743663787842e-02,7.649186849594116211e-01,3.860000000000000000e+02
-1.010566778848638478e+03,-1.068356251949837997e+03,-7.153364594999302426e+02,-6.398569765751412888e+02,-1.161352735992240923e+03,-1.172432954061838245e+03,-6.328423218325519883e+02,-7.306621192468078334e+02,9.370253562927246094e+00,-7.649187743663787842e-02,7.649186849594116211e-01,3.870000000000000000e+02
-1.004131852748869278e+03,-1.060672933731784724e+03,-7.087674532491910213e+02,-6.339902719268602596e+02,-1.151115128145824656e+03,-1.162899745430529038e+03,-6.273957714885091264e+02,-7.223348683347874157e+02,9.370253562927246094e+00,-7.649187743663787842e-02,7.649186849594116211e-01,3.880000000000000000e+02
-9.975129808181998214e+02,-1.052928632413472315e+03,-7.022019589563124100e+02,-6.266785904805369682e+02,-1.139905398309064367e+03,-1.153134541563028506e+03,-6.215389220242923329e+02,-7.142961634675334608e+02,9.370253562927246094e+00,-7.649187743663787842e-02,7.649186849594116211e-01,3.890000000000000000e+02
-9.906213763704763551e+02,-1.044721720493721932e+03,-6.965932327026312123e+02,-6.184190338978114596e+02,-1.129225758677744579e+03,-1.143480003097110512e+03,-6.155266053180789640e+02,-7.074508807789393359e+02,9.370253562927246094e+00,-7.649187743663787842e-02,7.649186849594116211e-01,3.900000000000000000e+02
-9.838560023967736470e+02,-1.036180392673964434e+03,-6.921594381698400866e+02,-6.103664340452821762e+02,-1.120287117832167951e+03,-1.134396525960401959e+03,-6.097962027965513698e+02,-7.022411703888883494e+02,9.370253562927246094e+00,-7.649187743663787842e-02,7.649186849594116211e-01,3.910000000000000000e+02
-9.776160544425852095e+02,-1.027941662634397062e+03,-6.883127630264029904e+02,-6.035411822516955453e+02,-1.113267100744488744e+03,-1.126150427911811676e+03,-6.047688900340208420e+02,-6.984837388835926504e+02,9.370253562927246094e+00,-7.649187743663787842e-02,7.649186849594116211e-01,3.920000000000000000e+02
-9.717116300870229679e+02,-1.020569779390411895e+03,-6.842399257897222924e+02,-5.981705782187336808e+02,-1.107318972516385656e+03,-1.118637718209857212e+03,-6.005178751238545374e+02,-6.955142924798810782e+02,9.370253562927246094e+00,-7.649187743663787842e-02,7.649186849594116211e-01,3.930000000000000000e+02
-9.653559497922688024e+02,-1.013981193983237063e+03,-6.795866223442303635e+02,-5.937040996948580869e+02,-1.101279496582888441e+03,-1.111497473764653478e+03,-5.966238655709712475e+02,-6.925533637964613263e+02,9.370253562927246094e+00,-7.649187743663787842e-02,7.649186849594116211e-01,3.940000000000000000e+02
-9.578322557152321224e+02,-1.007407760197480684e+03,-6.746249788465279380e+02,-5.893764772619065297e+02,-1.094492801226114352e+03,-1.104384424762652543e+03,-5.924067486073781765e+02,-6.890498369309925693e+02,9.408499717712402344e+00,-7.649187743663787842e-02,7.649186849594116211e-01,3.950000000000000000e+02
-9.491989817245121230e+02,-9.999249810239373346e+02,-6.697825371052495029e+02,-5.847149587897504261e+02,-1.087107086168707610e+03,-1.097111641193812829e+03,-5.873782008451080401e+02,-6.847769589907029513e+02,9.408499717712402344e+00,-7.649187743663787842e-02,7.649186849594116211e-01,3.960000000000000000e+02
-9.403162718515254710e+02,-9.911057791158050350e+02,-6.650328600222160276e+02,-5.795820441272517201e+02,-1.079656270061570467e+03,-1.089543596176974006e+03,-5.815517570205538505e+02,-6.796867498347924084e+02,9.408499717712402344e+00,-7.649187743663787842e-02,7.649186849594116211e-01,3.970000000000000000e+02
-9.321389430414794788e+02,-9.813256519263065911e+02,-6.597971379740379234e+02,-5.739231061278355810e+02,-1.072332842020501175e+03,-1.081431690408944633e+03,-5.753779617802501889e+02,-6.737569128219497543e+02,9.408499717712402344e+00,-7.649187743663787842e-02,7.649186849594116211e-01,3.980000000000000000e+02
-9.249500118746809676e+02,-9.715511870393829668e+02,-6.535169853093102574e+02,-5.676752938449910744e+02,-1.064651235895892569e+03,-1.072489841274823902e+03,-5.694310812160329078e+02,-6.670456363837602112e+02,9.408499717712402344e+00,-7.649187743663787842e-02,7.649186849594116211e-01,3.990000000000000000e+02
-9.182466463831565306e+02,-9.627966068163673299e+02,-6.463652130147434036e+02,-5.609836617981000018e+02,-1.055847123767445282e+03,-1.062731065935271999e+03,-5.641452221766739967e+02,-6.599014058916009162e+02,9.408499717712402344e+00,-7.649187743663787842e-02,7.649186849594116211e-01,4.000000000000000000e+02
-9.113258583434926550e+02,-9.555854811826056903e+02,-6.393504744786764604e+02,-5.543856330216740389e+02,-1.045636819361374819e+03,-1.052716180417487521e+03,-5.597460178614601318e+02,-6.530332385916235580e+02,9.408499717712402344e+00,-7.649187743663787842e-02,7.649186849594116211e-01,4.010000000000000000e+02
-9.039487054190230992e+02,-9.497148872234006376e+02,-6.335927362282209288e+02,-5.485956032344834057e+02,-1.034585674684596142e+03,-1.043353963955676591e+03,-5.562626516370032732e+02,-6.472265446927212906e+02,9.408499717712402344e+00,-7.649187743663787842e-02,7.649186849594116211e-01,4.020000000000000000e+02
-8.964429191025367345e+02,-9.444294007985135977e+02,-6.293611890241559195e+02,-5.439835016268493746e+02,-1.023703783016501347e+03,-1.035296294464109451e+03,-5.534727825389586542e+02,-6.428465661103177808e+02,9.408499717712402344e+00,-7.649187743663787842e-02,7.649186849594116211e-01,4.030000000000000000e+02
-8.892201315072186389e+02,-9.388878255264630752e+02,-6.257715376839332748e+02,-5.402679122653394188e+02,-1.013668309355489782e+03,-1.028423798825637732e+03,-5.508487529995695695e+02,-6.395392941593972864e+02,9.408499717712402344e+00,-7.649187743663787842e-02,7.649186849594116211e-01,4.040000000000000000e+02
-8.822655818915961845e+02,-9.326369250401958197e+02,-6.214878378638190952e+02,-5.367663488573716677e+02,-1.004439891607120899e+03,-1.021906149091105817e+03,-5.476946551359478690e+02,-6.364244705359724321e+02,9.408499717712402344e+00,-7.649187743663787842e-02,7.649186849594116211e-01,4.050000000000000000e+02
-8.751319655967731705e+02,-9.258007876686465352e+02,-6.158342290535611028e+02,-5.329482581014053721e+02,-9.955989040862637012e+02,-1.014805844154109309e+03,-5.435107893430495096e+02,-6.326600602037651697e+02,9.408499717712402344e+00,-7.649187743663787842e-02,7.649186849594116211e-01,4.060000000000000000e+02
-8.674261300487371500e+02,-9.188887663757614064e+02,-6.093176556327075559e+02,-5.287251495868677011e+02,-9.869554844308831889e+02,-1.006691035040571478e+03,-5.383310562743204173e+02,-6.279362820799374276e+02,9.408499717712402344e+00,-7.649187743663787842e-02,7.649186849594116211e-01,4.070000000000000000e+02
-8.592812149498618055e+02,-9.123786176716071168e+02,-6.030969014181046077e+02,-5.242275278739612077e+02,-9.787371251436088642e+02,-9.977461674483420211e+02,-5.327040229766103039e+02,-6.225296367215792088e+02,9.408499717712402344e+00,-7.649187743663787842e-02,7.649186849594116211e-01,4.080000000000000000e+02
-8.513124632467142874e+02,-9.063550187060163807e+02,-5.979167881128432782e+02,-5.194000270688065939e+02,-9.712007275743430910e+02,-9.883965375998727723e+02,-5.272827001774494420e+02,-6.169250474041573398e+02,9.408499717712402344e+00,-7.649187743663787842e-02,7.649186849594116211e-01,4.090000000000000000e+02
-8.440715070731448577e+02,-9.004178604161525072e+02,-5.935089223269178547e+02,-5.139378089878491664e+02,-9.641719189878485849e+02,-9.789174967935582572e+02,-5.223482096320135497e+02,-6.113730788117591146e+02,9.408499717712402344e+00,-7.649187743663787842e-02,7.649186849594116211e-01,4.100000000000000000e+02
-8.374962150451342495e+02,-8.938837580119115955e+02,-5.889647018595096597e+02,-5.076564927267586427e+02,-9.570545259261243700e+02,-9.694054417716747594e+02,-5.176463593580992892e+02,-6.057505891189202885e+02,9.408499717712402344e+00,-7.649187743663787842e-02,7.649186849594116211e-01,4.110000000000000000e+02
-8.308678583814739795e+02,-8.861776587099761855e+02,-5.836342211066230448e+02,-5.008509277541411393e+02,-9.492815656932507409e+02,-9.600100231848009571e+02,-5.126364108056827718e+02,-5.997885884268735026e+02,9.408499717712402344e+00,-7.649187743663787842e-02,7.649186849594116211e-01,4.120000000000000000e+02
-8.233618587316846060e+02,-8.772558751865158229e+02,-5.776623919188587024e+02,-4.942115023637807099e+02,-9.407091094213574252e+02,-9.510456224060990280e+02,-5.069332402161981008e+02,-5.934315377217785681e+02,9.408499717712402344e+00,-7.649187743663787842e-02,7.649186849594116211e-01,4.130000000000000000e+02
-8.147554510055565515e+02,-8.678079937729335143e+02,-5.717224074802347786e+02,-4.883574374952186190e+02,-9.316215447120607678e+02,-9.428054264458914986e+02,-5.006365550751843330e+02,-5.870152843545492942e+02,9.408499717712402344e+00,-7.649187743663787842e-02,7.649186849594116211e-01,4.140000000000000000e+02
-8.057000738792125958e+02,-8.590268930332513264e+02,-5.663349586468793859e+02,-4.834430120961974353e+02,-9.224942130988652025e+02,-9.352898622800339581e+02,-4.943438495296295514e+02,-5.811179193354196286e+02,9.408499717712402344e+00,-7.649187743663787842e-02,7.649186849594116211e-01,4.150000000000000000e+02
-7.973053856488850215e+02,-8.519583900624556918e+02,-5.615080760772607391e+02,-4.791731980541067060e+02,-9.138233197543140705e+02,-9.281800437956762835e+02,-4.888524051616714132e+02,-5.762046729092680835e+02,9.370253562927246094e+00,-3.824593871831893921e-02,7.649186849594116211e-01,4.160000000000000000e+02
-7.903472617587740388e+02,-8.467815624893132735e+02,-5.569749117795522579e+02,-4.751181944932272927e+02,-9.060660637483251776e+02,-9.211127274184550515e+02,-4.847128873345841384e+02,-5.723516844765481437e+02,9.370253562927246094e+00,-3.824593871831893921e-02,7.649186849594116211e-01,4.170000000000000000e+02
-7.847370338535274641e+02,-8.425751656723236920e+02,-5.526317355586656959e+02,-4.709628470461102552e+02,-8.994853183711024940e+02,-9.139867237139674216e+02,-4.818705957046145159e+02,-5.692542956360866810e+02,9.370253562927246094e+00,-3.824593871831893921e-02,7.649186849594116211e-01,4.180000000000000000e+02
-7.796826587253044636e+02,-8.378565254148352324e+02,-5.486324354294506520e+02,-4.665314377512804640e+02,-8.938832122045741926e+02,-9.070290144098253222e+02,-4.796423863097370486e+02,-5.664813357175726196e+02,9.370253562927246094e+00,-3.824593871831893921e-02,7.649186849594116211e-01,4.190000000000000000e+02
-7.743723225209423617e+02,-8.315652636823342618e+02,-5.450545656363797207e+02,-4.617388822071761751e+02,-8.885454609972234721e+02,-9.005948741065444665e+02,-4.770869620542125631e+02,-5.637421914407059376e+02,9.370253562927246094e+00,-3.824593871831893921e-02,7.649186849594116211e-01,4.200000000000000000e+02
-7.685553195669285742e+02,-8.237286958146460165e+02,-5.415674710445523488e+02,-4.566370528502534398e+02,-8.826367318430638989e+02,-8.948882443779375535e+02,-4.735314579507717099e+02,-5.609321805708837019e+02,9.370253562927246094e+00,-3.824593871831893921e-02,7.649186849594116211e-01,4.210000000000000000e+02
-7.625129778320670084e+02,-8.152598760023201976e+02,-5.375276396557037515e+02,-4.514879809069498151e+02,-8.757757502324820962e+02,-8.897812205099462517e+02,-4.688803800670357305e+02,-5.579392697218363537e+02,9.370253562927246094e+00,-3.824593871831893921e-02,7.649186849594116211e-01,4.220000000000000000e+02
-7.565283590379849556e+02,-8.070971318001088548e+02,-5.324531020744007037e+02,-4.466552446935652370e+02,-8.682101514893333842e+02,-8.847829688193241964e+02,-4.635221075870485947e+02,-5.544348432869337557e+02,9.370253562927246094e+00,-3.824593871831893921e-02,7.649186849594116211e-01,4.230000000000000000e+02
-7.504617945134018555e+02,-7.994784722150375273e+02,-5.264221294087046772e+02,-4.423167714266287476e+02,-8.603795249976947161e+02,-8.791652444575656773e+02,-4.580104759548512448e+02,-5.499025076124221414e+02,9.370253562927246094e+00,-3.824593871831893921e-02,7.649186849594116211e-01,4.240000000000000000e+02
-7.439094436400664563e+02,-7.919972911006193499e+02,-5.200337385697903301e+02,-4.382780548945884220e+02,-8.523424107670471130e+02,-8.722472642000243468e+02,-4.528317282340758538e+02,-5.439487776917703741e+02,9.370253562927246094e+00,-3.824593871831893921e-02,7.649186849594116211e-01,4.250000000000000000e+02
-7.367659706993154032e+02,-7.843103720883805181e+02,-5.139964101868099533e+02,-4.341303798248300154e+02,-8.437314191046702945e+02,-8.637577457291440624e+02,-4.483518808836201970e+02,-5.366620459729897448e+02,9.370253562927246094e+00,-3.824593871831893921e-02,7.649186849594116211e-01,4.260000000000000000e+02
-7.295304867886288775e+02,-7.767113496863198634e+02,-5.087121801682155819e+02,-4.296405119699497845e+02,-8.343110512855973866e+02,-8.540544068468652767e+02,-4.447656881121301922e+02,-5.287031766115364917e+02,9.370253562927246094e+00,-3.824593871831893921e-02,7.649186849594116211e-01,4.270000000000000000e+02
-7.229404312949768610e+02,-7.699488154413575103e+02,-5.041378193673763235e+02,-4.249757211237033516e+02,-8.245028448685116018e+02,-8.439875375649935449e+02,-4.419090838926822471e+02,-5.210224664381398725e+02,9.370253562927246094e+00,-3.824593871831893921e-02,7.649186849594116211e-01,4.280000000000000000e+02
-7.172536063798861505e+02,-7.644604402167160515e+02,-4.999144640553013232e+02,-4.205182385290841012e+02,-8.152376499885826888e+02,-8.344540184809325183e+02,-4.391256683391643492e+02,-5.143861616662006782e+02,9.370253562927246094e+00,-3.824593871831893921e-02,7.649186849594116211e-01,4.290000000000000000e+02
-7.119394656040726659e+02,-7.598276292156224372e+02,-4.956007191645380772e+02,-4.164650469329699263e+02,-8.072213774426127202e+02,-8.259645120700997722e+02,-4.355116186223253862e+02,-5.090301030014179560e+02,9.370253562927246094e+00,-3.824593871831893921e-02,7.649186849594116211e-01,4.300000000000000000e+02
-7.061580156260069998e+02,-7.550669583322305698e+02,-4.908858084014655105e+02,-4.126521245842018288e+02,-8.003547124697074651e+02,-8.185402506427362823e+02,-4.305433112069704293e+02,-5.046523271983264749e+02,9.370253562927246094e+00,-3.824593871831893921e-02,7.649186849594116211e-01,4.310000000000000000e+02
-6.995790836443861735e+02,-7.495072411602745888e+02,-4.857551883145447391e+02,-4.087959238204243775e+02,-7.938910986658556794e+02,-8.119360141941792790e+02,-4.246025707662383866e+02,-5.007049200017722796e+02,9.370253562927246094e+00,-3.824593871831893921e-02,7.649186849594116211e-01,4.320000000000000000e+02
-6.927067878508446483e+02,-7.433464978091819830e+02,-4.805622215410026001e+02,-4.048532327603988961e+02,-7.871593715609687933e+02,-8.058823881465691557e+02,-4.188475822833534039e+02,-4.967724376231053611e+02,9.370253562927246094e+00,-3.824593871831893921e-02,7.649186849594116211e-01,4.330000000000000000e+02
-6.863630726168230467e+02,-7.372660046232299464e+02,-4.759043454420880153e+02,-4.010450466341503670e+02,-7.801411046591420018e+02,-8.001007842745839298e+02,-4.144110033898105030e+02,-4.927887710657723801e+02,9.370253562927246094e+00,-3.824593871831893921e-02,7.649186849594116211e-01,4.340000000000000000e+02
-6.808440020881425880e+02,-7.314842669222912264e+02,-4.722671706548526345e+02,-3.974568949697977587e+02,-7.733731509312833623e+02,-7.941742868366236507e+02,-4.115413729246552066e+02,-4.889574965929286918e+02,9.370253562927246094e+00,-3.824593871831893921e-02,7.649186849594116211e-01,4.350000000000000000e+02
-6.755948520783090316e+02,-7.252851818209078374e+02,-4.696120130963058728e+02,-3.936296401238732869e+02,-7.673232088846634724e+02,-7.875624248183398777e+02,-4.094006927597524736e+02,-4.854367508589252793e+02,9.370253562927246094e+00,-3.824593871831893921e-02,7.649186849594116211e-01,4.360000000000000000e+02
-6.697179349094903955e+02,-7.176460232963795534e+02,-4.672479887850081468e+02,-3.886813769588006835e+02,-7.618535553373612856e+02,-7.798945447330429488e+02,-4.066821014082756847e+02,-4.820590045247827220e+02,9.370253562927246094e+00,-3.824593871831893921e-02,7.649186849594116211e-01,4.370000000000000000e+02
-6.627835261318123230e+02,-7.084620687457554595e+02,-4.641632437256280355e+02,-3.820200626925798133e+02,-7.562289309649263487e+02,-7.712945126684576280e+02,-4.025234503717620100e+02,-4.783316797495222090e+02,9.370253562927246094e+00,-3.824593871831893921e-02,7.649186849594116211e-01,4.380000000000000000e+02
-6.551665935163732684e+02,-6.991092464101029691e+02,-4.596406914862968733e+02,-3.740688962238582462e+02,-7.496245504198864182e+02,-7.623816693310209303e+02,-3.970177663605468297e+02,-4.737528973406542718e+02,9.370253562927246094e+00,-3.824593871831893921e-02,7.649186849594116211e-01,4.390000000000000000e+02
-6.476453726234640271e+02,-6.915832585934249437e+02,-4.537060205773027519e+02,-3.662645939949366038e+02,-7.416909298959576518e+02,-7.538634495311448518e+02,-3.910002968286917167e+02,-4.681937914914992689e+02,9.370253562927246094e+00,-3.824593871831893921e-02,7.649186849594116211e-01,4.400000000000000000e+02
-6.407401637589628081e+02,-6.868293254825721306e+02,-4.470593303470091087e+02,-3.601475903842574553e+02,-7.327468270276485782e+02,-7.460296174203731425e+02,-3.853606881906785020e+02,-4.619943481581490232e+02,9.370253562927246094e+00,-1.529837548732757568e-01,8.031646609306335449e-01,4.410000000000000000e+02
-6.344489331957715876e+02,-6.837876456933554437e+02,-4.405575245386798997e+02,-3.562060385932213649e+02,-7.235142034456948750e+02,-7.385885798203635204e+02,-3.804213837402899117e+02,-4.556653486231939496e+02,9.370253562927246094e+00,-1.529837548732757568e-01,8.031646609306335449e-01,4.420000000000000000e+02
-6.285376312727603363e+02,-6.801613767210778860e+02,-4.346804258747738459e+02,-3.534720818186629003e+02,-7.146650597473326343e+02,-7.310019519691868481e+02,-3.758116596754671264e+02,-4.494876722224371406e+02,9.370253562927246094e+00,-1.529837548732757568e-01,8.031646609306335449e-01,4.430000000000000000e+02
-6.229549951381959545e+02,-6.743222553477485235e+02,-4.293874896379275015e+02,-3.502927959425087465e+02,-7.065616347821764975e+02,-7.230428940432793752e+02,-3.708932661410522087e+02,-4.434280395538121411e+02,9.370253562927246094e+00,-1.529837548732757568e-01,8.031646609306335449e-01,4.440000000000000000e+02
-6.178780283942041933e+02,-6.666378850661590150e+02,-4.244079677117729261e+02,-3.456542422289380738e+02,-6.993365602523067537e+02,-7.150888920681240961e+02,-3.654056192994949015e+02,-4.374743956474976585e+02,9.370253562927246094e+00,-1.529837548732757568e-01,8.031646609306335449e-01,4.450000000000000000e+02
-6.133760437884038765e+02,-6.589921699303858986e+02,-4.196475195651914873e+02,-3.399062712662944250e+02,-6.931088610278084161e+02,-7.078716460197397282e+02,-3.598313513471648548e+02,-4.320224079561403414e+02,9.370253562927246094e+00,-1.529837548732757568e-01,8.031646609306335449e-01,4.460000000000000000e+02
-6.091301537568187996e+02,-6.529575041628468171e+02,-4.153631308660451396e+02,-3.342527458243243927e+02,-6.880036022108606630e+02,-7.018646550909293182e+02,-3.551723343816165652e+02,-4.278261651366756269e+02,9.370253562927246094e+00,-1.529837548732757568e-01,8.031646609306335449e-01,4.470000000000000000e+02
-6.045915011668794250e+02,-6.483638337773759304e+02,-4.119980092379582857e+02,-3.295197128041636461e+02,-6.839092547028808440e+02,-6.968268512270960855e+02,-3.522809416898412564e+02,-4.254489742157911678e+02,9.370253562927246094e+00,-1.529837548732757568e-01,8.031646609306335449e-01,4.480000000000000000e+02
-5.994603618347064184e+02,-6.436083153416407185e+02,-4.098428920336318697e+02,-3.253952232423393980e+02,-6.802651708690514170e+02,-6.919226504974544696e+02,-3.512599028397658003e+02,-4.246713368239111333e+02,9.370253562927246094e+00,-1.529837548732757568e-01,8.031646609306335449e-01,4.490000000000000000e+02
-5.939850318817061634e+02,-6.373455751781416438e+02,-4.087454049563680201e+02,-3.208615466182304772e+02,-6.762043418132930128e+02,-6.863425881253697298e+02,-3.513680096264770327e+02,-4.244065906547116356e+02,9.370253562927246094e+00,-1.529837548732757568e-01,8.031646609306335449e-01,4.500000000000000000e+02
-5.887226383481165612e+02,-6.298711062965007841e+02,-4.079924379811550352e+02,-3.153428053379539051e+02,-6.710252694263540434e+02,-6.798857914537975375e+02,-3.514195933610158136e+02,-4.232356674950888191e+02,9.370253562927246094e+00,-1.529837548732757568e-01,8.031646609306335449e-01,4.510000000000000000e+02
-5.839395659714950853e+02,-6.228345036374930714e+02,-4.064313083451061175e+02,-3.093663613018097749e+02,-6.645833784504807227e+02,-6.729740466526809541e+02,-3.502910292995507007e+02,-4.201365193728820486e+02,9.370253562927246094e+00,-1.529837548732757568e-01,8.031646609306335449e-01,4.520000000000000000e+02
-5.792348896424123268e+02,-6.175766195859214349e+02,-4.028940515831536686e+02,-3.040487018973226441e+02,-6.572599401843599480e+02,-6.660961610602093970e+02,-3.472214217408463810e+02,-4.148922103441054787e+02,9.370253562927246094e+00,-1.529837548732757568e-01,8.031646609306335449e-01,4.530000000000000000e+02
-5.737892746292213815e+02,-6.137578686902816116e+02,-3.968532174108668187e+02,-2.999403075411883037e+02,-6.496125286822539238e+02,-6.592566438463854865e+02,-3.419541939395317058e+02,-4.080190772297241892e+02,9.370253562927246094e+00,-1.529837548732757568e-01,8.031646609306335449e-01,4.540000000000000000e+02
-5.670439823640390387e+02,-6.096395073213670912e+02,-3.889444627360485356e+02,-2.964240049657605596e+02,-6.420894104180633803e+02,-6.520161533785812935e+02,-3.348909406924008181e+02,-4.004317084909725963e+02,9.370253562927246094e+00,-1.529837548732757568e-01,8.031646609306335449e-01,4.550000000000000000e+02
-5.591983466755350491e+02,-6.037281275030977667e+02,-3.808355155023855332e+02,-2.922901742994799861e+02,-6.349935797373791502e+02,-6.441105062330238979e+02,-3.271756948801462386e+02,-3.930990168105854536e+02,9.370253562927246094e+00,-1.529837548732757568e-01,8.031646609306335449e-01,4.560000000000000000e+02
-5.510773392117607727e+02,-5.961674689840174324e+02,-3.742600495702863554e+02,-2.869088524626599792e+02,-6.285062492294914591e+02,-6.359976244144368138e+02,-3.203694808796826692e+02,-3.867515643618999093e+02,9.370253562927246094e+00,-1.529837548732757568e-01,8.031646609306335449e-01,4.570000000000000000e+02
-5.435165370487002292e+02,-5.885434292734662449e+02,-3.697965513588078466e+02,-2.808184174298266953e+02,-6.225450099124900589e+02,-6.286869301098217875e+02,-3.156214152154184376e+02,-3.816210441019766222e+02,9.370253562927246094e+00,-1.529837548732757568e-01,8.031646609306335449e-01,4.580000000000000000e+02
-5.368473630403377683e+02,-5.823573513709084182e+02,-3.664341187856248325e+02,-2.751996221616882394e+02,-6.166196452584313192e+02,-6.229171792220795396e+02,-3.128765024148169687e+02,-3.773348695388449414e+02,9.370253562927246094e+00,-1.529837548732757568e-01,8.031646609306335449e-01,4.590000000000000000e+02
-5.309146264076503030e+02,-5.777127786659011690e+02,-3.624467520091347978e+02,-2.708255242090281172e+02,-6.100510661738080671e+02,-6.184381607920231545e+02,-3.108860541482795270e+02,-3.731564026344753984e+02,9.370253562927246094e+00,-1.529837548732757568e-01,8.031646609306335449e-01,4.600000000000000000e+02
-5.255068785086027674e+02,-5.734749982706448463e+02,-3.569512741620424094e+02,-2.675401001879977230e+02,-6.025690759429880927e+02,-6.141190709611928469e+02,-3.081987538133917042e+02,-3.685353937174331804e+02,9.370253562927246094e+00,-1.529837548732757568e-01,8.031646609306335449e-01,4.610000000000000000e+02
-5.206898120397131606e+02,-5.686322603270409672e+02,-3.507712537114275619e+02,-2.646863109907194485e+02,-5.947499601456638629e+02,-6.088377299574981407e+02,-3.043658682107816276e+02,-3.635906002312312921e+02,9.370253562927246094e+00,-1.529837548732757568e-01,8.031646609306335449e-01,4.620000000000000000e+02
-5.166860744679470372e+02,-5.633932522873701600e+02,-3.457355905127697042e+02,-2.618905554564839804e+02,-5.877189229794348648e+02,-6.023615538068415844e+02,-3.002764004263558490e+02,-3.590783951227222133e+02,9.370253562927246094e+00,-1.529837548732757568e-01,8.031646609306335449e-01,4.630000000000000000e+02
-5.134603046556776462e+02,-5.588814662444488022e+02,-3.429893300941544112e+02,-2.593349603350702637e+02,-5.822448464045955916e+02,-5.954583475093895686e+02,-2.973037940825984151e+02,-3.558000003877446034e+02,9.370253562927246094e+00,-1.529837548732757568e-01,8.031646609306335449e-01,4.640000000000000000e+02
-5.104984245531968554e+02,-5.557790459767720677e+02,-3.418827307432470661e+02,-2.572926154164010768e+02,-5.780500791628564912e+02,-5.891849276938614821e+02,-2.960427853453356875e+02,-3.539208966542523740e+02,9.370253562927246094e+00,-1.529837548732757568e-01,8.031646609306335449e-01,4.650000000000000000e+02
-5.070723025156039512e+02,-5.533739741375093217e+02,-3.405040775157717690e+02,-2.555299819048423160e+02,-5.740273626302760022e+02,-5.840165424952642752e+02,-2.957769000795856300e+02,-3.527808713332929074e+02,9.370253562927246094e+00,-1.529837548732757568e-01,8.031646609306335449e-01,4.660000000000000000e+02
-5.027836295598990546e+02,-5.500530123612570605e+02,-3.373756003052735650e+02,-2.533060654908617835e+02,-5.691848045763713344e+02,-5.795561042810568324e+02,-2.950877900106702327e+02,-3.513517744793311977e+02,9.370253562927246094e+00,-1.529837548732757568e-01,8.031646609306335449e-01,4.670000000000000000e+02
-4.978856800162443506e+02,-5.447888556812376919e+02,-3.327163749888254642e+02,-2.500209633545878205e+02,-5.634346426164224795e+02,-5.749862667145243904e+02,-2.929618659090256187e+02,-3.489341966224187672e+02,9.370253562927246094e+00,-7.649187743663787842e-02,7.266727685928344727e-01,4.680000000000000000e+02
-4.930762111473877667e+02,-5.381297291796067839e+02,-3.281136607361440838e+02,-2.458549235341329222e+02,-5.575412052341971503e+02,-5.697989070100384197e+02,-2.894122079336407296e+02,-3.455095816684638521e+02,9.370253562927246094e+00,-7.649187743663787842e-02,7.266727685928344727e-01,4.690000000000000000e+02
-4.889209960208036136e+02,-5.316970099404857137e+02,-3.249763540505759920e+02,-2.417156380027158775e+02,-5.523750946296627262e+02,-5.641643669092736673e+02,-2.852041639188237241e+02,-3.415188809130740992e+02,9.370253562927246094e+00,-7.649187743663787842e-02,7.266727685928344727e-01,4.700000000000000000e+02
-4.853753547579149199e+02,-5.266868758812934175e+02,-3.232558952326639883e+02,-2.384945196180319726e+02,-5.481997656138487400e+02,-5.586585136566886831e+02,-2.810894257936502072e+02,-3.373547095766980419e+02,9.370253562927246094e+00,-7.649187743663787842e-02,7.266727685928344727e-01,4.710000000000000000e+02
-4.817736898714883864e+02,-5.228369052998141342e+02,-3.215748097854461776e+02,-2.363161782187826248e+02,-5.445358035143990492e+02,-5.536297414712007594e+02,-2.772613939262587337e+02,-3.330530124189813250e+02,9.370253562927246094e+00,-7.649187743663787842e-02,7.266727685928344727e-01,4.720000000000000000e+02
-4.772927300009523606e+02,-5.188414854456718786e+02,-3.185238997293422472e+02,-2.344727067286858073e+02,-5.405503748981809622e+02,-5.487857040261669681e+02,-2.733979502536481050e+02,-3.284141356169488972e+02,9.370253562927246094e+00,-7.649187743663787842e-02,7.266727685928344727e-01,4.730000000000000000e+02
-4.715576495195446114e+02,-5.137356938926291150e+02,-3.138609860794040287e+02,-2.320892947517554603e+02,-5.355787898139624303e+02,-5.433815317617436449e+02,-2.691270550523781822e+02,-3.233654124400213732e+02,9.370253562927246094e+00,-7.649187743663787842e-02,7.266727685928344727e-01,4.740000000000000000e+02
-4.649642172716380628e+02,-5.078596278687168706e+02,-3.085915222765866019e+02,-2.289092646901626722e+02,-5.294604079383825592e+02,-5.368594598369600135e+02,-2.644746508780463046e+02,-3.181848927489063499e+02,9.370253562927246094e+00,-7.649187743663787842e-02,7.266727685928344727e-01,4.750000000000000000e+02
-4.584874176420385083e+02,-5.025267589084855899e+02,-3.040218652838498201e+02,-2.255145061605803676e+02,-5.225782321938195309e+02,-5.293668013003507440e+02,-2.599352292444868908e+02,-3.133669629766918661e+02,9.370253562927246094e+00,-7.649187743663787842e-02,7.266727685928344727e-01,4.760000000000000000e+02
-4.531031975244154637e+02,-4.988222534338678997e+02,-3.007508359793969248e+02,-2.228519609230397691e+02,-5.156108476177200828e+02,-5.216702836529711931e+02,-2.561341187029916000e+02,-3.092667152659992098e+02,9.370253562927246094e+00,-7.649187743663787842e-02,7.266727685928344727e-01,4.770000000000000000e+02
-4.492139271077944613e+02,-4.967373659859613326e+02,-2.984503646751286396e+02,-2.215425702671723229e+02,-5.090993161933947704e+02,-5.145293898902446017e+02,-2.533532615191065815e+02,-3.058729067442477572e+02,9.370253562927246094e+00,-7.649187743663787842e-02,7.266727685928344727e-01,4.780000000000000000e+02
-4.464719200485806141e+02,-4.953706200825690757e+02,-2.964391292503219120e+02,-2.215633588801279075e+02,-5.031065157607099536e+02,-5.081303724379604319e+02,-2.512968237610612050e+02,-3.029334517081179001e+02,9.370253562927246094e+00,-7.649187743663787842e-02,7.266727685928344727e-01,4.790000000000000000e+02
-4.441041287280877441e+02,-4.938267633591417507e+02,-2.943747510795756170e+02,-2.224681818975714123e+02,-4.972900664843755294e+02,-5.021292198889750580e+02,-2.493029769601157568e+02,-3.003069505297421529e+02,9.370253562927246094e+00,-7.649187743663787842e-02,7.266727685928344727e-01,4.800000000000000000e+02
-4.414525675932304694e+02,-4.918540300618337824e+02,-2.924257877492027546e+02,-2.238063989616725848e+02,-4.913872263028952148e+02,-4.962270051034274729e+02,-2.468465319703236673e+02,-2.981709170590816029e+02,9.370253562927246094e+00,-7.649187743663787842e-02,7.266727685928344727e-01,4.810000000000000000e+02
-4.382959997415589442e+02,-4.896910277255606161e+02,-2.908686948469962772e+02,-2.253169910903525306e+02,-4.856458582334284984e+02,-4.906305259107816710e+02,-2.439123556767121954e+02,-2.968290674908967048e+02,9.370253562927246094e+00,-7.649187743663787842e-02,7.266727685928344727e-01,4.820000000000000000e+02
-4.347596386933601025e+02,-4.874867736316091396e+02,-2.896003461854179477e+02,-2.268207055614725505e+02,-4.807024144674951458e+02,-4.858627954192184006e+02,-2.409149341655115677e+02,-2.962774173282000447e+02,9.370253562927246094e+00,-7.649187743663787842e-02,7.266727685928344727e-01,4.830000000000000000e+02
-4.310130447071578601e+02,-4.850219775648429277e+02,-2.880775558090763298e+02,-2.280862623452489970e+02,-4.769614929001177188e+02,-4.821049065337692809e+02,-2.382642817986788941e+02,-2.959850815968661664e+02,9.370253562927246094e+00,-7.649187743663787842e-02,7.266727685928344727e-01,4.840000000000000000e+02
-4.271089518377580134e+02,-4.819905096757470346e+02,-2.857341208660545817e+02,-2.289170124066963581e+02,-4.741028861896361377e+02,-4.787963040070835632e+02,-2.360032241426511064e+02,-2.951748327108289232e+02,9.370253562927246094e+00,-7.649187743663787842e-02,7.266727685928344727e-01,4.850000000000000000e+02
-4.230860873355320564e+02,-4.784326613562675448e+02,-2.824574419613622922e+02,-2.293595739345378206e+02,-4.712714481931211594e+02,-4.749819353566804239e+02,-2.338281714098920929e+02,-2.933911825626191785e+02,9.370253562927246094e+00,-7.649187743663787842e-02,7.266727685928344727e-01,4.860000000000000000e+02
-4.191089125441501437e+02,-4.747684938739698737e+02,-2.786804380792445954e+02,-2.297302980399747412e+02,-4.677969221901616947e+02,-4.701103912016860704e+02,-2.314187325657035217e+02,-2.908341731752279884e+02,9.370253562927246094e+00,-7.649187743663787842e-02,7.266727685928344727e-01,4.870000000000000000e+02
-4.153853532739874481e+02,-4.713785586761512150e+02,-2.750327692130395008e+02,-2.303390242468449287e+02,-4.637221501969215751e+02,-4.645018756229264909e+02,-2.287267854766500932e+02,-2.881547900061982546e+02,9.370253562927246094e+00,-7.649187743663787842e-02,7.266727685928344727e-01,4.880000000000000000e+02
-4.119106889413324097e+02,-4.682000834130008116e+02,-2.719059678785483811e+02,-2.311532052901666248e+02,-4.596461378508683993e+02,-4.590451576060013394e+02,-2.259991980167155816e+02,-2.859403912412499267e+02,9.370253562927246094e+00,-7.649187743663787842e-02,7.266727685928344727e-01,4.890000000000000000e+02
-4.083651730875758403e+02,-4.647832157674924929e+02,-2.693134582595153006e+02,-2.317548642229739926e+02,-4.561117333426750520e+02,-4.544448816538374558e+02,-2.236040603303295029e+02,-2.843891929566616454e+02,9.370253562927246094e+00,-7.649187743663787842e-02,7.266727685928344727e-01,4.900000000000000000e+02
-4.043879826522493204e+02,-4.607460815898075452e+02,-2.670924299576631711e+02,-2.316617341948312969e+02,-4.531834790732445981e+02,-4.507254620143735337e+02,-2.218464018778745412e+02,-2.834041879792607688e+02,9.370253562927246094e+00,-7.649187743663787842e-02,7.266727685928344727e-01,4.910000000000000000e+02
-4.000117511575876961e+02,-4.561567828011316124e+02,-2.651422792072964967e+02,-2.307007526179502293e+02,-4.505466740614215269e+02,-4.473457895098467816e+02,-2.208402167377330443e+02,-2.828455409992250225e+02,9.370253562927246094e+00,-7.649187743663787842e-02,7.266727685928344727e-01,4.920000000000000000e+02
-3.957868207053363676e+02,-4.514717996764745749e+02,-2.634282002905704303e+02,-2.290954599379269894e+02,-4.478562279020393362e+02,-4.436742517904203851e+02,-2.204040978463090141e+02,-2.825696506382644202e+02,9.370253562927246094e+00,-7.649187743663787842e-02,7.266727685928344727e-01,4.930000000000000000e+02
-3.923834681894829828e+02,-4.471183973873785362e+02,-2.618147240571940984e+02,-2.272582430300778924e+02,-4.449160266868491362e+02,-4.393758437913334092e+02,-2.200388088329536913e+02,-2.822561146245850523e+02,9.370253562927246094e+00,-7.649187743663787842e-02,7.266727685928344727e-01,4.940000000000000000e+02
-3.899825052340070215e+02,-4.431365437488302632e+02,-2.600169084641079280e+02,-2.255452891591394291e+02,-4.416167986490488602e+02,-4.345179510454836418e+02,-2.191125801996367954e+02,-2.813791547542659828e+02,9.370253562927246094e+00,-7.649187743663787842e-02,7.266727685928344727e-01,4.950000000000000000e+02
-3.880288955362404977e+02,-4.392019278865764136e+02,-2.578019566515827137e+02,-2.241814487201802422e+02,-4.378864719867319764e+02,-4.295067165590319291e+02,-2.172349544663841243e+02,-2.795537436600886849e+02,9.370253562927246094e+00,-7.649187743663787842e-02,7.266727685928344727e-01,4.960000000000000000e+02
-3.856152402037510001e+02,-4.349670623500812781e+02,-2.552193361766617272e+02,-2.233064430825099862e+02,-4.337906403500899160e+02,-4.249561987722306640e+02,-2.145485477922397877e+02,-2.769663999612780572e+02,9.370253562927246094e+00,-7.649187743663787842e-02,7.266727685928344727e-01,4.970000000000000000e+02
-3.821632245028727084e+02,-4.303751688253494194e+02,-2.525326325029002419e+02,-2.229577084790930712e+02,-4.296002148944849068e+02,-4.214213457932612528e+02,-2.116256774032149224e+02,-2.743435266571025295e+02,9.370253562927246094e+00,-7.649187743663787842e-02,7.266727685928344727e-01,4.980000000000000000e+02
-3.778028645915433117e+02,-4.256955841076562592e+02,-2.498664170126107820e+02,-2.229743548652879781e+02,-4.256297425525897324e+02,-4.189982229830391134e+02,-2.090084566324546813e+02,-2.723208453912557161e+02,9.408499717712402344e+00,-7.649187743663787842e-02,7.649186849594116211e-01,4.990000000000000000e+02
-3.731526877951965844e+02,-4.213078610912166369e+02,-2.469507820012745469e+02,-2.229929049299457802e+02,-4.219413478165292872e+02,-4.170623679623404314e+02,-2.068083927276550185e+02,-2.707581027027435994e+02,9.408499717712402344e+00,-7.649187743663787842e-02,7.649186849594116211e-01,5.000000000000000000e+02
-3.687650374527861459e+02,-4.174578534300117099e+02,-2.432996761975186928e+02,-2.226529951144925690e+02,-4.182403039380451446e+02,-4.144922349572730127e+02,-2.047274854381332716e+02,-2.687236728016582674e+02,9.408499717712402344e+00,-7.649187743663787842e-02,7.649186849594116211e-01,5.010000000000000000e+02
-3.647645656014423139e+02,-4.141579213917456173e+02,-2.387109512403553708e+02,-2.218630450127470795e+02,-4.141180772094071472e+02,-4.103715298813767731e+02,-2.024301505912617358e+02,-2.652669519513460727e+02,9.408499717712402344e+00,-7.649187743663787842e-02,7.649186849594116211e-01,5.020000000000000000e+02
-3.609568226536325710e+02,-4.112293714676825402e+02,-2.336038954374415653e+02,-2.208530269649783122e+02,-4.094277187572065486e+02,-4.046713193571584952e+02,-1.998537469798601478e+02,-2.603134907244120768e+02,9.408499717712402344e+00,-7.649187743663787842e-02,7.649186849594116211e-01,5.030000000000000000e+02
-3.572123450781084557e+02,-4.083959891649089968e+02,-2.288463033867578815e+02,-2.199587061970748891e+02,-4.044630719599871327e+02,-3.983441344573889182e+02,-1.971815658456255278e+02,-2.548742634994384844e+02,9.408499717712402344e+00,-7.649187743663787842e-02,7.649186849594116211e-01,5.040000000000000000e+02
-3.536983114676888817e+02,-4.053746465334444338e+02,-2.252224699009050255e+02,-2.193605758375838377e+02,-3.998242085565066191e+02,-3.927344381651970480e+02,-1.946061862479060665e+02,-2.504043479769733267e+02,9.408499717712402344e+00,-7.649187743663787842e-02,7.649186849594116211e-01,5.050000000000000000e+02
-3.507387579734115093e+02,-4.019750185035178447e+02,-2.230154259647805475e+02,-2.190270364541817116e+02,-3.961200529918291977e+02,-3.887715315552015909e+02,-1.921944113907564997e+02,-2.479003033812522290e+02,9.408499717712402344e+00,-7.649187743663787842e-02,7.649186849594116211e-01,5.060000000000000000e+02
-3.484692727737241285e+02,-3.981987609286508132e+02,-2.219922357188770548e+02,-2.188573819452128646e+02,-3.936970795797861911e+02,-3.865273280343906208e+02,-1.899661639945090883e+02,-2.474365347813222797e+02,9.408499717712402344e+00,-7.649187743663787842e-02,7.649186849594116211e-01,5.070000000000000000e+02
-3.466373373653437966e+02,-3.942537663983909511e+02,-2.216534271686577426e+02,-2.187896415994204631e+02,-3.924529100870878437e+02,-3.853297411026373993e+02,-1.879941173888768162e+02,-2.483090458594036818e+02,9.408499717712402344e+00,-7.649187743663787842e-02,7.649186849594116211e-01,5.080000000000000000e+02
-3.447400123363900093e+02,-3.904124789368393067e+02,-2.214411267319139256e+02,-2.187175514198879682e+02,-3.917802607235595360e+02,-3.841812618678283116e+02,-1.863329192646804700e+02,-2.494300260405782410e+02,9.408499717712402344e+00,-7.649187743663787842e-02,7.649186849594116211e-01,5.090000000000000000e+02
-3.423668885485486726e+02,-3.867705361372721882e+02,-2.208044191816963462e+02,-2.183516398554455691e+02,-3.907472958058395989e+02,-3.821463394022956663e+02,-1.848469879515792513e+02,-2.496206084821756690e+02,9.408499717712402344e+00,-7.649187743663787842e-02,7.649186849594116211e-01,5.100000000000000000e+02
-3.394550965809307286e+02,-3.831100922895449798e+02,-2.193031873857431719e+02,-2.172719611952720129e+02,-3.885625987851074115e+02,-3.786002747812858615e+02,-1.831820260039083905e+02,-2.478502151645237745e+02,9.408499717712402344e+00,-7.649187743663787842e-02,7.649186849594116211e-01,5.110000000000000000e+02
-3.362738314658583931e+02,-3.790463853403542771e+02,-2.168707083036855465e+02,-2.152206576081678122e+02,-3.850997128154517668e+02,-3.734186546174746582e+02,-1.809832602243440647e+02,-2.436408626921014502e+02,9.408499717712402344e+00,-7.649187743663787842e-02,7.649186849594116211e-01,5.120000000000000000e+02
-3.331921873540560455e+02,-3.743909108843582203e+02,-2.140239294142792232e+02,-2.123694341579228535e+02,-3.810477449846841864e+02,-3.670949638572010372e+02,-1.781655895609491722e+02,-2.375157029625049745e+02,9.408499717712402344e+00,-7.649187743663787842e-02,7.649186849594116211e-01,5.130000000000000000e+02
-3.304389856644107795e+02,-3.694305093214169347e+02,-2.116827547892618213e+02,-2.092882129450932780e+02,-3.774754850864362652e+02,-3.606361341126873867e+02,-1.749952516129211517e+02,-2.310173248748367314e+02,9.408499717712402344e+00,-7.649187743663787842e-02,7.649186849594116211e-01,5.140000000000000000e+02
-3.279971271751333006e+02,-3.648325668028173823e+02,-2.105443873143343581e+02,-2.066211894315891868e+02,-3.750709778470020410e+02,-3.551346659806338266e+02,-1.719393391503549537e+02,-2.259810441479912697e+02,9.408499717712402344e+00,-7.649187743663787842e-02,7.649186849594116211e-01,5.150000000000000000e+02
-3.256235367291862985e+02,-3.611935364744933850e+02,-2.104468384616136518e+02,-2.047459982567711450e+02,-3.736375325125752624e+02,-3.512012313523320017e+02,-1.694366261653364063e+02,-2.234138250178313001e+02,9.408499717712402344e+00,-7.649187743663787842e-02,7.649186849594116211e-01,5.160000000000000000e+02
-3.229434769814575930e+02,-3.585767259831322917e+02,-2.103046872195968717e+02,-2.036632716119253246e+02,-3.722477487398966787e+02,-3.486550639733859498e+02,-1.677391849581681527e+02,-2.228533576812865249e+02,9.408499717712402344e+00,-7.649187743663787842e-02,7.649186849594116211e-01,5.170000000000000000e+02
-3.196080388815389597e+02,-3.564253024401177754e+02,-2.087934450886968989e+02,-2.031064187819033577e+02,-3.699270213832685386e+02,-3.467273892627465557e+02,-1.668349041424719417e+02,-2.227958950158442804e+02,9.408499717712402344e+00,-7.649187743663787842e-02,7.649186849594116211e-01,5.180000000000000000e+02
-3.155133054888215156e+02,-3.539300569597517097e+02,-2.053212829081876407e+02,-2.026906974115586308e+02,-3.663576039765989663e+02,-3.446489437082673248e+02,-1.664387849258314418e+02,-2.218820057683631148e+02,9.408499717712402344e+00,-7.649187743663787842e-02,7.649186849594116211e-01,5.190000000000000000e+02
-3.109806844039226235e+02,-3.505569315458369601e+02,-2.005288061578985435e+02,-2.019918245828098406e+02,-3.621246901057279501e+02,-3.421781886967598894e+02,-1.660941270414914470e+02,-2.198592230461636063e+02,9.446745872497558594e+00,-7.649187743663787842e-02,7.266727685928344727e-01,5.200000000000000000e+02
-3.067086867738639739e+02,-3.463476162524266329e+02,-1.959000405833753575e+02,-2.006367707502095072e+02,-3.583751862615749815e+02,-3.396820857778657228e+02,-1.654057156578610375e+02,-2.175531066122512129e+02,9.446745872497558594e+00,-7.649187743663787842e-02,7.266727685928344727e-01,5.210000000000000000e+02
-3.034141055206464443e+02,-3.418356124066560824e+02,-1.927628300098579075e+02,-1.984953777394503049e+02,-3.561341302141618144e+02,-3.377411953253340471e+02,-1.642826562155873944e+02,-2.159576883075233127e+02,9.446745872497558594e+00,-7.649187743663787842e-02,7.266727685928344727e-01,5.220000000000000000e+02
-3.013616092912295699e+02,-3.377057131576984830e+02,-1.914336840547921383e+02,-1.958577913133681250e+02,-3.556901375763372926e+02,-3.366231430768120845e+02,-1.629583492955712245e+02,-2.153100135474051058e+02,9.446745872497558594e+00,-7.649187743663787842e-02,7.266727685928344727e-01,5.230000000000000000e+02
-3.001612773088913855e+02,-3.344371304917171983e+02,-1.911394345670646544e+02,-1.933612666438893939e+02,-3.564148645171080716e+02,-3.360533069466596316e+02,-1.617218725868460751e+02,-2.149352319430963689e+02,9.446745872497558594e+00,-7.649187743663787842e-02,7.266727685928344727e-01,5.240000000000000000e+02
-2.990582821251502992e+02,-3.321183427798100638e+02,-1.907381319234868897e+02,-1.915968537132166603e+02,-3.571123294412846008e+02,-3.354270839065293330e+02,-1.606051354326828005e+02,-2.138900063831802072e+02,9.446745872497558594e+00,-7.649187743663787842e-02,7.266727685928344727e-01,5.250000000000000000e+02
-2.974952947841879904e+02,-3.304976204806434907e+02,-1.896340222600319976e+02,-1.906748294657013503e+02,-3.566624298853466826e+02,-3.342496579872449729e+02,-1.593672413046915608e+02,-2.117561752471428917e+02,9.446745872497558594e+00,-7.649187743663787842e-02,7.266727685928344727e-01,5.260000000000000000e+02
-2.954716831976861613e+02,-3.292315629241675197e+02,-1.881513387587269790e+02,-1.901629831187092350e+02,-3.545517627223034651e+02,-3.324497119273455610e+02,-1.578317313408074369e+02,-2.089275508286041259e+02,9.446745872497558594e+00,-7.649187743663787842e-02,7.266727685928344727e-01,5.270000000000000000e+02
-2.933900388202819158e+02,-3.281696946815723095e+02,-1.870958922269810500e+02,-1.894975798830059830e+02,-3.510098657560774882e+02,-3.303593170889039357e+02,-1.562147652565063254e+02,-2.062638809306149597e+02,9.446745872497558594e+00,-7.649187743663787842e-02,7.266727685928344727e-01,5.280000000000000000e+02
-2.915648082227148734e+02,-3.274444116437339289e+02,-1.869273477923197788e+02,-1.885123556059907060e+02,-3.467880706879777790e+02,-3.284487167968713948e+02,-1.550392883663885186e+02,-2.045071373001724169e+02,9.446745872497558594e+00,-7.649187743663787842e-02,7.266727685928344727e-01,5.290000000000000000e+02
-2.898894287668363177e+02,-3.272314121105573577e+02,-1.872889669943051558e+02,-1.875633831555655888e+02,-3.428110200057685688e+02,-3.270341400646334478e+02,-1.546316233512748113e+02,-2.039139840715197352e+02,9.446745872497558594e+00,-7.649187743663787842e-02,7.266727685928344727e-01,5.300000000000000000e+02
-2.879913525386191395e+02,-3.273258520702684109e+02,-1.872975374097140957e+02,-1.870711115160152076e+02,-3.398542818301857551e+02,-3.260934295357910742e+02,-1.546737185742722431e+02,-2.042370179909325998e+02,9.446745872497558594e+00,-7.649187743663787842e-02,7.266727685928344727e-01,5.310000000000000000e+02
-2.856940349347273695e+02,-3.269469789779309394e+02,-1.863080690422780208e+02,-1.869086699216327361e+02,-3.382575700159750340e+02,-3.252228589477781497e+02,-1.543137988681519346e+02,-2.049008330907590789e+02,9.446745872497558594e+00,-7.649187743663787842e-02,7.266727685928344727e-01,5.320000000000000000e+02
-2.832862096854855736e+02,-3.250938051735211047e+02,-1.844220142439808114e+02,-1.862474162994767539e+02,-3.376782072008927571e+02,-3.237285306635585584e+02,-1.527971404596692082e+02,-2.051703074060101244e+02,9.446745872497558594e+00,-7.649187743663787842e-02,7.266727685928344727e-01,5.330000000000000000e+02
-2.813042793523782166e+02,-3.213072364779150121e+02,-1.822739164804515895e+02,-1.840947200357995825e+02,-3.371087572057449506e+02,-3.208984786652526964e+02,-1.500625102441790659e+02,-2.042982848487481533e+02,9.446745872497558594e+00,-7.649187743663787842e-02,7.266727685928344727e-01,5.340000000000000000e+02
-2.800117800188795627e+02,-3.162258932507488680e+02,-1.803326132096763104e+02,-1.801143372274159447e+02,-3.353621455380653060e+02,-3.164253697650401591e+02,-1.467505485764395416e+02,-2.017500372412432625e+02,9.446745872497558594e+00,-7.649187743663787842e-02,7.266727685928344727e-01,5.350000000000000000e+02
-2.790744509339033357e+02,-3.113496785958895998e+02,-1.784133890367720596e+02,-1.750283317573148452e+02,-3.318407080899323773e+02,-3.107526607101426634e+02,-1.436241066781558402e+02,-1.975077519134101749e+02,9.446745872497558594e+00,-7.649187743663787842e-02,7.266727685928344727e-01,5.360000000000000000e+02
-2.777648258124022504e+02,-3.080775356505437230e+02,-1.758930272479146879e+02,-1.702541495083842165e+02,-3.270163367591685528e+02,-3.050337983229328529e+02,-1.409902891614938198e+02,-1.922852167143309998e+02,9.446745872497558594e+00,-7.649187743663787842e-02,7.266727685928344727e-01,5.370000000000000000e+02
-2.755298733857180196e+02,-3.067863758458770462e+02,-1.724202034712661771e+02,-1.670762940839485964e+02,-3.221443804293057838e+02,-3.005933631451553083e+02,-1.386981591385483625e+02,-1.874124266112194164e+02,9.446745872497558594e+00,-7.649187743663787842e-02,7.266727685928344727e-01,5.380000000000000000e+02
-2.724353085770426333e+02,-3.067257852743259718e+02,-1.684159779421834173e+02,-1.660016670022214385e+02,-3.183879561890626064e+02,-2.981955045329950735e+02,-1.366743262043555660e+02,-1.843080952838081430e+02,9.446745872497558594e+00,-7.649187743663787842e-02,7.266727685928344727e-01,5.390000000000000000e+02
-2.691101072742367251e+02,-3.067568038046729271e+02,-1.648330487255170738e+02,-1.666752136081486242e+02,-3.160733777833920612e+02,-2.976260567999115665e+02,-1.353453101823179168e+02,-1.837296012872830033e+02,9.446745872497558594e+00,-7.649187743663787842e-02,7.266727685928344727e-01,5.400000000000000000e+02
-2.662483616259687551e+02,-3.062074374262901983e+02,-1.623551623485927848e+02,-1.682220983514562249e+02,-3.146681612772345034e+02,-2.978863978671388395e+02,-1.353662241320553221e+02,-1.852448080632630081e+02,9.446745872497558594e+00,-7.649187743663787842e-02,7.266727685928344727e-01,5.410000000000000000e+02
-2.641008477785653668e+02,-3.050674806227007139e+02,-1.607916057199654460e+02,-1.696478409531955549e+02,-3.133767738776905389e+02,-2.978370912028367457e+02,-1.368256651030933426e+02,-1.873525647592487076e+02,9.446745872497558594e+00,-7.649187743663787842e-02,7.266727685928344727e-01,5.420000000000000000e+02
-2.623779195042625361e+02,-3.034751295284404478e+02,-1.592559800608923979e+02,-1.701041193204709998e+02,-3.117222476821725650e+02,-2.968071472735682619e+02,-1.387419050193329895e+02,-1.882995153765150462e+02,9.446745872497558594e+00,-7.649187743663787842e-02,7.266727685928344727e-01,5.430000000000000000e+02
-2.606302713222157763e+02,-3.011995842723435999e+02,-1.570043353617975299e+02,-1.690963950981195012e+02,-3.096583974795448739e+02,-2.948006506593919767e+02,-1.395100660986527146e+02,-1.871297572865096299e+02,9.446745872497558594e+00,-7.649187743663787842e-02,7.266727685928344727e-01,5.440000000000000000e+02
-2.587704876560201228e+02,-2.977831177525549720e+02,-1.541795300223411687e+02,-1.667163390065088606e+02,-3.073202995176288823e+02,-2.922885090615809531e+02,-1.380683303225077907e+02,-1.842448386698397371e+02,9.408499717712402344e+00,-7.649187743663787842e-02,7.266727685928344727e-01,5.450000000000000000e+02
-2.572463537748462841e+02,-2.932126283770785449e+02,-1.517461907454216998e+02,-1.637170228065060655e+02,-3.048159088768516085e+02,-2.898286262194342271e+02,-1.347605425252932037e+02,-1.810289248467242942e+02,9.408499717712402344e+00,-7.649187743663787842e-02,7.266727685928344727e-01,5.460000000000000000e+02
-2.566536811785672398e+02,-2.883313206568336682e+02,-1.506197347236266069e+02,-1.611837825730854092e+02,-3.022414703550675767e+02,-2.877798115809473529e+02,-1.310635078291261379e+02,-1.788032693994055080e+02,9.408499717712402344e+00,-7.649187743663787842e-02,7.266727685928344727e-01,5.470000000000000000e+02
-2.570988727725834906e+02,-2.843920434454994393e+02,-1.507572891607724159e+02,-1.598747487777209244e+02,-2.997473047081602999e+02,-2.862084034537365369e+02,-1.283921137374982209e+02,-1.779230370629629761e+02,9.408499717712402344e+00,-7.649187743663787842e-02,7.266727685928344727e-01,5.480000000000000000e+02
-2.579173346642392062e+02,-2.820352057980071550e+02,-1.510651385582386865e+02,-1.597018040710481728e+02,-2.974695978261534037e+02,-2.849603900900692679e+02,-1.270726395919245988e+02,-1.777130811216156872e+02,9.408499717712402344e+00,-7.649187743663787842e-02,7.266727685928344727e-01,5.490000000000000000e+02
-2.580903054540685844e+02,-2.806342235698930381e+02,-1.502678427579812706e+02,-1.598143416293378323e+02,-2.953974429067948222e+02,-2.838070670809356670e+02,-1.263661318605918495e+02,-1.772051491329657438e+02,9.408499717712402344e+00,-7.649187743663787842e-02,7.266727685928344727e-01,5.500000000000000000e+02
-2.570697261911218447e+02,-2.786955345917340310e+02,-1.480177575854813767e+02,-1.592399881239025490e+02,-2.933832385564292053e+02,-2.825502384187311691e+02,-1.253635904209531873e+02,-1.759507257448331075e+02,9.408499717712402344e+00,-7.649187743663787842e-02,7.266727685928344727e-01,5.510000000000000000e+02
-2.552819867881098617e+02,-2.750374911521348622e+02,-1.452756546545006131e+02,-1.575392828519652539e+02,-2.913223562714392756e+02,-2.810312116246641381e+02,-1.237831312327816704e+02,-1.741968090064656280e+02,9.408499717712402344e+00,-7.649187743663787842e-02,7.266727685928344727e-01,5.520000000000000000e+02
-2.537951545190080651e+02,-2.697399247079174529e+02,-1.436047568004778441e+02,-1.549488484386210985e+02,-2.892823483299107465e+02,-2.790884490891712630e+02,-1.219460830240295763e+02,-1.724003185571000358e+02,9.408499717712402344e+00,-7.649187743663787842e-02,7.266727685928344727e-01,5.530000000000000000e+02
-2.533900145557881842e+02,-2.640740925966929353e+02,-1.439690339548360498e+02,-1.520142865560355858e+02,-2.874398462696935894e+02,-2.765959858663372870e+02,-1.201719593131729198e+02,-1.707169757307492546e+02,9.408499717712402344e+00,-7.649187743663787842e-02,7.266727685928344727e-01,5.540000000000000000e+02
-2.538654085965108607e+02,-2.595507758177027426e+02,-1.460387782157504262e+02,-1.491766971668221231e+02,-2.859335189836656355e+02,-2.736237467954360909e+02,-1.184029926658422482e+02,-1.690249204293231742e+02,9.408499717712402344e+00,-7.649187743663787842e-02,7.266727685928344727e-01,5.550000000000000000e+02
-2.542414956428974619e+02,-2.569455469155018363e+02,-1.485254031298372865e+02,-1.466955604455142748e+02,-2.848265359641372925e+02,-2.705578554295716458e+02,-1.164818138901719067e+02,-1.673651425913267303e+02,9.408499717712402344e+00,-7.649187743663787842e-02,7.266727685928344727e-01,5.560000000000000000e+02
-2.536880517328281712e+02,-2.560439567548528430e+02,-1.501559507636302442e+02,-1.448157353040351154e+02,-2.841655778829426708e+02,-2.679492177214306139e+02,-1.146573158527280611e+02,-1.661522316058544675e+02,9.408499717712402344e+00,-7.649187743663787842e-02,7.266727685928344727e-01,5.570000000000000000e+02
-2.522780102308133792e+02,-2.560984616121295403e+02,-1.504109051423147321e+02,-1.437974068345629348e+02,-2.839316219925094629e+02,-2.660889602698371164e+02,-1.135988214090157271e+02,-1.657544846431992482e+02,9.408499717712402344e+00,-7.649187743663787842e-02,7.266727685928344727e-01,5.580000000000000000e+02
-2.508078126964264811e+02,-2.564185725518036634e+02,-1.494897594459143875e+02,-1.436546656725095090e+02,-2.838204683884068800e+02,-2.646760612474681693e+02,-1.137811375815908832e+02,-1.658204248145466408e+02,9.408499717712402344e+00,-7.649187743663787842e-02,7.266727685928344727e-01,5.590000000000000000e+02
-2.498350531728319766e+02,-2.566017095817514928e+02,-1.477460941438530426e+02,-1.439009489414747804e+02,-2.831135837741912837e+02,-2.629880263457216643e+02,-1.148683229864836903e+02,-1.651802787580108998e+02,9.408499717712402344e+00,-7.649187743663787842e-02,7.266727685928344727e-01,5.600000000000000000e+02
-2.488898727665800834e+02,-2.564173277295249136e+02,-1.452632601459336001e+02,-1.437088001244192128e+02,-2.809600502054145181e+02,-2.605105094963582815e+02,-1.158016480166388646e+02,-1.626639745746560948e+02,9.408499717712402344e+00,-7.649187743663787842e-02,7.266727685928344727e-01,5.610000000000000000e+02
-2.467128600208870921e+02,-2.556836289817911165e+02,-1.419688763946178369e+02,-1.424865634115503781e+02,-2.770089901782230299e+02,-2.574592557225296332e+02,-1.155853085126182123e+02,-1.582028063214147551e+02,9.408499717712402344e+00,-7.649187743663787842e-02,7.266727685928344727e-01,5.620000000000000000e+02
-2.424097994689273037e+02,-2.543144139089708915e+02,-1.380722712794413383e+02,-1.403755568954984483e+02,-2.718816056070118066e+02,-2.546340667669192044e+02,-1.140694391064916999e+02,-1.531508869139561284e+02,9.408499717712402344e+00,-7.649187743663787842e-02,7.266727685928344727e-01,5.630000000000000000e+02
-2.364856385298990062e+02,-2.524035645706062496e+02,-1.342807383779108932e+02,-1.381586612495066220e+02,-2.669943516786388500e+02,-2.526760859881760553e+02,-1.120350667652219272e+02,-1.493832621571436903e+02,9.408499717712402344e+00,-7.649187743663787842e-02,7.266727685928344727e-01,5.640000000000000000e+02
-2.307469847789234336e+02,-2.501721673429219663e+02,-1.314940444841577118e+02,-1.365999185070340900e+02,-2.637413835917868710e+02,-2.514343723401598254e+02,-1.105424009082962584e+02,-1.478740947116657480e+02,9.408499717712402344e+00,-7.649187743663787842e-02,7.266727685928344727e-01,5.650000000000000000e+02
-2.270520607769994967e+02,-2.478409664075552428e+02,-1.302130615196692816e+02,-1.357964532178757509e+02,-2.626053823872844077e+02,-2.501053040635233629e+02,-1.101291248418274336e+02,-1.480036152441662125e+02,9.408499717712402344e+00,-7.649187743663787842e-02,7.266727685928344727e-01,5.660000000000000000e+02
-2.259252879960531573e+02,-2.456326369818925741e+02,-1.301835802964615141e+02,-1.351403120463055529e+02,-2.628754939665304846e+02,-2.480614457448045869e+02,-1.104795822909527487e+02,-1.482126799417801521e+02,9.408499717712402344e+00,-7.649187743663787842e-02,7.266727685928344727e-01,5.670000000000000000e+02
-2.262039614086206711e+02,-2.439074855950366327e+02,-1.305823277371400764e+02,-1.339363900040425506e+02,-2.631954976303968579e+02,-2.455599784644473402e+02,-1.107309922818512860e+02,-1.473881753913719876e+02,9.408499717712402344e+00,-7.649187743663787842e-02,7.266727685928344727e-01,5.680000000000000000e+02
-2.260031276799272746e+02,-2.431638721044364502e+02,-1.305938121386534476e+02,-1.321239624826284853e+02,-2.625516785427735158e+02,-2.436116968728747452e+02,-1.101060991628419288e+02,-1.457185381667786714e+02,9.408499717712402344e+00,-7.649187743663787842e-02,7.266727685928344727e-01,5.690000000000000000e+02
-2.241599567564880999e+02,-2.437045024056387774e+02,-1.299059385567925347e+02,-1.304298804821028170e+02,-2.609602737699315185e+02,-2.430870119807041192e+02,-1.083922108196857153e+02,-1.442882342255743424e+02,9.408499717712402344e+00,-7.649187743663787842e-02,7.266727685928344727e-01,5.700000000000000000e+02
-2.209646110892390425e+02,-2.451850355245242099e+02,-1.287593361995877785e+02,-1.297847841618768143e+02,-2.593210856356527074e+02,-2.438707995582735748e+02,-1.059736405947624007e+02,-1.438663751450185373e+02,9.408499717712402344e+00,-7.649187743663787842e-02,7.266727685928344727e-01,5.710000000000000000e+02
-2.176865805225952499e+02,-2.465584863901403878e+02,-1.275824405095554539e+02,-1.304765481846206967e+02,-2.585353521124889085e+02,-2.448250156200665515e+02,-1.034629361401639471e+02,-1.440640551553842670e+02,9.408499717712402344e+00,-3.824593871831893921e-02,7.266727685928344727e-01,5.720000000000000000e+02
-2.154387272315798327e+02,-2.466501756437592121e+02,-1.265629058974263899e+02,-1.317496136793524784e+02,-2.585924430155537266e+02,-2.445760516741174797e+02,-1.012496231510776852e+02,-1.436383491185606545e+02,9.408499717712402344e+00,-3.824593871831893921e-02,7.266727685928344727e-01,5.730000000000000000e+02
-2.143886695433793648e+02,-2.449743407962778292e+02,-1.255262673869037826e+02,-1.322229212849906617e+02,-2.584464615215874801e+02,-2.424629994067036023e+02,-9.933756154552247608e+01,-1.416236957407927548e+02,9.408499717712402344e+00,-3.824593871831893921e-02,7.266727685928344727e-01,5.740000000000000000e+02
-2.138713589759245224e+02,-2.420665045568166533e+02,-1.241825438799678523e+02,-1.308198365244006709e+02,-2.568567477159049304e+02,-2.389074346729612444e+02,-9.756934457024908625e+01,-1.382114621916807664e+02,9.408499717712402344e+00,-3.824593871831893921e-02,7.266727685928344727e-01,5.750000000000000000e+02
-2.131021182002623391e+02,-2.390081302237413183e+02,-1.224533694243036734e+02,-1.274851460192658124e+02,-2.534745660898624919e+02,-2.349860832710110117e+02,-9.597026581528916722e+01,-1.345704719056557224e+02,9.408499717712402344e+00,-3.824593871831893921e-02,7.266727685928344727e-01,5.760000000000000000e+02
-2.117585655737075285e+02,-2.365690489241842442e+02,-1.205360209076570754e+02,-1.231504896738060779e+02,-2.491491482469464245e+02,-2.316161229975405149e+02,-9.480948973984413897e+01,-1.317961247614839522e+02,9.408499717712402344e+00,-3.824593871831893921e-02,7.266727685928344727e-01,5.770000000000000000e+02
-2.100014101822671364e+02,-2.347258967520174338e+02,-1.186429726222413592e+02,-1.190165129747219908e+02,-2.451229903612911585e+02,-2.289833727269433439e+02,-9.427156149713482591e+01,-1.299586592257146549e+02,9.408499717712402344e+00,-3.824593871831893921e-02,7.266727685928344727e-01,5.780000000000000000e+02
-2.081107908769845380e+02,-2.329061453023477952e+02,-1.167136104266901384e+02,-1.157658006713209033e+02,-2.418932590403273934e+02,-2.265860807008866686e+02,-9.409102780679313582e+01,-1.281016774053096015e+02,9.408499717712402344e+00,-3.824593871831893921e-02,7.266727685928344727e-01,5.790000000000000000e+02
-2.062007129774247005e+02,-2.306081171271762287e+02,-1.144400634286939749e+02,-1.133121516965293267e+02,-2.388706367343183956e+02,-2.237763196610212617e+02,-9.359640164010488661e+01,-1.251628396679989237e+02,9.408499717712402344e+00,-3.824593871831893921e-02,7.266727685928344727e-01,5.800000000000000000e+02
-2.042498207621047186e+02,-2.277895491412455158e+02,-1.116334832257489325e+02,-1.111908243628640776e+02,-2.351759749850207299e+02,-2.203456838577694725e+02,-9.221312546985427616e+01,-1.209899638537717692e+02,9.408499717712402344e+00,-3.824593871831893921e-02,7.266727685928344727e-01,5.810000000000000000e+02
-2.022594263777409651e+02,-2.247630641497016768e+02,-1.085812720885405724e+02,-1.091394850327051245e+02,-2.307372088176634861e+02,-2.167195460249931784e+02,-8.995962013658936485e+01,-1.165784994755922526e+02,9.408499717712402344e+00,-3.824593871831893921e-02,7.266727685928344727e-01,5.820000000000000000e+02
-2.002703626799957419e+02,-2.218449037764366949e+02,-1.059996370116787148e+02,-1.073065254543071205e+02,-2.265165051925177977e+02,-2.136400881183690217e+02,-8.742260906953015365e+01,-1.133495419819155359e+02,9.408499717712402344e+00,-3.824593871831893921e-02,7.266727685928344727e-01,5.830000000000000000e+02
-1.982424504043883644e+02,-2.191485586849230458e+02,-1.045611193660370191e+02,-1.059489873656420968e+02,-2.236229637813084992e+02,-2.116118514125701040e+02,-8.523060758225983591e+01,-1.120879278009415430e+02,9.408499717712402344e+00,-3.824593871831893921e-02,7.266727685928344727e-01,5.840000000000000000e+02
-1.960311801143398043e+02,-2.166371549291943666e+02,-1.043767094142785936e+02,-1.049754282410322048e+02,-2.222179795972697320e+02,-2.105287899812028627e+02,-8.354890443094336661e+01,-1.123646158993033168e+02,9.408499717712402344e+00,-3.824593871831893921e-02,7.266727685928344727e-01,5.850000000000000000e+02
-1.935969340383053350e+02,-2.142663721595818060e+02,-1.048838649759709369e+02,-1.038208166933000030e+02,-2.213272863354832225e+02,-2.097320415119938843e+02,-8.208099196877446957e+01,-1.128354760203037586e+02,9.408499717712402344e+00,-3.824593871831893921e-02,7.266727685928344727e-01,5.860000000000000000e+02
-1.912410145160247339e+02,-2.120674358638243575e+02,-1.052382968661950144e+02,-1.018054853843896126e+02,-2.197214915099248174e+02,-2.084230779258941766e+02,-8.050923585649434244e+01,-1.121377535951396567e+02,9.408499717712402344e+00,-3.824593871831893921e-02,7.266727685928344727e-01,5.870000000000000000e+02
-1.895391230859750067e+02,-2.101678404412341479e+02,-1.048833030267596769e+02,-9.865908485623367596e+01,-2.169724317576838075e+02,-2.061299239007312281e+02,-7.886950376160893939e+01,-1.097330454243347049e+02,9.408499717712402344e+00,-3.824593871831893921e-02,7.266727685928344727e-01,5.880000000000000000e+02
-1.889156647800082283e+02,-2.087750206317032280e+02,-1.038545027048276097e+02,-9.473985560392247862e+01,-2.137293065969570307e+02,-2.029525208386003214e+02,-7.748871833896555472e+01,-1.061811023589434626e+02,9.408499717712402344e+00,-3.824593871831893921e-02,7.266727685928344727e-01,5.890000000000000000e+02
-1.891900728106520546e+02,-2.080564239658524457e+02,-1.026195813504891703e+02,-9.075888999070593854e+01,-2.110797346164981718e+02,-1.994833434641441272e+02,-7.659030725918637472e+01,-1.027363998713699402e+02,9.408499717712402344e+00,-3.824593871831893921e-02,7.266727685928344727e-01,5.900000000000000000e+02
-1.895325775206765684e+02,-2.078945663166086888e+02,-1.016366132941802789e+02,-8.728079942407930503e+01,-2.096879894444427919e+02,-1.964878222362021916e+02,-7.601899866977328202e+01,-1.005811778705538018e+02,9.408499717712402344e+00,-3.824593871831893921e-02,7.266727685928344727e-01,5.910000000000000000e+02
-1.889512108939889004e+02,-2.077341442624347110e+02,-1.010095284383824037e+02,-8.446163762380092521e+01,-2.094375481680181110e+02,-1.945257934209730593e+02,-7.537477466649943381e+01,-1.001955278221503249e+02,9.408499717712402344e+00,-3.824593871831893921e-02,7.266727685928344727e-01,5.920000000000000000e+02
-1.869762811800719646e+02,-2.068321958609485591e+02,-1.004932681183818204e+02,-8.223941249122071895e+01,-2.097091604627603374e+02,-1.937051749709098658e+02,-7.441491158820645069e+01,-1.012290416116338747e+02,9.408499717712402344e+00,-3.824593871831893921e-02,7.266727685928344727e-01,5.930000000000000000e+02
-1.840265604768064804e+02,-2.048834519117262971e+02,-9.980540683357685339e+01,-8.073039484147739131e+01,-2.099141810104047181e+02,-1.937097757039191492e+02,-7.334057084430241957e+01,-1.028871512000005168e+02,9.408499717712402344e+00,-3.824593871831893921e-02,7.266727685928344727e-01,5.940000000000000000e+02
-1.811688854168824037e+02,-2.024973567191846087e+02,-9.895198753286604187e+01,-8.035067361390247243e+01,-2.098296788148800260e+02,-1.940705791336658876e+02,-7.269234567028979654e+01,-1.044972847698518308e+02,9.408499717712402344e+00,-3.824593871831893921e-02,7.266727685928344727e-01,5.950000000000000000e+02
-1.794177962956346164e+02,-2.009424576516939851e+02,-9.824202627520207898e+01,-8.143917894318292383e+01,-2.095652321488159942e+02,-1.944690862062634551e+02,-7.290704776334314374e+01,-1.057987492454376479e+02,9.408499717712402344e+00,-3.824593871831893921e-02,7.266727685928344727e-01,5.960000000000000000e+02
-1.790472237842441245e+02,-2.011937433477942250e+02,-9.792743910696299281e+01,-8.368528275701100938e+01,-2.092693473010913294e+02,-1.948167251302402292e+02,-7.385225434344101814e+01,-1.067584345766044862e+02,9.408499717712402344e+00,-3.824593871831893921e-02,7.266727685928344727e-01,5.970000000000000000e+02
-1.793846516983576294e+02,-2.030741468400774465e+02,-9.777669619033258641e+01,-8.596834187701460905e+01,-2.088274775827267149e+02,-1.950700115615836694e+02,-7.471211491697977181e+01,-1.071719236913158966e+02,9.408499717712402344e+00,-3.824593871831893921e-02,7.266727685928344727e-01,5.980000000000000000e+02
-1.792553159704366408e+02,-2.053276674919507059e+02,-9.706354488858414697e+01,-8.694697949488181621e+01,-2.078335689132800326e+02,-1.950396361536950280e+02,-7.442377760827002930e+01,-1.065489161556542967e+02,9.408499717712402344e+00,-3.824593871831893921e-02,7.266727685928344727e-01,5.990000000000000000e+02
-1.777978763053251896e+02,-2.066109907552308869e+02,-9.513351660736589110e+01,-8.603541375547138159e+01,-2.059226384508365300e+02,-1.944692100295033015e+02,-7.246071871990352520e+01,-1.045055386958156305e+02,9.408499717712402344e+00,-3.824593871831893921e-02,7.266727685928344727e-01,6.000000000000000000e+02
-1.750938495672817226e+02,-2.064797798926665564e+02,-9.213780157953442540e+01,-8.393631812304374762e+01,-2.032347078998755023e+02,-1.933440894435188966e+02,-6.939918299215423758e+01,-1.013377852087214706e+02,9.408499717712402344e+00,-3.824593871831893921e-02,7.266727685928344727e-01,6.010000000000000000e+02
-1.721480902871262515e+02,-2.054468075350741856e+02,-8.924152311495709000e+01,-8.217090564296813682e+01,-2.005726457729761023e+02,-1.920740240037266631e+02,-6.673768862819997594e+01,-9.816713564253223012e+01,9.408499717712402344e+00,-3.824593871831893921e-02,7.266727685928344727e-01,6.020000000000000000e+02
-1.701954670299819554e+02,-2.041437585868625320e+02,-8.794377134200112778e+01,-8.188254320318446844e+01,-1.989769005980124348e+02,-1.912485530792691861e+02,-6.594812560424543335e+01,-9.635173003557429183e+01,9.408499717712402344e+00,-7.649187743663787842e-02,7.649186849594116211e-01,6.030000000000000000e+02
-1.698345231076709752e+02,-2.025420638006253284e+02,-8.893501756831392413e+01,-8.286594342235184740e+01,-1.989769103565486148e+02,-1.911180840791130322e+02,-6.739542690714006312e+01,-9.651580535995162791e+01,9.408499717712402344e+00,-7.649187743663787842e-02,7.649186849594116211e-01,6.040000000000000000e+02
-1.706476559512666427e+02,-2.000751299521143665e+02,-9.144127094058057992e+01,-8.363797925777544151e+01,-2.001392643541403231e+02,-1.912964907282148488e+02,-6.996760859729329241e+01,-9.797182981338119134e+01,9.408499717712402344e+00,-7.649187743663787842e-02,7.649186849594116211e-01,6.050000000000000000e+02
-1.715919762792291294e+02,-1.965027876030690095e+02,-9.367019232606253354e+01,-8.251041224781874917e+01,-2.013180028432543622e+02,-1.910139407580063562e+02,-7.173987662611034466e+01,-9.906883241081231972e+01,9.408499717712402344e+00,-7.649187743663787842e-02,7.649186849594116211e-01,6.060000000000000000e+02
-1.717988357916328823e+02,-1.925182442188743153e+02,-9.403756408554909285e+01,-7.880963573501503561e+01,-2.013909192520222859e+02,-1.897195478076246218e+02,-7.117470078323822236e+01,-9.825123677750525530e+01,9.408499717712402344e+00,-7.649187743663787842e-02,7.649186849594116211e-01,6.070000000000000000e+02
-1.710806630699808011e+02,-1.893731043357038288e+02,-9.218088979001913685e+01,-7.331774542008497519e+01,-1.998723591056186706e+02,-1.874802700255095260e+02,-6.797619668637344148e+01,-9.505718350021925289e+01,9.408499717712402344e+00,-7.649187743663787842e-02,7.649186849594116211e-01,6.080000000000000000e+02
-1.697652599068533164e+02,-1.878781395403602801e+02,-8.899151976923894836e+01,-6.771724575020562042e+01,-1.969990253106443561e+02,-1.848527637068400509e+02,-6.309403106435638620e+01,-9.035733513902232517e+01,9.408499717712402344e+00,-7.649187743663787842e-02,7.649186849594116211e-01,6.090000000000000000e+02
-1.681378370356287633e+02,-1.878006705668703944e+02,-8.577931751546566375e+01,-6.357422537367892801e+01,-1.934093993249189225e+02,-1.824280163146904670e+02,-5.806808379571884871e+01,-8.573237884627451422e+01,9.408499717712402344e+00,-7.649187743663787842e-02,7.649186849594116211e-01,6.100000000000000000e+02
-1.661502173429835238e+02,-1.882517753684442141e+02,-8.337694345773343230e+01,-6.159291014926202479e+01,-1.897872911335725803e+02,-1.805023134295552154e+02,-5.427521886631438974e+01,-8.249085269875649828e+01,9.408499717712402344e+00,-7.649187743663787842e-02,7.649186849594116211e-01,6.110000000000000000e+02
-1.637095510260405717e+02,-1.885858402674966783e+02,-8.186301871745672543e+01,-6.148252444993340760e+01,-1.866524268664870760e+02,-1.790950469441959285e+02,-5.246283911795762833e+01,-8.098567176700453274e+01,9.408499717712402344e+00,-7.649187743663787842e-02,7.649186849594116211e-01,6.120000000000000000e+02
-1.611814027092805190e+02,-1.888264680088905152e+02,-8.090205326092109317e+01,-6.229358626214525430e+01,-1.842291181503678672e+02,-1.781280076076000114e+02,-5.260222208518825937e+01,-8.058870856110297609e+01,9.408499717712402344e+00,-7.649187743663787842e-02,7.649186849594116211e-01,6.130000000000000000e+02
