F3,F4,C3,C4,P3,P4,Cz,Pz,Accel_x,Accel_y,Accel_z,Sample
-4.274625098332762718e-11,-6.002665031701326370e-11,-5.820766091346740723e-11,-7.275957614183425903e-11,-5.275069270282983780e-11,-6.184563972055912018e-11,-3.819877747446298599e-11,-5.638867150992155075e-11,9.370253562927246094e+00,-1.529837548732757568e-01,7.266727685928344727e-01,2.260000000000000000e+02
-1.542991063983663480e+01,-1.763073820064710162e+01,-6.562288135464768857e-01,-9.946419040807086276e-01,1.954014650673343567e+00,-1.056172004780273710e+01,1.273253039631526917e+01,-2.091033787475680583e+00,9.370253562927246094e+00,-1.529837548732757568e-01,7.266727685928344727e-01,2.270000000000000000e+02
-3.230310790726616688e+01,-3.374963471558476158e+01,-4.628273485117460950e+00,-6.210207356243699905e+00,-7.947919834481581347e+00,-2.689035888432044885e+01,1.483590232740061765e+01,-7.522760567748264293e+00,9.370253562927246094e+00,-1.529837548732757568e-01,7.266727685928344727e-01,2.280000000000000000e+02
-5.053880049789222539e+01,-4.835938328741212899e+01,-1.259981241019704612e+01,-1.640077512651441793e+01,-3.168332181261575897e+01,-4.979966100842466403e+01,4.654931519842648413e+00,-1.712740348455736239e+01,9.408499717712402344e+00,-7.649187743663787842e-02,6.501809358596801758e-01,2.290000000000000000e+02
-6.878221991966347559e+01,-6.304349724597341265e+01,-2.245711088764255692e+01,-2.870849283461575396e+01,-6.089261738662935386e+01,-7.501356116066017421e+01,-1.014544245806428080e+01,-2.899850579439407738e+01,9.408499717712402344e+00,-7.649187743663787842e-02,6.501809358596801758e-01,2.300000000000000000e+02
-8.608338809178621887e+01,-7.956029584571479063e+01,-3.152506225766774151e+01,-3.973245706244597386e+01,-8.559850392957196163e+01,-9.767583108490907762e+01,-2.063824216700959369e+01,-4.050946934721650905e+01,9.408499717712402344e+00,-7.649187743663787842e-02,6.501809358596801758e-01,2.310000000000000000e+02
-1.029801434133132716e+02,-9.832962644563122012e+01,-3.882340578752337024e+01,-4.855665648274225532e+01,-1.029322696191011346e+02,-1.167400479206844466e+02,-2.464154845326811483e+01,-5.041884925231715897e+01,9.408499717712402344e+00,-7.649187743663787842e-02,6.501809358596801758e-01,2.320000000000000000e+02
-1.206890407985629281e+02,-1.181879951365353918e+02,-4.526101498927346256e+01,-5.687120830349158496e+01,-1.176461825194983248e+02,-1.350018920488128060e+02,-2.705264589011676435e+01,-5.917833147576493502e+01,9.408499717712402344e+00,-7.649187743663787842e-02,6.501809358596801758e-01,2.330000000000000000e+02
-1.394023280978863113e+02,-1.374798403011154733e+02,-5.206473127890239994e+01,-6.657412188885609794e+01,-1.353692365103397606e+02,-1.553612158048272249e+02,-3.335464272416174936e+01,-6.767707252516447625e+01,9.408499717712402344e+00,-7.649187743663787842e-02,6.501809358596801758e-01,2.340000000000000000e+02
-1.577868931675893691e+02,-1.553163222694583965e+02,-5.944953845565396477e+01,-7.768884236676785804e+01,-1.566312725898023928e+02,-1.776382524898726842e+02,-4.382099533781183709e+01,-7.614415654365620867e+01,9.408499717712402344e+00,-7.649187743663787842e-02,6.501809358596801758e-01,2.350000000000000000e+02
-1.743531363268575660e+02,-1.718511465111878351e+02,-6.685005446215836855e+01,-8.861056131614259357e+01,-1.775389333798830194e+02,-1.991207520491025207e+02,-5.411823180605097150e+01,-8.429291086019838986e+01,9.408499717712402344e+00,-7.649187743663787842e-02,6.501809358596801758e-01,2.360000000000000000e+02
-1.891215365660718817e+02,-1.875286204955173162e+02,-7.401549922929552849e+01,-9.792782863384945813e+01,-1.950665554422794230e+02,-2.177267474845430115e+02,-6.059139855198554869e+01,-9.208676298736827448e+01,9.408499717712402344e+00,-7.649187743663787842e-02,6.501809358596801758e-01,2.370000000000000000e+02
-2.036035474905784213e+02,-2.022690360633077944e+02,-8.138745200449193362e+01,-1.055686367758798951e+02,-2.103619885872085433e+02,-2.340717696289502783e+02,-6.392748332431619929e+01,-9.987458086829064996e+01,9.408499717712402344e+00,-7.649187743663787842e-02,6.501809358596801758e-01,2.380000000000000000e+02
-2.190395832285930737e+02,-2.154615407403216523e+02,-8.930342437215404061e+01,-1.122370707693789882e+02,-2.267430913310327014e+02,-2.504097195916947385e+02,-6.760002511351740395e+01,-1.077051112287481374e+02,9.408499717712402344e+00,-7.649187743663787842e-02,6.501809358596801758e-01,2.390000000000000000e+02
-2.348671557620264139e+02,-2.267086018282016084e+02,-9.716535905461205402e+01,-1.182384919017176799e+02,-2.454697173630665930e+02,-2.680349605747633177e+02,-7.361898919861596369e+01,-1.148757793697423040e+02,9.408499717712402344e+00,-7.649187743663787842e-02,6.501809358596801758e-01,2.400000000000000000e+02
-2.491986903296919991e+02,-2.365169792047745432e+02,-1.037930737078859238e+02,-1.232798889731811869e+02,-2.644353312513649144e+02,-2.861484578985073313e+02,-8.060767821867011662e+01,-1.205707604570761760e+02,9.408499717712402344e+00,-7.649187743663787842e-02,6.501809358596801758e-01,2.410000000000000000e+02
-2.608677096864503255e+02,-2.462082408936412321e+02,-1.086982951141380909e+02,-1.273383340312848304e+02,-2.809379352776668384e+02,-3.031813955567904486e+02,-8.593360344993561739e+01,-1.250037987017367414e+02,9.408499717712402344e+00,-7.649187743663787842e-02,6.501809358596801758e-01,2.420000000000000000e+02
-2.708649419974672128e+02,-2.570784091279028871e+02,-1.128072309393519390e+02,-1.312508287967430078e+02,-2.948886381675129087e+02,-3.187369818347342516e+02,-8.894112708564716741e+01,-1.296527130039012263e+02,9.408499717712402344e+00,-7.649187743663787842e-02,6.501809358596801758e-01,2.430000000000000000e+02
-2.816418320076281816e+02,-2.695054054686552263e+02,-1.177187490994729160e+02,-1.360733322912255971e+02,-3.087466347726731328e+02,-3.338912194475324213e+02,-9.156566578916499566e+01,-1.360553349996534962e+02,9.408499717712402344e+00,-7.649187743663787842e-02,6.501809358596801758e-01,2.440000000000000000e+02
-2.949911221398560883e+02,-2.827155155124910380e+02,-1.242495036186010111e+02,-1.418940884960338735e+02,-3.246100085559792205e+02,-3.497280779484444793e+02,-9.601975315190975380e+01,-1.442935489669744129e+02,9.408499717712402344e+00,-7.649187743663787842e-02,6.501809358596801758e-01,2.450000000000000000e+02
-3.106013840856548995e+02,-2.953669358895931509e+02,-1.318065850155053340e+02,-1.475804092872995170e+02,-3.420205528788592346e+02,-3.659646475018071214e+02,-1.024695581652686087e+02,-1.527780667621191242e+02,9.408499717712402344e+00,-7.649187743663787842e-02,6.501809358596801758e-01,2.460000000000000000e+02
-3.265548728027206380e+02,-3.064981663926873807e+02,-1.391984688567117701e+02,-1.519346393011555847e+02,-3.588257627916864294e+02,-3.812424689785457304e+02,-1.092093605077279790e+02,-1.596645061987774170e+02,9.408499717712402344e+00,-7.649187743663787842e-02,6.501809358596801758e-01,2.470000000000000000e+02
-3.410659938294011226e+02,-3.161593404358718544e+02,-1.459045165759962401e+02,-1.550748777736835109e+02,-3.737303795253519638e+02,-3.946510041692163213e+02,-1.147508930487747421e+02,-1.645364042231904023e+02,9.408499717712402344e+00,-7.649187743663787842e-02,6.501809358596801758e-01,2.480000000000000000e+02
-3.537108358154227972e+02,-3.252921001742988665e+02,-1.524008951336263635e+02,-1.585230536018952989e+02,-3.875151437425001859e+02,-4.067491498757099180e+02,-1.192913802104894785e+02,-1.687195804256607516e+02,9.408499717712402344e+00,-7.649187743663787842e-02,6.501809358596801758e-01,2.490000000000000000e+02
-3.652025532885609209e+02,-3.349926119866777299e+02,-1.592792868478345554e+02,-1.638348466771312815e+02,-4.018097652745218511e+02,-4.190485476498524804e+02,-1.241176515142615244e+02,-1.739848794935387559e+02,9.408499717712402344e+00,-7.649187743663787842e-02,6.501809358596801758e-01,2.500000000000000000e+02
-3.762994817594226333e+02,-3.457328649168512129e+02,-1.662422047542568180e+02,-1.711234597380853302e+02,-4.171239677496241711e+02,-4.326101818789202298e+02,-1.299389781869931539e+02,-1.809500057091499912e+02,9.408499717712402344e+00,-7.649187743663787842e-02,6.501809358596801758e-01,2.510000000000000000e+02
-3.870718431416571548e+02,-3.571051813363656038e+02,-1.721467862228500962e+02,-1.789268392895601210e+02,-4.323686286111587833e+02,-4.472092493773370734e+02,-1.361139922630200090e+02,-1.886662048799353215e+02,9.408499717712402344e+00,-7.649187743663787842e-02,6.501809358596801758e-01,2.520000000000000000e+02
-3.970981346257967743e+02,-3.682250375509929654e+02,-1.760705089135308299e+02,-1.854870965771197007e+02,-4.461043458510548589e+02,-4.617294586011093998e+02,-1.414302055627349546e+02,-1.956021907028243731e+02,9.408499717712402344e+00,-7.649187743663787842e-02,6.501809358596801758e-01,2.530000000000000000e+02
-4.061486986778236314e+02,-3.784193956865965447e+02,-1.782847945835783321e+02,-1.901749993661769622e+02,-4.579092021883770940e+02,-4.751906811457592994e+02,-1.453651298340164431e+02,-2.009457251298226765e+02,9.408499717712402344e+00,-1.147378161549568176e-01,7.266727685928344727e-01,2.540000000000000000e+02
-4.145901515368659602e+02,-3.876449472268777754e+02,-1.801636791331829954e+02,-1.938120149575806863e+02,-4.684965114602300673e+02,-4.874043623060524624e+02,-1.484863402656237668e+02,-2.050408702732984239e+02,9.408499717712402344e+00,-1.147378161549568176e-01,7.266727685928344727e-01,2.550000000000000000e+02
-4.232020197000374537e+02,-3.963819867183374299e+02,-1.831513928024414781e+02,-1.978030827098946247e+02,-4.788163573793781325e+02,-4.988607067690709300e+02,-1.517788055328892369e+02,-2.087926576596355517e+02,9.408499717712402344e+00,-1.147378161549568176e-01,7.266727685928344727e-01,2.560000000000000000e+02
-4.326691776619163647e+02,-4.051935605612461586e+02,-1.877714001392469072e+02,-2.030228442158777398e+02,-4.893416533243043887e+02,-5.102299869871139890e+02,-1.557670912082858194e+02,-2.128276198708845186e+02,9.408499717712402344e+00,-1.147378161549568176e-01,7.266727685928344727e-01,2.570000000000000000e+02
-4.431729870223407488e+02,-4.143455025757584735e+02,-1.934723967427926254e+02,-2.093778637086688832e+02,-5.001152654761972371e+02,-5.219896507380999537e+02,-1.602397718599177097e+02,-2.172070424746088975e+02,9.408499717712402344e+00,-1.147378161549568176e-01,7.266727685928344727e-01,2.580000000000000000e+02
-4.543064646285074559e+02,-4.237165076049568597e+02,-1.992699817658012762e+02,-2.161625537260642886e+02,-5.111291656346229502e+02,-5.343181192851188825e+02,-1.646157852266505870e+02,-2.217719851924248360e+02,9.408499717712402344e+00,-1.147378161549568176e-01,7.266727685928344727e-01,2.590000000000000000e+02
-4.653202745772623530e+02,-4.329395288859295761e+02,-2.045231111307821266e+02,-2.226465052126040973e+02,-5.224357638690235035e+02,-5.470916288614253062e+02,-1.684595894672829672e+02,-2.265770928145029757e+02,9.408499717712402344e+00,-1.147378161549568176e-01,7.266727685928344727e-01,2.600000000000000000e+02
-4.755690794592519524e+02,-4.416280147627458064e+02,-2.092665674944055354e+02,-2.283695969576519929e+02,-5.339999586158492093e+02,-5.598899380351085711e+02,-1.717669452438376538e+02,-2.319233709567870392e+02,9.408499717712402344e+00,-1.147378161549568176e-01,7.266727685928344727e-01,2.610000000000000000e+02
-4.849207099100367486e+02,-4.496060409636174882e+02,-2.140143146255604734e+02,-2.331092541796651858e+02,-5.457008175983391993e+02,-5.720990885895644169e+02,-1.749782602149343802e+02,-2.380078858947872504e+02,9.408499717712402344e+00,-1.147378161549568176e-01,7.266727685928344727e-01,2.620000000000000000e+02
-4.938133834132713673e+02,-4.571071597872560233e+02,-2.192846516893077933e+02,-2.367921156674947269e+02,-5.575330388068523462e+02,-5.831590704464970258e+02,-1.787575363540436229e+02,-2.445821225367135412e+02,9.408499717712402344e+00,-1.147378161549568176e-01,7.266727685928344727e-01,2.630000000000000000e+02
-5.028262676010217547e+02,-4.648391173582149349e+02,-2.251694306886902268e+02,-2.395300281328500205e+02,-5.696444291567740947e+02,-5.928275049958683667e+02,-1.835661665680318038e+02,-2.509509371140529765e+02,9.408499717712402344e+00,-1.147378161549568176e-01,7.266727685928344727e-01,2.640000000000000000e+02
-5.120470842773638651e+02,-4.737406455635073144e+02,-2.311653747259315423e+02,-2.416704067052260143e+02,-5.820058611473696146e+02,-6.012448765345770880e+02,-1.891920717648536083e+02,-2.562838484008043451e+02,9.408499717712402344e+00,-1.147378161549568176e-01,7.266727685928344727e-01,2.650000000000000000e+02
-5.208190752880495893e+02,-4.844419357101678543e+02,-2.363769098726288576e+02,-2.436784108003976144e+02,-5.940621289258924662e+02,-6.087436281972559300e+02,-1.946095887124429282e+02,-2.599764638250335338e+02,9.408499717712402344e+00,-1.147378161549568176e-01,7.266727685928344727e-01,2.660000000000000000e+02
-5.282147306658357593e+02,-4.967653560674343680e+02,-2.400492261272265750e+02,-2.459018629399397469e+02,-6.048930412888039427e+02,-6.155984882308566739e+02,-1.984893990968239450e+02,-2.618756571077346962e+02,9.408499717712402344e+00,-1.147378161549568176e-01,7.266727685928344727e-01,2.670000000000000000e+02
-5.339074342511853501e+02,-5.097118728004143122e+02,-2.421179595901585344e+02,-2.484433164908095932e+02,-6.138403839913808042e+02,-6.219429252617283055e+02,-2.001354958268657356e+02,-2.623480299769362318e+02,9.408499717712402344e+00,-1.147378161549568176e-01,7.266727685928344727e-01,2.680000000000000000e+02
-5.386295130559478821e+02,-5.220227144083173698e+02,-2.433453853842511307e+02,-2.512665777807551422e+02,-6.209863561663778455e+02,-6.278961377242821982e+02,-2.001126466848236305e+02,-2.622103088342382762e+02,9.408499717712402344e+00,-1.147378161549568176e-01,7.266727685928344727e-01,2.690000000000000000e+02
-5.437053567647781165e+02,-5.328918989443181999e+02,-2.448719358868038398e+02,-2.544113441230729222e+02,-6.270120399320076103e+02,-6.337397654679562038e+02,-1.999652082835818874e+02,-2.624975572473185821e+02,9.408499717712402344e+00,-1.147378161549568176e-01,7.266727685928344727e-01,2.700000000000000000e+02
-5.500203434347745315e+02,-5.422591363519786682e+02,-2.474882631063292138e+02,-2.580455772999557666e+02,-6.326593824896854130e+02,-6.399405007139102963e+02,-2.011759808318702198e+02,-2.640743880875324976e+02,9.408499717712402344e+00,-1.147378161549568176e-01,7.266727685928344727e-01,2.710000000000000000e+02
-5.573611759534041994e+02,-5.505152710972392924e+02,-2.512033395242769984e+02,-2.622483971845285851e+02,-6.383814364769914391e+02,-6.469343795332388254e+02,-2.041680939285779459e+02,-2.672377745546145889e+02,9.408499717712402344e+00,-1.147378161549568176e-01,7.266727685928344727e-01,2.720000000000000000e+02
-5.647238508456898671e+02,-5.579978505818562553e+02,-2.554135907707150182e+02,-2.667103497768684974e+02,-6.443855716017569648e+02,-6.547744427720526801e+02,-2.080917488000704907e+02,-2.715461291647498001e+02,9.408499717712402344e+00,-1.147378161549568176e-01,7.266727685928344727e-01,2.730000000000000000e+02
-5.712758087629767942e+02,-5.647796849070609824e+02,-2.594650636809365096e+02,-2.707201040223708333e+02,-6.507978430492330517e+02,-6.629432368656316612e+02,-2.115406551178139125e+02,-2.760615521648978756e+02,9.408499717712402344e+00,-1.147378161549568176e-01,7.266727685928344727e-01,2.740000000000000000e+02
-5.770443439264313383e+02,-5.708683052615479028e+02,-2.630974066364142345e+02,-2.735791803664642430e+02,-6.576266469504216730e+02,-6.705779513201960071e+02,-2.136239775071553595e+02,-2.798942145541986974e+02,9.408499717712402344e+00,-1.147378161549568176e-01,7.266727685928344727e-01,2.750000000000000000e+02
-5.826785732965113311e+02,-5.764856816024557702e+02,-2.663998514559880277e+02,-2.751196978381176450e+02,-6.645460254958152291e+02,-6.770135422288849441e+02,-2.145407536577313294e+02,-2.826431855852570152e+02,9.408499717712402344e+00,-1.147378161549568176e-01,7.266727685928344727e-01,2.760000000000000000e+02
-5.885621195369367342e+02,-5.820763181983020331e+02,-2.694026230379440676e+02,-2.758355232548929052e+02,-6.708380104719799419e+02,-6.822329465337297734e+02,-2.152486424228691249e+02,-2.844123981223347073e+02,9.408499717712402344e+00,-1.147378161549568176e-01,7.266727685928344727e-01,2.770000000000000000e+02
-5.941899758973654571e+02,-5.880414403793342899e+02,-2.717684852373013200e+02,-2.764630906073853112e+02,-6.756893984065745826e+02,-6.868215395241049919e+02,-2.165549605321584750e+02,-2.854668411654056399e+02,9.408499717712402344e+00,-1.147378161549568176e-01,7.266727685928344727e-01,2.780000000000000000e+02
-5.984764600381477067e+02,-5.945056056198436636e+02,-2.729498141459680483e+02,-2.773810250799783717e+02,-6.786798200228686255e+02,-6.914388848833950760e+02,-2.184142794364679503e+02,-2.859339341004188100e+02,9.408499717712402344e+00,-1.147378161549568176e-01,7.266727685928344727e-01,2.790000000000000000e+02
-6.007638009753986807e+02,-6.013288015398406969e+02,-2.727343865398743219e+02,-2.783838020847319967e+02,-6.801025845119456790e+02,-6.962753620525727456e+02,-2.200185864278191730e+02,-2.858531441067561900e+02,9.408499717712402344e+00,-1.147378161549568176e-01,7.266727685928344727e-01,2.800000000000000000e+02
-6.016103502353525982e+02,-6.082700954759293381e+02,-2.717175481819967899e+02,-2.790132620387007591e+02,-6.809001140831023804e+02,-7.009812196553184549e+02,-2.205506654226765022e+02,-2.854524494086708728e+02,9.408499717712402344e+00,-3.824593871831893921e-02,6.884268522262573242e-01,2.810000000000000000e+02
-6.026133725542167667e+02,-6.150821182234817570e+02,-2.712339426949301924e+02,-2.790725619502863992e+02,-6.822653132228879258e+02,-7.050902867151889950e+02,-2.199114857809399837e+02,-2.852498527340267174e+02,9.408499717712402344e+00,-3.824593871831893921e-02,6.884268522262573242e-01,2.820000000000000000e+02
-6.053620754368935195e+02,-6.214873520846231258e+02,-2.726785172987529222e+02,-2.788027467468918985e+02,-6.851144643282277684e+02,-7.084936080160487109e+02,-2.188083443636196534e+02,-2.857750130251088194e+02,9.408499717712402344e+00,-3.824593871831893921e-02,6.884268522262573242e-01,2.830000000000000000e+02
-6.103560694342431816e+02,-6.271865172315865493e+02,-2.766340588762604966e+02,-2.786220655774127408e+02,-6.896802495648480544e+02,-7.115314678283693866e+02,-2.182131544962903718e+02,-2.871758235576508014e+02,9.408499717712402344e+00,-3.824593871831893921e-02,6.884268522262573242e-01,2.840000000000000000e+02
-6.167168836556543283e+02,-6.319861746531541939e+02,-2.824302154202359816e+02,-2.788104625208507059e+02,-6.954483992639397911e+02,-7.147258367671356609e+02,-2.187453612852668812e+02,-2.891662252639575854e+02,9.408499717712402344e+00,-3.824593871831893921e-02,6.884268522262573242e-01,2.850000000000000000e+02
-6.228332820107748375e+02,-6.359433162482077933e+02,-2.884924538179984665e+02,-2.795334463070121274e+02,-7.015164733568567499e+02,-7.185112957740520869e+02,-2.204812278528743263e+02,-2.914305188813254972e+02,9.408499717712402344e+00,-3.824593871831893921e-02,6.884268522262573242e-01,2.860000000000000000e+02
-6.273750042506812861e+02,-6.393347312051705558e+02,-2.932623909246840412e+02,-2.811150977559686908e+02,-7.071696684335443024e+02,-7.231903536721329147e+02,-2.231654274256316057e+02,-2.940584791042419965e+02,9.408499717712402344e+00,-3.824593871831893921e-02,6.884268522262573242e-01,2.870000000000000000e+02
-6.299481541492073120e+02,-6.424403109863442296e+02,-2.960428409841151733e+02,-2.840817617327379594e+02,-7.122569930862728143e+02,-7.289662213001133750e+02,-2.264120197640058905e+02,-2.975020069612082807e+02,9.408499717712402344e+00,-3.824593871831893921e-02,6.884268522262573242e-01,2.880000000000000000e+02
-6.310738617032386628e+02,-6.453825983526164691e+02,-2.971982278481391404e+02,-2.887263481082038652e+02,-7.170801854149382280e+02,-7.358164891261944831e+02,-2.296823008737660530e+02,-3.020512421008318142e+02,9.408499717712402344e+00,-3.824593871831893921e-02,6.884268522262573242e-01,2.890000000000000000e+02
-6.317133488810171684e+02,-6.481889589126501505e+02,-2.976682204545625154e+02,-2.945596977501929814e+02,-7.219461403902552092e+02,-7.432859575111558570e+02,-2.322863185788730789e+02,-3.073763860396375094e+02,9.408499717712402344e+00,-3.824593871831893921e-02,6.884268522262573242e-01,2.900000000000000000e+02
-6.327552571638649397e+02,-6.509536849779103704e+02,-2.982723523344379828e+02,-3.002975462025829074e+02,-7.268318835207461461e+02,-7.505401514649405499e+02,-2.337233693148125440e+02,-3.126524868982630778e+02,9.408499717712402344e+00,-3.824593871831893921e-02,6.884268522262573242e-01,2.910000000000000000e+02
-6.347204859163729225e+02,-6.538379643955892107e+02,-2.993582575776638350e+02,-3.045920133779754906e+02,-7.314617892047212990e+02,-7.568104446744572442e+02,-2.342114409735502250e+02,-3.171661572664083906e+02,9.408499717712402344e+00,-3.824593871831893921e-02,6.884268522262573242e-01,2.920000000000000000e+02
-6.376766135403864837e+02,-6.568680329448005750e+02,-3.009372814963874134e+02,-3.069487699854551011e+02,-7.356336952036344883e+02,-7.618678805360111710e+02,-2.347999713401341069e+02,-3.207768814469557128e+02,9.408499717712402344e+00,-3.824593871831893921e-02,6.884268522262573242e-01,2.930000000000000000e+02
-6.412925743448636240e+02,-6.598249973605402374e+02,-3.029662719910973010e+02,-3.079739997838923955e+02,-7.393828602737945630e+02,-7.660131771460136179e+02,-2.366703531207856486e+02,-3.237391741532258038e+02,9.408499717712402344e+00,-3.824593871831893921e-02,6.884268522262573242e-01,2.940000000000000000e+02
-6.450290173867713293e+02,-6.625046270082694946e+02,-3.053932979363912636e+02,-3.086834692915813321e+02,-7.428247146093934816e+02,-7.695483922101436747e+02,-2.400510900347260304e+02,-3.260964714932399602e+02,9.408499717712402344e+00,-3.824593871831893921e-02,6.884268522262573242e-01,2.950000000000000000e+02
-6.484349982110178416e+02,-6.651710608545530476e+02,-3.079572534407768671e+02,-3.095085586394188795e+02,-7.459292389410574060e+02,-7.723074761234333891e+02,-2.437481934900140459e+02,-3.273581092884721784e+02,9.408499717712402344e+00,-3.824593871831893921e-02,6.884268522262573242e-01,2.960000000000000000e+02
-6.514019162798338130e+02,-6.686624016376920281e+02,-3.100812258892328828e+02,-3.099570280475795698e+02,-7.485333859618771157e+02,-7.738143270415786219e+02,-2.458893721938413819e+02,-3.268958995303808024e+02,9.408499717712402344e+00,-3.824593871831893921e-02,6.884268522262573242e-01,2.970000000000000000e+02
-6.541451949145051685e+02,-6.737980276541937883e+02,-3.111293369378506668e+02,-3.092563164307089210e+02,-7.505514132922628505e+02,-7.739457673292453137e+02,-2.453667628111611521e+02,-3.247154835558746981e+02,9.408499717712402344e+00,-3.824593871831893921e-02,6.884268522262573242e-01,2.980000000000000000e+02
-6.568787012252051909e+02,-6.804553832980466268e+02,-3.108978527077995295e+02,-3.073417469040198284e+02,-7.520893290643484761e+02,-7.733601325381678180e+02,-2.427611768260612735e+02,-3.218177498536705343e+02,9.408499717712402344e+00,-3.824593871831893921e-02,6.884268522262573242e-01,2.990000000000000000e+02
-6.594715554691736088e+02,-6.871994202628815174e+02,-3.099091542201657603e+02,-3.052076912128784443e+02,-7.533405101847434935e+02,-7.731584256935353778e+02,-2.399556670322253922e+02,-3.197334547172532666e+02,9.408499717712402344e+00,-3.824593871831893921e-02,6.884268522262573242e-01,3.000000000000000000e+02
-6.614465925604652057e+02,-6.920179558327433824e+02,-3.091712444278336989e+02,-3.042270267323372082e+02,-7.544331725905254871e+02,-7.740495778741806134e+02,-2.387714538228015044e+02,-3.195715264668783675e+02,9.408499717712402344e+00,-3.824593871831893921e-02,6.884268522262573242e-01,3.010000000000000000e+02
-6.623999652676263850e+02,-6.937305974179679424e+02,-3.095309387780615680e+02,-3.050160306061645770e+02,-7.554495922576109024e+02,-7.758356973252552962e+02,-2.397700085993838002e+02,-3.213481959577972020e+02,9.408499717712402344e+00,-3.824593871831893921e-02,6.884268522262573242e-01,3.020000000000000000e+02
-6.624675326172915675e+02,-6.928903515720360247e+02,-3.111039715713509395e+02,-3.068473048919170196e+02,-7.565440531865181129e+02,-7.776957647286436668e+02,-2.420968483122749149e+02,-3.240721170976263465e+02,9.408499717712402344e+00,-3.824593871831893921e-02,6.884268522262573242e-01,3.030000000000000000e+02
-6.623457099451624117e+02,-6.913393842698047820e+02,-3.132097849103879526e+02,-3.081426532728262373e+02,-7.578996055789613138e+02,-7.789229149192508430e+02,-2.442962765039935675e+02,-3.264108962184391203e+02,9.408499717712402344e+00,-3.824593871831893921e-02,6.884268522262573242e-01,3.040000000000000000e+02
-6.627558491214281275e+02,-6.907470346914152515e+02,-3.148279733716468627e+02,-3.076345854608398440e+02,-7.594621601877416879e+02,-7.793680008153414747e+02,-2.452967334454829142e+02,-3.273835269372075345e+02,9.408499717712402344e+00,-3.824593871831893921e-02,6.884268522262573242e-01,3.050000000000000000e+02
-6.637928720382207075e+02,-6.913822772611370056e+02,-3.152092010476995938e+02,-3.052399836836623308e+02,-7.607459737389117436e+02,-7.792486198119981964e+02,-2.448263863256995592e+02,-3.266750619992270686e+02,9.408499717712402344e+00,-3.824593871831893921e-02,6.884268522262573242e-01,3.060000000000000000e+02
-6.647905822894624635e+02,-6.921870709902359522e+02,-3.142279780510301634e+02,-3.019841108446577209e+02,-7.610387111180120883e+02,-7.787072177446749492e+02,-2.431919187424248321e+02,-3.245735439747249984e+02,9.408499717712402344e+00,-3.824593871831893921e-02,6.884268522262573242e-01,3.070000000000000000e+02
-6.648918731259243486e+02,-6.920071293598170996e+02,-3.123160968631847254e+02,-2.991415651068843999e+02,-7.599372961809031040e+02,-7.777129070270774491e+02,-2.408865175702524084e+02,-3.217644542111369219e+02,9.408499717712402344e+00,-3.824593871831893921e-02,6.884268522262573242e-01,3.080000000000000000e+02
-6.638410119538147001e+02,-6.907643846383114123e+02,-3.101441595601020254e+02,-2.973816526167354368e+02,-7.577661316537592029e+02,-7.764117747102877729e+02,-2.384435685002838454e+02,-3.191300383732018418e+02,9.408499717712402344e+00,-3.824593871831893921e-02,6.884268522262573242e-01,3.090000000000000000e+02
-6.622731795851620973e+02,-6.894374473263301297e+02,-3.083056257693152702e+02,-2.965717761691863643e+02,-7.554735206212114917e+02,-7.754251201366023452e+02,-2.364971262787819342e+02,-3.175152152970799762e+02,9.408499717712402344e+00,-3.824593871831893921e-02,6.884268522262573242e-01,3.100000000000000000e+02
-6.611948035122125020e+02,-6.889052528007104002e+02,-3.071249211570645912e+02,-2.962223372392733154e+02,-7.540585913329973664e+02,-7.755905042132110339e+02,-2.356893503041203530e+02,-3.174055696839737948e+02,9.408499717712402344e+00,-3.824593871831893921e-02,6.884268522262573242e-01,3.110000000000000000e+02
-6.610877325617022962e+02,-6.888600019157108818e+02,-3.065769504176129203e+02,-2.960298643560923892e+02,-7.539750836959151457e+02,-7.772555421982353892e+02,-2.362491805323872995e+02,-3.186440840959241996e+02,9.408499717712402344e+00,-1.147378161549568176e-01,7.266727685928344727e-01,3.120000000000000000e+02
-6.614409653778780012e+02,-6.879549449786800324e+02,-3.062938089929544958e+02,-2.960146117500086120e+02,-7.549206075787684540e+02,-7.797949771014988301e+02,-2.375684871382563870e+02,-3.204117781477197013e+02,9.408499717712402344e+00,-1.147378161549568176e-01,7.266727685928344727e-01,3.130000000000000000e+02
-6.611566203175784722e+02,-6.851404685846016491e+02,-3.057177873782781035e+02,-2.962560501386535634e+02,-7.560884374286251841e+02,-7.819144747444884160e+02,-2.383375293537814059e+02,-3.216046842937214478e+02,9.408499717712402344e+00,-1.147378161549568176e-01,7.266727685928344727e-01,3.140000000000000000e+02
-6.594946508452947000e+02,-6.809048843913271867e+02,-3.044484056671728922e+02,-2.966230087903231833e+02,-7.566654059391670444e+02,-7.825832339182134092e+02,-2.374032878368439015e+02,-3.214499433961414070e+02,9.408499717712402344e+00,-1.147378161549568176e-01,7.266727685928344727e-01,3.150000000000000000e+02
-6.567414091501167377e+02,-6.771334075609582897e+02,-3.026267115820819527e+02,-2.968039322380303702e+02,-7.562580945551642344e+02,-7.817960000532929143e+02,-2.347603222749828547e+02,-3.199704255375623916e+02,9.408499717712402344e+00,-1.147378161549568176e-01,7.266727685928344727e-01,3.160000000000000000e+02
-6.540412562938072369e+02,-6.755951007289569361e+02,-3.010361270053891758e+02,-2.965465754476573466e+02,-7.550321558048692623e+02,-7.804785441710636178e+02,-2.317593459629143808e+02,-3.179677435349040024e+02,9.408499717712402344e+00,-1.147378161549568176e-01,7.266727685928344727e-01,3.170000000000000000e+02
-6.525706358052228779e+02,-6.764031222630630964e+02,-3.007211337076543032e+02,-2.958069932018627242e+02,-7.535395032403112054e+02,-7.796224760885517071e+02,-2.301850866767570096e+02,-3.165118256528800202e+02,9.408499717712402344e+00,-1.147378161549568176e-01,7.266727685928344727e-01,3.180000000000000000e+02
-6.527424508987392073e+02,-6.778976809762154971e+02,-3.022871641224345467e+02,-2.946714002848002565e+02,-7.523804086536867999e+02,-7.794492137359943627e+02,-2.308763198417232161e+02,-3.162728714650486381e+02,9.408499717712402344e+00,-1.147378161549568176e-01,7.266727685928344727e-01,3.190000000000000000e+02
-6.540216136358643553e+02,-6.780841237195207896e+02,-3.053819739939142437e+02,-2.932148001855016446e+02,-7.519304496570175615e+02,-7.793621029156737450e+02,-2.330754347899089680e+02,-3.171499221509247946e+02,9.408499717712402344e+00,-1.147378161549568176e-01,7.266727685928344727e-01,3.200000000000000000e+02
-6.553752824426126153e+02,-6.762938119668750687e+02,-3.088017242121478603e+02,-2.915088191675831695e+02,-7.522742623476869994e+02,-7.786820014179825193e+02,-2.350879134658681551e+02,-3.184274917781068552e+02,9.408499717712402344e+00,-1.147378161549568176e-01,7.266727685928344727e-01,3.210000000000000000e+02
-6.559111704962217573e+02,-6.735587571081700844e+02,-3.111957507457785823e+02,-2.897465686266049261e+02,-7.532710218575749650e+02,-7.774011790990546160e+02,-2.356380714194004895e+02,-3.192977422856973817e+02,9.408499717712402344e+00,-1.147378161549568176e-01,7.266727685928344727e-01,3.220000000000000000e+02
-6.552504058636242235e+02,-6.714236816323389121e+02,-3.118441516238023041e+02,-2.882481140882330237e+02,-7.545656159141040007e+02,-7.761892472812115784e+02,-2.346797587342668976e+02,-3.193333138605083832e+02,9.408499717712402344e+00,-1.147378161549568176e-01,7.266727685928344727e-01,3.230000000000000000e+02
-6.535429978682489036e+02,-6.704074619811367484e+02,-3.109535361026619285e+02,-2.872486606520047872e+02,-7.555332422143094391e+02,-7.756491927690660759e+02,-2.330292890036275821e+02,-3.185949160787214396e+02,9.408499717712402344e+00,-1.147378161549568176e-01,7.266727685928344727e-01,3.240000000000000000e+02
-6.513014906835411466e+02,-6.696199883624387894e+02,-3.093361597989070333e+02,-2.866711208269388180e+02,-7.553778225961696080e+02,-7.755961177693279751e+02,-2.313850443494540059e+02,-3.173907041714356865e+02,9.408499717712402344e+00,-1.147378161549568176e-01,7.266727685928344727e-01,3.250000000000000000e+02
-6.491888639244091337e+02,-6.678447358565624654e+02,-3.077981287367985033e+02,-2.861398354899392871e+02,-7.535155624546732724e+02,-7.750992944306137815e+02,-2.297938653843343673e+02,-3.159475903893546729e+02,9.408499717712402344e+00,-1.147378161549568176e-01,7.266727685928344727e-01,3.260000000000000000e+02
-6.477701419897442747e+02,-6.649525700606308192e+02,-3.067147441225165494e+02,-2.852616482956748314e+02,-7.500305413223391042e+02,-7.732616920332960717e+02,-2.280063539210780164e+02,-3.142798591707492051e+02,9.408499717712402344e+00,-1.147378161549568176e-01,7.266727685928344727e-01,3.270000000000000000e+02
-6.472398558927570775e+02,-6.621921224635376575e+02,-3.060175399275074142e+02,-2.838762218857378912e+02,-7.457437498946899268e+02,-7.699802437128379324e+02,-2.261216470176868825e+02,-3.123111021980377018e+02,9.408499717712402344e+00,-1.147378161549568176e-01,7.266727685928344727e-01,3.280000000000000000e+02
-6.472669263134994253e+02,-6.610284525553462345e+02,-3.054576052785401998e+02,-2.820262594375102481e+02,-7.417260164295585128e+02,-7.659938612661890147e+02,-2.246619183889907845e+02,-3.100933984789083979e+02,9.408499717712402344e+00,-1.147378161549568176e-01,7.266727685928344727e-01,3.290000000000000000e+02
-6.471398539642181049e+02,-6.616547916931560849e+02,-3.048605298103390169e+02,-2.797471521491594331e+02,-7.386421332914417235e+02,-7.622547773540550224e+02,-2.239768231684854527e+02,-3.079286895996948488e+02,9.408499717712402344e+00,-1.147378161549568176e-01,7.266727685928344727e-01,3.300000000000000000e+02
-6.461887713905340433e+02,-6.626534887719531071e+02,-3.041940411205104056e+02,-2.769938304423632189e+02,-7.365078819006657795e+02,-7.592760866474973227e+02,-2.237158735199541297e+02,-3.062924563473367243e+02,9.408499717712402344e+00,-1.147378161549568176e-01,7.266727685928344727e-01,3.310000000000000000e+02
-6.441922820544630213e+02,-6.621824523482393943e+02,-3.034709596076439766e+02,-2.738334350115670759e+02,-7.350006812659245270e+02,-7.569961452401187216e+02,-2.230640930112543856e+02,-3.055866781724754446e+02,9.408499717712402344e+00,-1.147378161549568176e-01,7.266727685928344727e-01,3.320000000000000000e+02
-6.414624868662607469e+02,-6.595979274857606924e+02,-3.026419838476800805e+02,-2.706562635852486665e+02,-7.338701269992861853e+02,-7.550887507003935752e+02,-2.215632002171572594e+02,-3.058465315419831541e+02,9.408499717712402344e+00,-1.147378161549568176e-01,6.884268522262573242e-01,3.330000000000000000e+02
-6.385730556596411134e+02,-6.560107857723596680e+02,-3.016034494415360996e+02,-2.680567666392931869e+02,-7.329599541468403459e+02,-7.532506295966559264e+02,-2.196506191928947374e+02,-3.065679271788854976e+02,9.408499717712402344e+00,-1.147378161549568176e-01,6.884268522262573242e-01,3.340000000000000000e+02
-6.359774934931259622e+02,-6.532813598232863797e+02,-3.003345802614900322e+02,-2.663929417246179128e+02,-7.319119155614171177e+02,-7.512106017452147171e+02,-2.183145444047016781e+02,-3.068207204662078311e+02,9.408499717712402344e+00,-1.147378161549568176e-01,6.884268522262573242e-01,3.350000000000000000e+02
-6.338048558535284656e+02,-6.523991429191639781e+02,-2.990277575971897477e+02,-2.654581725683640343e+02,-7.300790679432445813e+02,-7.486563958627348256e+02,-2.181696951496261363e+02,-3.057045911873984778e+02,9.408499717712402344e+00,-1.147378161549568176e-01,6.884268522262573242e-01,3.360000000000000000e+02
-6.319065734060690147e+02,-6.527213508121827772e+02,-2.980314976136538689e+02,-2.646541153352090987e+02,-7.269378324951210288e+02,-7.453745869370493438e+02,-2.188410560043571422e+02,-3.029556793975433493e+02,9.408499717712402344e+00,-1.147378161549568176e-01,6.884268522262573242e-01,3.370000000000000000e+02
-6.300230690814776153e+02,-6.526986843051133746e+02,-2.975708676568000328e+02,-2.635530807171887773e+02,-7.226185307542586997e+02,-7.415419294506434653e+02,-2.192303938704744724e+02,-2.993017823076083914e+02,9.408499717712402344e+00,-1.147378161549568176e-01,6.884268522262573242e-01,3.380000000000000000e+02
-6.279322904125289142e+02,-6.513243342132973339e+02,-2.974531611614099802e+02,-2.623122202700216121e+02,-7.179312885810263651e+02,-7.377956003378742480e+02,-2.183966646872378305e+02,-2.962030999412306755e+02,9.408499717712402344e+00,-1.147378161549568176e-01,6.884268522262573242e-01,3.390000000000000000e+02
-6.255361159679819139e+02,-6.489596425339743746e+02,-2.970764035238026963e+02,-2.615028374741026482e+02,-7.137769765936309341e+02,-7.348720485043505732e+02,-2.162729724227243651e+02,-2.950210854651495538e+02,9.408499717712402344e+00,-1.147378161549568176e-01,6.884268522262573242e-01,3.400000000000000000e+02
-6.228630582175978816e+02,-6.468682372976331862e+02,-2.958370596111806208e+02,-2.614836812101337955e+02,-7.105034622871257852e+02,-7.330737915145841725e+02,-2.136663264707531198e+02,-2.961360869845497064e+02,9.408499717712402344e+00,-1.147378161549568176e-01,6.884268522262573242e-01,3.410000000000000000e+02
-6.199719809839969002e+02,-6.459872736990250814e+02,-2.936381929519880032e+02,-2.619070251589813552e+02,-7.078155794631754816e+02,-7.320500554486584406e+02,-2.116285710467382160e+02,-2.986798280109188681e+02,9.408499717712402344e+00,-1.147378161549568176e-01,6.884268522262573242e-01,3.420000000000000000e+02
-6.168014342579160711e+02,-6.460716817115890080e+02,-2.910212928949973730e+02,-2.618269517253222602e+02,-7.052276814404432344e+02,-7.310756564915698164e+02,-2.107404762291889710e+02,-3.011252187580348618e+02,9.408499717712402344e+00,-1.147378161549568176e-01,6.884268522262573242e-01,3.430000000000000000e+02
-6.131226995193514995e+02,-6.459010434293793423e+02,-2.887331130625316291e+02,-2.603359190768106828e+02,-7.025022772042275392e+02,-7.295366192624131827e+02,-2.107991924926435559e+02,-3.022953472292641663e+02,9.408499717712402344e+00,-1.147378161549568176e-01,6.884268522262573242e-01,3.440000000000000000e+02
-6.087544077590445113e+02,-6.442551154424950255e+02,-2.870985481675456867e+02,-2.572052566835678817e+02,-6.996535140548127174e+02,-7.271986323003538928e+02,-2.110410712977545700e+02,-3.020034728183612742e+02,9.408499717712402344e+00,-1.147378161549568176e-01,6.884268522262573242e-01,3.450000000000000000e+02
-6.039311780787788848e+02,-6.407657227817237526e+02,-2.857832471819938291e+02,-2.530269110915967303e+02,-6.966492406257139010e+02,-7.241166317719159906e+02,-2.106555368254032601e+02,-3.008461309521521798e+02,9.408499717712402344e+00,-1.147378161549568176e-01,6.884268522262573242e-01,3.460000000000000000e+02
-5.994350337050024109e+02,-6.360212297825153200e+02,-2.841758067348324630e+02,-2.488084395683173398e+02,-6.932650604030875456e+02,-7.204387465745148802e+02,-2.092406537839615339e+02,-2.994423596715694202e+02,9.408499717712402344e+00,-1.147378161549568176e-01,6.884268522262573242e-01,3.470000000000000000e+02
-5.962127515197971661e+02,-6.310195522078312251e+02,-2.820200676923491301e+02,-2.453835055541252359e+02,-6.892763855643274837e+02,-7.163744531020313389e+02,-2.069690401566701894e+02,-2.978893534558117153e+02,9.408499717712402344e+00,-1.147378161549568176e-01,6.884268522262573242e-01,3.480000000000000000e+02
-5.946827572216950557e+02,-6.265178369730746226e+02,-2.796707814693952514e+02,-2.430524554122761174e+02,-6.847493265588545910e+02,-7.123020623118563890e+02,-2.044383082320455287e+02,-2.959345379722944926e+02,9.408499717712402344e+00,-1.147378161549568176e-01,6.884268522262573242e-01,3.490000000000000000e+02
-5.943320232989922260e+02,-6.227349845683011154e+02,-2.777425032401238241e+02,-2.416068551767831423e+02,-6.801132677054119995e+02,-7.087632156577897149e+02,-2.023473174494913565e+02,-2.936011726179611969e+02,9.408499717712402344e+00,-1.147378161549568176e-01,6.884268522262573242e-01,3.500000000000000000e+02
-5.940305246957003646e+02,-6.194740900488596935e+02,-2.765217147903017576e+02,-2.405923918905135679e+02,-6.759444380221609663e+02,-7.061841066465196946e+02,-2.011592040885523147e+02,-2.915101301395883411e+02,9.408499717712402344e+00,-1.147378161549568176e-01,6.884268522262573242e-01,3.510000000000000000e+02
-5.928490492607431861e+02,-6.164483092278965159e+02,-2.757017930069841896e+02,-2.395630328365589321e+02,-6.726386223139718368e+02,-7.044907685364007648e+02,-2.008767346918680232e+02,-2.904333159385852241e+02,9.408499717712402344e+00,-1.147378161549568176e-01,6.884268522262573242e-01,3.520000000000000000e+02
-5.906453262528391406e+02,-6.135445399192701643e+02,-2.746453505688355108e+02,-2.382033531599373646e+02,-6.701700815233464255e+02,-7.029736160318152542e+02,-2.010076508918987201e+02,-2.904480547407677022e+02,9.408499717712402344e+00,-1.147378161549568176e-01,6.884268522262573242e-01,3.530000000000000000e+02
-5.878976748796957281e+02,-6.108752489602187552e+02,-2.728774770449390417e+02,-2.363667755915917041e+02,-6.680256120006395122e+02,-7.006218551270180797e+02,-2.007716381517727768e+02,-2.905792787865541413e+02,9.408499717712402344e+00,-1.147378161549568176e-01,6.884268522262573242e-01,3.540000000000000000e+02
-5.850252136531881888e+02,-6.086082176473643131e+02,-2.703821863369541916e+02,-2.341046825189253013e+02,-6.653908977599292029e+02,-6.967634252222585474e+02,-1.995117492658894207e+02,-2.894346294293582105e+02,9.408499717712402344e+00,-1.147378161549568176e-01,6.884268522262573242e-01,3.550000000000000000e+02
-5.819306752419597615e+02,-6.066935471234817214e+02,-2.675337439434838416e+02,-2.316707965714507509e+02,-6.615934765538988813e+02,-6.915408421410988922e+02,-1.970917441760575457e+02,-2.863644232389301578e+02,9.408499717712402344e+00,-1.147378161549568176e-01,6.884268522262573242e-01,3.560000000000000000e+02
-5.782110198315473326e+02,-6.047174944177171483e+02,-2.648071453736865806e+02,-2.294188484091164355e+02,-6.565798014046881690e+02,-6.858216536653776529e+02,-1.939764095570756126e+02,-2.820729945554267033e+02,9.408499717712402344e+00,-1.147378161549568176e-01,6.884268522262573242e-01,3.570000000000000000e+02
-5.737420451387831690e+02,-6.020772431971395235e+02,-2.625220086712151897e+02,-2.276013006035686885e+02,-6.510319184460167889e+02,-6.805751413074203811e+02,-1.908945180456071284e+02,-2.780847514843890167e+02,9.332008361816406250e+00,-1.912296712398529053e-01,7.266727685928344727e-01,3.580000000000000000e+02
-5.689711009546429068e+02,-5.984266802276263206e+02,-2.607417810629133328e+02,-2.262002964445587168e+02,-6.459217270585534152e+02,-6.761988369957068699e+02,-1.883516921534956055e+02,-2.755297062867030036e+02,9.332008361816406250e+00,-1.912296712398529053e-01,7.266727685928344727e-01,3.590000000000000000e+02
-5.646336990953328723e+02,-5.940492127958568744e+02,-2.593215415068625589e+02,-2.249447633596528249e+02,-6.418151101664252565e+02,-6.723547734430080709e+02,-1.864469661887640086e+02,-2.743642744970461536e+02,9.332008361816406250e+00,-1.912296712398529053e-01,7.266727685928344727e-01,3.600000000000000000e+02
-5.612410830366861774e+02,-5.897714001359800022e+02,-2.580564921398108709e+02,-2.235163993995524834e+02,-6.385338110575016799e+02,-6.684409681394720337e+02,-1.851360303243418457e+02,-2.736897038326210350e+02,9.332008361816406250e+00,-1.912296712398529053e-01,7.266727685928344727e-01,3.610000000000000000e+02
-5.588877715341482144e+02,-5.863985703396231202e+02,-2.568536049992353583e+02,-2.217636790651383762e+02,-6.354800584253889610e+02,-6.642370351154063428e+02,-1.845740213665831106e+02,-2.727560882383095304e+02,9.332008361816406250e+00,-1.912296712398529053e-01,7.266727685928344727e-01,3.620000000000000000e+02
-5.574775105402706004e+02,-5.841231741062260880e+02,-2.558099191362830425e+02,-2.197371011507141247e+02,-6.322736636092947720e+02,-6.600953241974016237e+02,-1.850568902122336112e+02,-2.716210936283564479e+02,9.332008361816406250e+00,-1.912296712398529053e-01,7.266727685928344727e-01,3.630000000000000000e+02
-5.569453322042551235e+02,-5.824384569465853474e+02,-2.550910612538671103e+02,-2.175539208072307247e+02,-6.290377549251968503e+02,-6.564987671776921161e+02,-1.865357042389375692e+02,-2.708618621190703379e+02,9.332008361816406250e+00,-1.912296712398529053e-01,7.266727685928344727e-01,3.640000000000000000e+02
-5.571120859306529383e+02,-5.806332032757356956e+02,-2.546787866676140766e+02,-2.152725948674010397e+02,-6.260852250575082962e+02,-6.534604407393680958e+02,-1.882431797578919941e+02,-2.707428192811078134e+02,9.332008361816406250e+00,-1.912296712398529053e-01,7.266727685928344727e-01,3.650000000000000000e+02
-5.573528994766777487e+02,-5.783829848723571558e+02,-2.542278134217551724e+02,-2.129084574331984641e+02,-6.234035207149117923e+02,-6.504143045694381726e+02,-1.889655697272551151e+02,-2.707558325533645984e+02,9.332008361816406250e+00,-1.912296712398529053e-01,7.266727685928344727e-01,3.660000000000000000e+02
-5.566257033043120828e+02,-5.758673236655142773e+02,-2.532200742592249298e+02,-2.105328627345411405e+02,-6.205121381925578135e+02,-6.467422083714604923e+02,-1.878293053773836618e+02,-2.699977554017509647e+02,9.332008361816406250e+00,-1.912296712398529053e-01,7.266727685928344727e-01,3.670000000000000000e+02
-5.540893135551216346e+02,-5.733325317977814848e+02,-2.513316056788657988e+02,-2.082930024391300776e+02,-6.168282394213856605e+02,-6.423981453743826933e+02,-1.848787545776872321e+02,-2.679726281167218076e+02,9.332008361816406250e+00,-1.912296712398529053e-01,7.266727685928344727e-01,3.680000000000000000e+02
-5.498326160889828316e+02,-5.706212967483409102e+02,-2.487116022876230090e+02,-2.063013268103782138e+02,-6.121577693585911675e+02,-6.379823958680162832e+02,-1.809163932346702950e+02,-2.650201248532057434e+02,9.332008361816406250e+00,-1.912296712398529053e-01,7.266727685928344727e-01,3.690000000000000000e+02
-5.449610117444515254e+02,-5.672313910278001003e+02,-2.459292410925916101e+02,-2.045351513959349177e+02,-6.068871304477261219e+02,-6.341976071445769776e+02,-1.768544583150587641e+02,-2.620201330968939146e+02,9.332008361816406250e+00,-1.912296712398529053e-01,7.266727685928344727e-01,3.700000000000000000e+02
-5.408087329012771534e+02,-5.628529549909344496e+02,-2.436371724133609860e+02,-2.028859755429243705e+02,-6.017863859409881115e+02,-6.312528728305696859e+02,-1.732877649872648362e+02,-2.597393651816582860e+02,9.332008361816406250e+00,-1.912296712398529053e-01,7.266727685928344727e-01,3.710000000000000000e+02
-5.379096508554098364e+02,-5.578024728642035370e+02,-2.422256823771622294e+02,-2.013132700960136390e+02,-5.976253415704829877e+02,-6.287983987797379086e+02,-1.706159572782382838e+02,-2.584231777951376898e+02,9.332008361816406250e+00,-1.912296712398529053e-01,7.266727685928344727e-01,3.720000000000000000e+02
-5.356639201985849468e+02,-5.528631746638216100e+02,-2.416782189221153203e+02,-1.999053175621120317e+02,-5.948082123108358701e+02,-6.263741790191854761e+02,-1.693064487526489756e+02,-2.578574240528928385e+02,9.332008361816406250e+00,-1.912296712398529053e-01,7.266727685928344727e-01,3.730000000000000000e+02
-5.330153245524618342e+02,-5.486422523286551041e+02,-2.416120864857948618e+02,-1.987269161459362294e+02,-5.931098698682685608e+02,-6.238104860736773389e+02,-1.697026020984594652e+02,-2.576093090156773542e+02,9.332008361816406250e+00,-1.912296712398529053e-01,7.266727685928344727e-01,3.740000000000000000e+02
-5.294888610712132504e+02,-5.450897259592995852e+02,-2.413833984704876912e+02,-1.975887186413710879e+02,-5.916147604680895711e+02,-6.211449482129255557e+02,-1.714183660242274527e+02,-2.571050890031133349e+02,9.332008361816406250e+00,-1.912296712398529053e-01,7.266727685928344727e-01,3.750000000000000000e+02
-5.256057413532234932e+02,-5.416758591604771027e+02,-2.402506578395527868e+02,-1.960131154435380267e+02,-5.890204917548958292e+02,-6.182238275299816905e+02,-1.730609909484423952e+02,-2.555968393445104994e+02,9.332008361816406250e+00,-1.912296712398529053e-01,7.266727685928344727e-01,3.760000000000000000e+02
-5.223178170323831182e+02,-5.380230426852838264e+02,-2.376544804893237597e+02,-1.934890857127006711e+02,-5.842773427649146925e+02,-6.145267229374687759e+02,-1.728635142664825253e+02,-2.523219009577028373e+02,9.332008361816406250e+00,-1.912296712398529053e-01,7.266727685928344727e-01,3.770000000000000000e+02
-5.200575546837794718e+02,-5.343037178288518589e+02,-2.335501597379329723e+02,-1.898111233293316218e+02,-5.771856245532676439e+02,-6.094995927935942746e+02,-1.698756006917442392e+02,-2.469593879359895254e+02,9.332008361816406250e+00,-1.912296712398529053e-01,7.266727685928344727e-01,3.780000000000000000e+02
-5.183308230047687175e+02,-5.309682768371858401e+02,-2.285631350079997901e+02,-1.852296130384370372e+02,-5.685050316834133355e+02,-6.031062022250121117e+02,-1.646859563814487046e+02,-2.400732730467173042e+02,9.332008361816406250e+00,-1.912296712398529053e-01,7.266727685928344727e-01,3.790000000000000000e+02
-5.161863358441246419e+02,-5.280869268864933019e+02,-2.237388599429216356e+02,-1.803020026525227877e+02,-5.594952025713096191e+02,-5.960264470058718871e+02,-1.589753073152114666e+02,-2.330468687774377941e+02,9.332008361816406250e+00,-1.912296712398529053e-01,7.266727685928344727e-01,3.800000000000000000e+02
-5.130113231641116727e+02,-5.250370945158615541e+02,-2.199435545739263489e+02,-1.755774186208318497e+02,-5.512525910422787092e+02,-5.892555752473269877e+02,-1.542489640385692837e+02,-2.273735124671106860e+02,9.332008361816406250e+00,-1.912296712398529053e-01,7.266727685928344727e-01,3.810000000000000000e+02
-5.088592363549080346e+02,-5.209504803702836853e+02,-2.173294312260036349e+02,-1.713489845237654663e+02,-5.442963098468269436e+02,-5.834356859993376929e+02,-1.508333829958346541e+02,-2.237689639743671250e+02,9.332008361816406250e+00,-1.912296712398529053e-01,7.266727685928344727e-01,3.820000000000000000e+02
-5.041225640196244058e+02,-5.155654988364867677e+02,-2.153121005207781309e+02,-1.676073876288551219e+02,-5.385518072865324939e+02,-5.784954118756791104e+02,-1.479337800540492935e+02,-2.218015886295406744e+02,9.332008361816406250e+00,-1.912296712398529053e-01,7.266727685928344727e-01,3.830000000000000000e+02
-4.990927398496919523e+02,-5.096729711915827465e+02,-2.131025907104926773e+02,-1.641915306716177838e+02,-5.335683151986238499e+02,-5.738868808908441679e+02,-1.445928602883434451e+02,-2.203526576490780826e+02,9.332008361816406250e+00,-1.912296712398529053e-01,7.266727685928344727e-01,3.840000000000000000e+02
-4.939610556416976124e+02,-5.046702642931343235e+02,-2.103665425860738196e+02,-1.610357569627910834e+02,-5.288030961483059400e+02,-5.691764594008441236e+02,-1.406779696778421567e+02,-2.185312899895095597e+02,9.332008361816406250e+00,0.000000000000000000e+00,6.119350194931030273e-01,3.850000000000000000e+02
-4.891565832154205964e+02,-5.015528339841619072e+02,-2.074588851432881711e+02,-1.583457004818164933e+02,-5.239185689893006383e+02,-5.644505194972534809e+02,-1.370950240585932534e+02,-2.163028469938908529e+02,9.332008361816406250e+00,0.000000000000000000e+00,6.119350194931030273e-01,3.860000000000000000e+02
-4.853913267103725957e+02,-5.001722438453475661e+02,-2.050366824544685187e+02,-1.565503855662295791e+02,-5.190178512605825745e+02,-5.601912868271683692e+02,-1.351223008509341525e+02,-2.143561992795200695e+02,9.332008361816406250e+00,0.000000000000000000e+00,6.119350194931030273e-01,3.870000000000000000e+02
-4.830874185214686349e+02,-4.993625732132561552e+02,-2.034029550280465628e+02,-1.559871816741983821e+02,-5.146059592983219773e+02,-5.567567747353309642e+02,-1.354315252033484285e+02,-2.133896214754563516e+02,9.332008361816406250e+00,0.000000000000000000e+00,6.119350194931030273e-01,3.880000000000000000e+02
-4.816968948499277303e+02,-4.977987415792315460e+02,-2.021687433952070023e+02,-1.565059974802779834e+02,-5.111565494124424731e+02,-5.539508096959857539e+02,-1.375360255359237271e+02,-2.134559753739781627e+02,9.332008361816406250e+00,0.000000000000000000e+00,6.119350194931030273e-01,3.890000000000000000e+02
-4.797838235307590367e+02,-4.948684317617758097e+02,-2.005400843845040981e+02,-1.573515933191886234e+02,-5.085624122659260138e+02,-5.510889209607485100e+02,-1.400441010313215884e+02,-2.138920534020790001e+02,9.332008361816406250e+00,0.000000000000000000e+00,6.119350194931030273e-01,3.900000000000000000e+02
-4.760700454756333784e+02,-4.909034765203050483e+02,-1.979794361335802932e+02,-1.575205922417601414e+02,-5.060147648019956250e+02,-5.475152405920948695e+02,-1.414929774593224465e+02,-2.138128346066814629e+02,9.332008361816406250e+00,0.000000000000000000e+00,6.119350194931030273e-01,3.910000000000000000e+02
-4.705713581328257078e+02,-4.866900416224975743e+02,-1.946713563391217576e+02,-1.563919334847150822e+02,-5.025797302392338679e+02,-5.431116388907862529e+02,-1.411499786250192301e+02,-2.127104441085057260e+02,9.332008361816406250e+00,0.000000000000000000e+00,6.119350194931030273e-01,3.920000000000000000e+02
-4.646846929984117196e+02,-4.827276566204297978e+02,-1.914166799391750828e+02,-1.541405806618922725e+02,-4.980389175361865455e+02,-5.383388932632392425e+02,-1.392370086706323491e+02,-2.107131302641168986e+02,9.332008361816406250e+00,0.000000000000000000e+00,6.119350194931030273e-01,3.930000000000000000e+02
-4.600418057480962943e+02,-4.788250405643889280e+02,-1.890790840561485311e+02,-1.515794064243245884e+02,-4.931979436871179132e+02,-5.337926181572224777e+02,-1.365297341137938929e+02,-2.084175562447294396e+02,9.332008361816406250e+00,0.000000000000000000e+00,6.119350194931030273e-01,3.940000000000000000e+02
-4.571847762057393538e+02,-4.742989007839141777e+02,-1.880707597902664929e+02,-1.495649721646134367e+02,-4.893091076191958564e+02,-5.297239039177284212e+02,-1.337802755790412448e+02,-2.065341324827145399e+02,9.332008361816406250e+00,0.000000000000000000e+00,6.119350194931030273e-01,3.950000000000000000e+02
-4.553229853749314771e+02,-4.685783777609995013e+02,-1.882280260108827861e+02,-1.484609037674927094e+02,-4.870656842693247199e+02,-5.259665281000307004e+02,-1.314448193843586523e+02,-2.055811583538961713e+02,9.332008361816406250e+00,0.000000000000000000e+00,6.119350194931030273e-01,3.960000000000000000e+02
-4.533441486774720488e+02,-4.617499644137230916e+02,-1.890408994658132542e+02,-1.480491008952890297e+02,-4.860264737572506419e+02,-5.222548142578516490e+02,-1.297889299659700555e+02,-2.056804824423011269e+02,9.332008361816406250e+00,0.000000000000000000e+00,6.119350194931030273e-01,3.970000000000000000e+02
-4.509760774460269204e+02,-4.546225906946121995e+02,-1.899272292234904853e+02,-1.478338515493046543e+02,-4.849103328694250195e+02,-5.185001794926706680e+02,-1.290115544095201585e+02,-2.064341105895268811e+02,9.332008361816406250e+00,0.000000000000000000e+00,6.119350194931030273e-01,3.980000000000000000e+02
-4.488972774114695312e+02,-4.482424146806415592e+02,-1.903660708892566618e+02,-1.474064143218658955e+02,-4.824638456755819789e+02,-5.147076430367801549e+02,-1.291120712332799485e+02,-2.069986546169311623e+02,9.332008361816406250e+00,0.000000000000000000e+00,6.119350194931030273e-01,3.990000000000000000e+02
-4.477407817514335875e+02,-4.432064687391753068e+02,-1.899732815561169446e+02,-1.466268701659337239e+02,-4.782214074951575640e+02,-5.107027953194292422e+02,-1.296645435752939193e+02,-2.065063118359821601e+02,9.332008361816406250e+00,0.000000000000000000e+00,6.119350194931030273e-01,4.000000000000000000e+02
-4.471123281348363889e+02,-4.393134029994148477e+02,-1.886558060547013156e+02,-1.456407972748252178e+02,-4.726839032272609984e+02,-5.061139721396939422e+02,-1.299117030809338758e+02,-2.047118068936438249e+02,9.332008361816406250e+00,0.000000000000000000e+00,6.119350194931030273e-01,4.010000000000000000e+02
-4.456984807833994182e+02,-4.358460638735164139e+02,-1.867595443830491604e+02,-1.448454111150426797e+02,-4.669292785892812390e+02,-5.007594786870586177e+02,-1.292908012459288329e+02,-2.023761134264850625e+02,9.332008361816406250e+00,0.000000000000000000e+00,6.119350194931030273e-01,4.020000000000000000e+02
-4.423622959655690465e+02,-4.322540676115886527e+02,-1.849375733321990083e+02,-1.447730810718212524e+02,-4.619703114172284586e+02,-4.950331532417817471e+02,-1.279270020761782689e+02,-2.008948462911507704e+02,9.332008361816406250e+00,0.000000000000000000e+00,6.119350194931030273e-01,4.030000000000000000e+02
-4.371347805127486481e+02,-4.286246726271674561e+02,-1.836948606925179774e+02,-1.458145551809402605e+02,-4.582422224582455783e+02,-4.897786199874503836e+02,-1.265523084226529136e+02,-2.012876522452670542e+02,9.332008361816406250e+00,0.000000000000000000e+00,6.119350194931030273e-01,4.040000000000000000e+02
-4.311738972113694217e+02,-4.255096825619998526e+02,-1.829747788111435511e+02,-1.478867343303591042e+02,-4.554906787552858987e+02,-4.856579557631289390e+02,-1.258653940346694071e+02,-2.033473853226619212e+02,9.332008361816406250e+00,0.000000000000000000e+00,6.119350194931030273e-01,4.050000000000000000e+02
-4.258250899571962691e+02,-4.232858159425654776e+02,-1.822373823156644903e+02,-1.503649696532506823e+02,-4.530957172039493344e+02,-4.826115817731488278e+02,-1.259659875257834756e+02,-2.057714957969001262e+02,9.332008361816406250e+00,0.000000000000000000e+00,6.119350194931030273e-01,4.060000000000000000e+02
-4.217211949889035623e+02,-4.216942648232866304e+02,-1.810280301601046631e+02,-1.524850255380843009e+02,-4.505883411048794187e+02,-4.799724411808124387e+02,-1.264365057189647814e+02,-2.072655561142905754e+02,9.332008361816406250e+00,0.000000000000000000e+00,6.119350194931030273e-01,4.070000000000000000e+02
-4.186631061291461720e+02,-4.200417304947695811e+02,-1.794870764571592190e+02,-1.539657441111849039e+02,-4.479522102028058725e+02,-4.771217758710113230e+02,-1.269304582421764280e+02,-2.076524612714861178e+02,9.332008361816406250e+00,0.000000000000000000e+00,6.119350194931030273e-01,4.080000000000000000e+02
-4.161583711934461007e+02,-4.178551775648243165e+02,-1.782300777984628439e+02,-1.552795200284040220e+02,-4.454604723463821756e+02,-4.740007741600070403e+02,-1.275644734886636797e+02,-2.079228065171305389e+02,9.332008361816406250e+00,0.000000000000000000e+00,6.119350194931030273e-01,4.090000000000000000e+02
-4.139222105730482326e+02,-4.152795395540679237e+02,-1.776404936618141619e+02,-1.572236123788170516e+02,-4.432152319065949087e+02,-4.709507629382128471e+02,-1.286306838468008209e+02,-2.091085902188788168e+02,9.332008361816406250e+00,0.000000000000000000e+00,6.119350194931030273e-01,4.100000000000000000e+02
-4.118869592197734164e+02,-4.127730409670543850e+02,-1.772781276063178666e+02,-1.600933439751929654e+02,-4.408504895005889921e+02,-4.680859050768540328e+02,-1.299391308542944898e+02,-2.110253309425215775e+02,9.332008361816406250e+00,0.000000000000000000e+00,6.119350194931030273e-01,4.110000000000000000e+02
-4.099209859969223544e+02,-4.104283540282822287e+02,-1.760857569444688124e+02,-1.632130874113677237e+02,-4.377178194033185719e+02,-4.649233678822974980e+02,-1.305897754476791306e+02,-2.121486968317449282e+02,9.332008361816406250e+00,0.000000000000000000e+00,6.119350194931030273e-01,4.120000000000000000e+02
-4.077356576418137593e+02,-4.076884650644292378e+02,-1.733090076458574913e+02,-1.653237575612561159e+02,-4.334133385428531255e+02,-4.607255105566150633e+02,-1.295705391607280035e+02,-2.108799033580908144e+02,9.332008361816406250e+00,0.000000000000000000e+00,6.119350194931030273e-01,4.130000000000000000e+02
-4.051330741282540657e+02,-4.038463046486108396e+02,-1.693013059843456176e+02,-1.655484204625813618e+02,-4.281862644915886449e+02,-4.552507251776819430e+02,-1.267022900836236659e+02,-2.071303813806343896e+02,9.332008361816406250e+00,0.000000000000000000e+00,6.119350194931030273e-01,4.140000000000000000e+02
-4.022711258516037560e+02,-3.988751151569213107e+02,-1.654271440045249619e+02,-1.641215473572538031e+02,-4.228906274750165721e+02,-4.491668332891217688e+02,-1.230181839697338546e+02,-2.027725857306113539e+02,9.332008361816406250e+00,0.000000000000000000e+00,6.119350194931030273e-01,4.150000000000000000e+02
-3.995726772012667425e+02,-3.937250244077663410e+02,-1.630931665286325369e+02,-1.622538071765666245e+02,-4.185239502224276293e+02,-4.436820862317485989e+02,-1.201319106058926991e+02,-2.004438084356966101e+02,9.446745872497558594e+00,-1.147378161549568176e-01,7.266727685928344727e-01,4.160000000000000000e+02
-3.972955861899990850e+02,-3.896981484937168716e+02,-1.627195114211262990e+02,-1.612514613503562941e+02,-4.156709279002461699e+02,-4.396821886694488057e+02,-1.190755227893259871e+02,-2.016189731866707007e+02,9.446745872497558594e+00,-1.147378161549568176e-01,7.266727685928344727e-01,4.170000000000000000e+02
-3.951804429004446320e+02,-3.874153844716538515e+02,-1.634895125794355408e+02,-1.616187552313613196e+02,-4.141603970562082395e+02,-4.370911081505691982e+02,-1.195783764807838452e+02,-2.054885632469631673e+02,9.446745872497558594e+00,-1.147378161549568176e-01,7.266727685928344727e-01,4.180000000000000000e+02
-3.925718115068521001e+02,-3.862935710080678291e+02,-1.640108633559948430e+02,-1.628315140971581059e+02,-4.131008881595912499e+02,-4.349581745018704169e+02,-1.203627488236006684e+02,-2.094978315849052706e+02,9.446745872497558594e+00,-1.147378161549568176e-01,7.266727685928344727e-01,4.190000000000000000e+02
-3.889651224527879094e+02,-3.849840747050679965e+02,-1.632720224020463320e+02,-1.638717443025498142e+02,-4.113147010533702996e+02,-4.321613169255324465e+02,-1.201484423047454584e+02,-2.110696140892155199e+02,9.446745872497558594e+00,-1.147378161549568176e-01,7.266727685928344727e-01,4.200000000000000000e+02
-3.845024496543051100e+02,-3.823734444604856435e+02,-1.611538194114377802e+02,-1.640168803283195302e+02,-4.079957905934861628e+02,-4.281600657099766067e+02,-1.185145328307307864e+02,-2.091989246516814092e+02,9.446745872497558594e+00,-1.147378161549568176e-01,7.266727685928344727e-01,4.210000000000000000e+02
-3.799679273318283776e+02,-3.783156105130547076e+02,-1.582593952608713153e+02,-1.632813416588528526e+02,-4.032136602849800511e+02,-4.232613846455560633e+02,-1.159995151127077406e+02,-2.048657659972027432e+02,9.446745872497558594e+00,-1.147378161549568176e-01,7.266727685928344727e-01,4.220000000000000000e+02
-3.762661248441322641e+02,-3.735860388448722915e+02,-1.553899253331574073e+02,-1.622595456662206743e+02,-3.978652339119685166e+02,-4.182755262871455670e+02,-1.135159481015562051e+02,-2.001717769763304204e+02,9.446745872497558594e+00,-1.147378161549568176e-01,7.266727685928344727e-01,4.230000000000000000e+02
-3.738100835284308232e+02,-3.692218156920525871e+02,-1.531328218719454526e+02,-1.615869635352446494e+02,-3.930428207844538520e+02,-4.138878914346023521e+02,-1.116835686792160232e+02,-1.969793516774207092e+02,9.446745872497558594e+00,-1.147378161549568176e-01,7.266727685928344727e-01,4.240000000000000000e+02
-3.723084324459405252e+02,-3.658213082760403267e+02,-1.517477275034570994e+02,-1.614566880874549497e+02,-3.892907303743722878e+02,-4.102252949187595732e+02,-1.105952497839521129e+02,-1.959705865454166087e+02,9.446745872497558594e+00,-1.147378161549568176e-01,7.266727685928344727e-01,4.250000000000000000e+02
-3.710810185175996594e+02,-3.632786741616887412e+02,-1.512169971018242904e+02,-1.615099705273742074e+02,-3.863631061321934794e+02,-4.068900492159727946e+02,-1.100289423645190254e+02,-1.965694027413887852e+02,9.446745872497558594e+00,-1.147378161549568176e-01,7.266727685928344727e-01,4.260000000000000000e+02
-3.695658452758079875e+02,-3.610398180749425592e+02,-1.512714651674132256e+02,-1.611395578758933880e+02,-3.836460482402035268e+02,-4.033643667181195269e+02,-1.097387065950615579e+02,-1.975641068189875114e+02,9.446745872497558594e+00,-1.147378161549568176e-01,7.266727685928344727e-01,4.270000000000000000e+02
-3.675646464276042025e+02,-3.586158351534977555e+02,-1.514047404363600435e+02,-1.600001262358064196e+02,-3.807876076822431060e+02,-3.994425941271738338e+02,-1.095325075844129969e+02,-1.979447917482552839e+02,9.446745872497558594e+00,-1.147378161549568176e-01,7.266727685928344727e-01,4.280000000000000000e+02
-3.650766567262030549e+02,-3.559504480269915803e+02,-1.510306778588014822e+02,-1.583826788712917732e+02,-3.779330826930008698e+02,-3.953746798870629391e+02,-1.092166282685739134e+02,-1.974701768998843363e+02,9.446745872497558594e+00,-1.147378161549568176e-01,7.266727685928344727e-01,4.290000000000000000e+02
-3.619780201985554413e+02,-3.533425384562124236e+02,-1.498044386967380888e+02,-1.571420315476138967e+02,-3.754364520155490936e+02,-3.916495499507050226e+02,-1.086446140797315820e+02,-1.966807674545298141e+02,9.446745872497558594e+00,-1.147378161549568176e-01,7.266727685928344727e-01,4.300000000000000000e+02
-3.579473369638099030e+02,-3.509791651658588307e+02,-1.478905917411366318e+02,-1.571479046031131475e+02,-3.734478987547772704e+02,-3.886288163461563272e+02,-1.079014802180863626e+02,-1.963956186479895223e+02,9.446745872497558594e+00,-1.147378161549568176e-01,7.266727685928344727e-01,4.310000000000000000e+02
-3.527520843674628850e+02,-3.484825132419691727e+02,-1.458655749458007449e+02,-1.585815368546955142e+02,-3.717807512422714353e+02,-3.862901664720207009e+02,-1.073405124524133498e+02,-1.970039079230959942e+02,9.446745872497558594e+00,-1.147378161549568176e-01,7.266727685928344727e-01,4.320000000000000000e+02
-3.466284323732388657e+02,-3.449733410161493339e+02,-1.442300901193548270e+02,-1.606266505840039827e+02,-3.700671022149545024e+02,-3.842226851594755317e+02,-1.072653057383795385e+02,-1.980453073242815663e+02,9.446745872497558594e+00,-1.147378161549568176e-01,7.266727685928344727e-01,4.330000000000000000e+02
-3.403685081852818257e+02,-3.397590212864311070e+02,-1.429259302796240263e+02,-1.618951915300990549e+02,-3.679275537267153595e+02,-3.818304898559217690e+02,-1.074745173569813232e+02,-1.984099966877797669e+02,9.446745872497558594e+00,-1.147378161549568176e-01,7.266727685928344727e-01,4.340000000000000000e+02
-3.349719719496074504e+02,-3.331057228880481489e+02,-1.413455085666219020e+02,-1.613459842618985931e+02,-3.650211237011280900e+02,-3.785983133504823854e+02,-1.071778637569386774e+02,-1.970421506043949194e+02,9.446745872497558594e+00,-1.147378161549568176e-01,7.266727685928344727e-01,4.350000000000000000e+02
-3.310966967929407474e+02,-3.263110418443575327e+02,-1.388990350838284940e+02,-1.589696696467071888e+02,-3.611006495183564766e+02,-3.742736311043431670e+02,-1.055146518969040699e+02,-1.936106268414046099e+02,9.446745872497558594e+00,-1.147378161549568176e-01,7.266727685928344727e-01,4.360000000000000000e+02
-3.286960021547820361e+02,-3.208353299383352351e+02,-1.356596987171215005e+02,-1.556505816970689011e+02,-3.561873847587016826e+02,-3.689021126380735041e+02,-1.022892352267163005e+02,-1.886383403926261053e+02,9.370253562927246094e+00,-3.824593871831893921e-02,6.501809358596801758e-01,4.370000000000000000e+02
-3.270654581831045107e+02,-3.171594077007684973e+02,-1.324568927300824726e+02,-1.523371182162359219e+02,-3.507035488954493303e+02,-3.627563503405008305e+02,-9.824036281550888816e+01,-1.830619354746436329e+02,9.370253562927246094e+00,-3.824593871831893921e-02,6.501809358596801758e-01,4.380000000000000000e+02
-3.252339455309256664e+02,-3.144241292632277691e+02,-1.302593570689582521e+02,-1.493142632783687986e+02,-3.453286727758168126e+02,-3.562568013892109775e+02,-9.456336990241061358e+01,-1.777063388535239028e+02,9.370253562927246094e+00,-3.824593871831893921e-02,6.501809358596801758e-01,4.390000000000000000e+02
-3.224454930908341339e+02,-3.112542021112881230e+02,-1.293682096003021798e+02,-1.462804620249921754e+02,-3.406237614467581807e+02,-3.499537310751875339e+02,-9.211672892250317091e+01,-1.731509623918304897e+02,9.370253562927246094e+00,-3.824593871831893921e-02,6.501809358596801758e-01,4.400000000000000000e+02
-3.184645432848292330e+02,-3.070275839728183200e+02,-1.291364726105393856e+02,-1.430824200978327099e+02,-3.367474852811246819e+02,-3.444949107541729063e+02,-9.098813039187371032e+01,-1.699279435598441523e+02,9.370253562927246094e+00,-3.824593871831893921e-02,6.501809358596801758e-01,4.410000000000000000e+02
-3.135784117547600545e+02,-3.023822856758788475e+02,-1.284571830378986306e+02,-1.402464247661528134e+02,-3.334964423523006189e+02,-3.404277303833150654e+02,-9.066925604997049959e+01,-1.685610161138069998e+02,9.370253562927246094e+00,-3.824593871831893921e-02,6.501809358596801758e-01,4.420000000000000000e+02
-3.083564366770924607e+02,-2.984827696770776129e+02,-1.265606088658187218e+02,-1.386242849379577819e+02,-3.305439523823533818e+02,-3.378275296315482592e+02,-9.050194740667575388e+01,-1.691197768885135702e+02,9.370253562927246094e+00,-3.824593871831893921e-02,6.501809358596801758e-01,4.430000000000000000e+02
-3.033334799437293441e+02,-2.958120779248060899e+02,-1.234356995751850263e+02,-1.384383249291195170e+02,-3.275704276120873146e+02,-3.360295427958726577e+02,-8.994962718049737305e+01,-1.706550426170920218e+02,9.370253562927246094e+00,-3.824593871831893921e-02,6.501809358596801758e-01,4.440000000000000000e+02
-2.987987932908508810e+02,-2.937323402775059549e+02,-1.196238018692079095e+02,-1.387516925598802118e+02,-3.242228878677778994e+02,-3.338423237566203170e+02,-8.864337487184457132e+01,-1.712882055379936901e+02,9.370253562927246094e+00,-3.824593871831893921e-02,6.501809358596801758e-01,4.450000000000000000e+02
-2.947993907044487969e+02,-2.912536244800826353e+02,-1.157368090674872292e+02,-1.380593829507192822e+02,-3.201482691518031061e+02,-3.302967825797391015e+02,-8.646917496479909460e+01,-1.692809161106965803e+02,9.370253562927246094e+00,-3.824593871831893921e-02,6.501809358596801758e-01,4.460000000000000000e+02
-2.912751093161305107e+02,-2.881822806180871339e+02,-1.121962623962463113e+02,-1.355675308851091359e+02,-3.152608355655384003e+02,-3.254350724069340686e+02,-8.378826322730401444e+01,-1.644029424878772261e+02,9.370253562927246094e+00,-3.824593871831893921e-02,6.501809358596801758e-01,4.470000000000000000e+02
-2.881580559238891510e+02,-2.854203430171874061e+02,-1.093084745002774980e+02,-1.319612541595743096e+02,-3.100094927219502097e+02,-3.204217313165077030e+02,-8.147072639048292331e+01,-1.583930646206208621e+02,9.370253562927246094e+00,-3.824593871831893921e-02,6.501809358596801758e-01,4.480000000000000000e+02
-2.853547123237631240e+02,-2.840723618523029472e+02,-1.073886974701104009e+02,-1.288857032786963828e+02,-3.052716755756205202e+02,-3.167411978151867515e+02,-8.042922437007746339e+01,-1.539237589332210518e+02,9.370253562927246094e+00,-3.824593871831893921e-02,6.501809358596801758e-01,4.490000000000000000e+02
-2.826844920037178781e+02,-2.842542902976801997e+02,-1.066542120171675379e+02,-1.275750549503336515e+02,-3.018428239289228259e+02,-3.150564591235929583e+02,-8.086193501725165333e+01,-1.527564103595564120e+02,9.370253562927246094e+00,-3.824593871831893921e-02,6.501809358596801758e-01,4.500000000000000000e+02
-2.799185995878710855e+02,-2.848142562989628459e+02,-1.069642740619033248e+02,-1.278636967657316745e+02,-2.999417463273284739e+02,-3.146787872111649449e+02,-8.188185961953240621e+01,-1.545371092320324351e+02,9.370253562927246094e+00,-3.824593871831893921e-02,6.501809358596801758e-01,4.510000000000000000e+02
-2.769311696295812908e+02,-2.842660927126726165e+02,-1.077303677636177781e+02,-1.284040954531178613e+02,-2.991530243255720052e+02,-3.141003144256646920e+02,-8.201814389490846224e+01,-1.571632070698378811e+02,9.370253562927246094e+00,-3.824593871831893921e-02,6.501809358596801758e-01,4.520000000000000000e+02
-2.738065269841481495e+02,-2.820281315660681685e+02,-1.081622798899352347e+02,-1.277699518026438454e+02,-2.987710848200363216e+02,-3.121004317199594880e+02,-8.029655731140155694e+01,-1.583164066551189535e+02,9.370253562927246094e+00,-3.824593871831893921e-02,6.501809358596801758e-01,4.530000000000000000e+02
-2.707621483409793655e+02,-2.787970767380561483e+02,-1.076732824120676923e+02,-1.254217813395862322e+02,-2.981585329819690742e+02,-3.084867919599887500e+02,-7.702480596878285724e+01,-1.568769967819835074e+02,9.370253562927246094e+00,-3.824593871831893921e-02,6.501809358596801758e-01,4.540000000000000000e+02
-2.679401908803920378e+02,-2.757825559830562270e+02,-1.061272344284134306e+02,-1.218339887164538595e+02,-2.968690084559088973e+02,-3.039619131581139300e+02,-7.359739974595549938e+01,-1.532428282058076547e+02,9.370253562927246094e+00,-3.824593871831893921e-02,6.501809358596801758e-01,4.550000000000000000e+02
-2.652870687504673697e+02,-2.736189055856580126e+02,-1.037977823703240574e+02,-1.179363807101353814e+02,-2.946530808841316684e+02,-2.994324467947703852e+02,-7.144894079572804912e+01,-1.486446064331048547e+02,9.370253562927246094e+00,-3.824593871831893921e-02,6.501809358596801758e-01,4.560000000000000000e+02
-2.626586374575831542e+02,-2.719854296129396971e+02,-1.011643820433396286e+02,-1.145218552678543347e+02,-2.915558832070028075e+02,-2.954757329860972277e+02,-7.099275262655646657e+01,-1.442973807156863586e+02,9.370253562927246094e+00,-3.824593871831893921e-02,6.501809358596801758e-01,4.570000000000000000e+02
-2.600241406757627374e+02,-2.701553661428979467e+02,-9.870833750962037811e+01,-1.120237027238690644e+02,-2.880209986962117910e+02,-2.923113040359758088e+02,-7.135070475192878803e+01,-1.410110432859296452e+02,9.370253562927246094e+00,-3.824593871831893921e-02,6.501809358596801758e-01,4.580000000000000000e+02
-2.574938966933023039e+02,-2.677817882324402490e+02,-9.675071509412964588e+01,-1.105536666575239906e+02,-2.847307523530944309e+02,-2.900268330901185436e+02,-7.102865260652470170e+01,-1.391846819266961575e+02,9.370253562927246094e+00,-3.824593871831893921e-02,6.501809358596801758e-01,4.590000000000000000e+02
-2.550920963790772475e+02,-2.651020473927173953e+02,-9.531239645017149087e+01,-1.099270126954443185e+02,-2.821591156363242590e+02,-2.886257337097031268e+02,-6.898539555006846058e+01,-1.387641653362916259e+02,9.370253562927246094e+00,-3.824593871831893921e-02,6.501809358596801758e-01,4.600000000000000000e+02
-2.525277592893271503e+02,-2.624510440889898746e+02,-9.407190285773958749e+01,-1.096404099988653797e+02,-2.802021536122138059e+02,-2.878150689639151096e+02,-6.530303548386200418e+01,-1.390731068083405262e+02,9.370253562927246094e+00,-3.824593871831893921e-02,6.501809358596801758e-01,4.610000000000000000e+02
-2.492947699721917161e+02,-2.597091094336674360e+02,-9.256676793604992781e+01,-1.090210314746036602e+02,-2.782976534312156218e+02,-2.868941472699480073e+02,-6.105307852850819472e+01,-1.389252446371733640e+02,9.446745872497558594e+00,-7.649187743663787842e-02,7.266727685928344727e-01,4.620000000000000000e+02
-2.451193159303420543e+02,-2.563212557168344574e+02,-9.060350452679222144e+01,-1.076119882456114283e+02,-2.759587152832659740e+02,-2.850530237278185268e+02,-5.755522331300198857e+01,-1.373004757503249493e+02,9.446745872497558594e+00,-7.649187743663787842e-02,7.266727685928344727e-01,4.630000000000000000e+02
-2.403551833164724485e+02,-2.518650174224053444e+02,-8.855120900639940373e+01,-1.055051239547565274e+02,-2.732015763606741530e+02,-2.819380918295769334e+02,-5.562077750872913384e+01,-1.341880806013277834e+02,9.446745872497558594e+00,-7.649187743663787842e-02,7.266727685928344727e-01,4.640000000000000000e+02
-2.358741116878491084e+02,-2.465543551206342272e+02,-8.716450789172540681e+01,-1.032685033305665456e+02,-2.704610026492205179e+02,-2.779956309097269695e+02,-5.528175963836429219e+01,-1.307725807158731186e+02,9.446745872497558594e+00,-7.649187743663787842e-02,7.266727685928344727e-01,4.650000000000000000e+02
-2.324337821355861706e+02,-2.411632329968902013e+02,-8.694548954992160361e+01,-1.014743140632076575e+02,-2.681062639434480843e+02,-2.742215670048944958e+02,-5.602132043618939861e+01,-1.285716846746659030e+02,9.446745872497558594e+00,-7.649187743663787842e-02,7.266727685928344727e-01,4.660000000000000000e+02
-2.300560158444536683e+02,-2.364604048828878149e+02,-8.754798069622256662e+01,-1.002343973958750212e+02,-2.660529813509206178e+02,-2.714568276916556897e+02,-5.713891008104064895e+01,-1.281358605842310681e+02,9.446745872497558594e+00,-7.649187743663787842e-02,7.266727685928344727e-01,4.670000000000000000e+02
-2.280293758135935605e+02,-2.327077308101866038e+02,-8.783030260393798017e+01,-9.915410878436887288e+01,-2.638251618465228603e+02,-2.697698988959846247e+02,-5.792886482074845844e+01,-1.284806783781377817e+02,9.446745872497558594e+00,-7.649187743663787842e-02,7.266727685928344727e-01,4.680000000000000000e+02
-2.255869804176018079e+02,-2.296450904795760835e+02,-8.667023448813006326e+01,-9.771897658588386548e+01,-2.609732374470818286e+02,-2.684142000330825795e+02,-5.772965463156879196e+01,-1.278622474332796628e+02,9.446745872497558594e+00,-7.649187743663787842e-02,7.266727685928344727e-01,4.690000000000000000e+02
-2.226435134626117360e+02,-2.268532666702981260e+02,-8.394096848592016613e+01,-9.573391814902515762e+01,-2.574680422958563213e+02,-2.663843104071670496e+02,-5.612799634631210211e+01,-1.252642736633265486e+02,9.446745872497558594e+00,-7.649187743663787842e-02,7.266727685928344727e-01,4.700000000000000000e+02
-2.198601029729402399e+02,-2.240655385086433853e+02,-8.078916988450600911e+01,-9.343521840826815605e+01,-2.537794320844795948e+02,-2.631350352040926737e+02,-5.334813272615019741e+01,-1.212579959068216340e+02,9.446745872497558594e+00,-7.649187743663787842e-02,7.266727685928344727e-01,4.710000000000000000e+02
-2.179341455371359189e+02,-2.211941390138758834e+02,-7.888344498835022023e+01,-9.125487242803865229e+01,-2.506206522081147341e+02,-2.589309226725640656e+02,-5.042614472596915220e+01,-1.174751458336613723e+02,9.446745872497558594e+00,-7.649187743663787842e-02,7.266727685928344727e-01,4.720000000000000000e+02
-2.168038179571922228e+02,-2.182236870552706023e+02,-7.917474998898569538e+01,-8.953690332348423908e+01,-2.485318560977971174e+02,-2.546085193595040437e+02,-4.874010206687671598e+01,-1.152243287877872717e+02,9.446745872497558594e+00,-7.649187743663787842e-02,7.266727685928344727e-01,4.730000000000000000e+02
-2.155885615561246595e+02,-2.152196429345817705e+02,-8.116437009117362322e+01,-8.846505802773208416e+01,-2.475375279211702946e+02,-2.509957260794471949e+02,-4.904002288596439030e+01,-1.145414056625095327e+02,9.446745872497558594e+00,-7.649187743663787842e-02,7.266727685928344727e-01,4.740000000000000000e+02
-2.133798775042596390e+02,-2.124327227333451447e+02,-8.327491516873988076e+01,-8.814462448895210400e+01,-2.470908204584138730e+02,-2.484470705635867489e+02,-5.075319405970640219e+01,-1.144428555227682409e+02,9.446745872497558594e+00,-7.649187743663787842e-02,7.266727685928344727e-01,4.750000000000000000e+02
-2.101250636383947494e+02,-2.102099240171423844e+02,-8.398906680806067016e+01,-8.858872038262143178e+01,-2.463751400737514814e+02,-2.467717671042414622e+02,-5.226072634604224731e+01,-1.139468205451612448e+02,9.446745872497558594e+00,-7.649187743663787842e-02,7.266727685928344727e-01,4.760000000000000000e+02
-2.067002325965527234e+02,-2.086042724185949737e+02,-8.280449870476513752e+01,-8.951225267237714434e+01,-2.447911801731743253e+02,-2.454665713809699810e+02,-5.200415325072481210e+01,-1.127787284748960701e+02,9.446745872497558594e+00,-7.649187743663787842e-02,7.266727685928344727e-01,4.770000000000000000e+02
-2.040723692256165123e+02,-2.070379376790697279e+02,-8.029985011277995000e+01,-9.016394149217012455e+01,-2.422870780583202759e+02,-2.439812942348403340e+02,-4.951334876477903890e+01,-1.111793200410120335e+02,9.446745872497558594e+00,-7.649187743663787842e-02,7.266727685928344727e-01,4.780000000000000000e+02
-2.024066006951479721e+02,-2.045371556980494461e+02,-7.744141078720667792e+01,-8.954125002999990102e+01,-2.392954879816488756e+02,-2.418724053304417794e+02,-4.554285825757506245e+01,-1.092723140195867018e+02,9.446745872497558594e+00,-7.649187743663787842e-02,7.266727685928344727e-01,4.790000000000000000e+02
-2.010519627283401860e+02,-2.005986556363131967e+02,-7.488187117419556671e+01,-8.701806341476049056e+01,-2.363693184280259629e+02,-2.389104474225409831e+02,-4.137036926532391590e+01,-1.068506248829685319e+02,9.446745872497558594e+00,-7.649187743663787842e-02,7.266727685928344727e-01,4.800000000000000000e+02
-1.993915112803824741e+02,-1.959923750743869277e+02,-7.281951822562768939e+01,-8.292607571055077642e+01,-2.338215594656621761e+02,-2.351894702684235199e+02,-3.798086415222269352e+01,-1.038176384894609328e+02,9.446745872497558594e+00,-7.649187743663787842e-02,7.266727685928344727e-01,4.810000000000000000e+02
-1.975811741605336920e+02,-1.926027590241742473e+02,-7.129559378412022852e+01,-7.851770371785733005e+01,-2.315959617707703728e+02,-2.311330666425524214e+02,-3.574702183621320728e+01,-1.006503380647222912e+02,9.446745872497558594e+00,-7.649187743663787842e-02,7.266727685928344727e-01,4.820000000000000000e+02
-1.963079979368062595e+02,-1.921437817752325827e+02,-7.038886845788238134e+01,-7.520915636579411512e+01,-2.293569120307247431e+02,-2.272606025852001039e+02,-3.457676694209476409e+01,-9.818149285731897180e+01,9.446745872497558594e+00,-7.649187743663787842e-02,7.266727685928344727e-01,4.830000000000000000e+02
-1.958036285855596361e+02,-1.946668794007628094e+02,-7.002535486361693984e+01,-7.364416537762826920e+01,-2.266618342577994554e+02,-2.238094025412883639e+02,-3.410340343741881952e+01,-9.679321682933459670e+01,9.446745872497558594e+00,-7.649187743663787842e-02,7.266727685928344727e-01,4.840000000000000000e+02
-1.952828652451109974e+02,-1.981834604272416982e+02,-6.972303192451227005e+01,-7.334196442906295488e+01,-2.231743454547463443e+02,-2.205692943255476166e+02,-3.374702303562162342e+01,-9.589002674394532733e+01,9.446745872497558594e+00,-7.649187743663787842e-02,7.266727685928344727e-01,4.850000000000000000e+02
-1.936086667720162495e+02,-1.999121785651750542e+02,-6.875188744178922207e+01,-7.322087539937501788e+01,-2.189157555049937400e+02,-2.171708073076961227e+02,-3.286384959461202016e+01,-9.432890864692262767e+01,9.446745872497558594e+00,-7.649187743663787842e-02,7.266727685928344727e-01,4.860000000000000000e+02
-1.906143517019181672e+02,-1.982806697968999288e+02,-6.672172136811241216e+01,-7.251648466249230296e+01,-2.144173118249141226e+02,-2.135900371441121024e+02,-3.114119552299007410e+01,-9.148675739206282742e+01,9.446745872497558594e+00,-7.649187743663787842e-02,7.266727685928344727e-01,4.870000000000000000e+02
-1.876341046937186547e+02,-1.940768523213096159e+02,-6.403531197140182485e+01,-7.127638680855693565e+01,-2.105320474349628057e+02,-2.103134984590228669e+02,-2.895429470645331094e+01,-8.791716940133483149e+01,9.446745872497558594e+00,-7.649187743663787842e-02,7.266727685928344727e-01,4.880000000000000000e+02
-1.864605550555529589e+02,-1.897991933450957731e+02,-6.166099739924948153e+01,-7.004968693441082905e+01,-2.078836907620684542e+02,-2.078930409744548342e+02,-2.722090465370501988e+01,-8.490135519840850975e+01,9.408499717712402344e+00,-7.649187743663787842e-02,6.884268522262573242e-01,4.890000000000000000e+02
-1.875943785573094829e+02,-1.877458313266672576e+02,-6.035177040958751604e+01,-6.917103442078587250e+01,-2.063613078330517965e+02,-2.063040435100056129e+02,-2.671964049446296485e+01,-8.330421114864020637e+01,9.408499717712402344e+00,-7.649187743663787842e-02,6.884268522262573242e-01,4.900000000000000000e+02
-1.895418212632000632e+02,-1.884176752489197497e+02,-6.002927990480020526e+01,-6.838330504047166869e+01,-2.051804675039643371e+02,-2.048239275066603113e+02,-2.742107886742451228e+01,-8.283558131026916271e+01,9.408499717712402344e+00,-7.649187743663787842e-02,6.884268522262573242e-01,4.910000000000000000e+02
-1.900134401641118984e+02,-1.904662489412555715e+02,-5.991982639947673306e+01,-6.714480095233648171e+01,-2.035583077099749971e+02,-2.026578723418087975e+02,-2.845044884357275805e+01,-8.240691888913488583e+01,9.408499717712402344e+00,-7.649187743663787842e-02,6.884268522262573242e-01,4.920000000000000000e+02
-1.879842540467436720e+02,-1.920462323175001984e+02,-5.929259156746661574e+01,-6.526267626749518058e+01,-2.014098755330264794e+02,-1.997329332664853609e+02,-2.872875234306320635e+01,-8.119208262132247000e+01,9.408499717712402344e+00,-7.649187743663787842e-02,6.884268522262573242e-01,4.930000000000000000e+02
-1.846310961460892486e+02,-1.922834085597271496e+02,-5.807042321545964114e+01,-6.319028467429234297e+01,-1.993962644520177037e+02,-1.968332234135336876e+02,-2.771970232412581936e+01,-7.935018008087195085e+01,9.408499717712402344e+00,-7.649187743663787842e-02,6.884268522262573242e-01,4.940000000000000000e+02
-1.822168829278098201e+02,-1.916345918384126890e+02,-5.678197788252532519e+01,-6.167959869317814992e+01,-1.982716237627691953e+02,-1.948834737697748096e+02,-2.568736968423536382e+01,-7.776895969283555132e+01,9.408499717712402344e+00,-7.649187743663787842e-02,6.884268522262573242e-01,4.950000000000000000e+02
-1.820048722952387834e+02,-1.910515089848950083e+02,-5.601386416830132475e+01,-6.112326949169369072e+01,-1.981710828917759954e+02,-1.940735522107941051e+02,-2.339310820935520496e+01,-7.716358266982979330e+01,9.408499717712402344e+00,-7.649187743663787842e-02,6.884268522262573242e-01,4.960000000000000000e+02
-1.832209563949934363e+02,-1.909363343572422309e+02,-5.595068732061167793e+01,-6.119331882654114452e+01,-1.985099349420208910e+02,-1.936897224396952879e+02,-2.161013121383052749e+01,-7.741617529798827491e+01,9.408499717712402344e+00,-7.649187743663787842e-02,6.884268522262573242e-01,4.970000000000000000e+02
-1.839971704164013317e+02,-1.909184635139008606e+02,-5.636472177020345953e+01,-6.108353313384122885e+01,-1.985111260293078885e+02,-1.928058677683118276e+02,-2.081877705043416427e+01,-7.771356386098705116e+01,9.408499717712402344e+00,-7.649187743663787842e-02,6.884268522262573242e-01,4.980000000000000000e+02
-1.832626328399346676e+02,-1.905436072572410922e+02,-5.688525775081757274e+01,-6.013142361057066410e+01,-1.977901640487145869e+02,-1.911261600483169332e+02,-2.111708983735752554e+01,-7.723492885058772117e+01,9.408499717712402344e+00,-7.649187743663787842e-02,6.884268522262573242e-01,4.990000000000000000e+02
-1.816702431147195966e+02,-1.900052404101973025e+02,-5.717291341317195474e+01,-5.830714525476037124e+01,-1.964837636648494481e+02,-1.891580207856420657e+02,-2.219763564255367783e+01,-7.569700284289751835e+01,9.408499717712402344e+00,-7.649187743663787842e-02,6.884268522262573242e-01,5.000000000000000000e+02
-1.807072882636546183e+02,-1.900529804939584437e+02,-5.689021450274458402e+01,-5.622157163844485694e+01,-1.949317954210962398e+02,-1.876094974801721946e+02,-2.336763381684613705e+01,-7.333799525025619914e+01,9.408499717712402344e+00,-7.649187743663787842e-02,6.884268522262573242e-01,5.010000000000000000e+02
-1.809964779353565518e+02,-1.911156132913305328e+02,-5.569465062383301301e+01,-5.468191782513906674e+01,-1.933050912063270061e+02,-1.866558599349041287e+02,-2.374796371753404856e+01,-7.050596213404833179e+01,9.408499717712402344e+00,-7.649187743663787842e-02,6.884268522262573242e-01,5.020000000000000000e+02
-1.815495392954235285e+02,-1.925719045630322626e+02,-5.344465220462893740e+01,-5.412934277802833094e+01,-1.914963618323688479e+02,-1.857861970484914309e+02,-2.269907245358126602e+01,-6.735103408651480095e+01,9.408499717712402344e+00,-7.649187743663787842e-02,6.884268522262573242e-01,5.030000000000000000e+02
-1.806995189023484727e+02,-1.930359710620386977e+02,-5.046577655186786160e+01,-5.433482257101934465e+01,-1.892698818909207148e+02,-1.843213183340928936e+02,-2.026429421441628165e+01,-6.391079129008778636e+01,9.408499717712402344e+00,-7.649187743663787842e-02,6.884268522262573242e-01,5.040000000000000000e+02
-1.777229178566136625e+02,-1.915304052448516359e+02,-4.753253463793430456e+01,-5.454055260039240238e+01,-1.864912455895341736e+02,-1.820562022046505035e+02,-1.728928557892811568e+01,-6.042301647956026045e+01,9.408499717712402344e+00,-7.649187743663787842e-02,6.884268522262573242e-01,5.050000000000000000e+02
-1.735474721755705332e+02,-1.884890030004763730e+02,-4.545580619594136351e+01,-5.394627704176906491e+01,-1.832922874729707701e+02,-1.794110968523915517e+02,-1.503707477842363005e+01,-5.744691882616621115e+01,9.408499717712402344e+00,-7.649187743663787842e-02,6.884268522262573242e-01,5.060000000000000000e+02
-1.699178397033875854e+02,-1.855867041656022707e+02,-4.457462114426613198e+01,-5.221995666976289385e+01,-1.801015933737509727e+02,-1.769875948356167328e+02,-1.447387257245600267e+01,-5.557433199248180244e+01,9.408499717712402344e+00,-7.649187743663787842e-02,6.884268522262573242e-01,5.070000000000000000e+02
-1.679148640162715083e+02,-1.844465321056644598e+02,-4.458910620353935883e+01,-4.969496750958023767e+01,-1.774847304518644364e+02,-1.749865383222419268e+02,-1.566806039779476123e+01,-5.494540113518678481e+01,9.408499717712402344e+00,-7.649187743663787842e-02,6.884268522262573242e-01,5.080000000000000000e+02
-1.672595805707076408e+02,-1.853320824507852649e+02,-4.486701737209563134e+01,-4.712357968919747009e+01,-1.758200023668944993e+02,-1.730486982901289821e+02,-1.770121754939947323e+01,-5.500773508211520380e+01,9.408499717712402344e+00,-7.649187743663787842e-02,6.884268522262573242e-01,5.090000000000000000e+02
-1.669382804622877075e+02,-1.869816454740969220e+02,-4.492410525677590272e+01,-4.517308526358709742e+01,-1.750170369637357908e+02,-1.706751835524134435e+02,-1.918496059401329035e+01,-5.480653139050217248e+01,9.408499717712402344e+00,-7.649187743663787842e-02,6.884268522262573242e-01,5.100000000000000000e+02
-1.663426846628719318e+02,-1.877084931916044468e+02,-4.465070006251623624e+01,-4.402537100189040586e+01,-1.745291651708579934e+02,-1.678305980461626632e+02,-1.906532418039762433e+01,-5.364316595074238592e+01,9.408499717712402344e+00,-7.649187743663787842e-02,6.884268522262573242e-01,5.110000000000000000e+02
-1.657357589029593328e+02,-1.867553016241080854e+02,-4.416671470887678197e+01,-4.334988845683696468e+01,-1.737009803938800587e+02,-1.651422278274459359e+02,-1.719747951056277202e+01,-5.160669622718958749e+01,9.408499717712402344e+00,-7.649187743663787842e-02,6.884268522262573242e-01,5.120000000000000000e+02
-1.656858237991152691e+02,-1.847053173678198164e+02,-4.355576709557772119e+01,-4.261507016547557214e+01,-1.721724665141069295e+02,-1.634419116109859829e+02,-1.433242590595466481e+01,-4.953265301701731005e+01,9.408499717712402344e+00,-7.649187743663787842e-02,6.884268522262573242e-01,5.130000000000000000e+02
-1.662177995250051481e+02,-1.826863845354129126e+02,-4.278791778906133914e+01,-4.146825713101486599e+01,-1.700071609986305248e+02,-1.630078647159220964e+02,-1.158478996000553707e+01,-4.837672010856215365e+01,9.408499717712402344e+00,-7.649187743663787842e-02,6.884268522262573242e-01,5.140000000000000000e+02
-1.666369945317076144e+02,-1.812294171718436928e+02,-4.185539096550337490e+01,-3.990958533262528363e+01,-1.674831249763401502e+02,-1.631896194710599275e+02,-9.796318222183117541e+00,-4.845247789862060017e+01,9.408499717712402344e+00,-7.649187743663787842e-02,6.884268522262573242e-01,5.150000000000000000e+02
-1.661788619706422878e+02,-1.798913815876354647e+02,-4.086874096966630532e+01,-3.816765613538382240e+01,-1.647933796312106551e+02,-1.627983446472674132e+02,-9.191585027189148605e+00,-4.910734757341060686e+01,9.408499717712402344e+00,-7.649187743663787842e-02,6.884268522262573242e-01,5.160000000000000000e+02
-1.647691360336691559e+02,-1.779521392757119429e+02,-3.992708010370847660e+01,-3.642214387205729054e+01,-1.619258952532629792e+02,-1.609698717160258639e+02,-9.419976408957381864e+00,-4.909830197153883091e+01,9.408499717712402344e+00,-7.649187743663787842e-02,6.884268522262573242e-01,5.170000000000000000e+02
-1.631161925774620158e+02,-1.754040695067096749e+02,-3.890464732200166509e+01,-3.460964112409578775e+01,-1.587558310726860782e+02,-1.577670255119951435e+02,-9.788969760655163554e+00,-4.739798900335222243e+01,9.408499717712402344e+00,-7.649187743663787842e-02,6.884268522262573242e-01,5.180000000000000000e+02
-1.620852868671122451e+02,-1.731647396895102702e+02,-3.747570577491569566e+01,-3.247319324822592534e+01,-1.552104953167602162e+02,-1.540417639014963243e+02,-9.510469736287632259e+00,-4.385828902599700996e+01,9.408499717712402344e+00,-7.649187743663787842e-02,6.884268522262573242e-01,5.190000000000000000e+02
-1.620328901607949774e+02,-1.722335712898413931e+02,-3.549986370002966396e+01,-2.982336724019910434e+01,-1.514119698908011742e+02,-1.507675064689269675e+02,-7.976750661267487885e+00,-3.930360077860132151e+01,9.408499717712402344e+00,-7.649187743663787842e-02,7.266727685928344727e-01,5.200000000000000000e+02
-1.627072708013715783e+02,-1.726076062756969804e+02,-3.346003686893755003e+01,-2.681652608596118625e+01,-1.477890072627878908e+02,-1.484927513109696520e+02,-5.120669778855926779e+00,-3.506895649854186559e+01,9.408499717712402344e+00,-7.649187743663787842e-02,7.266727685928344727e-01,5.210000000000000000e+02
-1.636322662302022763e+02,-1.730530666145577925e+02,-3.242116170020221944e+01,-2.400821003952796673e+01,-1.450757457897639142e+02,-1.473197704138788140e+02,-1.672423649925804057e+00,-3.235695037388904893e+01,9.408499717712402344e+00,-7.649187743663787842e-02,7.266727685928344727e-01,5.220000000000000000e+02
-1.644388430767646696e+02,-1.720481500330756717e+02,-3.333640911806060103e+01,-2.207045449098518475e+01,-1.440322520252079812e+02,-1.471945967414671941e+02,1.043159910474969365e+00,-3.179649033286978010e+01,9.408499717712402344e+00,-7.649187743663787842e-02,7.266727685928344727e-01,5.230000000000000000e+02
-1.648439185852821538e+02,-1.691006810606247655e+02,-3.618500761086852435e+01,-2.133912811982509083e+01,-1.449206251328760118e+02,-1.480268168105912991e+02,1.854129684685631219e+00,-3.332322163249591540e+01,9.408499717712402344e+00,-7.649187743663787842e-02,7.266727685928344727e-01,5.240000000000000000e+02
-1.645155776341239289e+02,-1.652554416387565652e+02,-3.972537366342294263e+01,-2.154440047056232288e+01,-1.471272510383860208e+02,-1.494984537083291798e+02,5.772036168932572764e-01,-3.627365190303862619e+01,9.408499717712402344e+00,-7.649187743663787842e-02,7.266727685928344727e-01,5.250000000000000000e+02
-1.632142348603169921e+02,-1.623343861495836791e+02,-4.221073648681203849e+01,-2.198578615385576995e+01,-1.493723999807698419e+02,-1.509117672823290377e+02,-1.752407048883924290e+00,-3.956797724084663059e+01,9.408499717712402344e+00,-7.649187743663787842e-02,7.266727685928344727e-01,5.260000000000000000e+02
-1.611695739563583629e+02,-1.615699766540683413e+02,-4.255272003054960805e+01,-2.204328083942573357e+01,-1.504786395851701855e+02,-1.514501959104231901e+02,-3.531468107939417678e+00,-4.198289735673097312e+01,9.408499717712402344e+00,-7.649187743663787842e-02,7.266727685928344727e-01,5.270000000000000000e+02
-1.592026961346418830e+02,-1.627764219012133253e+02,-4.099289401802934663e+01,-2.161390128775838093e+01,-1.500906414990326994e+02,-1.507283562488969437e+02,-3.657645679542383732e+00,-4.257706328992435374e+01,9.408499717712402344e+00,-7.649187743663787842e-02,7.266727685928344727e-01,5.280000000000000000e+02
-1.582506457821928052e+02,-1.646496477694549867e+02,-3.874427995515634393e+01,-2.110267649491061093e+01,-1.487282058801779385e+02,-1.490856408151239521e+02,-2.189982360332578537e+00,-4.115583867550185460e+01,9.408499717712402344e+00,-7.649187743663787842e-02,7.266727685928344727e-01,5.290000000000000000e+02
-1.586208792006455042e+02,-1.657964548228910644e+02,-3.697585221032977643e+01,-2.097744529543842873e+01,-1.471864056676804466e+02,-1.472699431934911445e+02,-1.277631925895548193e-01,-3.844489871652240254e+01,9.408499717712402344e+00,-7.649187743663787842e-02,7.266727685928344727e-01,5.300000000000000000e+02
-1.597208271030121978e+02,-1.656005528333371331e+02,-3.604444659870887335e+01,-2.127717155399250260e+01,-1.458918292277603541e+02,-1.457673296777602445e+02,1.425400876136791339e+00,-3.569097071567284729e+01,9.408499717712402344e+00,-7.649187743663787842e-02,7.266727685928344727e-01,5.310000000000000000e+02
-1.606080808364504264e+02,-1.643502321086907614e+02,-3.553334370299489819e+01,-2.149645866971059149e+01,-1.447573695191704246e+02,-1.444174164941014169e+02,2.011647652519513940e+00,-3.383565345198576324e+01,9.408499717712402344e+00,-7.649187743663787842e-02,7.266727685928344727e-01,5.320000000000000000e+02
-1.608485919240929434e+02,-1.627606460889819573e+02,-3.484839031468891335e+01,-2.092151449905577465e+01,-1.434771946807331915e+02,-1.426630944769012785e+02,1.974665061677114863e+00,-3.284812582241602286e+01,9.408499717712402344e+00,-7.649187743663787842e-02,7.266727685928344727e-01,5.330000000000000000e+02
-1.607972648267832483e+02,-1.614072357478389677e+02,-3.369362516596265777e+01,-1.911809674905543943e+01,-1.418202048059101799e+02,-1.401627704189677388e+02,2.034097668663889635e+00,-3.181653224728052010e+01,9.408499717712402344e+00,-7.649187743663787842e-02,7.266727685928344727e-01,5.340000000000000000e+02
-1.609861811063146888e+02,-1.604497736497050937e+02,-3.206301155350411136e+01,-1.620084194702940295e+01,-1.396974205382985019e+02,-1.371858847935291124e+02,2.681258510665429640e+00,-2.982213544350088341e+01,9.408499717712402344e+00,-7.649187743663787842e-02,7.266727685928344727e-01,5.350000000000000000e+02
-1.612557467129522593e+02,-1.596588916871992296e+02,-2.997981308961789182e+01,-1.273450131915342354e+01,-1.371655293665871795e+02,-1.344577916869075125e+02,3.843566920348166605e+00,-2.688468491181083664e+01,9.408499717712402344e+00,-7.649187743663787842e-02,7.266727685928344727e-01,5.360000000000000000e+02
-1.606053561438393444e+02,-1.585979109365434851e+02,-2.743001043403091899e+01,-9.411753545566170942e+00,-1.345446919906262337e+02,-1.326358678584983863e+02,5.013821832802022982e+00,-2.411248980281197873e+01,9.408499717712402344e+00,-7.649187743663787842e-02,7.266727685928344727e-01,5.370000000000000000e+02
-1.580450784749505146e+02,-1.568848567017994355e+02,-2.457479089023854613e+01,-6.761130851622510818e+00,-1.324668848479541339e+02,-1.318698950891530330e+02,5.711672568745598255e+00,-2.284138913388778747e+01,9.408499717712402344e+00,-7.649187743663787842e-02,7.266727685928344727e-01,5.380000000000000000e+02
-1.536778917420897415e+02,-1.544772232586910832e+02,-2.188281750222813571e+01,-5.015651206921575067e+00,-1.315354367444160744e+02,-1.317303740392608233e+02,5.914921946920912887e+00,-2.345877318049770111e+01,9.408499717712402344e+00,-7.649187743663787842e-02,7.266727685928344727e-01,5.390000000000000000e+02
-1.489242392940914215e+02,-1.518033380733859303e+02,-1.987854336089822027e+01,-4.099795884163540904e+00,-1.317025173105485010e+02,-1.314773592514029588e+02,6.104925483572515077e+00,-2.493510751286430605e+01,9.408499717712402344e+00,-7.649187743663787842e-02,7.266727685928344727e-01,5.400000000000000000e+02
-1.455747873691225323e+02,-1.495691266520843783e+02,-1.868884434340543521e+01,-3.680731201325215807e+00,-1.319821688936863211e+02,-1.304671698664360520e+02,6.853980697680526646e+00,-2.551317071713128826e+01,9.484992027282714844e+00,-7.649187743663787842e-02,7.266727685928344727e-01,5.410000000000000000e+02
-1.444769700917477167e+02,-1.482917541072893073e+02,-1.789188301963258709e+01,-3.281518105464783730e+00,-1.309829875094328600e+02,-1.284747997618724185e+02,8.291709590108439443e+00,-2.399725772199235507e+01,9.484992027282714844e+00,-7.649187743663787842e-02,7.266727685928344727e-01,5.420000000000000000e+02
-1.450142396303108399e+02,-1.479172516661401460e+02,-1.691437634694921144e+01,-2.474838713022109005e+00,-1.279508140228008415e+02,-1.257897547256043254e+02,9.933968182248463563e+00,-2.058714920953570982e+01,9.484992027282714844e+00,-7.649187743663787842e-02,7.266727685928344727e-01,5.430000000000000000e+02
-1.457824602071277695e+02,-1.478901429158495375e+02,-1.563443526498667779e+01,-1.094462169066900969e+00,-1.234047332788359199e+02,-1.230225378909772189e+02,1.105572938927434734e+01,-1.663012595213513123e+01,9.484992027282714844e+00,-7.649187743663787842e-02,7.266727685928344727e-01,5.440000000000000000e+02
-1.457722862983382583e+02,-1.476388552779662859e+02,-1.458171973766366136e+01,6.816921919180458644e-01,-1.187560429945515352e+02,-1.207146978789796776e+02,1.127569310131548264e+01,-1.359856641698843305e+01,9.484992027282714844e+00,-7.649187743663787842e-02,7.266727685928344727e-01,5.450000000000000000e+02
-1.449873705459194753e+02,-1.470218754279512723e+02,-1.448209928019423387e+01,2.469740108275800594e+00,-1.152431613130320329e+02,-1.189951648039586871e+02,1.081569476785080042e+01,-1.216327918988645251e+01,9.484992027282714844e+00,-7.649187743663787842e-02,7.266727685928344727e-01,5.460000000000000000e+02
-1.440769411380761085e+02,-1.463169467585630628e+02,-1.553817820614403900e+01,3.968938626601811848e+00,-1.131336178273104451e+02,-1.175370605907100980e+02,1.023120409523653507e+01,-1.199996500655743148e+01,9.484992027282714844e+00,-7.649187743663787842e-02,7.266727685928344727e-01,5.470000000000000000e+02
-1.435271460873227625e+02,-1.457933142898373262e+02,-1.712647818324876425e+01,5.175409481919814425e+00,-1.118352527460447163e+02,-1.158729211919799127e+02,9.929708469107936253e+00,-1.227995978501076024e+01,9.484992027282714844e+00,-7.649187743663787842e-02,7.266727685928344727e-01,5.480000000000000000e+02
-1.432600607405011033e+02,-1.453416584078222513e+02,-1.821499985434820701e+01,6.322729400843854819e+00,-1.106794113085707068e+02,-1.138268986337952811e+02,9.952401591046509566e+00,-1.231996034983239952e+01,9.484992027282714844e+00,-7.649187743663787842e-02,7.266727685928344727e-01,5.490000000000000000e+02
-1.429204261789627708e+02,-1.445536614682778236e+02,-1.814238147056857997e+01,7.589478453595802421e+00,-1.095872667147850734e+02,-1.117027632024273771e+02,1.014319825231359573e+01,-1.191896513237770705e+01,9.484992027282714844e+00,-7.649187743663787842e-02,7.266727685928344727e-01,5.500000000000000000e+02
-1.423740883313539598e+02,-1.431393789507492329e+02,-1.707317701347164984e+01,8.864266334766398359e+00,-1.090505666771496180e+02,-1.100527928872961638e+02,1.041532813364392496e+01,-1.127513892182287236e+01,9.484992027282714844e+00,-7.649187743663787842e-02,7.266727685928344727e-01,5.510000000000000000e+02
-1.418018981524801347e+02,-1.412000763618452766e+02,-1.574304187734014704e+01,9.843304428105511761e+00,-1.095138249594019726e+02,-1.091982258870193618e+02,1.081631599967113289e+01,-1.066236965708594653e+01,9.484992027282714844e+00,-7.649187743663787842e-02,7.266727685928344727e-01,5.520000000000000000e+02
-1.413439330332639656e+02,-1.390398319353462284e+02,-1.476517250516371860e+01,1.041006239257876587e+01,-1.107320267070917907e+02,-1.088997345995976502e+02,1.139949138043812127e+01,-1.011824972108297516e+01,9.484992027282714844e+00,-7.649187743663787842e-02,7.266727685928344727e-01,5.530000000000000000e+02
-1.408023790873721737e+02,-1.367158994891160546e+02,-1.412432947154229623e+01,1.092512261684169061e+01,-1.116379837907770707e+02,-1.084593876170711155e+02,1.214894149151223246e+01,-9.306882368959122687e+00,9.484992027282714844e+00,-7.649187743663787842e-02,7.266727685928344727e-01,5.540000000000000000e+02
-1.398292318939093093e+02,-1.338307543604005332e+02,-1.328223233690732741e+01,1.206015980524352926e+01,-1.108712382766989322e+02,-1.071993773271187820e+02,1.307010575055210211e+01,-7.643862529306716169e+00,9.484992027282714844e+00,-7.649187743663787842e-02,7.266727685928344727e-01,5.550000000000000000e+02
-1.384048437890078276e+02,-1.298238991330454155e+02,-1.176228431510935479e+01,1.421757209511815745e+01,-1.076567201090801973e+02,-1.049665363404474192e+02,1.426870865852833958e+01,-4.680994569134782068e+00,9.484992027282714844e+00,-7.649187743663787842e-02,7.266727685928344727e-01,5.560000000000000000e+02
-1.369905156270961015e+02,-1.245224365036374365e+02,-9.647730710030373302e+00,1.703671291963109979e+01,-1.024414948176217877e+02,-1.022765102091270819e+02,1.583233586055393971e+01,-5.489334444464475382e-01,9.484992027282714844e+00,-7.649187743663787842e-02,7.266727685928344727e-01,5.570000000000000000e+02
-1.360711194080631685e+02,-1.184488580822708172e+02,-7.548430434755573515e+00,1.949835360722499900e+01,-9.678641523514852452e+01,-9.998741736272313574e+01,1.760494802538778458e+01,3.876014919525914593e+00,9.484992027282714844e+00,-7.649187743663787842e-02,7.266727685928344727e-01,5.580000000000000000e+02
-1.355431790598213411e+02,-1.125934623108696542e+02,-6.100083748275210382e+00,2.063261120400602522e+01,-9.249837338581710355e+01,-9.875521362643121392e+01,1.914466790566439158e+01,7.306098005419698893e+00,9.484992027282714844e+00,-7.649187743663787842e-02,7.266727685928344727e-01,5.590000000000000000e+02
-1.346708990545066627e+02,-1.078236210404556914e+02,-5.465720156737006619e+00,2.026829312212248624e+01,-9.056954987633798737e+01,-9.867505291893576214e+01,1.998948460253450321e+01,8.745616734187933616e+00,9.484992027282714844e+00,-7.649187743663787842e-02,7.266727685928344727e-01,5.600000000000000000e+02
-1.327586644101593265e+02,-1.043785628078931040e+02,-5.256177458360980381e+00,1.919931566683044366e+01,-9.067968663286956144e+01,-9.932777557784356759e+01,2.001298394081277365e+01,8.095797650395979872e+00,9.484992027282714844e+00,-7.649187743663787842e-02,7.266727685928344727e-01,5.610000000000000000e+02
-1.298846085453496926e+02,-1.017944799729375518e+02,-4.872067966056420119e+00,1.862406536557500658e+01,-9.159434725504252128e+01,-1.001107628221889172e+02,1.952858621305495035e+01,6.212873014785145642e+00,9.484992027282714844e+00,-7.649187743663787842e-02,7.266727685928344727e-01,5.620000000000000000e+02
-1.269263364606285904e+02,-9.928406911767342535e+01,-3.923811429856868926e+00,1.932858759727059805e+01,-9.208318354171751707e+01,-1.005402771896278864e+02,1.905245987776470429e+01,4.365592969557837932e+00,9.484992027282714844e+00,-7.649187743663787842e-02,7.266727685928344727e-01,5.630000000000000000e+02
-1.248198678039389051e+02,-9.630676424059674900e+01,-2.409290713836526265e+00,2.126235746098609525e+01,-9.162745674641155347e+01,-1.003276946258556563e+02,1.896148489060215070e+01,3.490246121633390430e+00,9.484992027282714844e+00,-7.649187743663787842e-02,7.266727685928344727e-01,5.640000000000000000e+02
-1.237909518642172770e+02,-9.295480835195121472e+01,-6.149994131101266248e-01,2.375581355168469599e+01,-9.047140162594223511e+01,-9.931576674774623825e+01,1.934820569971634541e+01,3.769593336974139675e+00,9.484992027282714844e+00,-7.649187743663787842e-02,7.266727685928344727e-01,5.650000000000000000e+02
-1.233229018901056406e+02,-8.991359889227896929e+01,1.060885385348228738e+00,2.606075709112701588e+01,-8.917787812305687112e+01,-9.749107392188125232e+01,2.010961594251602946e+01,4.758332040102686733e+00,9.408499717712402344e+00,-7.649187743663787842e-02,7.649186849594116211e-01,5.660000000000000000e+02
-1.228174149284805026e+02,-8.798867871504626237e+01,2.229580521307070740e+00,2.772305280586442677e+01,-8.816684298593281710e+01,-9.511162220243750198e+01,2.109119767627271358e+01,5.851505592117973720e+00,9.408499717712402344e+00,-7.649187743663787842e-02,7.649186849594116211e-01,5.670000000000000000e+02
-1.221852183920000243e+02,-8.747423665112910385e+01,2.616739347233306034e+00,2.859263397327049461e+01,-8.754911674044524261e+01,-9.275645243230974302e+01,2.214239561499562114e+01,6.685076106634369353e+00,9.408499717712402344e+00,-7.649187743663787842e-02,7.649186849594116211e-01,5.680000000000000000e+02
-1.217491270818900375e+02,-8.781670472219775547e+01,2.212555509340745630e+00,2.865896574336693448e+01,-8.721459229477841291e+01,-9.110250173209351487e+01,2.311453405511929304e+01,7.210346206242320477e+00,9.408499717712402344e+00,-7.649187743663787842e-02,7.649186849594116211e-01,5.690000000000000000e+02
-1.216769190632603568e+02,-8.788785107775584038e+01,1.379154789729000186e+00,2.799224413167758030e+01,-8.698567771875241306e+01,-9.051580576172636938e+01,2.390195944620245427e+01,7.512541824613435892e+00,9.408499717712402344e+00,-7.649187743663787842e-02,7.649186849594116211e-01,5.700000000000000000e+02
-1.216622137265385390e+02,-8.673163266515257419e+01,7.417878189189650584e-01,2.684918679029215127e+01,-8.672653013417220791e+01,-9.078493664064444602e+01,2.451966741620526591e+01,7.640729060085504898e+00,9.408499717712402344e+00,-7.649187743663787842e-02,7.649186849594116211e-01,5.710000000000000000e+02
-1.212353582601954258e+02,-8.423560932237523957e+01,8.538315990408591460e-01,2.574951464581135951e+01,-8.639229105564663769e+01,-9.124596813190873945e+01,2.510966341533276136e+01,7.634432903530978365e+00,9.408499717712402344e+00,-7.649187743663787842e-02,7.649186849594116211e-01,5.720000000000000000e+02
-1.203009526380610623e+02,-8.119358635500975652e+01,1.881095817796449410e+00,2.532824695288218209e+01,-8.600136235949321417e+01,-9.120861494308701367e+01,2.581658572617379832e+01,7.680897207963425899e+00,9.408499717712402344e+00,-7.649187743663787842e-02,7.649186849594116211e-01,5.730000000000000000e+02
-1.192147344677159708e+02,-7.870909597072022734e+01,3.587890788938238984e+00,2.599342385274758271e+01,-8.552002281899694935e+01,-9.034241874975123210e+01,2.663738340096824686e+01,8.164959965797606856e+00,9.408499717712402344e+00,-7.649187743663787842e-02,7.649186849594116211e-01,5.740000000000000000e+02
-1.182753126170991891e+02,-7.744428747424535686e+01,5.617763213176658610e+00,2.764132200441963505e+01,-8.475456532034513657e+01,-8.875847412697476102e+01,2.741610512943589129e+01,9.467637263314827578e+00,9.408499717712402344e+00,-7.649187743663787842e-02,7.649186849594116211e-01,5.750000000000000000e+02
-1.172440798680727312e+02,-7.731709601379770902e+01,7.762702130785328336e+00,2.968256987586028117e+01,-8.340706530671013752e+01,-8.681457094596771640e+01,2.802359741337568266e+01,1.162930003477231367e+01,9.408499717712402344e+00,-7.649187743663787842e-02,7.649186849594116211e-01,5.760000000000000000e+02
-1.155338017260000925e+02,-7.780161578691513569e+01,9.948506025662936736e+00,3.138699005885064253e+01,-8.131481346994405612e+01,-8.487285025902019697e+01,2.856661168169739540e+01,1.418356461531220702e+01,9.408499717712402344e+00,-7.649187743663787842e-02,7.649186849594116211e-01,5.770000000000000000e+02
-1.129520647866120271e+02,-7.842251321850926615e+01,1.200078792476415401e+01,3.231417871810481302e+01,-7.867765199873247184e+01,-8.318037208611349342e+01,2.939227726541139418e+01,1.635805390408859239e+01,9.408499717712402344e+00,-7.649187743663787842e-02,7.649186849594116211e-01,5.780000000000000000e+02
-1.101860028733954096e+02,-7.893568125055026030e+01,1.350632554059120594e+01,3.254967834345370647e+01,-7.603898185408979771e+01,-8.186725904590275604e+01,3.079775023016554769e+01,1.752219102814706275e+01,9.408499717712402344e+00,-7.649187743663787842e-02,7.649186849594116211e-01,5.790000000000000000e+02
-1.084087101473323855e+02,-7.914495076754246838e+01,1.398841188987717032e+01,3.260481409251951845e+01,-7.400838475151613238e+01,-8.097084708468901226e+01,3.264210501243724138e+01,1.753888736839508056e+01,9.408499717712402344e+00,-7.649187743663787842e-02,7.649186849594116211e-01,5.800000000000000000e+02
-1.082883308839809615e+02,-7.873955152302369243e+01,1.326607305230209022e+01,3.307100759141758317e+01,-7.294268246835417813e+01,-8.043255060352385044e+01,3.423676875131786801e+01,1.677162388711440144e+01,9.408499717712402344e+00,-7.649187743663787842e-02,7.649186849594116211e-01,5.810000000000000000e+02
-1.093381138137301605e+02,-7.748386588140783715e+01,1.167047936394010321e+01,3.428602606412823661e+01,-7.279463969674543478e+01,-8.008388542186366976e+01,3.473858884758010390e+01,1.581064572246032185e+01,9.408499717712402344e+00,-7.649187743663787842e-02,7.649186849594116211e-01,5.820000000000000000e+02
-1.102451862510479259e+02,-7.560612664815926109e+01,9.931045184948743554e+00,3.621732248055923264e+01,-7.314172680726915132e+01,-7.965848696463945089e+01,3.384943134869899950e+01,1.519676172495383071e+01,9.408499717712402344e+00,-7.649187743663787842e-02,7.649186849594116211e-01,5.830000000000000000e+02
-1.098914823915947636e+02,-7.390271696720810723e+01,8.823328089569258736e+00,3.857121603690393385e+01,-7.332152361652697437e+01,-7.885970398557037697e+01,3.223759236952173524e+01,1.530856973558547907e+01,9.408499717712402344e+00,-7.649187743663787842e-02,7.649186849594116211e-01,5.840000000000000000e+02
-1.081442079754087899e+02,-7.330384491952645476e+01,8.836025763586803805e+00,4.099453856566105969e+01,-7.266336227889041766e+01,-7.749170550636699772e+01,3.120529511296263081e+01,1.634411196417931933e+01,9.408499717712402344e+00,-7.649187743663787842e-02,7.649186849594116211e-01,5.850000000000000000e+02
-1.057658486000073026e+02,-7.422804937444016105e+01,1.003062420908463537e+01,4.322465410994118429e+01,-7.082847186418075580e+01,-7.561750981164368568e+01,3.173431131539109629e+01,1.824566615274670767e+01,9.408499717712402344e+00,-7.649187743663787842e-02,7.649186849594116211e-01,5.860000000000000000e+02
-1.036530273551106802e+02,-7.634477254718149197e+01,1.209198653997373185e+01,4.513428650137575460e+01,-6.810540078232588712e+01,-7.363639186827640515e+01,3.366801389732427197e+01,2.058609395330859115e+01,9.408499717712402344e+00,-7.649187743663787842e-02,7.649186849594116211e-01,5.870000000000000000e+02
-1.021670365721947746e+02,-7.895537106049596332e+01,1.448803984298501746e+01,4.671890993932538549e+01,-6.533094210790659417e+01,-7.214608564978698269e+01,3.580476901671499945e+01,2.264493293056511902e+01,9.408499717712402344e+00,-7.649187743663787842e-02,7.649186849594116211e-01,5.880000000000000000e+02
-1.010998409947715118e+02,-8.157809011371136876e+01,1.666270033849650645e+01,4.806646666882807040e+01,-6.333589900445804233e+01,-7.158820972274406813e+01,3.690797386888880283e+01,2.378853376328697777e+01,9.408499717712402344e+00,-7.649187743663787842e-02,7.649186849594116211e-01,5.890000000000000000e+02
-1.001395259588716726e+02,-8.413880255462572677e+01,1.821337432095606346e+01,4.930747281000731164e+01,-6.231189402113886899e+01,-7.189550159855207312e+01,3.676977869493930484e+01,2.393553035255536088e+01,9.408499717712402344e+00,-7.649187743663787842e-02,7.649186849594116211e-01,5.900000000000000000e+02
-9.926926129057392245e+01,-8.666173198764954577e+01,1.899347976612625644e+01,5.053879469895036891e+01,-6.170648869848082541e+01,-7.244874985745991580e+01,3.635754104878651560e+01,2.367590258183918195e+01,9.408499717712402344e+00,-7.649187743663787842e-02,7.649186849594116211e-01,5.910000000000000000e+02
-9.871380435087121441e+01,-8.895168306640698574e+01,1.909138197010179283e+01,5.176495110914402176e+01,-6.081944284003839130e+01,-7.244374081692512846e+01,3.689483694950831705e+01,2.384356544236288755e+01,9.408499717712402344e+00,-7.649187743663787842e-02,7.649186849594116211e-01,5.920000000000000000e+02
-9.857368181133278995e+01,-9.073135409892347525e+01,1.872056526392407250e+01,5.291735855489605456e+01,-5.956567319408713956e+01,-7.141921388568516704e+01,3.872800386121889460e+01,2.485179909476573812e+01,9.484992027282714844e+00,-7.649187743663787842e-02,7.266727685928344727e-01,5.930000000000000000e+02
-9.857820496673230082e+01,-9.207202209344177390e+01,1.812498586793662980e+01,5.394560686633121804e+01,-5.863277471625406179e+01,-6.953914012644600007e+01,4.100747764397601713e+01,2.635985437402996467e+01,9.484992027282714844e+00,-7.649187743663787842e-02,7.266727685928344727e-01,5.940000000000000000e+02
-9.821681885326324846e+01,-9.348558845452498645e+01,1.755677607953111874e+01,5.489916344571611262e+01,-5.884400379272119608e+01,-6.742257661298572202e+01,4.242982452395517612e+01,2.757348394268046832e+01,9.484992027282714844e+00,-7.649187743663787842e-02,7.266727685928344727e-01,5.950000000000000000e+02
-9.711874447113586939e+01,-9.537114663170723361e+01,1.727509764238857315e+01,5.591647308399114991e+01,-6.034141549821288208e+01,-6.568858962131344015e+01,4.231479178765948745e+01,2.791413977221236564e+01,9.484992027282714844e+00,-7.649187743663787842e-02,7.266727685928344727e-01,5.960000000000000000e+02
-9.531985516792701674e+01,-9.733423017456516391e+01,1.748985107811313355e+01,5.712835612468552426e+01,-6.237145365861579194e+01,-6.458035666127034347e+01,4.106762444862397388e+01,2.747094540637772297e+01,9.484992027282714844e+00,-7.649187743663787842e-02,7.266727685928344727e-01,5.970000000000000000e+02
-9.318617749812256079e+01,-9.824121260057654581e+01,1.825745191191163030e+01,5.856244407630583737e+01,-6.383584698114646017e+01,-6.391941213851168868e+01,3.974085451455539442e+01,2.687735407529908116e+01,9.484992027282714844e+00,-7.649187743663787842e-02,7.266727685928344727e-01,5.980000000000000000e+02
-9.110126688263699180e+01,-9.722606680119497469e+01,1.941801493192906491e+01,6.011011377860268112e+01,-6.404394044564833166e+01,-6.335282674260815838e+01,3.920810431167774368e+01,2.677832525966368848e+01,9.484992027282714844e+00,-7.649187743663787842e-02,7.266727685928344727e-01,5.990000000000000000e+02
-8.922659192831633845e+01,-9.478710013074669405e+01,2.065008918543389882e+01,6.154515576158883050e+01,-6.302359705204798956e+01,-6.266499669802942662e+01,3.965177509270870360e+01,2.736722383737287601e+01,9.484992027282714844e+00,-7.649187743663787842e-02,7.266727685928344727e-01,6.000000000000000000e+02
-8.753229673422902124e+01,-9.280607464760396397e+01,2.161703222336291219e+01,6.255446054317508242e+01,-6.127971202431945130e+01,-6.193326848669676110e+01,4.062501401440749760e+01,2.832489993893250357e+01,9.484992027282714844e+00,-7.649187743663787842e-02,7.266727685928344727e-01,6.010000000000000000e+02
-8.600848928124469239e+01,-9.323293278543496854e+01,2.210951886022303370e+01,6.280155389120045584e+01,-5.939209572835898143e+01,-6.143921940955624450e+01,4.144812251900657429e+01,2.910893424016103381e+01,9.484992027282714844e+00,-7.649187743663787842e-02,7.266727685928344727e-01,6.020000000000000000e+02
-8.480587686552462401e+01,-9.649113578076139675e+01,2.212948973101083538e+01,6.208447689091190114e+01,-5.781184512889740290e+01,-6.140506700128025841e+01,4.159143201815459179e+01,2.930630456302969833e+01,9.484992027282714844e+00,-7.649187743663787842e-02,7.266727685928344727e-01,6.030000000000000000e+02
-8.415329488630959531e+01,-1.010441791477824154e+02,2.190060287764936220e+01,6.055735489114886150e+01,-5.685007512941228924e+01,-6.173561495748435846e+01,4.089978450158741907e+01,2.882657027511595516e+01,9.484992027282714844e+00,-7.649187743663787842e-02,7.266727685928344727e-01,6.040000000000000000e+02
-8.412089451134670526e+01,-1.045554713143355912e+02,2.179490883403195767e+01,5.882969020197560894e+01,-5.665724828246311517e+01,-6.198127224444760941e+01,3.967383006316958927e+01,2.790759217892264132e+01,9.484992027282714844e+00,-7.649187743663787842e-02,7.266727685928344727e-01,6.050000000000000000e+02
-8.445381204553632415e+01,-1.056136670229352603e+02,2.216415852781210560e+01,5.777033605616088607e+01,-5.711922987730213208e+01,-6.158862985805171775e+01,3.860230063463677652e+01,2.700396045433808467e+01,9.484992027282714844e+00,-7.649187743663787842e-02,7.266727685928344727e-01,6.060000000000000000e+02
-8.466504365451328340e+01,-1.045346796607445867e+02,2.310346339677926153e+01,5.805518202401071903e+01,-5.782559454592410475e+01,-6.027133374548429856e+01,3.847689040844852570e+01,2.658773805263626855e+01,9.484992027282714844e+00,-7.649187743663787842e-02,7.266727685928344727e-01,6.070000000000000000e+02
-8.433869705610777601e+01,-1.026785520831690519e+02,2.429963371403573547e+01,5.973832894193401444e+01,-5.824506800559902331e+01,-5.819512343370297458e+01,3.973753834309172817e+01,2.688991552473453339e+01,9.484992027282714844e+00,-7.649187743663787842e-02,7.266727685928344727e-01,6.080000000000000000e+02
-8.340827804748550989e+01,-1.011004657281009713e+02,2.513434546074131504e+01,6.214739616138103884e+01,-5.802327686174976407e+01,-5.581698803223116556e+01,4.211086164211155847e+01,2.769729203187307576e+01,9.484992027282714844e+00,-7.649187743663787842e-02,7.266727685928344727e-01,6.090000000000000000e+02
-8.218016978906234726e+01,-9.984738789783295942e+01,2.505583887555258116e+01,6.418056012864326476e+01,-5.716839742325828411e+01,-5.353708403673954308e+01,4.465469772898359224e+01,2.839234462210151833e+01,9.484992027282714844e+00,-7.649187743663787842e-02,7.266727685928344727e-01,6.100000000000000000e+02
-8.105715585382858990e+01,-9.841127140660682926e+01,2.399858974685048452e+01,6.481104713804961648e+01,-5.597310222187661566e+01,-5.149444403540837811e+01,4.627169859621790238e+01,2.830609253689181060e+01,9.484992027282714844e+00,-7.649187743663787842e-02,7.266727685928344727e-01,6.110000000000000000e+02
-8.017429691597499186e+01,-9.667774177927276469e+01,2.251533503041719086e+01,6.349334434209958999e+01,-5.476202536957862321e+01,-4.968354546922637383e+01,4.636585764311166713e+01,2.715912915251101367e+01,9.484992027282714844e+00,-7.649187743663787842e-02,7.266727685928344727e-01,6.120000000000000000e+02
-7.925195556345715886e+01,-9.529930382073507644e+01,2.148274867287545931e+01,6.030577502173036919e+01,-5.367230130650568753e+01,-4.820588730824238155e+01,4.518121387863357086e+01,2.524096440646826522e+01,9.484992027282714844e+00,-7.649187743663787842e-02,7.266727685928344727e-01,6.130000000000000000e+02
-7.783432402823382290e+01,-9.512733765126176877e+01,2.154770189116970869e+01,5.584455381926090922e+01,-5.264320822728041094e+01,-4.731970823059236864e+01,4.357479993940069107e+01,2.315328102855710313e+01,9.484992027282714844e+00,-7.649187743663787842e-02,7.266727685928344727e-01,6.140000000000000000e+02
