F3,F4,C3,C4,P3,P4,Cz,Pz,Accel_x,Accel_y,Accel_z,Sample
-7.457856554538011551e-11,-4.547473508864641190e-11,-4.638422979041934013e-11,-5.184119800105690956e-11,-5.820766091346740723e-11,-8.367351256310939789e-11,-4.911271389573812485e-11,-4.911271389573812485e-11,9.523238182067871094e+00,-6.119350194931030273e-01,1.147378161549568176e-01,2.010000000000000000e+02
-1.708972151000671147e+01,-2.091330544856191409e+01,-4.572057088092151389e+00,-4.439917671656075981e+00,-1.395336742659674201e+01,-8.124609543987389770e+00,-7.804694205115083605e-01,2.502281655282786232e+00,9.523238182067871094e+00,-6.119350194931030273e-01,1.147378161549568176e-01,2.020000000000000000e+02
-3.395507723049740889e+01,-4.045335902596889355e+01,-9.194077688677680271e+00,-1.265744437139528600e+01,-2.761801815046237607e+01,-2.069542852015001699e+01,-2.149126289627020014e+00,3.619389052495534997e+00,9.523238182067871094e+00,-6.119350194931030273e-01,1.147378161549568176e-01,2.030000000000000000e+02
-5.061493749610235682e+01,-5.784572601228683197e+01,-1.353774529405382054e+01,-2.526138881769111322e+01,-4.035678215734878904e+01,-3.839345218142261729e+01,-4.376897777579870308e+00,2.938555734985129675e+00,9.523238182067871094e+00,-6.119350194931030273e-01,1.147378161549568176e-01,2.040000000000000000e+02
-6.740392329785026959e+01,-7.336307977868818853e+01,-1.698457283487550740e+01,-3.951512968652605196e+01,-5.146408925052946870e+01,-5.800117089464401943e+01,-7.367528430313541321e+00,1.017422400616851519e+00,9.523238182067871094e+00,-6.119350194931030273e-01,1.147378161549568176e-01,2.050000000000000000e+02
-8.468116801619544276e+01,-8.824801431852574751e+01,-1.915020479021768551e+01,-5.206098783189190726e+01,-6.086805424649992347e+01,-7.573815764810569817e+01,-1.084871608773028129e+01,-1.482263289653928950e+00,9.523238182067871094e+00,-6.119350194931030273e-01,1.147378161549568176e-01,2.060000000000000000e+02
-1.022116799780087604e+02,-1.038596599639395208e+02,-2.035040765569010546e+01,-6.164273703049730102e+01,-6.939894769309285039e+01,-9.047451995439041639e+01,-1.453794701786409860e+01,-4.476820593292359263e+00,9.523238182067871094e+00,-6.119350194931030273e-01,1.147378161549568176e-01,2.070000000000000000e+02
-1.187777526109366590e+02,-1.204628271389028669e+02,-2.148356696466817084e+01,-6.927337988023373327e+01,-7.811614666170044075e+01,-1.037319574926623318e+02,-1.803882618960142281e+01,-8.146951292190351523e+00,9.446745872497558594e+00,-6.501809358596801758e-01,7.649187743663787842e-02,2.080000000000000000e+02
-1.326921881303660484e+02,-1.367135206982848104e+02,-2.335157675052232662e+01,-7.623160787835240626e+01,-8.726486512636256521e+01,-1.170508546502769605e+02,-2.060543386634162744e+01,-1.201787663171216991e+01,9.446745872497558594e+00,-6.501809358596801758e-01,7.649187743663787842e-02,2.090000000000000000e+02
-1.431784230438934173e+02,-1.505441040108562447e+02,-2.605568435223085544e+01,-8.243085308836725744e+01,-9.602303859641688177e+01,-1.299657422316849988e+02,-2.123587469422727736e+01,-1.467150880890494591e+01,9.446745872497558594e+00,-6.501809358596801758e-01,7.649187743663787842e-02,2.100000000000000000e+02
-1.515624262413257384e+02,-1.608996518788817411e+02,-2.913163792629438831e+01,-8.688801144577610103e+01,-1.035229048111868906e+02,-1.407435412030408770e+02,-1.937364030184198782e+01,-1.479232205100561259e+01,9.446745872497558594e+00,-6.501809358596801758e-01,7.649187743663787842e-02,2.110000000000000000e+02
-1.609571060741172914e+02,-1.688381817482677434e+02,-3.239957117490484961e+01,-8.945843294126188994e+01,-1.102536765271106560e+02,-1.487742817593625659e+02,-1.583874429077968671e+01,-1.274572646203614568e+01,9.446745872497558594e+00,-6.501809358596801758e-01,7.649187743663787842e-02,2.120000000000000000e+02
-1.742498441032239498e+02,-1.769003766431696931e+02,-3.666329660274004709e+01,-9.163578323864567210e+01,-1.183072345853724983e+02,-1.557641183562245715e+02,-1.303937756292816630e+01,-1.103878828298547887e+01,9.446745872497558594e+00,-6.501809358596801758e-01,7.649187743663787842e-02,2.130000000000000000e+02
-1.918667545011639959e+02,-1.872277180082683117e+02,-4.336719288917629456e+01,-9.545743301141646953e+01,-1.298951824579517051e+02,-1.644144391479003389e+02,-1.385136207699179067e+01,-1.285551714996108785e+01,9.446745872497558594e+00,-6.501809358596801758e-01,7.649187743663787842e-02,2.140000000000000000e+02
-2.112779408725627945e+02,-2.001228323278974131e+02,-5.323479941477671673e+01,-1.017505124820609126e+02,-1.452640142770396778e+02,-1.760690456486699986e+02,-1.967390074442755576e+01,-1.967068269613446319e+01,9.446745872497558594e+00,-6.501809358596801758e-01,7.649187743663787842e-02,2.150000000000000000e+02
-2.288524167860523448e+02,-2.143136636452500170e+02,-6.502874507479100430e+01,-1.096220337053555340e+02,-1.619397410594874600e+02,-1.897699012043422044e+02,-2.916100618204472994e+01,-3.002017705630078126e+01,9.446745872497558594e+00,-6.501809358596801758e-01,7.649187743663787842e-02,2.160000000000000000e+02
-2.425748097034602324e+02,-2.285098651933594738e+02,-7.573291509603495797e+01,-1.176515655431785490e+02,-1.761902127219391332e+02,-2.034951800853104942e+02,-3.886991767890685878e+01,-4.059406244860474544e+01,9.446745872497558594e+00,-6.501809358596801758e-01,7.649187743663787842e-02,2.170000000000000000e+02
-2.533243224895741150e+02,-2.425913353093910700e+02,-8.228545856478558562e+01,-1.253994491478933924e+02,-1.855622652272650157e+02,-2.160927212330125258e+02,-4.550197961486537679e+01,-4.869485634943521291e+01,9.446745872497558594e+00,-6.501809358596801758e-01,7.649187743663787842e-02,2.180000000000000000e+02
-2.637155012781668120e+02,-2.572377725131091211e+02,-8.355485639030666789e+01,-1.336391284145420286e+02,-1.903520490754781349e+02,-2.279873429143572139e+02,-4.797133050498086959e+01,-5.387602098433399078e+01,9.446745872497558594e+00,-6.501809358596801758e-01,7.649187743663787842e-02,2.190000000000000000e+02
-2.756694955207940438e+02,-2.724809638778633598e+02,-8.088974176481679024e+01,-1.431595092603101875e+02,-1.928264970669315517e+02,-2.402174679332147207e+02,-4.760580128280980716e+01,-5.740272313751756883e+01,9.446745872497558594e+00,-6.501809358596801758e-01,7.649187743663787842e-02,2.200000000000000000e+02
-2.889163072068968177e+02,-2.868358639085818140e+02,-7.681094602535631566e+01,-1.534442334306913835e+02,-1.950724795494652426e+02,-2.530031381244016302e+02,-4.646206810925923492e+01,-6.030046796905480733e+01,9.446745872497558594e+00,-6.501809358596801758e-01,7.649187743663787842e-02,2.210000000000000000e+02
-3.016282559760802542e+02,-2.981215322031821415e+02,-7.314405198368694982e+01,-1.625974996084732993e+02,-1.975549428324784458e+02,-2.652903612601003260e+02,-4.546955965772121999e+01,-6.209344443603731634e+01,9.446745872497558594e+00,-6.501809358596801758e-01,7.649187743663787842e-02,2.220000000000000000e+02
-3.123814715442867964e+02,-3.053343502840216388e+02,-7.029496529253174231e+01,-1.686146505193519261e+02,-1.996037739704197520e+02,-2.755783494147053716e+02,-4.413969702611848334e+01,-6.152967143726073118e+01,9.446745872497558594e+00,-6.501809358596801758e-01,7.649187743663787842e-02,2.230000000000000000e+02
-3.215269561334052923e+02,-3.097914418503942215e+02,-6.810698866861275746e+01,-1.708727428137126481e+02,-2.010882899276293756e+02,-2.831755991993049975e+02,-4.190432616457655968e+01,-5.848733085459844006e+01,9.446745872497558594e+00,-6.501809358596801758e-01,7.649187743663787842e-02,2.240000000000000000e+02
-3.307598836091719932e+02,-3.143578253766218040e+02,-6.707968224865089724e+01,-1.706033673475412797e+02,-2.033851021342561580e+02,-2.888069752904584675e+02,-3.944884404749973328e+01,-5.497658538930591021e+01,9.446745872497558594e+00,-6.501809358596801758e-01,7.649187743663787842e-02,2.250000000000000000e+02
-3.414173041281774204e+02,-3.213537404322805742e+02,-6.841672613956779969e+01,-1.700392549193775267e+02,-2.085269137578543450e+02,-2.941484372740869730e+02,-3.847202857251613750e+01,-5.400810885507416970e+01,9.446745872497558594e+00,-6.501809358596801758e-01,7.649187743663787842e-02,2.260000000000000000e+02
-3.531724313254444496e+02,-3.310035549799858927e+02,-7.275581534252432903e+01,-1.709946374243900209e+02,-2.173319385403956403e+02,-3.007240210098616444e+02,-4.006069777025732037e+01,-5.725195383035043051e+01,9.446745872497558594e+00,-6.501809358596801758e-01,7.649187743663787842e-02,2.270000000000000000e+02
-3.643466976900381269e+02,-3.417722275003943651e+02,-7.900303788756536960e+01,-1.739707154582920339e+02,-2.283716092660106369e+02,-3.089914825563528211e+02,-4.340790676870074094e+01,-6.366153542096890305e+01,9.446745872497558594e+00,-6.501809358596801758e-01,7.649187743663787842e-02,2.280000000000000000e+02
-3.735301779869305392e+02,-3.521715847535369903e+02,-8.474341136691418797e+01,-1.783384139206655163e+02,-2.388637664080815739e+02,-3.182441505478200270e+02,-4.633351299427613412e+01,-7.038532728043082898e+01,9.446745872497558594e+00,-6.501809358596801758e-01,7.649187743663787842e-02,2.290000000000000000e+02
-3.809668889786180443e+02,-3.622550166291030109e+02,-8.808967927534285991e+01,-1.832590345874823470e+02,-2.467470145270772264e+02,-3.273405756959118662e+02,-4.723326966654167336e+01,-7.516805684180144453e+01,9.446745872497558594e+00,-6.501809358596801758e-01,7.649187743663787842e-02,2.300000000000000000e+02
-3.883737667614468592e+02,-3.734049657352934446e+02,-8.925403109339004004e+01,-1.884765735980454338e+02,-2.521036753049911567e+02,-3.356645703425747342e+02,-4.660191285438486375e+01,-7.811823841192108375e+01,9.446745872497558594e+00,-6.501809358596801758e-01,7.649187743663787842e-02,2.310000000000000000e+02
-3.973398856094227085e+02,-3.867253100295029071e+02,-9.031963127974904637e+01,-1.943763580323002316e+02,-2.567886739438908990e+02,-3.435817827155597115e+02,-4.670501125106784457e+01,-8.140084854018004989e+01,9.446745872497558594e+00,-6.501809358596801758e-01,7.649187743663787842e-02,2.320000000000000000e+02
-4.078405762160664381e+02,-4.016880581851028182e+02,-9.341496063529939420e+01,-2.014193845211957523e+02,-2.627577172198116386e+02,-3.520850673818704308e+02,-4.974332907101779711e+01,-8.731005895600355871e+01,9.446745872497558594e+00,-6.501809358596801758e-01,7.649187743663787842e-02,2.330000000000000000e+02
-4.183676827456374667e+02,-4.163973823808501038e+02,-9.901221234120293957e+01,-2.096002313332692211e+02,-2.706367687290385220e+02,-3.620014809605499977e+02,-5.619451194580415176e+01,-9.648165890410928114e+01,9.446745872497558594e+00,-6.501809358596801758e-01,7.649187743663787842e-02,2.340000000000000000e+02
-4.276330868157529039e+02,-4.291956946229429377e+02,-1.058237354009406772e+02,-2.184242928641797334e+02,-2.796148393431358272e+02,-3.734159073837417964e+02,-6.465412012957131083e+01,-1.076056541591115092e+02,9.446745872497558594e+00,-5.736890435218811035e-01,1.529837548732757568e-01,2.350000000000000000e+02
-4.361553734031122076e+02,-4.400220820290569463e+02,-1.121379441952058187e+02,-2.272864800252173154e+02,-2.884155351540211996e+02,-3.856621368997630270e+02,-7.297504519110952970e+01,-1.185233878886920138e+02,9.446745872497558594e+00,-5.736890435218811035e-01,1.529837548732757568e-01,2.360000000000000000e+02
-4.459544571763653948e+02,-4.502026346582251790e+02,-1.171278011990671075e+02,-2.357385343827309043e+02,-2.962472944688388452e+02,-3.977016527503419638e+02,-7.947169140917412733e+01,-1.275170845950524381e+02,9.446745872497558594e+00,-5.736890435218811035e-01,1.529837548732757568e-01,2.370000000000000000e+02
-4.584046524249861250e+02,-4.609027162264765138e+02,-1.209419938808232473e+02,-2.433471902994906486e+02,-3.029304085344338091e+02,-4.084945237981773971e+02,-8.329849075541278580e+01,-1.338092210190588958e+02,9.446745872497558594e+00,-5.736890435218811035e-01,1.529837548732757568e-01,2.380000000000000000e+02
-4.723077386888890032e+02,-4.717697597787127961e+02,-1.238491152166270695e+02,-2.494465651242790045e+02,-3.084125578004468480e+02,-4.172120125835881481e+02,-8.421878887291950377e+01,-1.373021746485956101e+02,9.446745872497558594e+00,-5.736890435218811035e-01,1.529837548732757568e-01,2.390000000000000000e+02
-4.843664786276767700e+02,-4.810912631269484336e+02,-1.256509034746468387e+02,-2.532959272125604002e+02,-3.124695323051664673e+02,-4.234189836769355679e+02,-8.250290941282946733e+01,-1.382617903426580597e+02,9.446745872497558594e+00,-5.736890435218811035e-01,1.529837548732757568e-01,2.400000000000000000e+02
-4.920249467487174115e+02,-4.873364357055261280e+02,-1.260866979217926200e+02,-2.546947768158365761e+02,-3.150406180927593596e+02,-4.273013244392968772e+02,-7.918796734384795855e+01,-1.374076316312693962e+02,9.446745872497558594e+00,-5.736890435218811035e-01,1.529837548732757568e-01,2.410000000000000000e+02
-4.960880971836631943e+02,-4.906620027815711182e+02,-1.257303723576387711e+02,-2.545100941991499894e+02,-3.168399932299143984e+02,-4.297704807479931333e+02,-7.617184049889056041e+01,-1.361487822784438322e+02,9.446745872497558594e+00,-5.736890435218811035e-01,1.529837548732757568e-01,2.420000000000000000e+02
-5.003042584601025737e+02,-4.930145530862819214e+02,-1.261997257446801086e+02,-2.544648531565608209e+02,-3.194189678015927711e+02,-4.321703095873072016e+02,-7.553701621017808066e+01,-1.363416780453426327e+02,9.446745872497558594e+00,-5.736890435218811035e-01,1.529837548732757568e-01,2.430000000000000000e+02
-5.077939883491744695e+02,-4.967538408974992308e+02,-1.291611468888968375e+02,-2.561623211030428138e+02,-3.242999120333370229e+02,-4.356216784709149579e+02,-7.830333109779257938e+01,-1.393876787537328710e+02,9.446745872497558594e+00,-5.736890435218811035e-01,1.529837548732757568e-01,2.440000000000000000e+02
-5.174099203744044644e+02,-5.029838096390672035e+02,-1.349040306309548214e+02,-2.600717420440910246e+02,-3.317354791310290238e+02,-4.404345557322985769e+02,-8.358510337500774767e+01,-1.452527797484308394e+02,9.446745872497558594e+00,-5.736890435218811035e-01,1.529837548732757568e-01,2.450000000000000000e+02
-5.235838084941678972e+02,-5.109163096884344668e+02,-1.417680506259971480e+02,-2.652968325409965473e+02,-3.401288090570997156e+02,-4.460229763008710506e+02,-8.895031082814421097e+01,-1.522522917715878066e+02,9.446745872497558594e+00,-5.736890435218811035e-01,1.529837548732757568e-01,2.460000000000000000e+02
-5.202621884969203165e+02,-5.186584587271818236e+02,-1.470768928025017885e+02,-2.703242769416206102e+02,-3.467946622731342359e+02,-4.513752978005823024e+02,-9.186100028356122493e+01,-1.579618109869634281e+02,9.446745872497558594e+00,-5.736890435218811035e-01,1.529837548732757568e-01,2.470000000000000000e+02
-5.057581044907019532e+02,-5.246930380633002642e+02,-1.489357186869833640e+02,-2.741384527999657621e+02,-3.496802932420951038e+02,-4.557078404929525277e+02,-9.117855492261242034e+01,-1.607161393206761204e+02,9.446745872497558594e+00,-5.736890435218811035e-01,1.529837548732757568e-01,2.480000000000000000e+02
-4.843400828366584392e+02,-5.288904976300023009e+02,-1.474459753936821471e+02,-2.768167620436292964e+02,-3.487413082730395217e+02,-4.588351490116929199e+02,-8.763796855505188432e+01,-1.606009263961786928e+02,9.446745872497558594e+00,-5.736890435218811035e-01,1.529837548732757568e-01,2.490000000000000000e+02
-4.632287214964417217e+02,-5.323931326441779674e+02,-1.444001823380881433e+02,-2.791987961382333197e+02,-3.458715491950583782e+02,-4.610798437741123053e+02,-8.306252385611151112e+01,-1.592050267529348275e+02,9.446745872497558594e+00,-5.736890435218811035e-01,1.529837548732757568e-01,2.500000000000000000e+02
-4.476827798778599572e+02,-5.366331768778459264e+02,-1.418209321034860295e+02,-2.820006382609567481e+02,-3.434763913190595304e+02,-4.629058856350529823e+02,-7.909495471481795903e+01,-1.584078762009585262e+02,9.446745872497558594e+00,-5.736890435218811035e-01,1.529837548732757568e-01,2.510000000000000000e+02
-4.382769632595855001e+02,-5.423146694882907468e+02,-1.406284826868918572e+02,-2.851538073950819125e+02,-3.429207533215490002e+02,-4.645943548986178939e+02,-7.647146984334449371e+01,-1.592087362549073077e+02,9.446745872497558594e+00,-5.736890435218811035e-01,1.529837548732757568e-01,2.520000000000000000e+02
-4.321684577636106042e+02,-5.490858289881184646e+02,-1.405183351714795208e+02,-2.879279859363382457e+02,-3.441465045472928068e+02,-4.662051141614765584e+02,-7.523874032996855021e+01,-1.614753627244717791e+02,9.446745872497558594e+00,-5.736890435218811035e-01,1.529837548732757568e-01,2.530000000000000000e+02
-4.265493941475206157e+02,-5.560239472351945551e+02,-1.409400320698941869e+02,-2.897051498447431186e+02,-3.465933938625353221e+02,-4.678117174085964507e+02,-7.540915158657253414e+01,-1.646249314156821129e+02,9.446745872497558594e+00,-5.736890435218811035e-01,1.529837548732757568e-01,2.540000000000000000e+02
-4.209488611882470650e+02,-5.624259770854391718e+02,-1.420302989910273936e+02,-2.906953176700276344e+02,-3.502863225700298244e+02,-4.697554021908963477e+02,-7.721467066234754384e+01,-1.684186013715966510e+02,9.446745872497558594e+00,-5.736890435218811035e-01,1.529837548732757568e-01,2.550000000000000000e+02
-4.167059508433749215e+02,-5.682300899030674373e+02,-1.444914834831670305e+02,-2.919266352337544959e+02,-3.558499447099184181e+02,-4.726213306260033278e+02,-8.065454469286987660e+01,-1.730557822758692055e+02,9.446745872497558594e+00,-5.736890435218811035e-01,1.529837548732757568e-01,2.560000000000000000e+02
-4.148331354130032196e+02,-5.737720197024691515e+02,-1.485588325176681792e+02,-2.944545694520061261e+02,-3.633902208370332119e+02,-4.768408046263580218e+02,-8.487748202697366651e+01,-1.785335798773598981e+02,9.446745872497558594e+00,-5.736890435218811035e-01,1.529837548732757568e-01,2.570000000000000000e+02
-4.147191634651808272e+02,-5.792077724460250465e+02,-1.532319510029742560e+02,-2.984517855007502476e+02,-3.714996644634097720e+02,-4.821957325086505080e+02,-8.823097258476946081e+01,-1.840287581482243695e+02,9.446745872497558594e+00,-5.736890435218811035e-01,1.529837548732757568e-01,2.580000000000000000e+02
-4.147804679635114553e+02,-5.842276038014447295e+02,-1.567447727976423266e+02,-3.029737893584488120e+02,-3.776472474245729245e+02,-4.876870050833799723e+02,-8.918650115565424130e+01,-1.880691453375225137e+02,9.446745872497558594e+00,-5.736890435218811035e-01,1.529837548732757568e-01,2.590000000000000000e+02
-4.140319149077404290e+02,-5.883657620355484141e+02,-1.579669579628957763e+02,-3.066179785582085060e+02,-3.798479561560893671e+02,-4.919909021287471660e+02,-8.742323889944827897e+01,-1.894731885795440576e+02,9.446745872497558594e+00,-5.736890435218811035e-01,1.529837548732757568e-01,2.600000000000000000e+02
-4.128207177682493239e+02,-5.915827068643020539e+02,-1.573842025517387810e+02,-3.085077207795020513e+02,-3.781318812442186754e+02,-4.942384040978904522e+02,-8.406578653147698788e+01,-1.882568213047102290e+02,9.446745872497558594e+00,-5.736890435218811035e-01,1.529837548732757568e-01,2.610000000000000000e+02
-4.121090222903726499e+02,-5.944828736649169514e+02,-1.566130080811908556e+02,-3.087850486482243468e+02,-3.744123203952749463e+02,-4.945236137674824022e+02,-8.077922003129469886e+01,-1.856981993481522295e+02,9.446745872497558594e+00,-5.736890435218811035e-01,1.529837548732757568e-01,2.620000000000000000e+02
-4.123029518006496801e+02,-5.978870228912542188e+02,-1.568786688417535515e+02,-3.083120945017008125e+02,-3.708854984414506362e+02,-4.937664685961640316e+02,-7.852141506898169609e+01,-1.835134079816862140e+02,9.446745872497558594e+00,-5.736890435218811035e-01,1.529837548732757568e-01,2.630000000000000000e+02
-4.129533125064442629e+02,-6.021111311458129194e+02,-1.579645224853125001e+02,-3.079815535505833850e+02,-3.684844511133754850e+02,-4.930792978799315733e+02,-7.708521396746937171e+01,-1.828558363191414173e+02,9.446745872497558594e+00,-5.736890435218811035e-01,1.529837548732757568e-01,2.640000000000000000e+02
-4.135425978150007040e+02,-6.066207916136092990e+02,-1.586905463338845266e+02,-3.082814154223169680e+02,-3.667953011421699330e+02,-4.931520323068001517e+02,-7.579982410454567798e+01,-1.839035289530047521e+02,9.446745872497558594e+00,-5.736890435218811035e-01,1.529837548732757568e-01,2.650000000000000000e+02
-4.143348747659716764e+02,-6.103957536273258029e+02,-1.583753398016850724e+02,-3.093340973568264189e+02,-3.652888845040411070e+02,-4.940497020089410398e+02,-7.462105580884463052e+01,-1.861549242763812799e+02,9.523238182067871094e+00,-6.119350194931030273e-01,1.529837548732757568e-01,2.660000000000000000e+02
-4.162487194580630216e+02,-6.126849785230900807e+02,-1.576958268523969764e+02,-3.110998202601409730e+02,-3.643917188009015717e+02,-4.953953489336081475e+02,-7.445533102345734733e+01,-1.889384922562765041e+02,9.523238182067871094e+00,-6.119350194931030273e-01,1.529837548732757568e-01,2.670000000000000000e+02
-4.198286180564939514e+02,-6.135147962333280702e+02,-1.580102020605232838e+02,-3.133936248080908626e+02,-3.652020867206738330e+02,-4.966575923539011228e+02,-7.634983308704408955e+01,-1.916502085554798214e+02,9.523238182067871094e+00,-6.119350194931030273e-01,1.529837548732757568e-01,2.680000000000000000e+02
-4.244098394267037975e+02,-6.135700576536839890e+02,-1.598503406707139902e+02,-3.157432142454765653e+02,-3.681555324953501440e+02,-4.973328372968335316e+02,-8.029947757703507705e+01,-1.937001577831489385e+02,9.523238182067871094e+00,-6.119350194931030273e-01,1.529837548732757568e-01,2.690000000000000000e+02
-4.284405848839342639e+02,-6.136347431027770654e+02,-1.622202978432005693e+02,-3.174135632548361627e+02,-3.721295343584721422e+02,-4.970514031389620868e+02,-8.481396581397643786e+01,-1.945357202523501883e+02,9.523238182067871094e+00,-6.119350194931030273e-01,1.529837548732757568e-01,2.700000000000000000e+02
-4.307888247331110847e+02,-6.141026125679933330e+02,-1.635422573873977399e+02,-3.177523658914140015e+02,-3.750897638560441010e+02,-4.957109282158319274e+02,-8.770035626460571621e+01,-1.939618995578036902e+02,9.523238182067871094e+00,-6.119350194931030273e-01,1.529837548732757568e-01,2.710000000000000000e+02
-4.318328573078911177e+02,-6.148596076102946881e+02,-1.633322495979559790e+02,-3.165991580034656181e+02,-3.757853826685882268e+02,-4.936036913367601073e+02,-8.742897598520448810e+01,-1.924969444615725251e+02,9.523238182067871094e+00,-6.119350194931030273e-01,1.529837548732757568e-01,2.720000000000000000e+02
-4.332711106350125192e+02,-6.154732882961893665e+02,-1.628596265540763852e+02,-3.143819899493619232e+02,-3.748878472964828461e+02,-4.914046439987865824e+02,-8.400679871212037142e+01,-1.912900165814452293e+02,9.523238182067871094e+00,-6.119350194931030273e-01,1.529837548732757568e-01,2.730000000000000000e+02
-4.367434722451594098e+02,-6.154455442980344060e+02,-1.639999905722796711e+02,-3.118192259931377066e+02,-3.744287175578500637e+02,-4.899333727566449852e+02,-7.879806650349428310e+01,-1.914709637586817053e+02,9.523238182067871094e+00,-6.119350194931030273e-01,1.529837548732757568e-01,2.740000000000000000e+02
-4.424685460720286301e+02,-6.144001790674268477e+02,-1.673097323780662009e+02,-3.095373465479754032e+02,-3.760080261053412869e+02,-4.897891829375467978e+02,-7.363132457049164259e+01,-1.933894228265983202e+02,9.523238182067871094e+00,-6.119350194931030273e-01,1.529837548732757568e-01,2.750000000000000000e+02
-4.491156831357176884e+02,-6.122416671937114643e+02,-1.712199493505502232e+02,-3.079478474541311925e+02,-3.794102037285316555e+02,-4.910860048461801171e+02,-6.995942234776703117e+01,-1.964108378260176551e+02,9.523238182067871094e+00,-6.119350194931030273e-01,1.529837548732757568e-01,2.760000000000000000e+02
-4.550023035217495249e+02,-6.092989198996386904e+02,-1.732289766034017475e+02,-3.073635079984588856e+02,-3.828522655638255401e+02,-4.934429829589870451e+02,-6.853581453967899506e+01,-1.994751033105056877e+02,9.523238182067871094e+00,-6.119350194931030273e-01,1.529837548732757568e-01,2.770000000000000000e+02
-4.594948717675825947e+02,-6.063340317329464142e+02,-1.720698021845654466e+02,-3.080476758876459371e+02,-3.845486152987806463e+02,-4.962141752375323449e+02,-6.948135180085887441e+01,-2.019027012440166118e+02,9.523238182067871094e+00,-6.119350194931030273e-01,1.529837548732757568e-01,2.780000000000000000e+02
-4.633267585795885566e+02,-6.042695662060357336e+02,-1.688387406711698304e+02,-3.099932508547418024e+02,-3.840851431327515684e+02,-4.987694465389364495e+02,-7.233820767527004136e+01,-2.036691813657708963e+02,9.523238182067871094e+00,-6.119350194931030273e-01,1.529837548732757568e-01,2.790000000000000000e+02
-4.675990244233124713e+02,-6.036967285528108960e+02,-1.659979654080877935e+02,-3.126137016001127904e+02,-3.823828488309368367e+02,-5.006319439588944533e+02,-7.598481887857406036e+01,-2.048771283603181246e+02,9.523238182067871094e+00,-6.119350194931030273e-01,1.529837548732757568e-01,2.800000000000000000e+02
-4.725503184375986052e+02,-6.044960541367918267e+02,-1.651915099585767166e+02,-3.147797712163069264e+02,-3.805072095289548315e+02,-5.014507102059347972e+02,-7.875399977688175568e+01,-2.050528893950038309e+02,9.523238182067871094e+00,-6.119350194931030273e-01,1.529837548732757568e-01,2.810000000000000000e+02
-4.773882444017333455e+02,-6.058964363003481139e+02,-1.659271495007581052e+02,-3.153841398568254704e+02,-3.786815627397021444e+02,-5.009643162321082173e+02,-7.910067406609437057e+01,-2.032006711359697420e+02,9.523238182067871094e+00,-6.119350194931030273e-01,1.529837548732757568e-01,2.820000000000000000e+02
-4.813641859542846646e+02,-6.069923284628242754e+02,-1.663597693226090541e+02,-3.141057439692914386e+02,-3.765354659531292327e+02,-4.991314591146269777e+02,-7.662316147375577202e+01,-1.988405524099051718e+02,9.523238182067871094e+00,-6.119350194931030273e-01,1.529837548732757568e-01,2.830000000000000000e+02
-4.849207603387883410e+02,-6.073190679246174568e+02,-1.653807189054932678e+02,-3.117424572242039744e+02,-3.742252552707860787e+02,-4.963826895123313534e+02,-7.264474211231515710e+01,-1.931577855370545649e+02,9.523238182067871094e+00,-6.119350194931030273e-01,1.529837548732757568e-01,2.840000000000000000e+02
-4.895351147666856946e+02,-6.070026377396116004e+02,-1.639427626090364356e+02,-3.097413831714561070e+02,-3.730384718102924353e+02,-4.937027762160024622e+02,-6.963002207276269928e+01,-1.889672696776447083e+02,9.523238182067871094e+00,-6.119350194931030273e-01,1.529837548732757568e-01,2.850000000000000000e+02
-4.961568866082831164e+02,-6.063836425365350351e+02,-1.642588174449364260e+02,-3.092181582474966035e+02,-3.745733389110057487e+02,-4.922784676145175808e+02,-6.958500496331430440e+01,-1.890765220691688455e+02,9.523238182067871094e+00,-6.119350194931030273e-01,1.529837548732757568e-01,2.860000000000000000e+02
-5.037292763234743234e+02,-6.055250341965279404e+02,-1.675740851589155227e+02,-3.102292847232053532e+02,-3.791177234077052844e+02,-4.928261804072438963e+02,-7.258912608120635923e+01,-1.941706495029663984e+02,9.446745872497558594e+00,-5.354431271553039551e-01,1.529837548732757568e-01,2.870000000000000000e+02
-5.094679766011016113e+02,-6.041783503441721450e+02,-1.726581187591153821e+02,-3.119074642160808821e+02,-3.848697066836994054e+02,-4.951254149231075417e+02,-7.673830877676289219e+01,-2.020587053129677315e+02,9.446745872497558594e+00,-5.354431271553039551e-01,1.529837548732757568e-01,2.880000000000000000e+02
-5.109849841271246760e+02,-6.023183646362761010e+02,-1.765238851972427483e+02,-3.133110624365547778e+02,-3.889840164830704907e+02,-4.981919141895132839e+02,-7.967112362852185470e+01,-2.091399093226052628e+02,9.446745872497558594e+00,-5.354431271553039551e-01,1.529837548732757568e-01,2.890000000000000000e+02
-5.084448395761878601e+02,-6.006870197472803738e+02,-1.767964881997528437e+02,-3.141947282262125896e+02,-3.896872834081167412e+02,-5.009725677403527015e+02,-8.045601806690706326e+01,-2.130189673525280796e+02,9.446745872497558594e+00,-5.354431271553039551e-01,1.529837548732757568e-01,2.900000000000000000e+02
-5.046821990852669728e+02,-6.006218612704814177e+02,-1.736202106089489234e+02,-3.150020394635754428e+02,-3.875728808830777439e+02,-5.029483645045091293e+02,-8.021940019915894027e+01,-2.140694662984669776e+02,9.446745872497558594e+00,-5.354431271553039551e-01,1.529837548732757568e-01,2.910000000000000000e+02
-5.029963234537302128e+02,-6.030538993604158122e+02,-1.694210866632481611e+02,-3.161483143583753872e+02,-3.848696171882797898e+02,-5.041304861637397607e+02,-8.095336132881993763e+01,-2.145781482240764717e+02,9.446745872497558594e+00,-5.354431271553039551e-01,1.529837548732757568e-01,2.920000000000000000e+02
-5.045525971612037210e+02,-6.074415720461453247e+02,-1.668539445730804118e+02,-3.173800034385556046e+02,-3.833809702141791149e+02,-5.045845694548092979e+02,-8.359022800602531333e+01,-2.162756687474995942e+02,9.446745872497558594e+00,-5.354431271553039551e-01,1.529837548732757568e-01,2.930000000000000000e+02
-5.077982492562306902e+02,-6.116875061210528202e+02,-1.668245774386565472e+02,-3.178952692511738860e+02,-3.830152530626937732e+02,-5.040899312723592516e+02,-8.706379602290348885e+01,-2.185519259154289102e+02,9.446745872497558594e+00,-5.354431271553039551e-01,1.529837548732757568e-01,2.940000000000000000e+02
-5.104183360642479101e+02,-6.133861348125112727e+02,-1.682033267629092279e+02,-3.170971458308372917e+02,-3.821936854772762899e+02,-5.023381792946220230e+02,-8.916050122266756262e+01,-2.190152401338079926e+02,9.446745872497558594e+00,-5.354431271553039551e-01,1.529837548732757568e-01,2.950000000000000000e+02
-5.118978403636896815e+02,-6.115763971624121496e+02,-1.691857816833248762e+02,-3.152014024211866285e+02,-3.796250590436851553e+02,-4.994437712491475168e+02,-8.838545506712091537e+01,-2.159005647016052762e+02,9.446745872497558594e+00,-5.354431271553039551e-01,1.529837548732757568e-01,2.960000000000000000e+02
-5.141476372003710367e+02,-6.075727138222200665e+02,-1.688650247287686170e+02,-3.130825043616819130e+02,-3.757066146848942481e+02,-4.961688055870917538e+02,-8.524211972657576553e+01,-2.101074675737789903e+02,9.446745872497558594e+00,-5.354431271553039551e-01,1.529837548732757568e-01,2.970000000000000000e+02
-5.195111777207255273e+02,-6.040823318170444054e+02,-1.676901502490225084e+02,-3.115632743790617383e+02,-3.722949507970556624e+02,-4.935756089561662634e+02,-8.193987023210070220e+01,-2.049560795137277864e+02,9.446745872497558594e+00,-5.354431271553039551e-01,1.529837548732757568e-01,2.980000000000000000e+02
-5.280858371387992065e+02,-6.032028019224309219e+02,-1.667282927724874071e+02,-3.108947824472709840e+02,-3.711782144747560324e+02,-4.924205549625358458e+02,-8.088944597721649643e+01,-2.038009358603269447e+02,9.446745872497558594e+00,-5.354431271553039551e-01,1.529837548732757568e-01,2.990000000000000000e+02
-5.370207141338621568e+02,-6.048397153146727305e+02,-1.666851919384370149e+02,-3.108615398645886785e+02,-3.726984905318977326e+02,-4.928159026894160206e+02,-8.318773069318103808e+01,-2.075332639808890463e+02,9.446745872497558594e+00,-5.354431271553039551e-01,1.529837548732757568e-01,3.000000000000000000e+02
-5.425878522074881403e+02,-6.067766626639656806e+02,-1.675926199064214188e+02,-3.112169138900313783e+02,-3.756536688765205554e+02,-4.943491718239596366e+02,-8.806856563097790058e+01,-2.140284706490547251e+02,9.446745872497558594e+00,-5.354431271553039551e-01,1.529837548732757568e-01,3.010000000000000000e+02
-5.432047550701220189e+02,-6.063269387904476844e+02,-1.692113176267176868e+02,-3.118645851531789503e+02,-3.783683658429147272e+02,-4.964046080753592491e+02,-9.347105012775955402e+01,-2.198649140270827047e+02,9.446745872497558594e+00,-5.354431271553039551e-01,1.529837548732757568e-01,3.020000000000000000e+02
-5.406990885451409667e+02,-6.022815953481110682e+02,-1.715047002770512563e+02,-3.126528670193796984e+02,-3.798864728388282401e+02,-4.983821040545676624e+02,-9.720307791762854777e+01,-2.227781895526118205e+02,9.446745872497558594e+00,-5.354431271553039551e-01,1.529837548732757568e-01,3.030000000000000000e+02
-5.387693858512714087e+02,-5.957014169101091738e+02,-1.746070442966754399e+02,-3.131902711500217151e+02,-3.803369357019008703e+02,-4.997575990357910314e+02,-9.798238928243677037e+01,-2.228597448407696220e+02,9.446745872497558594e+00,-5.354431271553039551e-01,1.529837548732757568e-01,3.040000000000000000e+02
-5.401255241726624945e+02,-5.890643600734998699e+02,-1.783528750509717611e+02,-3.130306731493969323e+02,-3.803884042981752600e+02,-5.001260472974695404e+02,-9.586245133877207536e+01,-2.217680010586922208e+02,9.446745872497558594e+00,-5.354431271553039551e-01,1.529837548732757568e-01,3.050000000000000000e+02
-5.447664478975738120e+02,-5.845329124240221290e+02,-1.819211971692808447e+02,-3.120277468928600229e+02,-3.804302693751537845e+02,-4.992820677801466900e+02,-9.193161818893338477e+01,-2.209249900816560057e+02,9.446745872497558594e+00,-5.354431271553039551e-01,1.529837548732757568e-01,3.060000000000000000e+02
-5.505698453348776411e+02,-5.826715570174252434e+02,-1.840508380283122278e+02,-3.103738456846851363e+02,-3.801784818031243276e+02,-4.972480069770114142e+02,-8.757203686799118714e+01,-2.203537538705961651e+02,9.446745872497558594e+00,-5.354431271553039551e-01,1.529837548732757568e-01,3.070000000000000000e+02
-5.552498320022607459e+02,-5.824481654882986277e+02,-1.837637025682068952e+02,-3.082478949222543747e+02,-3.789221852626636746e+02,-4.942105509612862306e+02,-8.379494814833435612e+01,-2.190145204253467455e+02,9.446745872497558594e+00,-5.354431271553039551e-01,1.529837548732757568e-01,3.080000000000000000e+02
-5.578526433412125698e+02,-5.822889894540892328e+02,-1.810560903415963594e+02,-3.055551494338430416e+02,-3.761154051245255232e+02,-4.904568325323145928e+02,-8.104887874667372216e+01,-2.160933811140199623e+02,9.446745872497558594e+00,-5.354431271553039551e-01,1.529837548732757568e-01,3.090000000000000000e+02
-5.588611878507314259e+02,-5.812526570411034754e+02,-1.769780996028229083e+02,-3.021888411928906635e+02,-3.718495386366148523e+02,-4.863947312226807753e+02,-7.946978342855391020e+01,-2.119655120410578775e+02,9.446745872497558594e+00,-5.354431271553039551e-01,1.529837548732757568e-01,3.100000000000000000e+02
-5.594162994797791271e+02,-5.795048434732946134e+02,-1.729749784003092827e+02,-2.985594171055922175e+02,-3.668937711976124092e+02,-4.825661999499598096e+02,-7.914120398626346287e+01,-2.080123016439066532e+02,9.446745872497558594e+00,-5.354431271553039551e-01,1.529837548732757568e-01,3.110000000000000000e+02
-5.606505430437562154e+02,-5.779610748185989451e+02,-1.699850333725424889e+02,-2.956725055870022629e+02,-3.623069334573860942e+02,-4.794937431044669438e+02,-8.001441239250561921e+01,-2.055720408483502979e+02,9.484992027282714844e+00,-5.736890435218811035e-01,1.529837548732757568e-01,3.120000000000000000e+02
-5.635158478808932614e+02,-5.775713433885638324e+02,-1.680126320279314314e+02,-2.944565107309134646e+02,-3.588963383580016853e+02,-4.774095161279138892e+02,-8.163289331052419584e+01,-2.050181207101916243e+02,9.484992027282714844e+00,-5.736890435218811035e-01,1.529837548732757568e-01,3.130000000000000000e+02
-5.686780800985031874e+02,-5.787599181462500155e+02,-1.664787362057749078e+02,-2.949203435150282075e+02,-3.568199579246686426e+02,-4.761191044557521082e+02,-8.311833912677968783e+01,-2.056744813734882200e+02,9.484992027282714844e+00,-5.736890435218811035e-01,1.529837548732757568e-01,3.140000000000000000e+02
-5.761432456211484805e+02,-5.812003169829235958e+02,-1.649553143524930192e+02,-2.960291102163796495e+02,-3.555333079367106848e+02,-4.751629694837856732e+02,-8.362494055180229680e+01,-2.064520440582067522e+02,9.484992027282714844e+00,-5.736890435218811035e-01,1.529837548732757568e-01,3.150000000000000000e+02
-5.849519419367882165e+02,-5.838586974962213390e+02,-1.635784815941269699e+02,-2.964864026258265994e+02,-3.541022879633253524e+02,-4.741076423770905421e+02,-8.290169941398426090e+01,-2.065394807811776445e+02,9.484992027282714844e+00,-5.736890435218811035e-01,1.529837548732757568e-01,3.160000000000000000e+02
-5.935012766238594395e+02,-5.852889171539351310e+02,-1.627878648732673810e+02,-2.956526701690745540e+02,-3.517209508787975665e+02,-4.726503851328395740e+02,-8.137372428644187039e+01,-2.056361488912381219e+02,9.484992027282714844e+00,-5.736890435218811035e-01,1.529837548732757568e-01,3.170000000000000000e+02
-6.004629014196732442e+02,-5.842347684443694789e+02,-1.627429161760171610e+02,-2.937321644331454991e+02,-3.482066228756328883e+02,-4.705125704642498476e+02,-7.963175628893645808e+01,-2.038012283742436921e+02,9.484992027282714844e+00,-5.736890435218811035e-01,1.529837548732757568e-01,3.180000000000000000e+02
-6.055289104628226369e+02,-5.803723296534009251e+02,-1.630657036299460287e+02,-2.911866653697857146e+02,-3.442060397695844358e+02,-4.674266368765167954e+02,-7.787031584024543918e+01,-2.012948286622712430e+02,9.484992027282714844e+00,-5.736890435218811035e-01,1.529837548732757568e-01,3.190000000000000000e+02
-6.092727886871903138e+02,-5.746767309046057335e+02,-1.631860017179378701e+02,-2.881592955041552386e+02,-3.409367043607865071e+02,-4.634214522116330954e+02,-7.587978072914313543e+01,-1.985803112477208288e+02,9.484992027282714844e+00,-5.736890435218811035e-01,1.529837548732757568e-01,3.200000000000000000e+02
-6.123044195347496270e+02,-5.689282256116676990e+02,-1.629069381407134642e+02,-2.845648313209181879e+02,-3.395380949036351694e+02,-4.591406358663786023e+02,-7.359000382772194371e+01,-1.963278327126382692e+02,9.484992027282714844e+00,-5.736890435218811035e-01,1.529837548732757568e-01,3.210000000000000000e+02
-6.146431285644612217e+02,-5.645181074674632100e+02,-1.625965881069271290e+02,-2.806289024479006002e+02,-3.403958320512357432e+02,-4.556882234961786935e+02,-7.152341941460178987e+01,-1.952273300241666902e+02,9.484992027282714844e+00,-5.736890435218811035e-01,1.529837548732757568e-01,3.220000000000000000e+02
-6.159694890787043278e+02,-5.614520897562051687e+02,-1.628467305510948790e+02,-2.771126996804858891e+02,-3.428938226834669649e+02,-4.539133472937255647e+02,-7.060102698859964221e+01,-1.956635462408736430e+02,9.484992027282714844e+00,-5.736890435218811035e-01,1.529837548732757568e-01,3.230000000000000000e+02
-6.163918108665089903e+02,-5.584616173108737485e+02,-1.639502384221959801e+02,-2.748261178906404893e+02,-3.457591967658649992e+02,-4.537074186887004998e+02,-7.142894919002492315e+01,-1.974811390306581416e+02,9.484992027282714844e+00,-5.736890435218811035e-01,1.529837548732757568e-01,3.240000000000000000e+02
-6.167386539322260433e+02,-5.542202019654101832e+02,-1.656511835180319849e+02,-2.738978764496763461e+02,-3.477114317343992980e+02,-4.540224217517856005e+02,-7.375878336790970025e+01,-1.999869851698124421e+02,9.484992027282714844e+00,-5.736890435218811035e-01,1.529837548732757568e-01,3.250000000000000000e+02
-6.179337279247495189e+02,-5.486258309525449022e+02,-1.673055762558053630e+02,-2.736120606960109853e+02,-3.479493559147230144e+02,-4.536679662625795117e+02,-7.664483610502998090e+01,-2.021661154069163331e+02,9.484992027282714844e+00,-5.736890435218811035e-01,1.529837548732757568e-01,3.260000000000000000e+02
-6.200850775099720522e+02,-5.429897114692075775e+02,-1.682464105121158582e+02,-2.730346627783053464e+02,-3.462359808406820321e+02,-4.521550996196203869e+02,-7.911593215079915353e+01,-2.030337486605870936e+02,9.484992027282714844e+00,-5.736890435218811035e-01,1.529837548732757568e-01,3.270000000000000000e+02
-6.223469778388384839e+02,-5.389762525201944072e+02,-1.681176907695944465e+02,-2.718347196079055266e+02,-3.427676916608290867e+02,-4.498389152015960235e+02,-8.073005602408522918e+01,-2.020821232219525427e+02,9.484992027282714844e+00,-5.736890435218811035e-01,1.529837548732757568e-01,3.280000000000000000e+02
-6.238227164842821821e+02,-5.372674403594240857e+02,-1.670709330438226061e+02,-2.705035967299688764e+02,-3.381358715992387260e+02,-4.473517005043268000e+02,-8.158290250172876767e+01,-1.996763970684067999e+02,9.484992027282714844e+00,-5.736890435218811035e-01,1.529837548732757568e-01,3.290000000000000000e+02
-6.245975613145401439e+02,-5.371294571307059869e+02,-1.657544462561903629e+02,-2.697975241519311567e+02,-3.333862286700993991e+02,-4.450120549431544532e+02,-8.191341257238639173e+01,-1.970480229248643127e+02,9.484992027282714844e+00,-5.736890435218811035e-01,1.529837548732757568e-01,3.300000000000000000e+02
-6.257635985901270033e+02,-5.371457118037458258e+02,-1.650055964914949982e+02,-2.699828133267417343e+02,-3.298555524268446106e+02,-4.427853457516650906e+02,-8.177415596071250548e+01,-1.956036869676652259e+02,9.484992027282714844e+00,-5.736890435218811035e-01,1.529837548732757568e-01,3.310000000000000000e+02
-6.283180256390185150e+02,-5.363122830210623988e+02,-1.652969213332364689e+02,-2.705814293029122837e+02,-3.285690663313889672e+02,-4.406589834641704329e+02,-8.103866103594259584e+01,-1.958405093024201733e+02,9.484992027282714844e+00,-5.736890435218811035e-01,1.529837548732757568e-01,3.320000000000000000e+02
-6.320517136153907813e+02,-5.345007015482754014e+02,-1.663035974713380938e+02,-2.707867277966693109e+02,-3.295030108766009107e+02,-4.388564095404126419e+02,-7.963915390855879650e+01,-1.967802621297367978e+02,9.484992027282714844e+00,-5.736890435218811035e-01,1.529837548732757568e-01,3.330000000000000000e+02
-6.356756465640362421e+02,-5.320585095155436193e+02,-1.670295987108454483e+02,-2.700926867133694032e+02,-3.313767670422791980e+02,-4.375915538636595556e+02,-7.776038947548090619e+01,-1.966896794431904709e+02,9.484992027282714844e+00,-5.736890435218811035e-01,1.529837548732757568e-01,3.340000000000000000e+02
-6.381669736903966168e+02,-5.291822265348000656e+02,-1.665318638612503719e+02,-2.685831280567474550e+02,-3.323305367945960143e+02,-4.366822777625127401e+02,-7.585741723332864694e+01,-1.947460587042236284e+02,9.484992027282714844e+00,-5.736890435218811035e-01,1.529837548732757568e-01,3.350000000000000000e+02
-6.399833061332637953e+02,-5.257694378025148580e+02,-1.646641719344600006e+02,-2.667309781659687360e+02,-3.310747254611710559e+02,-4.355490851393556113e+02,-7.453936314737939028e+01,-1.921682809610404092e+02,9.484992027282714844e+00,-5.736890435218811035e-01,1.529837548732757568e-01,3.360000000000000000e+02
-6.428086069900500661e+02,-5.218126531569816962e+02,-1.621422020877367913e+02,-2.649983822112017151e+02,-3.276236318517060226e+02,-4.336754478683285470e+02,-7.437421160189774128e+01,-1.914930637005634253e+02,9.484992027282714844e+00,-5.736890435218811035e-01,1.529837548732757568e-01,3.370000000000000000e+02
-6.479194119946541832e+02,-5.177826803413979633e+02,-1.598290114095145782e+02,-2.636052065950032102e+02,-3.230493718250327220e+02,-4.310586681264469462e+02,-7.560860523167775682e+01,-1.942866288687162069e+02,9.484992027282714844e+00,-5.736890435218811035e-01,1.529837548732757568e-01,3.380000000000000000e+02
-6.547205701874065653e+02,-5.144629952476035442e+02,-1.579183298973566707e+02,-2.625484614378622155e+02,-3.185507261488185122e+02,-4.281694311526603087e+02,-7.786123261290458686e+01,-1.992511906740328413e+02,9.484992027282714844e+00,-6.119350194931030273e-01,1.147378161549568176e-01,3.390000000000000000e+02
-6.609586341336248552e+02,-5.122875123156809423e+02,-1.558418905744149470e+02,-2.617012666452624217e+02,-3.146919435202689783e+02,-4.254682054362820054e+02,-8.004655801735361820e+01,-2.026879903568947157e+02,9.484992027282714844e+00,-6.119350194931030273e-01,1.147378161549568176e-01,3.400000000000000000e+02
-6.645544169806400987e+02,-5.107891563268860864e+02,-1.530295354472511917e+02,-2.608406833392693898e+02,-3.114274056253452727e+02,-4.230004520313200373e+02,-8.080573831075003000e+01,-2.012939499814499413e+02,9.484992027282714844e+00,-6.119350194931030273e-01,1.147378161549568176e-01,3.410000000000000000e+02
-6.654014277070764365e+02,-5.087338936037563144e+02,-1.498002871076599831e+02,-2.596816178390554342e+02,-3.087542185918043742e+02,-4.205121688707449721e+02,-7.937963411656528478e+01,-1.950741418575862554e+02,9.484992027282714844e+00,-6.119350194931030273e-01,1.147378161549568176e-01,3.420000000000000000e+02
-6.654219430377652316e+02,-5.049585066536665181e+02,-1.475015556314497189e+02,-2.580800295394841442e+02,-3.072411878658203932e+02,-4.179814344792148404e+02,-7.636504758252249303e+01,-1.878050241295031810e+02,9.484992027282714844e+00,-6.119350194931030273e-01,1.147378161549568176e-01,3.430000000000000000e+02
-6.668292987205397822e+02,-4.993037188989133028e+02,-1.476626687172931724e+02,-2.563229515387479296e+02,-3.078048611388153404e+02,-4.159767464118967837e+02,-7.363570163365830012e+01,-1.844370749885561054e+02,9.484992027282714844e+00,-6.119350194931030273e-01,1.147378161549568176e-01,3.440000000000000000e+02
-6.702176756514322733e+02,-4.928667775595140483e+02,-1.507712446566915787e+02,-2.551270451495511224e+02,-3.107720327552901836e+02,-4.153367026427258679e+02,-7.319045826487331396e+01,-1.873856962502932220e+02,9.484992027282714844e+00,-6.119350194931030273e-01,1.147378161549568176e-01,3.450000000000000000e+02
-6.742704052460449020e+02,-4.872882033322694042e+02,-1.555999939934331451e+02,-2.551069666426560616e+02,-3.150065139477765115e+02,-4.163078196001877131e+02,-7.560704129950590868e+01,-1.946254124747606511e+02,9.484992027282714844e+00,-6.119350194931030273e-01,1.147378161549568176e-01,3.460000000000000000e+02
-6.773494825573698108e+02,-4.835614876786037257e+02,-1.596305369608874116e+02,-2.560266130458471707e+02,-3.179880587674490471e+02,-4.178832690678386825e+02,-7.932262469818647332e+01,-2.010377382072390446e+02,9.484992027282714844e+00,-6.119350194931030273e-01,1.147378161549568176e-01,3.470000000000000000e+02
-6.794014449464830250e+02,-4.812868861390704751e+02,-1.603862235608294213e+02,-2.565812286616892379e+02,-3.170772722864653588e+02,-4.180747345459385542e+02,-8.149698556466591981e+01,-2.019061818748364203e+02,9.484992027282714844e+00,-6.119350194931030273e-01,1.147378161549568176e-01,3.480000000000000000e+02
-6.822940543849042569e+02,-4.789914892350664104e+02,-1.568680886657655265e+02,-2.551741643067016412e+02,-3.112426372439233546e+02,-4.151353623425461592e+02,-7.998657783484077299e+01,-1.959322084653499587e+02,9.484992027282714844e+00,-6.119350194931030273e-01,1.147378161549568176e-01,3.490000000000000000e+02
-6.881791300661450350e+02,-4.752837113543864689e+02,-1.501923469777339051e+02,-2.512345361184413832e+02,-3.019853209238372074e+02,-4.088916999591806416e+02,-7.497021667046851690e+01,-1.857484272939341281e+02,9.484992027282714844e+00,-6.119350194931030273e-01,1.147378161549568176e-01,3.500000000000000000e+02
-6.973558814879584133e+02,-4.699141915030008931e+02,-1.429959026025380808e+02,-2.459469159327454690e+02,-2.926434604755988858e+02,-4.010988232355657601e+02,-6.893910589382790022e+01,-1.758914702945749013e+02,9.484992027282714844e+00,-6.119350194931030273e-01,1.147378161549568176e-01,3.510000000000000000e+02
-7.076012835406290833e+02,-4.638673501554330869e+02,-1.379214091604324040e+02,-2.415850912178234466e+02,-2.863919144596545721e+02,-3.944012978026653400e+02,-6.499501650027150390e+01,-1.698954260618461376e+02,9.484992027282714844e+00,-6.119350194931030273e-01,1.147378161549568176e-01,3.520000000000000000e+02
-7.156339726061967212e+02,-4.584479506298739580e+02,-1.361578743596719505e+02,-2.398662631797678841e+02,-2.843370262461189668e+02,-3.906298662482354302e+02,-6.476080435617768671e+01,-1.684955744903795676e+02,9.484992027282714844e+00,-6.119350194931030273e-01,1.147378161549568176e-01,3.530000000000000000e+02
-7.194797965517902867e+02,-4.542067214474698176e+02,-1.370065976169912574e+02,-2.406801796564964206e+02,-2.851279478175192708e+02,-3.897334607775828772e+02,-6.746430809250728089e+01,-1.698689849242882701e+02,9.484992027282714844e+00,-6.119350194931030273e-01,1.147378161549568176e-01,3.540000000000000000e+02
-7.197529022362409705e+02,-4.506373062351499357e+02,-1.387077091747021313e+02,-2.422650562534272467e+02,-2.863322956023680490e+02,-3.901218918055615177e+02,-7.075027256592011327e+01,-1.713743099768771572e+02,9.484992027282714844e+00,-6.119350194931030273e-01,1.147378161549568176e-01,3.550000000000000000e+02
-7.188843523330563130e+02,-4.468289160212984825e+02,-1.398113087450963121e+02,-2.426365839067668730e+02,-2.864028756852840161e+02,-3.900296081760961897e+02,-7.243347281360820489e+01,-1.714065621322392872e+02,9.484992027282714844e+00,-6.119350194931030273e-01,1.147378161549568176e-01,3.560000000000000000e+02
-7.191338899870811474e+02,-4.424031805388526664e+02,-1.399988136651165860e+02,-2.409959743994058954e+02,-2.856169137002366369e+02,-3.887113258419421982e+02,-7.183909990514757737e+01,-1.701486517123880731e+02,9.484992027282714844e+00,-6.119350194931030273e-01,1.147378161549568176e-01,3.570000000000000000e+02
-7.211342969473312223e+02,-4.378806598452918024e+02,-1.398504316756432218e+02,-2.379980065405252390e+02,-2.853180071143319765e+02,-3.865777548247679078e+02,-6.992904490187220290e+01,-1.689234066525443723e+02,9.484992027282714844e+00,-6.119350194931030273e-01,1.147378161549568176e-01,3.580000000000000000e+02
-7.240195589704981103e+02,-4.342056556751956578e+02,-1.399745149127343211e+02,-2.348693343138477303e+02,-2.862593406344474261e+02,-3.843835522866552310e+02,-6.837726989981752013e+01,-1.688153031734457272e+02,9.484992027282714844e+00,-6.119350194931030273e-01,1.147378161549568176e-01,3.590000000000000000e+02
-7.266642314795615221e+02,-4.319226087934914631e+02,-1.403771785018502669e+02,-2.323395719621873923e+02,-2.875840469676202247e+02,-3.823548555905929334e+02,-6.839461245772940856e+01,-1.696548998722093984e+02,9.484992027282714844e+00,-6.119350194931030273e-01,1.147378161549568176e-01,3.600000000000000000e+02
-7.286957880926127018e+02,-4.307406083121641132e+02,-1.405821637073095189e+02,-2.303114517575922946e+02,-2.873655142671034355e+02,-3.800444922099177347e+02,-7.007319060346480910e+01,-1.701137612137911219e+02,9.484992027282714844e+00,-6.119350194931030273e-01,1.147378161549568176e-01,3.610000000000000000e+02
-7.304247826885957693e+02,-4.298005925599190959e+02,-1.402284093558553195e+02,-2.283396402725618373e+02,-2.842253638548031631e+02,-3.769296192737390356e+02,-7.252083915722823804e+01,-1.687794381950971001e+02,9.484992027282714844e+00,-6.119350194931030273e-01,1.147378161549568176e-01,3.620000000000000000e+02
-7.320544322590824322e+02,-4.283452864265061635e+02,-1.394846573636250469e+02,-2.262745630717226959e+02,-2.786302358273057962e+02,-3.731040271003128055e+02,-7.456246363075638328e+01,-1.653442958928030748e+02,9.484992027282714844e+00,-6.119350194931030273e-01,1.147378161549568176e-01,3.630000000000000000e+02
-7.331977790058417668e+02,-4.262119343949889299e+02,-1.388894683613596044e+02,-2.244335879657628539e+02,-2.727558164037066035e+02,-3.693922379226703470e+02,-7.548115912792263771e+01,-1.609500926401792640e+02,9.484992027282714844e+00,-6.119350194931030273e-01,1.147378161549568176e-01,3.640000000000000000e+02
-7.332394646733996524e+02,-4.237841873246006799e+02,-1.387917689358762345e+02,-2.232244812521357744e+02,-2.689738548108189207e+02,-3.667629076765817899e+02,-7.527512645474416786e+01,-1.573637573999919823e+02,9.484992027282714844e+00,-6.119350194931030273e-01,1.147378161549568176e-01,3.650000000000000000e+02
-7.320757146374126023e+02,-4.215119840191698586e+02,-1.388925855946149568e+02,-2.226423050768330540e+02,-2.681241262243383972e+02,-3.655291558476494629e+02,-7.428696295962890872e+01,-1.556057382907897590e+02,9.484992027282714844e+00,-6.119350194931030273e-01,1.147378161549568176e-01,3.660000000000000000e+02
-7.303463396891729644e+02,-4.194347436318641940e+02,-1.382667805942169252e+02,-2.221039953966048870e+02,-2.688818813967834558e+02,-3.650003696072931234e+02,-7.258690048546304752e+01,-1.551097078673128635e+02,9.484992027282714844e+00,-6.119350194931030273e-01,1.147378161549568176e-01,3.670000000000000000e+02
-7.288576702025709437e+02,-4.171113423212552789e+02,-1.358831764438882601e+02,-2.207554207891475926e+02,-2.686776149387756050e+02,-3.639078610509400278e+02,-6.977291119275560050e+01,-1.541059638362394253e+02,9.484992027282714844e+00,-6.119350194931030273e-01,1.147378161549568176e-01,3.680000000000000000e+02
-7.278154036833077498e+02,-4.140191668378815848e+02,-1.313221002112218230e+02,-2.180175506984637650e+02,-2.654689020926900866e+02,-3.612983104833856487e+02,-6.550480049323891762e+01,-1.509703837512192877e+02,9.484992027282714844e+00,-6.119350194931030273e-01,1.147378161549568176e-01,3.690000000000000000e+02
-7.267023278260226107e+02,-4.100840319371695841e+02,-1.252412512442515435e+02,-2.139858133455252300e+02,-2.590629125760422085e+02,-3.571789744376301314e+02,-6.030030861442219248e+01,-1.454776441714611792e+02,9.484992027282714844e+00,-5.736890435218811035e-01,1.912296712398529053e-01,3.700000000000000000e+02
-7.249378077522951571e+02,-4.058593855900626295e+02,-1.192301548499515320e+02,-2.094035359541862817e+02,-2.510892741745942658e+02,-3.523740008943750581e+02,-5.568252381332467849e+01,-1.389526937204354908e+02,9.484992027282714844e+00,-5.736890435218811035e-01,1.912296712398529053e-01,3.710000000000000000e+02
-7.226020321036830865e+02,-4.021330096417916593e+02,-1.150235639915485990e+02,-2.052137566250985401e+02,-2.437919064122077089e+02,-3.477234954017199016e+02,-5.325656049479812282e+01,-1.332222036823231974e+02,9.484992027282714844e+00,-5.736890435218811035e-01,1.912296712398529053e-01,3.720000000000000000e+02
-7.204178582160707265e+02,-3.992424191630084351e+02,-1.135196442552396547e+02,-2.020057991192675217e+02,-2.386796616024073501e+02,-3.433871304565473110e+02,-5.339321681113847262e+01,-1.292947894441567769e+02,9.484992027282714844e+00,-5.736890435218811035e-01,1.912296712398529053e-01,3.730000000000000000e+02
-7.189886297026669126e+02,-3.967084642736847400e+02,-1.142822108922523512e+02,-1.997767761806742328e+02,-2.360275100568928792e+02,-3.389513218398169556e+02,-5.477163385266749174e+01,-1.269113860433196805e+02,9.484992027282714844e+00,-5.736890435218811035e-01,1.912296712398529053e-01,3.740000000000000000e+02
-7.181037567393773315e+02,-3.936120171281208968e+02,-1.159263038142626101e+02,-1.981834428140859927e+02,-2.353583305951856346e+02,-3.342556399477412015e+02,-5.538331074084317152e+01,-1.252935749436639981e+02,9.484992027282714844e+00,-5.736890435218811035e-01,1.912296712398529053e-01,3.750000000000000000e+02
-7.168589097275626045e+02,-3.894761408096046580e+02,-1.170979196547077663e+02,-1.970232385465944844e+02,-2.361626077571900169e+02,-3.300624946153484416e+02,-5.421224485109132729e+01,-1.242765720968016012e+02,9.484992027282714844e+00,-5.736890435218811035e-01,1.912296712398529053e-01,3.760000000000000000e+02
-7.144916787192241827e+02,-3.848638074097775643e+02,-1.172433465657634315e+02,-1.964514882017017499e+02,-2.380383110986190331e+02,-3.277397715100159985e+02,-5.205740665852317761e+01,-1.246160687557501205e+02,9.484992027282714844e+00,-5.736890435218811035e-01,1.912296712398529053e-01,3.770000000000000000e+02
-7.110963426346324923e+02,-3.810626106299964704e+02,-1.165747701090258488e+02,-1.967100737320020016e+02,-2.402341929388294375e+02,-3.280904864706708395e+02,-5.071583645598434487e+01,-1.270767592486581634e+02,9.484992027282714844e+00,-5.736890435218811035e-01,1.912296712398529053e-01,3.780000000000000000e+02
-7.074965783243701480e+02,-3.790095166624244030e+02,-1.153966694700045537e+02,-1.976319506135230313e+02,-2.413412083850241743e+02,-3.303879988688913727e+02,-5.127299055267235417e+01,-1.311562344741541892e+02,9.484992027282714844e+00,-5.736890435218811035e-01,1.912296712398529053e-01,3.790000000000000000e+02
-7.043843002856488056e+02,-3.783506020749862273e+02,-1.135757231068623696e+02,-1.984615579599412740e+02,-2.398363167299055476e+02,-3.326159181649350103e+02,-5.309491695405677092e+01,-1.348179302931648635e+02,9.484992027282714844e+00,-5.736890435218811035e-01,1.912296712398529053e-01,3.800000000000000000e+02
-7.014985202388829748e+02,-3.775212270234483185e+02,-1.107624440610852616e+02,-1.982638627168230414e+02,-2.352720999017342365e+02,-3.328320092998096698e+02,-5.443717178417637115e+01,-1.357730296510603694e+02,9.484992027282714844e+00,-5.736890435218811035e-01,1.912296712398529053e-01,3.810000000000000000e+02
-6.975367668081808006e+02,-3.748919534434669458e+02,-1.071410653781656492e+02,-1.966368538659066871e+02,-2.290620072220390284e+02,-3.305274013009388909e+02,-5.405670536465959231e+01,-1.333474024796760204e+02,9.484992027282714844e+00,-5.736890435218811035e-01,1.912296712398529053e-01,3.820000000000000000e+02
-6.908317170656532653e+02,-3.700900024029631368e+02,-1.038474314006496115e+02,-1.941294735666338056e+02,-2.239521500296978047e+02,-3.268646940602238828e+02,-5.232533980811331276e+01,-1.292556699710739849e+02,9.484992027282714844e+00,-5.736890435218811035e-01,1.912296712398529053e-01,3.830000000000000000e+02
-6.802333768216599310e+02,-3.643600356402373563e+02,-1.024009455064485792e+02,-1.919509411699937118e+02,-2.223033990203762187e+02,-3.236603731101613448e+02,-5.084592710981905839e+01,-1.264163382466513212e+02,9.484992027282714844e+00,-5.736890435218811035e-01,1.912296712398529053e-01,3.840000000000000000e+02
-6.656473148051891258e+02,-3.596123515991989734e+02,-1.034756480323217147e+02,-1.911460536837128075e+02,-2.244221386378794705e+02,-3.220259827966019657e+02,-5.099173980138675688e+01,-1.266686204122852359e+02,9.484992027282714844e+00,-5.736890435218811035e-01,1.912296712398529053e-01,3.850000000000000000e+02
-6.480614746087721869e+02,-3.569261478878343041e+02,-1.061028029107844759e+02,-1.918519884806100890e+02,-2.282640848198216190e+02,-3.217276275274339241e+02,-5.270643224758259748e+01,-1.293036436509828491e+02,9.484992027282714844e+00,-5.736890435218811035e-01,1.912296712398529053e-01,3.860000000000000000e+02
-6.291881022367351761e+02,-3.557480424255281832e+02,-1.081455340432351022e+02,-1.932122057003073223e+02,-2.307743097556617613e+02,-3.215944169811782558e+02,-5.456404165181083954e+01,-1.316768375285600996e+02,9.484992027282714844e+00,-5.736890435218811035e-01,1.912296712398529053e-01,3.870000000000000000e+02
-6.109027522285377927e+02,-3.544374690890549573e+02,-1.077960977731725052e+02,-1.940327986768481878e+02,-2.298709576204810219e+02,-3.204877773463558697e+02,-5.494020953972358257e+01,-1.313710151374243651e+02,9.484992027282714844e+00,-5.736890435218811035e-01,1.912296712398529053e-01,3.880000000000000000e+02
-5.946272710232024110e+02,-3.516531815169864785e+02,-1.048727693613545853e+02,-1.936657607164784167e+02,-2.256121257598260854e+02,-3.180614315368911775e+02,-5.322542914912992273e+01,-1.280399588896029854e+02,9.484992027282714844e+00,-5.736890435218811035e-01,1.912296712398529053e-01,3.890000000000000000e+02
-5.808813602742029616e+02,-3.473764258412975323e+02,-1.008089648422990194e+02,-1.924155069435041696e+02,-2.198097377084814070e+02,-3.148675577358631017e+02,-5.010446794445851992e+01,-1.234110874963921560e+02,9.484992027282714844e+00,-5.736890435218811035e-01,1.912296712398529053e-01,3.900000000000000000e+02
-5.692721982357238630e+02,-3.427396795551162541e+02,-9.738571777560423470e+01,-1.911421184045350401e+02,-2.145860106312838980e+02,-3.118780055342840569e+02,-4.683155426083385464e+01,-1.196261033563255296e+02,9.446745872497558594e+00,-6.119350194931030273e-01,1.529837548732757568e-01,3.910000000000000000e+02
-5.589914069016608664e+02,-3.389095111993474347e+02,-9.537491954239726510e+01,-1.904101970822243857e+02,-2.110803279731676412e+02,-3.098066685231951851e+02,-4.427118150405021879e+01,-1.175487427920688788e+02,9.446745872497558594e+00,-6.119350194931030273e-01,1.529837548732757568e-01,3.920000000000000000e+02
-5.495029497924701900e+02,-3.361010371432516877e+02,-9.430076459738666017e+01,-1.899534207808087558e+02,-2.092044101274750574e+02,-3.086785617492091660e+02,-4.256215851731758448e+01,-1.165398005295846815e+02,9.446745872497558594e+00,-6.119350194931030273e-01,1.529837548732757568e-01,3.930000000000000000e+02
-5.408947058020721670e+02,-3.335945752992793132e+02,-9.337992756085668589e+01,-1.889521472216943039e+02,-2.083298246153053697e+02,-3.078945903851927142e+02,-4.155575392521541289e+01,-1.156567829106966201e+02,9.446745872497558594e+00,-6.119350194931030273e-01,1.529837548732757568e-01,3.940000000000000000e+02
-5.336095864450949193e+02,-3.306398054714754835e+02,-9.254954195640630132e+01,-1.868656499295261710e+02,-2.080428731162173790e+02,-3.067119283602351061e+02,-4.140756935905892533e+01,-1.148641900610887205e+02,9.446745872497558594e+00,-6.119350194931030273e-01,1.529837548732757568e-01,3.950000000000000000e+02
-5.278141463640872644e+02,-3.273037644008472853e+02,-9.246752304898291186e+01,-1.840098994467812190e+02,-2.082374991263814081e+02,-3.047575375762226031e+02,-4.258451739717247619e+01,-1.149594676672836613e+02,9.446745872497558594e+00,-6.119350194931030273e-01,1.529837548732757568e-01,3.960000000000000000e+02
-5.229862470499733718e+02,-3.244204524919077812e+02,-9.349404909711029177e+01,-1.812836685178631342e+02,-2.086104042013766957e+02,-3.021541889550194355e+02,-4.518121223796288177e+01,-1.163399679542312697e+02,9.446745872497558594e+00,-6.119350194931030273e-01,1.529837548732757568e-01,3.970000000000000000e+02
-5.180816372054296153e+02,-3.227137687273580013e+02,-9.480845780886147622e+01,-1.792964274069017847e+02,-2.082778248368617824e+02,-2.991977350421338997e+02,-4.823569121559830819e+01,-1.180004770699283654e+02,9.446745872497558594e+00,-6.119350194931030273e-01,1.529837548732757568e-01,3.980000000000000000e+02
-5.121549152319053064e+02,-3.219827369134623041e+02,-9.473395052089290402e+01,-1.777690884198273125e+02,-2.061144051328956266e+02,-2.959587413607409871e+02,-4.989556097490640241e+01,-1.179859562593605915e+02,9.446745872497558594e+00,-6.119350194931030273e-01,1.529837548732757568e-01,3.990000000000000000e+02
-5.049545254073873366e+02,-3.211745089959913457e+02,-9.212172541702875606e+01,-1.758293525059220883e+02,-2.016384636702237003e+02,-2.922576345514721652e+02,-4.858335431914838409e+01,-1.150377504794259949e+02,9.446745872497558594e+00,-6.119350194931030273e-01,1.529837548732757568e-01,4.000000000000000000e+02
-4.970737097152300521e+02,-3.192952570957772878e+02,-8.751851709075754115e+01,-1.729327552769650538e+02,-1.956466253843909726e+02,-2.880650103826833401e+02,-4.433358984250116919e+01,-1.099147750554448066e+02,9.446745872497558594e+00,-6.119350194931030273e-01,1.529837548732757568e-01,4.010000000000000000e+02
-4.895957641311624684e+02,-3.162984740864590094e+02,-8.296932508973213771e+01,-1.695113692743993852e+02,-1.899588716954585834e+02,-2.838876364256630040e+02,-3.914113589403314108e+01,-1.050936614413244570e+02,9.446745872497558594e+00,-6.119350194931030273e-01,1.529837548732757568e-01,4.020000000000000000e+02
-4.834853581864213083e+02,-3.131336768979194858e+02,-8.056609651727239907e+01,-1.667208884806036622e+02,-1.863764226595862965e+02,-2.806598381906455870e+02,-3.585558987903732486e+01,-1.029901421749827932e+02,9.446745872497558594e+00,-6.119350194931030273e-01,1.529837548732757568e-01,4.030000000000000000e+02
-4.790758025671966607e+02,-3.109147724824956640e+02,-8.098243832619073146e+01,-1.655078253028814288e+02,-1.855875707464106199e+02,-2.791077569996500642e+02,-3.629772515491731610e+01,-1.041567948035244626e+02,9.446745872497558594e+00,-6.119350194931030273e-01,1.529837548732757568e-01,4.040000000000000000e+02
-4.759098659241094538e+02,-3.099620382365287696e+02,-8.317263026831051320e+01,-1.658349832447570407e+02,-1.867694340816733529e+02,-2.791033899900789947e+02,-3.996462744955670132e+01,-1.069124595364369270e+02,9.446745872497558594e+00,-6.119350194931030273e-01,1.529837548732757568e-01,4.050000000000000000e+02
-4.730197326814395637e+02,-3.095672340692763100e+02,-8.532856440847126578e+01,-1.667077436393224161e+02,-1.880990019011164804e+02,-2.796047769089132089e+02,-4.430830034576456455e+01,-1.086286161809625810e+02,9.446745872497558594e+00,-6.119350194931030273e-01,1.529837548732757568e-01,4.060000000000000000e+02
-4.695097935426456388e+02,-3.086515141032091378e+02,-8.616478897745128052e+01,-1.668948646419767101e+02,-1.877967384668781960e+02,-2.792947319794566283e+02,-4.641267744766446413e+01,-1.075753429668111494e+02,9.446745872497558594e+00,-6.119350194931030273e-01,1.529837548732757568e-01,4.070000000000000000e+02
-4.650734636665197286e+02,-3.066825961140916661e+02,-8.553848146085420012e+01,-1.657131591403071980e+02,-1.850916809518403170e+02,-2.774443616724224739e+02,-4.487581031055879066e+01,-1.039434782212092614e+02,9.446745872497558594e+00,-6.119350194931030273e-01,1.529837548732757568e-01,4.080000000000000000e+02
-4.600471112735613133e+02,-3.040254296044568036e+02,-8.413053471523426197e+01,-1.633195091954498821e+02,-1.806200894532580605e+02,-2.743389941597238249e+02,-4.057408200751933691e+01,-9.945484011257394741e+01,9.446745872497558594e+00,-6.119350194931030273e-01,1.529837548732757568e-01,4.090000000000000000e+02
-4.549187497927787263e+02,-3.014624072585311296e+02,-8.266425906832864712e+01,-1.604389607907783102e+02,-1.760578203859845416e+02,-2.709614289421742797e+02,-3.583899753785908615e+01,-9.604105043894332994e+01,9.446745872497558594e+00,-6.119350194931030273e-01,1.529837548732757568e-01,4.100000000000000000e+02
-4.496822325308999098e+02,-2.993751242752305188e+02,-8.131836171217582887e+01,-1.578464133981933628e+02,-1.731270716861013170e+02,-2.682149639953850055e+02,-3.274711776776439365e+01,-9.460459039564011618e+01,9.446745872497558594e+00,-6.119350194931030273e-01,1.529837548732757568e-01,4.110000000000000000e+02
-4.436660952765537331e+02,-2.973620182051181473e+02,-7.967918922641820245e+01,-1.559562423899642454e+02,-1.725014486063200820e+02,-2.662937823557317643e+02,-3.182312864591858670e+01,-9.463035383240958254e+01,9.446745872497558594e+00,-6.119350194931030273e-01,1.529837548732757568e-01,4.120000000000000000e+02
-4.361215403757732929e+02,-2.946332976489338762e+02,-7.719353030048159781e+01,-1.547045682358148042e+02,-1.733404661675599527e+02,-2.646643398500641524e+02,-3.205933679575900896e+01,-9.476673714792786996e+01,9.446745872497558594e+00,-6.119350194931030273e-01,1.529837548732757568e-01,4.130000000000000000e+02
-4.271410854081555044e+02,-2.907851515362681312e+02,-7.376710524346390230e+01,-1.536914357615773952e+02,-1.738696123306076515e+02,-2.625988942042899907e+02,-3.204985423763582730e+01,-9.386797073565321625e+01,9.446745872497558594e+00,-6.119350194931030273e-01,1.529837548732757568e-01,4.140000000000000000e+02
-4.180371992600280464e+02,-2.862032055780359769e+02,-7.004343416823940061e+01,-1.524381718011491103e+02,-1.726475174838205930e+02,-2.597552597767985390e+02,-3.116261357703615431e+01,-9.173061808502870917e+01,9.446745872497558594e+00,-6.119350194931030273e-01,1.529837548732757568e-01,4.150000000000000000e+02
-4.106732630746200812e+02,-2.817319266589106519e+02,-6.708533170825603520e+01,-1.506213320616652709e+02,-1.695728560884085709e+02,-2.563427870192690534e+02,-2.978662072373799674e+01,-8.904806648147086889e+01,9.484992027282714844e+00,-5.736890435218811035e-01,1.147378161549568176e-01,4.160000000000000000e+02
-4.061614117405770230e+02,-2.779656996173680454e+02,-6.560541931499983548e+01,-1.481947647653878448e+02,-1.658239658363559101e+02,-2.528423107878838891e+02,-2.862362966940509068e+01,-8.670818735495458895e+01,9.484992027282714844e+00,-5.736890435218811035e-01,1.147378161549568176e-01,4.170000000000000000e+02
-4.039866675217526790e+02,-2.748827442045658245e+02,-6.535886328106107612e+01,-1.453998633253904700e+02,-1.628234477727128251e+02,-2.496546802032225969e+02,-2.787939592128213917e+01,-8.506151887893383901e+01,9.484992027282714844e+00,-5.736890435218811035e-01,1.147378161549568176e-01,4.180000000000000000e+02
-4.023352823523637198e+02,-2.721449906045891112e+02,-6.528912247370453770e+01,-1.426849728315937682e+02,-1.611597108717942319e+02,-2.470111328792827408e+02,-2.718046928035937526e+01,-8.377413065205428211e+01,9.484992027282714844e+00,-5.736890435218811035e-01,1.147378161549568176e-01,4.190000000000000000e+02
-3.993931642532770638e+02,-2.696720196810556445e+02,-6.438971528664842481e+01,-1.405364571222867198e+02,-1.603695946414932223e+02,-2.450912857303228520e+02,-2.620355711166121182e+01,-8.232741056878467134e+01,9.484992027282714844e+00,-5.736890435218811035e-01,1.147378161549568176e-01,4.200000000000000000e+02
-3.945546456504075650e+02,-2.678106981349155831e+02,-6.253899856905536581e+01,-1.392345909830637538e+02,-1.596271111872979418e+02,-2.440074674308498288e+02,-2.522181624568793268e+01,-8.060612535285690683e+01,9.484992027282714844e+00,-5.736890435218811035e-01,1.147378161549568176e-01,4.210000000000000000e+02
-3.886007514653724684e+02,-2.668642925342451235e+02,-6.050118138181824179e+01,-1.386333806196298610e+02,-1.585482039031794557e+02,-2.435236269907336464e+02,-2.487309449170925291e+01,-7.894650817621868555e+01,9.484992027282714844e+00,-5.736890435218811035e-01,1.147378161549568176e-01,4.220000000000000000e+02
-3.828459886814889614e+02,-2.664877692768091038e+02,-5.909091329941020376e+01,-1.381658428326863941e+02,-1.573612199259064255e+02,-2.428691103918094996e+02,-2.537180541791121868e+01,-7.764037589810959616e+01,9.484992027282714844e+00,-5.736890435218811035e-01,1.147378161549568176e-01,4.230000000000000000e+02
-3.781045089264421222e+02,-2.656572955499837008e+02,-5.834991963830043460e+01,-1.371760813202454301e+02,-1.564417903575904347e+02,-2.410831790764268590e+02,-2.605466162632956184e+01,-7.651343872034522064e+01,9.484992027282714844e+00,-5.736890435218811035e-01,1.147378161549568176e-01,4.240000000000000000e+02
-3.743171669105863657e+02,-2.633556581017783174e+02,-5.758814234921055686e+01,-1.353837953886172727e+02,-1.558380598279845799e+02,-2.377937262555483358e+02,-2.583426811681056279e+01,-7.512565044268831116e+01,9.484992027282714844e+00,-5.736890435218811035e-01,1.147378161549568176e-01,4.250000000000000000e+02
-3.709479588436684026e+02,-2.593717829928887113e+02,-5.623070737348643888e+01,-1.330953379557681728e+02,-1.552923086621135553e+02,-2.337347851236636416e+02,-2.417375343197454640e+01,-7.341802338775414682e+01,9.484992027282714844e+00,-5.736890435218811035e-01,1.147378161549568176e-01,4.260000000000000000e+02
-3.675808231091227753e+02,-2.545009417091537216e+02,-5.453592395043415308e+01,-1.309545118558353352e+02,-1.546289494723991993e+02,-2.303695383092695010e+02,-2.161917949742837664e+01,-7.204294441771571655e+01,9.484992027282714844e+00,-5.736890435218811035e-01,1.147378161549568176e-01,4.270000000000000000e+02
-3.641372451578267828e+02,-2.500177070367008128e+02,-5.337105023645199253e+01,-1.294582882073682413e+02,-1.539573567611651015e+02,-2.288074487403514468e+02,-1.934839179881100790e+01,-7.185984202733288839e+01,9.484992027282714844e+00,-5.736890435218811035e-01,1.147378161549568176e-01,4.280000000000000000e+02
-3.606724686024917901e+02,-2.469277042060848544e+02,-5.323344235640024635e+01,-1.286877675941323105e+02,-1.534091524779810243e+02,-2.289352956056072799e+02,-1.816278852618370365e+01,-7.297961661646331777e+01,9.484992027282714844e+00,-5.736890435218811035e-01,1.147378161549568176e-01,4.290000000000000000e+02
-3.571389364573046805e+02,-2.455895492579920756e+02,-5.356535607453042758e+01,-1.284667993770590328e+02,-1.527518449230701663e+02,-2.295498040148313521e+02,-1.789619799065167172e+01,-7.436535150861982402e+01,9.484992027282714844e+00,-5.736890435218811035e-01,1.147378161549568176e-01,4.300000000000000000e+02
-3.534116766191527859e+02,-2.458206558357869653e+02,-5.315710473220042331e+01,-1.286759235793151674e+02,-1.514171709102561181e+02,-2.293399261939071039e+02,-1.776721482162975008e+01,-7.456040412222409941e+01,9.484992027282714844e+00,-5.736890435218811035e-01,1.147378161549568176e-01,4.310000000000000000e+02
-3.494636853582037475e+02,-2.471416490385668112e+02,-5.131313208820665750e+01,-1.292814187253975433e+02,-1.490322426218376677e+02,-2.277892027431007591e+02,-1.726439618964559486e+01,-7.299174190779604032e+01,9.484992027282714844e+00,-5.736890435218811035e-01,1.147378161549568176e-01,4.320000000000000000e+02
-3.454286142781957096e+02,-2.489096634252600779e+02,-4.865539907514357765e+01,-1.300625043982136049e+02,-1.459808951935347068e+02,-2.252815586880433329e+02,-1.671875071690965342e+01,-7.065826941656814597e+01,9.484992027282714844e+00,-5.736890435218811035e-01,1.147378161549568176e-01,4.330000000000000000e+02
-3.415080703203725534e+02,-2.504350922867124609e+02,-4.674937522038862880e+01,-1.304701009178402273e+02,-1.434111205268077356e+02,-2.225412217137968582e+02,-1.708152829591654154e+01,-6.950369885682130189e+01,9.484992027282714844e+00,-5.736890435218811035e-01,1.147378161549568176e-01,4.340000000000000000e+02
-3.378808467224871492e+02,-2.512428618955373167e+02,-4.684273302258998228e+01,-1.299475929784689470e+02,-1.425537250098177537e+02,-2.200844799969686392e+02,-1.915110288965388463e+01,-7.093435841787277241e+01,9.484992027282714844e+00,-5.736890435218811035e-01,1.147378161549568176e-01,4.350000000000000000e+02
-3.347007959890729580e+02,-2.513413964931291957e+02,-4.881723958358452364e+01,-1.284637532094152448e+02,-1.438282961528771011e+02,-2.181161301145830294e+02,-2.288447710612945230e+01,-7.469937683759417268e+01,9.484992027282714844e+00,-5.736890435218811035e-01,1.147378161549568176e-01,4.360000000000000000e+02
-3.320446059113701267e+02,-2.511552796093483266e+02,-5.123570026076822614e+01,-1.266318201310955374e+02,-1.464234813266211859e+02,-2.166931661691801310e+02,-2.725559911289064985e+01,-7.901368294584926844e+01,9.484992027282714844e+00,-5.736890435218811035e-01,1.147378161549568176e-01,4.370000000000000000e+02
-3.296619797273187942e+02,-2.510263258650661555e+02,-5.236698086812020847e+01,-1.251425047560637722e+02,-1.486580171128107395e+02,-2.157467116378466017e+02,-3.067154310028490727e+01,-8.171891097570187412e+01,9.484992027282714844e+00,-5.736890435218811035e-01,1.147378161549568176e-01,4.380000000000000000e+02
-3.267156662051866078e+02,-2.506918708436633096e+02,-5.126135832420141014e+01,-1.239994099830128107e+02,-1.488465374222932951e+02,-2.149028750133206813e+02,-3.164412123277998035e+01,-8.150749556746313829e+01,9.484992027282714844e+00,-5.736890435218811035e-01,1.147378161549568176e-01,4.390000000000000000e+02
-3.219702734590391628e+02,-2.493197066877610268e+02,-4.807008188592635634e+01,-1.223820266365851239e+02,-1.461201947970862420e+02,-2.134517372619889102e+02,-2.941302863371402054e+01,-7.840619896424277613e+01,9.484992027282714844e+00,-5.736890435218811035e-01,1.147378161549568176e-01,4.400000000000000000e+02
-3.145943367230456715e+02,-2.461810190291762410e+02,-4.358196276092212429e+01,-1.193891829923163641e+02,-1.407748152104550172e+02,-2.107060642754090622e+02,-2.430424597885667026e+01,-7.344323842910353051e+01,9.484992027282714844e+00,-5.736890435218811035e-01,1.147378161549568176e-01,4.410000000000000000e+02
-3.050447368158629615e+02,-2.413774277927996081e+02,-3.861303688755742769e+01,-1.150140680070976487e+02,-1.340796741744943574e+02,-2.065238807265973264e+02,-1.768081717981658585e+01,-6.799662930844988296e+01,9.484992027282714844e+00,-5.736890435218811035e-01,1.147378161549568176e-01,4.420000000000000000e+02
-2.951834604163141194e+02,-2.359393063568722937e+02,-3.383294408273241061e+01,-1.104380376476369747e+02,-1.277650702469886710e+02,-2.015311243467076565e+02,-1.146515428000157044e+01,-6.330820970312515783e+01,9.408499717712402344e+00,-6.501809358596801758e-01,1.529837548732757568e-01,4.430000000000000000e+02
-2.873145371838750179e+02,-2.311891205732276831e+02,-2.998554094732844533e+01,-1.073380256523528260e+02,-1.234153983465939746e+02,-1.968111820089534376e+02,-7.383867593257491535e+00,-6.025079376498570127e+01,9.408499717712402344e+00,-6.501809358596801758e-01,1.529837548732757568e-01,4.440000000000000000e+02
-2.827759861022404948e+02,-2.279228689827505150e+02,-2.798828333633900911e+01,-1.067862136007015579e+02,-1.219320626973708386e+02,-1.933004690534894507e+02,-6.271901571272337605e+00,-5.919228427994130470e+01,9.408499717712402344e+00,-6.501809358596801758e-01,1.529837548732757568e-01,4.450000000000000000e+02
-2.811722652280568582e+02,-2.260543864862388546e+02,-2.854050191582064144e+01,-1.086040250478181406e+02,-1.232169765609451133e+02,-1.913287674290841096e+02,-7.788709186696905817e+00,-5.989636227700475501e+01,9.408499717712402344e+00,-6.501809358596801758e-01,1.529837548732757568e-01,4.460000000000000000e+02
-2.808052829782300250e+02,-2.248822561641441098e+02,-3.149677879028604366e+01,-1.115584433143417300e+02,-1.262380265260671877e+02,-1.905536568537345374e+02,-1.068338049975363901e+01,-6.159689972040177963e+01,9.408499717712402344e+00,-6.501809358596801758e-01,1.529837548732757568e-01,4.470000000000000000e+02
-2.798219691046415392e+02,-2.236324533544325277e+02,-3.564875206302713195e+01,-1.141109349576004206e+02,-1.295134617357166462e+02,-1.902429444847457489e+02,-1.342528872503316961e+01,-6.334968660146660113e+01,9.408499717712402344e+00,-6.501809358596801758e-01,1.529837548732757568e-01,4.480000000000000000e+02
-2.771147423075640290e+02,-2.218638615390054838e+02,-3.925425670728964178e+01,-1.151363446902291798e+02,-1.317967688166349944e+02,-1.896871413575677252e+02,-1.482320065210933535e+01,-6.451092396732337875e+01,9.408499717712402344e+00,-6.501809358596801758e-01,1.529837548732757568e-01,4.490000000000000000e+02
-2.724616865962702832e+02,-2.196153701465318591e+02,-4.098598346091330313e+01,-1.142797763013245458e+02,-1.325652193436390007e+02,-1.885307720050068383e+02,-1.435175782349733709e+01,-6.502191314378023890e+01,9.408499717712402344e+00,-6.501809358596801758e-01,1.529837548732757568e-01,4.500000000000000000e+02
-2.661898772644335622e+02,-2.173694733826418997e+02,-4.057973779452095187e+01,-1.119625613865910054e+02,-1.320143734093667263e+02,-1.868765961523722581e+02,-1.215480985114481882e+01,-6.529054301517771819e+01,9.408499717712402344e+00,-6.501809358596801758e-01,1.529837548732757568e-01,4.510000000000000000e+02
-2.589270691641977464e+02,-2.158538831393234432e+02,-3.874936242493868122e+01,-1.091542179416235285e+02,-1.306469603936943713e+02,-1.851132587397023599e+02,-8.882032159443951969e+00,-6.579775747240637429e+01,9.408499717712402344e+00,-6.501809358596801758e-01,1.529837548732757568e-01,4.520000000000000000e+02
-2.515811626046711353e+02,-2.156477121063558116e+02,-3.659118531916169559e+01,-1.069876113849793455e+02,-1.288728523135914656e+02,-1.836024433604052319e+02,-5.508606150653122313e+00,-6.677627858312825992e+01,9.408499717712402344e+00,-6.501809358596801758e-01,1.529837548732757568e-01,4.530000000000000000e+02
-2.452383487880069879e+02,-2.167387199024992697e+02,-3.501640944250266330e+01,-1.062880679177471848e+02,-1.269498747241095771e+02,-1.824673029405844318e+02,-3.111835357866766572e+00,-6.818384007839313199e+01,9.408499717712402344e+00,-6.501809358596801758e-01,1.529837548732757568e-01,4.540000000000000000e+02
-2.407446975800257860e+02,-2.184088068634796400e+02,-3.453330172380515251e+01,-1.071966611390505477e+02,-1.251857479938225879e+02,-1.816345626297425042e+02,-2.522012938789430336e+00,-6.988675757262171828e+01,9.408499717712402344e+00,-6.501809358596801758e-01,1.529837548732757568e-01,4.550000000000000000e+02
-2.382130084432706099e+02,-2.196913940481015288e+02,-3.526423025341455286e+01,-1.091031101622193091e+02,-1.240305993290589868e+02,-1.810183803670629459e+02,-3.899419518204013002e+00,-7.178444973248269889e+01,9.408499717712402344e+00,-6.501809358596801758e-01,1.529837548732757568e-01,4.560000000000000000e+02
-2.369524811785222482e+02,-2.201233840479023911e+02,-3.697492380374364984e+01,-1.109656963026022822e+02,-1.238401100157248038e+02,-1.805860716192432847e+02,-6.512185194468656846e+00,-7.373348227948918066e+01,9.408499717712402344e+00,-6.501809358596801758e-01,1.529837548732757568e-01,4.570000000000000000e+02
-2.359371221666960992e+02,-2.201273383413392821e+02,-3.911314076131384354e+01,-1.118634599414181139e+02,-1.245152022814304473e+02,-1.802249978163436026e+02,-8.994827197165705002e+00,-7.540497035484986554e+01,9.408499717712402344e+00,-6.501809358596801758e-01,1.529837548732757568e-01,4.580000000000000000e+02
-2.343769761342150559e+02,-2.206035156593914053e+02,-4.100926280948056046e+01,-1.114569836484131429e+02,-1.254319751872576489e+02,-1.796259343624647045e+02,-1.004001877564178358e+01,-7.632197690969269388e+01,9.408499717712402344e+00,-6.501809358596801758e-01,1.529837548732757568e-01,4.590000000000000000e+02
-2.318854133334220933e+02,-2.220554799403903417e+02,-4.221609410433393350e+01,-1.100939359696562860e+02,-1.258111643266859119e+02,-1.784373714560665576e+02,-9.080764068754433538e+00,-7.614007883713270530e+01,9.408499717712402344e+00,-6.501809358596801758e-01,1.529837548732757568e-01,4.600000000000000000e+02
-2.282467719317910451e+02,-2.240986642572829624e+02,-4.268556286260309207e+01,-1.085091416065893100e+02,-1.252273930189778639e+02,-1.766276106015720870e+02,-6.492249685934666559e+00,-7.496224566163414238e+01,9.408499717712402344e+00,-6.501809358596801758e-01,1.529837548732757568e-01,4.610000000000000000e+02
-2.232870646180035692e+02,-2.258887670160738708e+02,-4.258214043075372501e+01,-1.073383451427243926e+02,-1.238198146112454197e+02,-1.746676566806991104e+02,-3.236503696932913954e+00,-7.340688621485355725e+01,9.408499717712402344e+00,-6.501809358596801758e-01,1.529837548732757568e-01,4.620000000000000000e+02
-2.171531581096478476e+02,-2.270834963379954843e+02,-4.194468684239495815e+01,-1.067772631300972535e+02,-1.220760173335352192e+02,-1.732517247939472327e+02,-3.227552179148460709e-01,-7.231551323386202057e+01,9.408499717712402344e+00,-6.501809358596801758e-01,1.529837548732757568e-01,4.630000000000000000e+02
-2.106676613521333365e+02,-2.283529626104493673e+02,-4.063842670852272931e+01,-1.065890584340713758e+02,-1.204490678680701876e+02,-1.727263855069822966e+02,1.510500567324925214e+00,-7.228161879545859847e+01,9.408499717712402344e+00,-6.501809358596801758e-01,1.529837548732757568e-01,4.640000000000000000e+02
-2.051492725176597105e+02,-2.308376352302902887e+02,-3.872024089453657325e+01,-1.063929920958730690e+02,-1.191229804960839829e+02,-1.727435817776324711e+02,1.851513798133964883e+00,-7.331129185857321318e+01,9.408499717712402344e+00,-6.501809358596801758e-01,1.529837548732757568e-01,4.650000000000000000e+02
-2.015885776981178878e+02,-2.349888411483536856e+02,-3.678433505908196821e+01,-1.059584099437636269e+02,-1.180053160207503424e+02,-1.724776242736636505e+02,6.766580416078795679e-01,-7.480670457392420758e+01,9.408499717712402344e+00,-6.501809358596801758e-01,1.529837548732757568e-01,4.660000000000000000e+02
-1.998537312380717594e+02,-2.398923746717614449e+02,-3.573472137794988157e+01,-1.052534074587674695e+02,-1.168173082145128774e+02,-1.712093382844602729e+02,-1.443095653401996969e+00,-7.584858516435406273e+01,9.408499717712402344e+00,-6.501809358596801758e-01,1.529837548732757568e-01,4.670000000000000000e+02
-1.987412656548576706e+02,-2.437878708942475896e+02,-3.603620280118184382e+01,-1.042815724825584311e+02,-1.152016816989437302e+02,-1.687793961636759832e+02,-3.282807557065552828e+00,-7.562879651374623791e+01,9.408499717712402344e+00,-6.501809358596801758e-01,1.529837548732757568e-01,4.680000000000000000e+02
-1.969333850114703637e+02,-2.453929747627673805e+02,-3.716959813932612633e+01,-1.029484175058257733e+02,-1.129156837294865454e+02,-1.655909628457156941e+02,-3.446524965434718979e+00,-7.385709766445120295e+01,9.408499717712402344e+00,-6.501809358596801758e-01,1.529837548732757568e-01,4.690000000000000000e+02
-1.939959053982067871e+02,-2.448925083472472579e+02,-3.796703231190190309e+01,-1.011401408461651954e+02,-1.101089560807026828e+02,-1.622725984497853915e+02,-1.291690758649792770e+00,-7.096850607568467240e+01,9.408499717712402344e+00,-6.501809358596801758e-01,1.529837548732757568e-01,4.700000000000000000e+02
-1.904623073539046345e+02,-2.437648187617332951e+02,-3.764458734342542812e+01,-9.893339036006523202e+01,-1.074400474189869783e+02,-1.593464389417138136e+02,2.407684840611636901e+00,-6.798801458429170452e+01,9.408499717712402344e+00,-6.501809358596801758e-01,1.529837548732757568e-01,4.710000000000000000e+02
-1.869693521685753694e+02,-2.436474839751381296e+02,-3.656733620708632770e+01,-9.666404993433206982e+01,-1.057575384206436411e+02,-1.571001598356442628e+02,5.775685641251584457e+00,-6.603214534068592911e+01,9.408499717712402344e+00,-6.501809358596801758e-01,1.529837548732757568e-01,4.720000000000000000e+02
-1.834087812815705547e+02,-2.452348642804795418e+02,-3.595982782876239980e+01,-9.472448461998237690e+01,-1.054525608547453430e+02,-1.556015501410743127e+02,7.068444592393689163e+00,-6.566369209432787102e+01,9.408499717712402344e+00,-6.501809358596801758e-01,1.529837548732757568e-01,4.730000000000000000e+02
-1.790764101335576015e+02,-2.480292408012156784e+02,-3.676940097041381250e+01,-9.325748043778196461e+01,-1.060208017011184438e+02,-1.547054612122333310e+02,5.914313279705993409e+00,-6.649931370767421868e+01,9.484992027282714844e+00,-6.119350194931030273e-01,1.529837548732757568e-01,4.740000000000000000e+02
-1.737406235545877280e+02,-2.509532675634470706e+02,-3.873732509748970188e+01,-9.205697758812652864e+01,-1.063208198051402178e+02,-1.540467074114019397e+02,3.549733640170074978e+00,-6.739189415645273584e+01,9.484992027282714844e+00,-6.119350194931030273e-01,1.529837548732757568e-01,4.750000000000000000e+02
-1.685169880312437272e+02,-2.531884742266138346e+02,-4.056228354769427824e+01,-9.081035043772681092e+01,-1.054181163396477814e+02,-1.531367206540696770e+02,1.857490376238501995e+00,-6.714759787210061859e+01,9.484992027282714844e+00,-6.119350194931030273e-01,1.529837548732757568e-01,4.760000000000000000e+02
-1.654833436296969467e+02,-2.546238756620793993e+02,-4.101240190972544042e+01,-8.947501193027642330e+01,-1.033104029152661951e+02,-1.516202924463982527e+02,1.999717216148724219e+00,-6.532752380059844199e+01,9.484992027282714844e+00,-6.119350194931030273e-01,1.529837548732757568e-01,4.770000000000000000e+02
-1.661383791373348231e+02,-2.557943066810912569e+02,-3.998187279077467338e+01,-8.845667096998568013e+01,-1.009071753751310325e+02,-1.495810800685820823e+02,3.691674323463189467e+00,-6.258396837067414253e+01,9.484992027282714844e+00,-6.119350194931030273e-01,1.529837548732757568e-01,4.780000000000000000e+02
-1.699941400881511981e+02,-2.575323985349525628e+02,-3.857547163613321572e+01,-8.841105055254365652e+01,-9.931111911972664075e+01,-1.476503937134707485e+02,5.570777692379806467e+00,-6.029580726543895253e+01,9.484992027282714844e+00,-6.119350194931030273e-01,1.529837548732757568e-01,4.790000000000000000e+02
-1.746057066942064466e+02,-2.605275481437780627e+02,-3.821002667631182703e+01,-8.979256013759999178e+01,-9.909376994293313601e+01,-1.467487684314573926e+02,6.229623484886360529e+00,-5.976724662810102018e+01,9.484992027282714844e+00,-6.119350194931030273e-01,1.529837548732757568e-01,4.800000000000000000e+02
-1.771446769053226262e+02,-2.648817281706759559e+02,-3.954560222057091323e+01,-9.246258949948730788e+01,-1.001837958210397801e+02,-1.475416121300202121e+02,5.095900348387601753e+00,-6.152026385288428401e+01,9.484992027282714844e+00,-6.119350194931030273e-01,1.529837548732757568e-01,4.810000000000000000e+02
-1.762902738327045427e+02,-2.698238506823250873e+02,-4.210644064161306233e+01,-9.562731670972164011e+01,-1.022888772926152114e+02,-1.499286821461452064e+02,2.642034689770639488e+00,-6.508056703063220993e+01,9.484992027282714844e+00,-6.119350194931030273e-01,1.529837548732757568e-01,4.820000000000000000e+02
-1.729554871673894922e+02,-2.739035443880381990e+02,-4.480270345763653950e+01,-9.818721640029883702e+01,-1.052483704510620157e+02,-1.529633716371300807e+02,-4.950173603901930619e-02,-6.928957980908151626e+01,9.484992027282714844e+00,-6.119350194931030273e-01,1.529837548732757568e-01,4.830000000000000000e+02
-1.693651949049666996e+02,-2.758003944035518771e+02,-4.680899615597664365e+01,-9.931122809606259239e+01,-1.088753519931713356e+02,-1.553281055884507111e+02,-1.961021994376153543e+00,-7.286397143020386125e+01,9.484992027282714844e+00,-6.119350194931030273e-01,1.529837548732757568e-01,4.840000000000000000e+02
-1.673331683553440712e+02,-2.753244916943375529e+02,-4.806678467722931458e+01,-9.888836485504853613e+01,-1.125152440965161702e+02,-1.560812629263288613e+02,-2.648551194987319946e+00,-7.489220363029924954e+01,9.484992027282714844e+00,-6.119350194931030273e-01,1.529837548732757568e-01,4.850000000000000000e+02
-1.671244052416788577e+02,-2.737955039610516792e+02,-4.909495769351832450e+01,-9.756206487365500379e+01,-1.149724839038118489e+02,-1.551573262397284054e+02,-2.386215047517666221e+00,-7.511054532049591614e+01,9.484992027282714844e+00,-6.119350194931030273e-01,1.529837548732757568e-01,4.860000000000000000e+02
-1.676503881986835722e+02,-2.733084264447465443e+02,-5.039191976349866309e+01,-9.630155334241823084e+01,-1.151274982235389928e+02,-1.532707101503911815e+02,-1.956683776183496093e+00,-7.393794770381492754e+01,9.484992027282714844e+00,-6.119350194931030273e-01,1.529837548732757568e-01,4.870000000000000000e+02
-1.675725156958741309e+02,-2.752877860075107037e+02,-5.197417523531834149e+01,-9.579421492342464717e+01,-1.128062766411094913e+02,-1.513384329157137245e+02,-2.214280724101854503e+00,-7.227001425987481298e+01,9.484992027282714844e+00,-6.119350194931030273e-01,1.529837548732757568e-01,4.880000000000000000e+02
-1.662843435069992211e+02,-2.794275019550812544e+02,-5.338432181819985090e+01,-9.607426009067341965e+01,-1.090890454490928505e+02,-1.498897624321202784e+02,-3.611343051433095752e+00,-7.105689880149429882e+01,9.484992027282714844e+00,-6.119350194931030273e-01,1.529837548732757568e-01,4.890000000000000000e+02
-1.640670980397810581e+02,-2.839033999929361016e+02,-5.407770927792307702e+01,-9.660848036855134069e+01,-1.056852681758620065e+02,-1.488754061844260832e+02,-5.916746302108322197e+00,-7.082206522033584406e+01,9.484992027282714844e+00,-6.119350194931030273e-01,1.529837548732757568e-01,4.900000000000000000e+02
-1.615469088601616932e+02,-2.867150452260070779e+02,-5.382039863735849394e+01,-9.671453812359152380e+01,-1.038258928902639582e+02,-1.479078699377395196e+02,-8.294800296164567044e+00,-7.139300108359850583e+01,9.484992027282714844e+00,-6.119350194931030273e-01,1.529837548732757568e-01,4.910000000000000000e+02
-1.591026843879968737e+02,-2.870727003507549853e+02,-5.280028629623780034e+01,-9.597439351101536431e+01,-1.035501591926979472e+02,-1.466355294507662848e+02,-9.737871561350175398e+00,-7.205418207425020682e+01,9.484992027282714844e+00,-6.119350194931030273e-01,1.529837548732757568e-01,4.920000000000000000e+02
-1.567257557693526451e+02,-2.857709306738682926e+02,-5.144321687913293317e+01,-9.441168846976233908e+01,-1.039093527526027856e+02,-1.449792607194749507e+02,-9.641289859267658358e+00,-7.205940511209701071e+01,9.484992027282714844e+00,-6.119350194931030273e-01,1.529837548732757568e-01,4.930000000000000000e+02
-1.542767187020554047e+02,-2.843515243558240400e+02,-5.010982579346591592e+01,-9.241717385709011978e+01,-1.037840766361955502e+02,-1.431485180133377071e+02,-8.158220368092770514e+00,-7.111967865566612090e+01,9.484992027282714844e+00,-6.119350194931030273e-01,1.529837548732757568e-01,4.940000000000000000e+02
-1.517298527758507589e+02,-2.838296796000515769e+02,-4.888076276064293779e+01,-9.053658701297831612e+01,-1.025895543039423501e+02,-1.415124195714763573e+02,-6.068633893061360141e+00,-6.949410016545152757e+01,9.446745872497558594e+00,-5.736890435218811035e-01,1.147378161549568176e-01,4.950000000000000000e+02
-1.491545751410599223e+02,-2.840277539666162738e+02,-4.756649125283342983e+01,-8.923187375878296734e+01,-1.004366423156186556e+02,-1.404114274719338482e+02,-4.239826310111084240e+00,-6.767099614294784260e+01,9.446745872497558594e+00,-5.736890435218811035e-01,1.147378161549568176e-01,4.960000000000000000e+02
-1.465711648431245067e+02,-2.839564850179049245e+02,-4.595361901869296162e+01,-8.868221993773067879e+01,-9.788197403220533488e+01,-1.399648341183283264e+02,-3.078003791018090851e+00,-6.599198184315878279e+01,9.446745872497558594e+00,-5.736890435218811035e-01,1.147378161549568176e-01,4.970000000000000000e+02
-1.439576258651613898e+02,-2.828071874155600653e+02,-4.415269065194183895e+01,-8.871749554187795184e+01,-9.565650997494230978e+01,-1.399813070441491618e+02,-2.401747800660359644e+00,-6.457276535964615505e+01,9.446745872497558594e+00,-5.736890435218811035e-01,1.147378161549568176e-01,4.980000000000000000e+02
-1.414333054532764891e+02,-2.806609157346933898e+02,-4.274890255701575370e+01,-8.893731989563434581e+01,-9.447116451790611791e+01,-1.400670778615376548e+02,-1.774228385525702834e+00,-6.347103246871483861e+01,9.446745872497558594e+00,-5.736890435218811035e-01,1.147378161549568176e-01,4.990000000000000000e+02
-1.393256021041306667e+02,-2.783151684095723795e+02,-4.249630066621239166e+01,-8.893249640358089891e+01,-9.470821196874931047e+01,-1.398857460081958379e+02,-9.161157332487164240e-01,-6.274479618961959204e+01,9.446745872497558594e+00,-5.736890435218811035e-01,1.147378161549568176e-01,5.000000000000000000e+02
-1.378788323692269842e+02,-2.764299059644085901e+02,-4.362943406334852625e+01,-8.842780091166855527e+01,-9.596708284738861039e+01,-1.393472705316276006e+02,2.100490902535057103e-01,-6.221102545773919701e+01,9.446745872497558594e+00,-5.736890435218811035e-01,1.147378161549568176e-01,5.010000000000000000e+02
-1.368088333512810095e+02,-2.748269653198385640e+02,-4.531385219456751656e+01,-8.725375988894211332e+01,-9.689154920591045084e+01,-1.385369580332717305e+02,1.646151792971977557e+00,-6.119426284651126480e+01,9.446745872497558594e+00,-5.736890435218811035e-01,1.147378161549568176e-01,5.020000000000000000e+02
-1.352284325207037909e+02,-2.726739509261196872e+02,-4.587512228811556270e+01,-8.528922332275305962e+01,-9.576696095715487900e+01,-1.374964307475038368e+02,3.591201120329515106e+00,-5.876131460305123255e+01,9.446745872497558594e+00,-5.736890435218811035e-01,1.147378161549568176e-01,5.030000000000000000e+02
-1.322298241510138723e+02,-2.694649451908371702e+02,-4.388513253909923151e+01,-8.257425342895749054e+01,-9.172723837953299153e+01,-1.361616434353409204e+02,6.137648250376969372e+00,-5.450850596983445939e+01,9.446745872497558594e+00,-5.736890435218811035e-01,1.147378161549568176e-01,5.040000000000000000e+02
-1.277448787004632322e+02,-2.658736026414167100e+02,-3.934280071932289502e+01,-7.954921348133166248e+01,-8.565248190256625094e+01,-1.345826649492164506e+02,8.819913256779273070e+00,-4.926541544350675395e+01,9.446745872497558594e+00,-5.736890435218811035e-01,1.147378161549568176e-01,5.050000000000000000e+02
-1.228584616379794170e+02,-2.635231689923280101e+02,-3.390772255073125052e+01,-7.708462431348561950e+01,-7.983947444561681550e+01,-1.331651507905644394e+02,1.057978703028720702e+01,-4.491639959670919779e+01,9.446745872497558594e+00,-5.736890435218811035e-01,1.147378161549568176e-01,5.060000000000000000e+02
-1.191250786261252870e+02,-2.636721682201537078e+02,-2.984831840118886248e+01,-7.605018773459414660e+01,-7.652344486527999834e+01,-1.325546602768813500e+02,1.042906426220542926e+01,-4.324798207829553576e+01,9.446745872497558594e+00,-5.736890435218811035e-01,1.147378161549568176e-01,5.070000000000000000e+02
-1.173528116318393586e+02,-2.659258897549811991e+02,-2.849525463037753070e+01,-7.666127991782832396e+01,-7.640571078007587857e+01,-1.331463417441209458e+02,8.320977897960801783e+00,-4.467616655679785254e+01,9.446745872497558594e+00,-5.736890435218811035e-01,1.147378161549568176e-01,5.080000000000000000e+02
-1.169363660934277505e+02,-2.682712825707030788e+02,-2.946508966285909992e+01,-7.819221446033543543e+01,-7.837861525720381906e+01,-1.346555381738444339e+02,5.368660999557505420e+00,-4.792970437558324193e+01,9.446745872497558594e+00,-5.736890435218811035e-01,1.147378161549568176e-01,5.090000000000000000e+02
-1.164281372465102322e+02,-2.686205599327272466e+02,-3.123653187738727866e+01,-7.943114305503468131e+01,-8.057703453133717630e+01,-1.362101182675787641e+02,3.062122211425048590e+00,-5.097200345496366936e+01,9.446745872497558594e+00,-5.736890435218811035e-01,1.147378161549568176e-01,5.100000000000000000e+02
-1.148725625079041492e+02,-2.665940095653440949e+02,-3.246846661489507824e+01,-7.956580812348738618e+01,-8.174349945408812346e+01,-1.369321872160453495e+02,2.102908323699011817e+00,-5.238585828441910053e+01,9.446745872497558594e+00,-5.736890435218811035e-01,1.147378161549568176e-01,5.110000000000000000e+02
-1.126410284383700855e+02,-2.639047405980081749e+02,-3.286306749153618512e+01,-7.872662010635212937e+01,-8.176038284578589810e+01,-1.364859672846014291e+02,1.924783716649471899e+00,-5.209473765387247113e+01,9.446745872497558594e+00,-5.736890435218811035e-01,1.147378161549568176e-01,5.120000000000000000e+02
-1.109288291710945487e+02,-2.628970162639866430e+02,-3.295792496116519033e+01,-7.771868954410138031e+01,-8.114736717759387830e+01,-1.351311409497093337e+02,1.364548941756765998e+00,-5.096834797519841231e+01,9.446745872497558594e+00,-5.736890435218811035e-01,1.147378161549568176e-01,5.130000000000000000e+02
-1.103804443828948934e+02,-2.644914896747659441e+02,-3.327277690386381437e+01,-7.722582290499076407e+01,-8.026822912724401249e+01,-1.333312211938155087e+02,-1.352656866174584138e-01,-4.986401595250936225e+01,9.446745872497558594e+00,-5.736890435218811035e-01,1.147378161549568176e-01,5.140000000000000000e+02
-1.102348213274008231e+02,-2.673607556666811433e+02,-3.371110581999164424e+01,-7.723149586068802819e+01,-7.904691378073948727e+01,-1.313694946671375874e+02,-1.911347606166600599e+00,-4.900850214721322118e+01,9.446745872497558594e+00,-5.736890435218811035e-01,1.147378161549568176e-01,5.150000000000000000e+02
-1.089173742645907623e+02,-2.690294293049819316e+02,-3.367488606107690430e+01,-7.712306079068457620e+01,-7.725407566848662100e+01,-1.293096652422236730e+02,-2.598877726213686401e+00,-4.811646406592080893e+01,9.446745872497558594e+00,-5.736890435218811035e-01,1.147378161549568176e-01,5.160000000000000000e+02
-1.055971283787466746e+02,-2.678620929728558622e+02,-3.262463747938272718e+01,-7.629080250807874108e+01,-7.486871414693723636e+01,-1.272138343742781217e+02,-1.292267917906428920e+00,-4.691238508374044613e+01,9.446745872497558594e+00,-5.736890435218811035e-01,1.147378161549568176e-01,5.170000000000000000e+02
-1.012114906071874429e+02,-2.641935462546834970e+02,-3.053584479303481203e+01,-7.466107719246519991e+01,-7.214320985852918966e+01,-1.252978838593226101e+02,1.670922889290523017e+00,-4.547722939494906313e+01,9.446745872497558594e+00,-5.736890435218811035e-01,1.147378161549568176e-01,5.180000000000000000e+02
-9.788605119565909263e+01,-2.597561576737452924e+02,-2.794662471088668099e+01,-7.275373079912969843e+01,-6.944229598266792891e+01,-1.238406613876850315e+02,4.937345118030862068e+00,-4.415221161973840935e+01,9.446745872497558594e+00,-5.736890435218811035e-01,1.147378161549568176e-01,5.190000000000000000e+02
-9.720193161425231665e+01,-2.561415743874986219e+02,-2.568483041198669525e+01,-7.132141056039927207e+01,-6.713970484910441883e+01,-1.229781424903812876e+02,7.106274713585662539e+00,-4.321740411791506631e+01,9.484992027282714844e+00,-5.736890435218811035e-01,7.649187743663787842e-02,5.200000000000000000e+02
-9.885436191780991066e+01,-2.537486486709922247e+02,-2.448180693452559353e+01,-7.088494651576274919e+01,-6.558478449523136078e+01,-1.226046805150363070e+02,7.624184814334512339e+00,-4.267278305648596870e+01,9.484992027282714844e+00,-5.736890435218811035e-01,7.649187743663787842e-02,5.210000000000000000e+02
-1.008875430824782597e+02,-2.519672045057050127e+02,-2.461934767630827992e+01,-7.143755912489905313e+01,-6.495159026796591206e+01,-1.224457357779456288e+02,6.973805400833043677e+00,-4.224656505177154031e+01,9.484992027282714844e+00,-5.736890435218811035e-01,7.649187743663787842e-02,5.220000000000000000e+02
-1.012318838132323435e+02,-2.501091552163716187e+02,-2.574340989048232586e+01,-7.243501435126381693e+01,-6.499469936462810438e+01,-1.222159485032661905e+02,6.147360001007655228e+00,-4.156142615299995668e+01,9.484992027282714844e+00,-5.736890435218811035e-01,7.649187743663787842e-02,5.230000000000000000e+02
-9.915416617589198722e+01,-2.480378607796828874e+02,-2.699620683885768813e+01,-7.305692791603723890e+01,-6.503044583512473764e+01,-1.217407081628298329e+02,5.918891955048820819e+00,-4.034393853058463719e+01,9.484992027282714844e+00,-5.736890435218811035e-01,7.649187743663787842e-02,5.240000000000000000e+02
-9.545609116089326562e+01,-2.459928088657925400e+02,-2.748727164338743023e+01,-7.262809290004406648e+01,-6.435808214313692588e+01,-1.209956731578204199e+02,6.450583186297990324e+00,-3.858547900437952194e+01,9.484992027282714844e+00,-5.736890435218811035e-01,7.649187743663787842e-02,5.250000000000000000e+02
-9.149664020579893986e+01,-2.440339367949591178e+02,-2.684033793520848121e+01,-7.099254198215567158e+01,-6.283865607623192773e+01,-1.200726478105916613e+02,7.391408412594500987e+00,-3.658138905362102378e+01,9.484992027282714844e+00,-5.736890435218811035e-01,7.649187743663787842e-02,5.260000000000000000e+02
-8.810467476827034261e+01,-2.418314468768230654e+02,-2.538655892107453838e+01,-6.858850439554316836e+01,-6.101784218704051455e+01,-1.190840685353505251e+02,8.254571141955239000e+00,-3.476689955293113599e+01,9.484992027282714844e+00,-5.736890435218811035e-01,7.649187743663787842e-02,5.270000000000000000e+02
-8.529574992009293055e+01,-2.390200368755704403e+02,-2.382207371003460139e+01,-6.613833260468709341e+01,-5.955924833142489661e+01,-1.180528888145545352e+02,8.749511147399061883e+00,-3.338137490854387579e+01,9.484992027282714844e+00,-5.736890435218811035e-01,7.649187743663787842e-02,5.280000000000000000e+02
-8.275152215501657338e+01,-2.356690918126196266e+02,-2.260974553767664474e+01,-6.414927418897423195e+01,-5.852519521443809936e+01,-1.168656499550652370e+02,8.898042052929667989e+00,-3.220009500597006991e+01,9.484992027282714844e+00,-5.736890435218811035e-01,7.649187743663787842e-02,5.290000000000000000e+02
-8.033278837406942330e+01,-2.323217129630647833e+02,-2.165326960251059063e+01,-6.259242082448508881e+01,-5.730781786952502443e+01,-1.153451300906435790e+02,8.957646142113844689e+00,-3.063187360927986447e+01,9.484992027282714844e+00,-5.736890435218811035e-01,7.649187743663787842e-02,5.300000000000000000e+02
-7.809079576669137168e+01,-2.295599951770209373e+02,-2.052792543493524136e+01,-6.101293304590763000e+01,-5.537115239385275345e+01,-1.133997580954182922e+02,9.252852416300811456e+00,-2.822627362998355238e+01,9.484992027282714844e+00,-5.736890435218811035e-01,7.649187743663787842e-02,5.310000000000000000e+02
-7.594192862727868487e+01,-2.275617280724472948e+02,-1.901635362504930526e+01,-5.897226612591748562e+01,-5.305216429385654919e+01,-1.111299671726137603e+02,9.990119313419199898e+00,-2.522783437982798205e+01,9.484992027282714844e+00,-5.736890435218811035e-01,7.649187743663787842e-02,5.320000000000000000e+02
-7.355267165868644952e+01,-2.260827898667830596e+02,-1.744284438539307303e+01,-5.648653226607166289e+01,-5.151363842395585380e+01,-1.088230243084908579e+02,1.108516272550150461e+01,-2.266492331717381603e+01,9.484992027282714844e+00,-5.736890435218811035e-01,7.649187743663787842e-02,5.330000000000000000e+02
-7.065577691849284747e+01,-2.248011657368169836e+02,-1.648713562286047818e+01,-5.413082489405314845e+01,-5.175272243291692575e+01,-1.068528204438825924e+02,1.211017501781680039e+01,-2.176726305235024483e+01,9.484992027282714844e+00,-5.736890435218811035e-01,7.649187743663787842e-02,5.340000000000000000e+02
-6.742650224179305951e+01,-2.236099426854780177e+02,-1.663295120614384359e+01,-5.271031690726158558e+01,-5.357652112987307191e+01,-1.055413758012982726e+02,1.249570780767862743e+01,-2.306834069405158516e+01,9.484992027282714844e+00,-5.736890435218811035e-01,7.649187743663787842e-02,5.350000000000000000e+02
-6.441078573149388831e+01,-2.225761196043276868e+02,-1.770113659841626941e+01,-5.269753103362745605e+01,-5.557901915636102785e+01,-1.050139609312991524e+02,1.196891036475608416e+01,-2.587882545074535301e+01,9.484992027282714844e+00,-5.736890435218811035e-01,7.649187743663787842e-02,5.360000000000000000e+02
-6.200322406814302667e+01,-2.217047924811049597e+02,-1.883461107966468262e+01,-5.382057446894032182e+01,-5.622279238463306683e+01,-1.050882138453544030e+02,1.092401509669980442e+01,-2.859337035101998481e+01,9.484992027282714844e+00,-5.736890435218811035e-01,7.649187743663787842e-02,5.370000000000000000e+02
-6.004837539163418114e+01,-2.208696808567983680e+02,-1.899248856969643384e+01,-5.516025151212852506e+01,-5.507157405651560111e+01,-1.053118786993800313e+02,1.029365138494722487e+01,-2.969367934614820115e+01,9.484992027282714844e+00,-5.736890435218811035e-01,7.649187743663787842e-02,5.380000000000000000e+02
-5.803337868007474754e+01,-2.200115532195613923e+02,-1.762228877677443961e+01,-5.574555589729607163e+01,-5.304823233483693912e+01,-1.051964552740191721e+02,1.086508756968942180e+01,-2.872727132638101466e+01,9.484992027282714844e+00,-5.736890435218811035e-01,7.649187743663787842e-02,5.390000000000000000e+02
-5.568517533692283905e+01,-2.193262810985106626e+02,-1.504015031544076919e+01,-5.522236325233279786e+01,-5.151042296257401176e+01,-1.045193397242564970e+02,1.255132066584519634e+01,-2.652817726252578723e+01,9.484992027282714844e+00,-5.736890435218811035e-01,7.649187743663787842e-02,5.400000000000000000e+02
-5.329872797306416032e+01,-2.191348889284072357e+02,-1.223514837302536762e+01,-5.406119983993085043e+01,-5.102231438322451140e+01,-1.034502812041355355e+02,1.430749849334097235e+01,-2.453346107410106924e+01,9.484992027282714844e+00,-5.736890435218811035e-01,7.649187743663787842e-02,5.410000000000000000e+02
-5.133220183286357496e+01,-2.195029904806251579e+02,-1.018079043856778299e+01,-5.309974000931288174e+01,-5.090764936212326575e+01,-1.023490245415359823e+02,1.491052452381700277e+01,-2.372143671979756618e+01,9.484992027282714844e+00,-5.736890435218811035e-01,7.649187743663787842e-02,5.420000000000000000e+02
-4.962424805561931862e+01,-2.200131936438756384e+02,-9.134167924190478516e+00,-5.280533374364495103e+01,-4.989913887823422556e+01,-1.013991698899135372e+02,1.401304892073130759e+01,-2.395998723053889989e+01,9.484992027282714844e+00,-5.736890435218811035e-01,7.649187743663787842e-02,5.430000000000000000e+02
-4.714454626465158071e+01,-2.199719843729944841e+02,-8.474674879482336110e+00,-5.291772096874774434e+01,-4.723905292750532681e+01,-1.004355124055509805e+02,1.253850738735491177e+01,-2.421844492706804886e+01,9.484992027282714844e+00,-5.736890435218811035e-01,7.649187743663787842e-02,5.440000000000000000e+02
-4.277338971950121049e+01,-2.188721006717842101e+02,-7.252969383989693597e+00,-5.277461466383647348e+01,-4.328602704610966612e+01,-9.914305275909100601e+01,1.200068084883605479e+01,-2.341605322869872907e+01,9.484992027282714844e+00,-5.736890435218811035e-01,7.649187743663787842e-02,5.450000000000000000e+02
-3.653860718187206658e+01,-2.166460594416985259e+02,-5.041127131984467269e+00,-5.196438777049661439e+01,-3.921732288838393288e+01,-9.740882375723776931e+01,1.329995367540686857e+01,-2.121690569792190217e+01,9.484992027282714844e+00,-5.736890435218811035e-01,7.649187743663787842e-02,5.460000000000000000e+02
-3.009313273174848291e+01,-2.134947899534017779e+02,-2.383089160060990253e+00,-5.064659530851895397e+01,-3.619790691191519727e+01,-9.544481771706341533e+01,1.602293805397130200e+01,-1.818373114662790613e+01,9.484992027282714844e+00,-5.354431271553039551e-01,1.529837548732757568e-01,5.470000000000000000e+02
-2.573826859206383233e+01,-2.095565837658014061e+02,-4.378760884246730711e-01,-4.926911856621882180e+01,-3.470554496305703651e+01,-9.356684331818905775e+01,1.881580224672507029e+01,-1.524958464303199435e+01,9.484992027282714844e+00,-5.354431271553039551e-01,1.529837548732757568e-01,5.480000000000000000e+02
-2.463126404984541296e+01,-2.048389899440662703e+02,-5.961566093719739001e-02,-4.804229531655619212e+01,-3.439620684182955301e+01,-9.188785567531158449e+01,2.046591161607830145e+01,-1.298991973722331750e+01,9.484992027282714844e+00,-5.354431271553039551e-01,1.529837548732757568e-01,5.490000000000000000e+02
-2.572024058619717835e+01,-1.994844611039134179e+02,-1.060454866967120324e+00,-4.674735984789913346e+01,-3.443895011085260194e+01,-9.025801697838323889e+01,2.074982407945390150e+01,-1.127753073222629610e+01,9.484992027282714844e+00,-5.354431271553039551e-01,1.529837548732757568e-01,5.500000000000000000e+02
-2.647536081590260437e+01,-1.940011512502078403e+02,-2.281036985323225963e+00,-4.504685022312150977e+01,-3.401763706946803723e+01,-8.847955629564239644e+01,2.040134798889084777e+01,-9.551360140963879530e+00,9.484992027282714844e+00,-5.354431271553039551e-01,1.529837548732757568e-01,5.510000000000000000e+02
-2.492063297607819550e+01,-1.890952653585663938e+02,-2.464013328632063349e+00,-4.291788932140480028e+01,-3.275329293164213595e+01,-8.653110280584587599e+01,2.035205565764226776e+01,-7.441810559013902093e+00,9.484992027282714844e+00,-5.354431271553039551e-01,1.529837548732757568e-01,5.520000000000000000e+02
-2.125931015155947534e+01,-1.851953289257762663e+02,-1.248015884708365775e+00,-4.074536097507552768e+01,-3.092741301057321834e+01,-8.458494445870383061e+01,2.096004428211563209e+01,-5.223019705388651346e+00,9.484992027282714844e+00,-5.354431271553039551e-01,1.529837548732757568e-01,5.530000000000000000e+02
-1.768179115877865115e+01,-1.821404987896403327e+02,5.421615833110990934e-01,-3.901350273288699100e+01,-2.938203212018379418e+01,-8.285042583692120388e+01,2.185688891931931721e+01,-3.690673119361235877e+00,9.484992027282714844e+00,-5.354431271553039551e-01,1.529837548732757568e-01,5.540000000000000000e+02
-1.651554578042851062e+01,-1.793613688931673096e+02,1.584101135444143438e+00,-3.795334676059428602e+01,-2.902132387808342173e+01,-8.143645302227014326e+01,2.244648214051994728e+01,-3.509112675579672214e+00,9.484992027282714844e+00,-5.354431271553039551e-01,1.529837548732757568e-01,5.550000000000000000e+02
-1.831757340841431869e+01,-1.763642759075537469e+02,1.195256747258099495e+00,-3.747447203831870866e+01,-3.012029052809884888e+01,-8.032448915906934417e+01,2.254348126904005767e+01,-4.514887581575749209e+00,9.484992027282714844e+00,-5.354431271553039551e-01,1.529837548732757568e-01,5.560000000000000000e+02
-2.152018520296041970e+01,-1.730563854003539745e+02,-3.179576655202254187e-02,-3.736097927733135293e+01,-3.196212033180745493e+01,-7.939537216022654320e+01,2.256265678497948102e+01,-5.590981952296715463e+00,9.484992027282714844e+00,-5.354431271553039551e-01,1.529837548732757568e-01,5.570000000000000000e+02
-2.382165022690242040e+01,-1.696750343533585692e+02,-6.843840351066319272e-01,-3.747024998219421832e+01,-3.325389178334080498e+01,-7.848097845789379789e+01,2.308411926356711774e+01,-5.358576699400146026e+00,9.484992027282714844e+00,-5.354431271553039551e-01,1.529837548732757568e-01,5.580000000000000000e+02
-2.399443627195432782e+01,-1.664900634782698035e+02,2.730214364091807511e-01,-3.774538145859696670e+01,-3.313568301491250168e+01,-7.747384835299089900e+01,2.420307022034467082e+01,-3.247199090557842283e+00,9.484992027282714844e+00,-5.354431271553039551e-01,1.529837548732757568e-01,5.590000000000000000e+02
-2.253806651915874681e+01,-1.635786121093624388e+02,2.598050138160033384e+00,-3.809771692694630474e+01,-3.193768194250151282e+01,-7.645440339527704054e+01,2.531788178662100108e+01,-5.804603291471721604e-02,9.484992027282714844e+00,-5.354431271553039551e-01,1.529837548732757568e-01,5.600000000000000000e+02
-2.078102333929564338e+01,-1.607779284785865457e+02,5.001554079013658338e+00,-3.833057478478986013e+01,-3.092288780853778007e+01,-7.568227269768976839e+01,2.563996391720866086e+01,2.550510068842413602e+00,9.484992027282714844e+00,-5.354431271553039551e-01,1.529837548732757568e-01,5.610000000000000000e+02
-1.945437354317255085e+01,-1.577443472310296784e+02,6.333233368779474404e+00,-3.818969862676021876e+01,-3.113857675405961345e+01,-7.535707800736054196e+01,2.501681939997797599e+01,3.324690004978037905e+00,9.484992027282714844e+00,-5.354431271553039551e-01,1.529837548732757568e-01,5.620000000000000000e+02
-1.812259708204510389e+01,-1.540923584755037155e+02,6.621493126182031119e+00,-3.751485742228578601e+01,-3.242334628354365123e+01,-7.534446256982482737e+01,2.425516735157361836e+01,2.353766616794018773e+00,9.484992027282714844e+00,-5.354431271553039551e-01,1.529837548732757568e-01,5.630000000000000000e+02
-1.590968887312192237e+01,-1.496748939874341886e+02,6.980891262719524093e+00,-3.640339378397402470e+01,-3.357850008874811465e+01,-7.522954739782653633e+01,2.448899237969453679e+01,8.089351650924072601e-01,9.484992027282714844e+00,-5.354431271553039551e-01,1.529837548732757568e-01,5.640000000000000000e+02
-1.267125883383050677e+01,-1.449200806262888364e+02,8.489152507791004609e+00,-3.526734659418070805e+01,-3.357498545373528032e+01,-7.475064465405739611e+01,2.606616057223800453e+01,-2.652674670171109028e-01,9.484992027282714844e+00,-5.354431271553039551e-01,1.529837548732757568e-01,5.650000000000000000e+02
-9.396608735660265666e+00,-1.408339757029280008e+02,1.113915467174592777e+01,-3.466999292250329745e+01,-3.257546263620315585e+01,-7.415747107305651298e+01,2.802361276758892927e+01,-8.852479509041586425e-01,9.484992027282714844e+00,-5.354431271553039551e-01,1.529837548732757568e-01,5.660000000000000000e+02
-7.428542957699391991e+00,-1.383504022680644994e+02,1.387757227578549646e+01,-3.494312447932679788e+01,-3.169243500325319474e+01,-7.398743310052304878e+01,2.879047064149926882e+01,-1.800705777957773535e+00,9.484992027282714844e+00,-5.354431271553039551e-01,1.529837548732757568e-01,5.670000000000000000e+02
-7.254795378594280919e+00,-1.373445144883444300e+02,1.563522916222063941e+01,-3.583222611277233227e+01,-3.171228269362836727e+01,-7.437524727626805543e+01,2.758584993915792438e+01,-3.244666469610820059e+00,9.484992027282714844e+00,-5.354431271553039551e-01,1.529837548732757568e-01,5.680000000000000000e+02
-8.036217069460690254e+00,-1.362025401860773854e+02,1.627503437173436396e+01,-3.651862535137479426e+01,-3.211932427078500041e+01,-7.463405739690279006e+01,2.523504167854480329e+01,-4.151247705103742192e+00,9.484992027282714844e+00,-5.354431271553039551e-01,1.529837548732757568e-01,5.690000000000000000e+02
-8.324172651908156695e+00,-1.326409532438447059e+02,1.651146568918557023e+01,-3.614943400463744183e+01,-3.151994241948705167e+01,-7.372396654554540874e+01,2.357268858655879740e+01,-2.887566257832077099e+00,9.484992027282714844e+00,-5.354431271553039551e-01,1.529837548732757568e-01,5.700000000000000000e+02
-7.288440071304648882e+00,-1.253933689495570434e+02,1.697878399621549761e+01,-3.453713282409444219e+01,-2.912022856029216200e+01,-7.130013883691935916e+01,2.391221056839640369e+01,1.026159287965128897e+00,9.484992027282714844e+00,-5.354431271553039551e-01,1.529837548732757568e-01,5.710000000000000000e+02
-5.309161421129829250e+00,-1.153955481526754738e+02,1.750895362208029837e+01,-3.241447953087481437e+01,-2.574606635754025774e+01,-6.827005193949662498e+01,2.598512695127283223e+01,5.953678645630134270e+00,9.484992027282714844e+00,-5.354431271553039551e-01,1.529837548732757568e-01,5.720000000000000000e+02
-3.413220627637201687e+00,-1.052968126539017248e+02,1.740970768678380409e+01,-3.092766527072672034e+01,-2.327562262369610835e+01,-6.615114949662893196e+01,2.830675345511190244e+01,9.140257984272466274e+00,9.484992027282714844e+00,-5.354431271553039551e-01,1.529837548732757568e-01,5.730000000000000000e+02
-2.146706940227886662e+00,-9.751485758473427268e+01,1.644967706233364879e+01,-3.070966706179024186e+01,-2.292705236045003403e+01,-6.572598845984975924e+01,2.957731631603746791e+01,8.993861366911005462e+00,9.484992027282714844e+00,-5.354431271553039551e-01,1.529837548732757568e-01,5.740000000000000000e+02
-9.979833040197263472e-01,-9.240410069207064225e+01,1.545486792686278932e+01,-3.131068163447707775e+01,-2.403930320764629869e+01,-6.628812954767272458e+01,2.977314351060704212e+01,6.588197928635054268e+00,9.484992027282714844e+00,-5.354431271553039551e-01,1.529837548732757568e-01,5.750000000000000000e+02
1.058662457653554156e+00,-8.810390861017731368e+01,1.577420521962994826e+01,-3.149015672657696996e+01,-2.456518790909467498e+01,-6.625982024186305352e+01,2.995480726435926044e+01,4.889731576637132093e+00,9.484992027282714844e+00,-5.354431271553039551e-01,1.529837548732757568e-01,5.760000000000000000e+02
4.407380672913859598e+00,-8.221862565136325429e+01,1.801263703048607567e+01,-3.015953066807196592e+01,-2.287685102127579739e+01,-6.462777289600126096e+01,3.107961629913916113e+01,6.285882351094187470e+00,9.484992027282714844e+00,-5.354431271553039551e-01,1.529837548732757568e-01,5.770000000000000000e+02
8.164323360640992178e+00,-7.389936226362624438e+01,2.121529149078196497e+01,-2.723517368852117215e+01,-1.923523584591748659e+01,-6.184796024796378333e+01,3.299466222555929562e+01,1.058807504719879944e+01,9.446745872497558594e+00,-6.119350194931030273e-01,1.147378161549568176e-01,5.780000000000000000e+02
1.075426260888707475e+01,-6.458247490899884724e+01,2.335490473252139054e+01,-2.375991105943103321e+01,-1.560817118749764632e+01,-5.940910959068423836e+01,3.452519494414082146e+01,1.525228239680654951e+01,9.446745872497558594e+00,-6.119350194931030273e-01,1.147378161549568176e-01,5.790000000000000000e+02
1.123343015233331244e+01,-5.685305985256491113e+01,2.282425882985990029e+01,-2.125370097520135459e+01,-1.405196490032176371e+01,-5.854533105056907516e+01,3.448593051241186913e+01,1.753717995701663313e+01,9.446745872497558594e+00,-6.119350194931030273e-01,1.147378161549568176e-01,5.800000000000000000e+02
1.016891055268570199e+01,-5.248209407995818765e+01,1.974184062159110908e+01,-2.078864942006475758e+01,-1.511567789568289299e+01,-5.930941035187788657e+01,3.265310997120832326e+01,1.663713972648838535e+01,9.446745872497558594e+00,-6.119350194931030273e-01,1.147378161549568176e-01,5.810000000000000000e+02
9.229385063925292343e+00,-5.126396575221588137e+01,1.598533165546177770e+01,-2.240917328700379585e+01,-1.761679031287712860e+01,-6.075006426601612475e+01,2.988158185172869707e+01,1.400090772094699787e+01,9.446745872497558594e+00,-6.119350194931030273e-01,1.147378161549568176e-01,5.820000000000000000e+02
9.807259851710114162e+00,-5.145810898664058186e+01,1.387458970281659276e+01,-2.521308198932820233e+01,-1.982582118192294729e+01,-6.185482130470336415e+01,2.738927014019645867e+01,1.181227328919703723e+01,9.446745872497558594e+00,-6.119350194931030273e-01,1.147378161549568176e-01,5.830000000000000000e+02
1.188384585217136191e+01,-5.123270677904656623e+01,1.452662568275263766e+01,-2.795323556465154979e+01,-2.087964993422792759e+01,-6.230546362847962882e+01,2.592068371694040252e+01,1.118172034173767315e+01,9.446745872497558594e+00,-6.119350194931030273e-01,1.147378161549568176e-01,5.840000000000000000e+02
1.412738030579203041e+01,-4.979767739999078913e+01,1.716705150983034400e+01,-2.973264674269739771e+01,-2.120424726435157936e+01,-6.244997735956349061e+01,2.545424113376066089e+01,1.159547860385282547e+01,9.446745872497558594e+00,-6.119350194931030273e-01,1.147378161549568176e-01,5.850000000000000000e+02
1.509322389886074234e+01,-4.741916215423407266e+01,1.989982845821577939e+01,-3.037460242113229469e+01,-2.175170455045372364e+01,-6.270515734283981146e+01,2.554604859844766906e+01,1.181982454415629036e+01,9.446745872497558594e+00,-6.119350194931030273e-01,1.147378161549568176e-01,5.860000000000000000e+02
1.441447142610923038e+01,-4.459512481095225667e+01,2.122736064163837000e+01,-3.030138053626069450e+01,-2.293574341722705867e+01,-6.307041530674905516e+01,2.586007388442158117e+01,1.116512378920742776e+01,9.446745872497558594e+00,-6.119350194931030273e-01,1.147378161549568176e-01,5.870000000000000000e+02
1.294126312390289968e+01,-4.133728189676185139e+01,2.103945268173265504e+01,-3.009416692575905472e+01,-2.429201571282828809e+01,-6.319393878953997046e+01,2.639544751774155884e+01,9.936363497807178646e+00,9.446745872497558594e+00,-6.119350194931030273e-01,1.147378161549568176e-01,5.880000000000000000e+02
