F3,F4,C3,C4,P3,P4,Cz,Pz,Accel_x,Accel_y,Accel_z,Sample
-6.184563972055912018e-11,-7.094058673828840256e-11,-5.456968210637569427e-11,-5.093170329928398132e-11,-5.820766091346740723e-11,-6.912159733474254608e-11,-6.184563972055912018e-11,-3.637978807091712952e-11,9.484992027282714844e+00,-5.736890435218811035e-01,1.529837548732757568e-01,2.260000000000000000e+02
-1.217404060032640700e+01,-1.000705300777099183e+01,1.394032759292895207e+01,5.060332386120535375e+00,6.598793084296630695e+00,2.893418966479657684e+00,1.244914210612478200e+01,-1.022065593490333413e+01,9.484992027282714844e+00,-5.736890435218811035e-01,1.529837548732757568e-01,2.270000000000000000e+02
-2.331375361538812285e+01,-2.297746805262067937e+01,1.955426746092962276e+01,3.759107574873269186e+00,6.467644449632643955e+00,-1.696052716781196068e+00,1.728322802955699444e+01,-1.548302431848969718e+01,9.484992027282714844e+00,-5.736890435218811035e-01,1.529837548732757568e-01,2.280000000000000000e+02
-3.320595283918919449e+01,-3.879346600302960724e+01,1.560864405777738284e+01,-4.271944149268165347e+00,-1.524995060455694329e+00,-1.467305651104106801e+01,1.394585175831525703e+01,-1.383189728013530839e+01,9.484992027282714844e+00,-5.736890435218811035e-01,1.529837548732757568e-01,2.290000000000000000e+02
-4.259094996329258720e+01,-5.446962063624141592e+01,8.160514621287802584e+00,-1.349156492488327785e+01,-1.264564197685103863e+01,-3.018333998333400814e+01,8.972867916547329514e+00,-7.214335056953132153e+00,9.484992027282714844e+00,-5.736890435218811035e-01,1.529837548732757568e-01,2.300000000000000000e+02
-5.254520087042146770e+01,-6.733168984401982016e+01,4.089263074380141916e+00,-1.829410473662755976e+01,-2.128795977262507222e+01,-4.166161046862544026e+01,9.262262326688869507e+00,1.443901916481991066e-01,9.484992027282714844e+00,-5.736890435218811035e-01,1.529837548732757568e-01,2.310000000000000000e+02
-6.369075025225174613e+01,-7.766285739543309319e+01,4.789070065459782199e+00,-1.843273687088458246e+01,-2.604613696076103224e+01,-4.780760030848614406e+01,1.558579583692153392e+01,4.495180824011185905e+00,9.484992027282714844e+00,-5.736890435218811035e-01,1.529837548732757568e-01,2.320000000000000000e+02
-7.584996818108265870e+01,-8.805293484198045917e+01,6.078565485935541801e+00,-1.861931998909039976e+01,-3.008634129579513683e+01,-5.275169398380421626e+01,2.259522723954160028e+01,4.506000077837597928e+00,9.484992027282714844e+00,-5.736890435218811035e-01,1.529837548732757568e-01,2.330000000000000000e+02
-8.830148935314718983e+01,-1.003942248623270643e+02,3.495648706260908511e+00,-2.324859090741665568e+01,-3.717845063261847827e+01,-6.099768049191334285e+01,2.452846883913207421e+01,1.344665463330784405e+00,9.484992027282714844e+00,-5.736890435218811035e-01,1.529837548732757568e-01,2.340000000000000000e+02
-1.003028188763919388e+02,-1.139336984557749020e+02,-3.118561110217342502e+00,-3.205461063834718516e+01,-4.789086724609660450e+01,-7.284580267435558198e+01,2.031908375647253706e+01,-2.676132780259649735e+00,9.484992027282714844e+00,-5.736890435218811035e-01,1.529837548732757568e-01,2.350000000000000000e+02
-1.114700072353307405e+02,-1.263793807771589854e+02,-1.020983253000849800e+01,-4.093617341637309437e+01,-5.955153164941202704e+01,-8.476107361757385661e+01,1.336134588368622644e+01,-5.729857854767033132e+00,9.484992027282714844e+00,-5.736890435218811035e-01,1.529837548732757568e-01,2.360000000000000000e+02
-1.218715625686827480e+02,-1.365886076856249929e+02,-1.475550753101924784e+01,-4.646063819113442150e+01,-6.925218816285450885e+01,-9.356938433628965868e+01,7.301041422479102039e+00,-7.476110582754699863e+00,9.484992027282714844e+00,-5.736890435218811035e-01,1.529837548732757568e-01,2.370000000000000000e+02
-1.318917624336545487e+02,-1.457693700765585163e+02,-1.710645113124701311e+01,-4.899990079329018045e+01,-7.632053040959908685e+01,-9.963761139678535983e+01,2.948128870731125062e+00,-9.134162373546132585e+00,9.484992027282714844e+00,-5.736890435218811035e-01,1.529837548732757568e-01,2.380000000000000000e+02
-1.419529621142910401e+02,-1.560303687984405769e+02,-1.971586274682613293e+01,-5.157947807876826118e+01,-8.202509481079869147e+01,-1.059810171468889166e+02,-8.505020823749873671e-01,-1.274266237957453995e+01,9.446745872497558594e+00,-6.119350194931030273e-01,1.529837548732757568e-01,2.390000000000000000e+02
-1.522126821993333579e+02,-1.681273434906279363e+02,-2.388818487897060550e+01,-5.635481133703433443e+01,-8.760655487285021081e+01,-1.148939531257474300e+02,-4.412222937457045191e+00,-1.988152843564057548e+01,9.446745872497558594e+00,-6.119350194931030273e-01,1.529837548732757568e-01,2.400000000000000000e+02
-1.624057710011020390e+02,-1.809488792897582243e+02,-2.841935125541931484e+01,-6.272193340042576892e+01,-9.315017845686179498e+01,-1.259453775666297588e+02,-6.292096582781596226e+00,-3.038961237884541333e+01,9.446745872497558594e+00,-6.119350194931030273e-01,1.529837548732757568e-01,2.410000000000000000e+02
-1.719655519136204020e+02,-1.930786511028236418e+02,-3.125969156108840252e+01,-6.865580710817539511e+01,-9.819198997156127007e+01,-1.370726068439507799e+02,-5.177896640198923706e+00,-4.187086183865267230e+01,9.446745872497558594e+00,-6.119350194931030273e-01,1.529837548732757568e-01,2.420000000000000000e+02
-1.803858853644715055e+02,-2.043984078207158745e+02,-3.183400816468747507e+01,-7.317252943181574665e+01,-1.027413382351587643e+02,-1.469509884651861285e+02,-1.965206885707630136e+00,-5.062915980736215715e+01,9.446745872497558594e+00,-6.119350194931030273e-01,1.529837548732757568e-01,2.430000000000000000e+02
-1.875558203569935358e+02,-2.158465010400213941e+02,-3.137311786411737558e+01,-7.702544031327670382e+01,-1.072498412542108781e+02,-1.558844415417161144e+02,6.990056061513314489e-01,-5.374540396720385615e+01,9.446745872497558594e+00,-6.119350194931030273e-01,1.529837548732757568e-01,2.440000000000000000e+02
-1.937869733258203269e+02,-2.277484301694248643e+02,-3.132301471833397954e+01,-8.124067018386085692e+01,-1.117637920249262606e+02,-1.646569635655914681e+02,9.280907591364666587e-01,-5.098628010040192748e+01,9.446745872497558594e+00,-6.119350194931030273e-01,1.529837548732757568e-01,2.450000000000000000e+02
-1.995541579160799301e+02,-2.388471340213327494e+02,-3.205467658599445713e+01,-8.560020890483338007e+01,-1.156815902479256692e+02,-1.731646337679130738e+02,-7.569418812418007292e-01,-4.512294715429106873e+01,9.446745872497558594e+00,-6.119350194931030273e-01,1.529837548732757568e-01,2.460000000000000000e+02
-2.052325224598998830e+02,-2.473457373499795722e+02,-3.330222534330277995e+01,-8.894177994441179180e+01,-1.186816782478363166e+02,-1.805616509811152355e+02,-2.480731776834545599e+00,-4.029271446641087095e+01,9.446745872497558594e+00,-6.119350194931030273e-01,1.529837548732757568e-01,2.470000000000000000e+02
-2.110599363791279757e+02,-2.529321395726947230e+02,-3.537422425627119082e+01,-9.077742089598177699e+01,-1.217117353615130924e+02,-1.865512338737098617e+02,-3.435348431066813646e+00,-3.954470039074749366e+01,9.446745872497558594e+00,-6.119350194931030273e-01,1.529837548732757568e-01,2.480000000000000000e+02
-2.172411315910194389e+02,-2.575743884263947621e+02,-3.930640450710143341e+01,-9.221256541204002133e+01,-1.266283455262291682e+02,-1.920892680412835034e+02,-4.853372363914786547e+00,-4.327778696637960820e+01,9.446745872497558594e+00,-6.119350194931030273e-01,1.529837548732757568e-01,2.490000000000000000e+02
-2.239214264508073029e+02,-2.640827362318150335e+02,-4.559718687884014798e+01,-9.505284454537377314e+01,-1.345201498822962094e+02,-1.985798436910345117e+02,-8.454958759824876324e+00,-4.947190243310888036e+01,9.446745872497558594e+00,-6.119350194931030273e-01,1.529837548732757568e-01,2.500000000000000000e+02
-2.309322372018059468e+02,-2.737011991489589491e+02,-5.304307593999419623e+01,-1.000496505606579376e+02,-1.443332750646177374e+02,-2.064654243309578305e+02,-1.413208569631569844e+01,-5.529595936603709561e+01,9.446745872497558594e+00,-6.119350194931030273e-01,1.529837548732757568e-01,2.510000000000000000e+02
-2.376012890774554762e+02,-2.849806953957404403e+02,-5.919452704444029223e+01,-1.061222178690650253e+02,-1.532810519012564328e+02,-2.147890565549732855e+02,-1.943623790209858271e+01,-5.889760733090861322e+01,9.446745872497558594e+00,-6.119350194931030273e-01,1.529837548732757568e-01,2.520000000000000000e+02
-2.430038539364950338e+02,-2.949426265798192617e+02,-6.214478210685410886e+01,-1.112630295386161379e+02,-1.587817521817396482e+02,-2.221663199162321689e+02,-2.145320032432755397e+01,-6.029271286351922754e+01,9.446745872497558594e+00,-6.119350194931030273e-01,1.529837548732757568e-01,2.530000000000000000e+02
-2.466456651931539454e+02,-3.014835788837763175e+02,-6.192951129441189551e+01,-1.141809248003237371e+02,-1.602317089025455061e+02,-2.281060590810257054e+02,-1.922412855629863770e+01,-6.096233249777196761e+01,9.446745872497558594e+00,-6.119350194931030273e-01,1.529837548732757568e-01,2.540000000000000000e+02
-2.490858920745058640e+02,-3.050014448193787757e+02,-6.026633924536963605e+01,-1.152121926066365631e+02,-1.591747305127255459e+02,-2.333660408520863712e+02,-1.445712943108264881e+01,-6.259592617858561425e+01,9.446745872497558594e+00,-6.119350194931030273e-01,1.529837548732757568e-01,2.550000000000000000e+02
-2.519215069961710469e+02,-3.080422099463139602e+02,-5.903388677686689334e+01,-1.158970882497887942e+02,-1.579499463337433554e+02,-2.391100987946310852e+02,-1.004633888252556062e+01,-6.576942335998683120e+01,9.446745872497558594e+00,-6.119350194931030273e-01,1.529837548732757568e-01,2.560000000000000000e+02
-2.570135191979143201e+02,-3.134416528826441208e+02,-5.898043901564233238e+01,-1.178042187608152744e+02,-1.581440036737476476e+02,-2.458165530854830649e+02,-7.922844612980952661e+00,-6.942532714701519581e+01,9.446745872497558594e+00,-6.119350194931030273e-01,1.529837548732757568e-01,2.570000000000000000e+02
-2.654511376142163499e+02,-3.224427532705731210e+02,-5.966173489603443159e+01,-1.215599138887491790e+02,-1.600408261687307458e+02,-2.529518422574501528e+02,-8.079654307196506124e+00,-7.170587829170108307e+01,9.446745872497558594e+00,-6.119350194931030273e-01,1.529837548732757568e-01,2.580000000000000000e+02
-2.769729246558908926e+02,-3.340563154099672829e+02,-6.036848805702356913e+01,-1.266495695884677843e+02,-1.631935987092665528e+02,-2.595799601434000579e+02,-9.291355379632477707e+00,-7.171224644679750782e+01,9.446745872497558594e+00,-6.119350194931030273e-01,1.529837548732757568e-01,2.590000000000000000e+02
-2.902070383052478064e+02,-3.458951488486927701e+02,-6.108218935899640201e+01,-1.319559878607460632e+02,-1.673429920977177972e+02,-2.652599821270732718e+02,-1.059364043837013014e+01,-7.070668761490742327e+01,9.484992027282714844e+00,-6.119350194931030273e-01,2.294756323099136353e-01,2.600000000000000000e+02
-3.034806558664004115e+02,-3.557180152367400296e+02,-6.267592038418843003e+01,-1.365928633871781130e+02,-1.727983821729139891e+02,-2.704445149651237443e+02,-1.216615020553035720e+01,-7.137696390755900211e+01,9.484992027282714844e+00,-6.119350194931030273e-01,2.294756323099136353e-01,2.610000000000000000e+02
-3.155767505863859697e+02,-3.626175948117052030e+02,-6.627756932820739166e+01,-1.404848711906997778e+02,-1.799986169857766072e+02,-2.761107257106732504e+02,-1.499789068103746104e+01,-7.544077866353745776e+01,9.484992027282714844e+00,-6.119350194931030273e-01,2.294756323099136353e-01,2.620000000000000000e+02
-3.259611400867133852e+02,-3.671831457904918352e+02,-7.226775855226424028e+01,-1.442679269782775009e+02,-1.886763276325573315e+02,-2.829465847672763630e+02,-1.974542040168580570e+01,-8.165218263593305892e+01,9.484992027282714844e+00,-6.119350194931030273e-01,2.294756323099136353e-01,2.630000000000000000e+02
-3.345201753777164413e+02,-3.707488744836937258e+02,-7.960565432302064437e+01,-1.485511782563007728e+02,-1.974057303949848574e+02,-2.907221838868899795e+02,-2.577153689884016785e+01,-8.638202976572574698e+01,9.484992027282714844e+00,-6.119350194931030273e-01,2.294756323099136353e-01,2.640000000000000000e+02
-3.412715528381504555e+02,-3.744328999835752256e+02,-8.606547948698607797e+01,-1.531596479990412263e+02,-2.041076127892274599e+02,-2.983481519298766216e+02,-3.118226917957599653e+01,-8.678859716322585882e+01,9.484992027282714844e+00,-6.119350194931030273e-01,2.294756323099136353e-01,2.650000000000000000e+02
-3.464050903308498164e+02,-3.786749117818471859e+02,-8.945544086428071751e+01,-1.571066742227062605e+02,-2.073502124263513906e+02,-3.046117963408378273e+02,-3.393405402316238906e+01,-8.384403280736114539e+01,9.484992027282714844e+00,-6.119350194931030273e-01,2.294756323099136353e-01,2.660000000000000000e+02
-3.505276827745146875e+02,-3.834616345636140977e+02,-8.912102081621742400e+01,-1.594620275993779615e+02,-2.075184123671751877e+02,-3.090747510296760083e+02,-3.328293274548013869e+01,-8.208403192236528412e+01,9.484992027282714844e+00,-6.119350194931030273e-01,2.294756323099136353e-01,2.670000000000000000e+02
-3.546320954758593871e+02,-3.888121367967260085e+02,-8.655121006689705609e+01,-1.603557312300727062e+02,-2.067689098697392183e+02,-3.124121219844537336e+02,-3.045362963040588511e+01,-8.577361995488536195e+01,9.484992027282714844e+00,-6.119350194931030273e-01,2.294756323099136353e-01,2.680000000000000000e+02
-3.595272075495204263e+02,-3.949232945470057530e+02,-8.439410667883703354e+01,-1.610910309967266585e+02,-2.075414814899986595e+02,-3.158762339668419372e+02,-2.785966484684922762e+01,-9.475792209121118503e+01,9.484992027282714844e+00,-6.119350194931030273e-01,2.294756323099136353e-01,2.690000000000000000e+02
-3.651045332559087910e+02,-4.018162649426340067e+02,-8.450511645360438706e+01,-1.631124164198618018e+02,-2.106892413586729162e+02,-3.203115874102113594e+02,-2.732134436511387321e+01,-1.040078597954779980e+02,9.484992027282714844e+00,-6.119350194931030273e-01,2.294756323099136353e-01,2.700000000000000000e+02
-3.702249430980164107e+02,-4.089353981530098281e+02,-8.667232300489013141e+01,-1.667350953341028799e+02,-2.148634196509019603e+02,-3.255629126846451982e+02,-2.867989264608604572e+01,-1.077514348185850395e+02,9.484992027282714844e+00,-6.119350194931030273e-01,2.294756323099136353e-01,2.710000000000000000e+02
-3.735970881371158612e+02,-4.152557331900798090e+02,-8.917704662977712360e+01,-1.708535440035702777e+02,-2.178416321648019220e+02,-3.307515058823873915e+02,-3.003038513310275448e+01,-1.046257145756317186e+02,9.484992027282714844e+00,-6.119350194931030273e-01,2.294756323099136353e-01,2.720000000000000000e+02
-3.750419483153955298e+02,-4.199478724194441384e+02,-9.064120096574924901e+01,-1.739298847485288206e+02,-2.187079761653012611e+02,-3.350884229783960109e+02,-2.948403375475118082e+01,-9.895904876145141316e+01,9.484992027282714844e+00,-6.119350194931030273e-01,2.294756323099136353e-01,2.730000000000000000e+02
-3.759542451588631593e+02,-4.230630608293095065e+02,-9.138707390884655979e+01,-1.753688382846871718e+02,-2.189060428002562730e+02,-3.384858768250815046e+02,-2.704838409135481925e+01,-9.688921499215575750e+01,9.484992027282714844e+00,-6.119350194931030273e-01,2.294756323099136353e-01,2.740000000000000000e+02
-3.783219298090662051e+02,-4.256090156034651955e+02,-9.300174204741369977e+01,-1.760381907002133630e+02,-2.211119871016508114e+02,-3.415338716147534797e+02,-2.499957349908800097e+01,-1.009640580018240144e+02,9.484992027282714844e+00,-6.119350194931030273e-01,2.294756323099136353e-01,2.750000000000000000e+02
-3.830136483244364172e+02,-4.288785470176098897e+02,-9.657804774454143626e+01,-1.775241978055519212e+02,-2.268926173385898437e+02,-3.450277450780658910e+02,-2.631532319597226888e+01,-1.083055583847799426e+02,9.484992027282714844e+00,-6.119350194931030273e-01,2.294756323099136353e-01,2.760000000000000000e+02
-3.889024563568054873e+02,-4.335647653762603113e+02,-1.014566134431383944e+02,-1.808810146825198899e+02,-2.353001433658914721e+02,-3.495353507235895449e+02,-3.238246285208788322e+01,-1.139962200180762011e+02,9.484992027282714844e+00,-6.119350194931030273e-01,2.294756323099136353e-01,2.770000000000000000e+02
-3.937551702098317037e+02,-4.393973042757520489e+02,-1.057858321245607840e+02,-1.859979530599316604e+02,-2.436803120671852412e+02,-3.552608186539328017e+02,-4.183105699443558478e+01,-1.162326552073686798e+02,9.484992027282714844e+00,-6.119350194931030273e-01,2.294756323099136353e-01,2.780000000000000000e+02
-3.961562950619290859e+02,-4.455652477240164444e+02,-1.083378463994540652e+02,-1.920097972022131216e+02,-2.498788689351408721e+02,-3.620837260855232671e+02,-5.138753822640819635e+01,-1.180182391228754568e+02,9.484992027282714844e+00,-6.119350194931030273e-01,2.294756323099136353e-01,2.790000000000000000e+02
-3.967025168970876621e+02,-4.514788674631658978e+02,-1.096783675246733765e+02,-1.981799251244419793e+02,-2.537478807446186693e+02,-3.695838065184589141e+02,-5.795316331834555967e+01,-1.236218793527691560e+02,9.484992027282714844e+00,-6.119350194931030273e-01,2.294756323099136353e-01,2.800000000000000000e+02
-3.973422321279904281e+02,-4.571542123720964810e+02,-1.113985094678710084e+02,-2.043368882304553154e+02,-2.566157305483247910e+02,-3.770510872098648179e+02,-6.019332995207469139e+01,-1.333682977711832791e+02,9.484992027282714844e+00,-6.119350194931030273e-01,2.294756323099136353e-01,2.810000000000000000e+02
-3.995118089954967218e+02,-4.628949905794638653e+02,-1.141380342625129742e+02,-2.105032786319975457e+02,-2.594378634648405750e+02,-3.836118754901472130e+02,-5.856377404333807135e+01,-1.422136278581156148e+02,9.484992027282714844e+00,-6.119350194931030273e-01,2.294756323099136353e-01,2.820000000000000000e+02
-4.028768147760933971e+02,-4.686544935483225345e+02,-1.164689588162532345e+02,-2.162165740893469774e+02,-2.616147559229466424e+02,-3.884918997450581628e+02,-5.421791150814124194e+01,-1.439570591664996755e+02,9.484992027282714844e+00,-6.119350194931030273e-01,2.294756323099136353e-01,2.830000000000000000e+02
-4.058426859594396774e+02,-4.737934407982020275e+02,-1.159544103519169767e+02,-2.203545308683151234e+02,-2.616850401946312559e+02,-3.912698426068341178e+02,-4.813756394460824595e+01,-1.372427734007305844e+02,9.484992027282714844e+00,-6.119350194931030273e-01,2.294756323099136353e-01,2.840000000000000000e+02
-4.072419303938604571e+02,-4.775660698650790437e+02,-1.115621439245705915e+02,-2.217932953159620411e+02,-2.591401496554562982e+02,-3.920045116907763258e+02,-4.132285196922111936e+01,-1.274060789848267632e+02,9.446745872497558594e+00,-6.884268522262573242e-01,1.147378161549568176e-01,2.850000000000000000e+02
-4.074869749093736573e+02,-4.798908295108758466e+02,-1.051473407126613893e+02,-2.203875621123993369e+02,-2.554255150284961928e+02,-3.912294073381767703e+02,-3.548358464019656822e+01,-1.219730178442177930e+02,9.446745872497558594e+00,-6.884268522262573242e-01,1.147378161549568176e-01,2.860000000000000000e+02
-4.080938050525865037e+02,-4.815564923967676805e+02,-1.004435279746453489e+02,-2.173666764460713239e+02,-2.530191706622845231e+02,-3.898530049642831727e+02,-3.295120141588358820e+01,-1.238933880922718345e+02,9.446745872497558594e+00,-6.884268522262573242e-01,1.147378161549568176e-01,2.870000000000000000e+02
-4.101644941826593822e+02,-4.835088352594871139e+02,-1.002940744033694500e+02,-2.146876766884770404e+02,-2.534296618872876934e+02,-3.889316916497755301e+02,-3.532192226565348392e+01,-1.290819276330112189e+02,9.446745872497558594e+00,-6.884268522262573242e-01,1.147378161549568176e-01,2.880000000000000000e+02
-4.134012535192674704e+02,-4.858363291714597381e+02,-1.045220230978295604e+02,-2.137850712314480006e+02,-2.560534961394093898e+02,-3.892865125409476832e+02,-4.186349865220404354e+01,-1.309151319227883050e+02,9.446745872497558594e+00,-6.884268522262573242e-01,1.147378161549568176e-01,2.890000000000000000e+02
-4.165686441430397053e+02,-4.875207165820870046e+02,-1.102679373005870502e+02,-2.147172997472846419e+02,-2.589898923462635594e+02,-3.911323572452655526e+02,-4.936212985134102382e+01,-1.275263121047455570e+02,9.446745872497558594e+00,-6.884268522262573242e-01,1.147378161549568176e-01,2.900000000000000000e+02
-4.188088605766443493e+02,-4.873781063743886079e+02,-1.144017812221172790e+02,-2.163863626147599462e+02,-2.609903221672964264e+02,-3.940266712986815492e+02,-5.400455039176881655e+01,-1.245621325228671594e+02,9.446745872497558594e+00,-6.884268522262573242e-01,1.147378161549568176e-01,2.910000000000000000e+02
-4.204353271791151201e+02,-4.853949123190429304e+02,-1.158286372585582740e+02,-2.175853128444534832e+02,-2.626340741037878388e+02,-3.972652833947433919e+02,-5.399274012035243686e+01,-1.300465243972330427e+02,9.446745872497558594e+00,-6.884268522262573242e-01,1.147378161549568176e-01,2.920000000000000000e+02
-4.224871808855622817e+02,-4.831311473370701037e+02,-1.157922812553968015e+02,-2.179463674707269547e+02,-2.656183158305826737e+02,-4.004370207540194997e+02,-5.073254303336671001e+01,-1.457483615231656131e+02,9.446745872497558594e+00,-6.884268522262573242e-01,1.147378161549568176e-01,2.930000000000000000e+02
-4.255849291318701262e+02,-4.826326688417554465e+02,-1.162235216499915396e+02,-2.180315634027788292e+02,-2.708867613207791010e+02,-4.036262652511383067e+02,-4.754312637391490171e+01,-1.635349556675355416e+02,9.446745872497558594e+00,-6.884268522262573242e-01,1.147378161549568176e-01,2.940000000000000000e+02
-4.292676154991327166e+02,-4.847333194344098501e+02,-1.178453138534513300e+02,-2.186294863592917181e+02,-2.773678824641696110e+02,-4.070584598847199231e+02,-4.695649802228217595e+01,-1.712089744248503393e+02,9.446745872497558594e+00,-6.884268522262573242e-01,1.147378161549568176e-01,2.950000000000000000e+02
-4.323918159056493096e+02,-4.883134796661346968e+02,-1.196873235007128642e+02,-2.199861267623547292e+02,-2.824558421114119255e+02,-4.105506191628978740e+02,-4.887145133750118475e+01,-1.634580510838866303e+02,9.446745872497558594e+00,-6.884268522262573242e-01,1.147378161549568176e-01,2.960000000000000000e+02
-4.341218582238286672e+02,-4.912566530362743151e+02,-1.201478026289498757e+02,-2.216366076629698227e+02,-2.837496235060203844e+02,-4.133424842824243797e+02,-5.099395021835039188e+01,-1.480076742472460865e+02,9.446745872497558594e+00,-6.884268522262573242e-01,1.147378161549568176e-01,2.970000000000000000e+02
-4.346107298469481748e+02,-4.922604560519148436e+02,-1.184238143079276142e+02,-2.228677600319032308e+02,-2.805969819254892172e+02,-4.145434975396887012e+02,-5.100047837643273851e+01,-1.405776627704052544e+02,9.446745872497558594e+00,-6.884268522262573242e-01,1.147378161549568176e-01,2.980000000000000000e+02
-4.348910070235232297e+02,-4.918628080058305727e+02,-1.151033710367373715e+02,-2.233006096842173065e+02,-2.743802316625374260e+02,-4.138374662261352341e+02,-4.848494713447439608e+01,-1.521224353322668321e+02,9.446745872497558594e+00,-6.884268522262573242e-01,1.147378161549568176e-01,2.990000000000000000e+02
-4.362088959538860422e+02,-4.918148640397175200e+02,-1.116968233558368411e+02,-2.231153527989280292e+02,-2.676367964597155833e+02,-4.118392947215193090e+02,-4.514546371532696867e+01,-1.791748561350624414e+02,9.446745872497558594e+00,-6.884268522262573242e-01,1.147378161549568176e-01,3.000000000000000000e+02
-4.393393083769229861e+02,-4.934889325548696775e+02,-1.097422695689162992e+02,-2.228538917812368254e+02,-2.628685262971837346e+02,-4.097970303689725142e+02,-4.328807891562905752e+01,-2.059232262318613493e+02,9.446745872497558594e+00,-6.884268522262573242e-01,1.147378161549568176e-01,3.010000000000000000e+02
-4.442252076636012248e+02,-4.968224267422463072e+02,-1.101403967660415901e+02,-2.230542878287177473e+02,-2.617201792552582447e+02,-4.088717324530799715e+02,-4.406292903556095553e+01,-2.165030686231963273e+02,9.446745872497558594e+00,-6.884268522262573242e-01,1.147378161549568176e-01,3.020000000000000000e+02
-4.499912412918553173e+02,-5.006423289506291781e+02,-1.129126179764288054e+02,-2.239860846283212368e+02,-2.646234149954585746e+02,-4.095256418885221592e+02,-4.684030885068523276e+01,-2.070159398174333774e+02,9.446745872497558594e+00,-6.884268522262573242e-01,1.147378161549568176e-01,3.030000000000000000e+02
-4.552858955526054388e+02,-5.038500763657273183e+02,-1.172581883942257264e+02,-2.255720401177144367e+02,-2.707214048603135552e+02,-4.114034860521963992e+02,-4.998665952241685773e+01,-1.871936925503748625e+02,9.446745872497558594e+00,-6.884268522262573242e-01,1.147378161549568176e-01,3.040000000000000000e+02
-4.589034051354698249e+02,-5.062384447960671423e+02,-1.218487064513694804e+02,-2.274676556820579663e+02,-2.780545845658547250e+02,-4.136967274343116969e+02,-5.215800807107461878e+01,-1.709661783682063287e+02,9.446745872497558594e+00,-6.884268522262573242e-01,1.147378161549568176e-01,3.050000000000000000e+02
-4.604389420570875018e+02,-5.082413566449231439e+02,-1.253324480087234178e+02,-2.292317750573207036e+02,-2.841365228629972535e+02,-4.156576392952416654e+02,-5.299974866090792602e+01,-1.648535892398738270e+02,9.446745872497558594e+00,-6.884268522262573242e-01,1.147378161549568176e-01,3.060000000000000000e+02
-4.605375467170446200e+02,-5.100681460874664026e+02,-1.268487569865659452e+02,-2.304911281818908719e+02,-2.868455670197427025e+02,-4.168877514837290619e+02,-5.285586418082948512e+01,-1.642828282743429327e+02,9.446745872497558594e+00,-6.884268522262573242e-01,1.147378161549568176e-01,3.070000000000000000e+02
-4.604514189124014365e+02,-5.112270336502337500e+02,-1.262415488509083161e+02,-2.310129851802998360e+02,-2.852469116624255321e+02,-4.172869651663595505e+02,-5.202369689739714431e+01,-1.601064432758353178e+02,9.446745872497558594e+00,-6.884268522262573242e-01,1.147378161549568176e-01,3.080000000000000000e+02
-4.611526535019527842e+02,-5.109422701792624366e+02,-1.238772429820944581e+02,-2.306768077401960682e+02,-2.799011018209835129e+02,-4.168509320628368187e+02,-5.039101165657257297e+01,-1.483769437569326328e+02,9.446745872497558594e+00,-6.884268522262573242e-01,1.147378161549568176e-01,3.090000000000000000e+02
-4.627089282556281660e+02,-5.090337731053646166e+02,-1.203371598289339772e+02,-2.294694762234656196e+02,-2.725284810575966503e+02,-4.156109711325628950e+02,-4.779828525928780891e+01,-1.342235380704942145e+02,9.446745872497558594e+00,-6.884268522262573242e-01,1.147378161549568176e-01,3.100000000000000000e+02
-4.644613937293435129e+02,-5.063592696355329394e+02,-1.163188027555979716e+02,-2.276112462287693461e+02,-2.652813934101635596e+02,-4.137935724458645836e+02,-4.466045612099901518e+01,-1.268549723799696949e+02,9.446745872497558594e+00,-6.884268522262573242e-01,1.147378161549568176e-01,3.110000000000000000e+02
-4.657911153936058213e+02,-5.043481928110502395e+02,-1.126868131779839359e+02,-2.256917585067745335e+02,-2.599608720553478634e+02,-4.119467269371075417e+02,-4.204343396996068805e+01,-1.309939927060380569e+02,9.408499717712402344e+00,-5.736890435218811035e-01,1.147378161549568176e-01,3.120000000000000000e+02
-4.666763485832813672e+02,-5.040081891691052078e+02,-1.102915266753648211e+02,-2.245412676007546793e+02,-2.574182533894131666e+02,-4.107381057070170982e+02,-4.092305417518218746e+01,-1.427055601745208833e+02,9.408499717712402344e+00,-5.736890435218811035e-01,1.147378161549568176e-01,3.130000000000000000e+02
-4.674986629403148868e+02,-5.052361893226791381e+02,-1.094682900511645585e+02,-2.247597581301673699e+02,-2.573552022212489874e+02,-4.104777079173020411e+02,-4.127142655291277151e+01,-1.528623245063233753e+02,9.408499717712402344e+00,-5.736890435218811035e-01,1.147378161549568176e-01,3.140000000000000000e+02
-4.684168322639354756e+02,-5.069833934276969103e+02,-1.097189650183124741e+02,-2.262591549394358594e+02,-2.587084099163301971e+02,-4.108313390214748324e+02,-4.196801172302423311e+01,-1.545705887626041886e+02,9.408499717712402344e+00,-5.736890435218811035e-01,1.147378161549568176e-01,3.150000000000000000e+02
-4.691381648772705262e+02,-5.080747534783423589e+02,-1.101378500016082853e+02,-2.282945055631402056e+02,-2.605185572129397542e+02,-4.111231554139525315e+02,-4.181840363607943800e+01,-1.479754797734963176e+02,9.408499717712402344e+00,-5.736890435218811035e-01,1.147378161549568176e-01,3.160000000000000000e+02
-4.694629951370333174e+02,-5.079892213189818904e+02,-1.104224479008382787e+02,-2.300579142050465293e+02,-2.627398186126885093e+02,-4.110408392620203131e+02,-4.081558018933503718e+01,-1.390145098460056943e+02,9.408499717712402344e+00,-5.736890435218811035e-01,1.147378161549568176e-01,3.170000000000000000e+02
-4.700013374956189409e+02,-5.070209895151018031e+02,-1.114714197663952291e+02,-2.313123747632600953e+02,-2.662566597939995745e+02,-4.110345160254062193e+02,-4.034338403073093104e+01,-1.340876646564506700e+02,9.408499717712402344e+00,-5.736890435218811035e-01,1.147378161549568176e-01,3.180000000000000000e+02
-4.720766596390240011e+02,-5.058207419952741475e+02,-1.147196472375854910e+02,-2.324296952089480897e+02,-2.718637838325059874e+02,-4.118985050184372767e+02,-4.192197999972495381e+01,-1.354035793232174001e+02,9.408499717712402344e+00,-5.736890435218811035e-01,1.147378161549568176e-01,3.190000000000000000e+02
-4.766183426835020782e+02,-5.048339748380592482e+02,-1.205922079105200737e+02,-2.338009207080938268e+02,-2.789585308586761130e+02,-4.138575096613735695e+02,-4.556951778040411227e+01,-1.402777333480205471e+02,9.408499717712402344e+00,-5.736890435218811035e-01,1.147378161549568176e-01,3.200000000000000000e+02
-4.830179155894364840e+02,-5.041324925531880581e+02,-1.275358572746009713e+02,-2.352707339524743020e+02,-2.852253644803295174e+02,-4.160808650680627352e+02,-4.940560236619853640e+01,-1.440049567678901212e+02,9.408499717712402344e+00,-5.736890435218811035e-01,1.147378161549568176e-01,3.210000000000000000e+02
-4.891821829175997891e+02,-5.036725831850602049e+02,-1.327632622767936255e+02,-2.362407759056450800e+02,-2.879207991356513503e+02,-4.172086305094023828e+02,-5.105870465706379946e+01,-1.434683336962838212e+02,9.408499717712402344e+00,-5.736890435218811035e-01,1.147378161549568176e-01,3.220000000000000000e+02
-4.929754182832178913e+02,-5.035891220154770167e+02,-1.342880387771120922e+02,-2.363694741530597412e+02,-2.859502659050488091e+02,-4.164731372672987391e+02,-4.969680837898499703e+01,-1.389160647676596909e+02,9.408499717712402344e+00,-5.736890435218811035e-01,1.147378161549568176e-01,3.230000000000000000e+02
-4.938528695326452862e+02,-5.041515573081471757e+02,-1.325230980308348308e+02,-2.361174641229615077e+02,-2.810322847500464150e+02,-4.143674202388108370e+02,-4.680363080420795541e+01,-1.332116565850579946e+02,9.408499717712402344e+00,-5.736890435218811035e-01,1.147378161549568176e-01,3.240000000000000000e+02
-4.931953930636709629e+02,-5.053959022470038462e+02,-1.299817692123576762e+02,-2.365066140452202603e+02,-2.768064744566078161e+02,-4.122249458503343931e+02,-4.491641168668900264e+01,-1.295497567113555988e+02,9.408499717712402344e+00,-5.736890435218811035e-01,1.147378161549568176e-01,3.250000000000000000e+02
-4.930362498982755142e+02,-5.068221605523186781e+02,-1.292975037509954745e+02,-2.382736558683288308e+02,-2.763935548865690635e+02,-4.111213418306613221e+02,-4.543467759278019003e+01,-1.293254306366993660e+02,9.408499717712402344e+00,-5.736890435218811035e-01,1.147378161549568176e-01,3.260000000000000000e+02
-4.943703647035500239e+02,-5.075302901492393062e+02,-1.312527428256740905e+02,-2.412279967405198136e+02,-2.802346141164257460e+02,-4.111123380536654395e+02,-4.748386021992791939e+01,-1.314722447465725281e+02,9.408499717712402344e+00,-5.736890435218811035e-01,1.147378161549568176e-01,3.270000000000000000e+02
-4.965725836969308489e+02,-5.067592080477868421e+02,-1.344163157189326512e+02,-2.444129186335089230e+02,-2.858329307765748126e+02,-4.114174360610940084e+02,-4.882865848173071299e+01,-1.335302875739314459e+02,9.408499717712402344e+00,-5.736890435218811035e-01,1.147378161549568176e-01,3.280000000000000000e+02
-4.983271834099376747e+02,-5.043982463339098103e+02,-1.365152748843765949e+02,-2.468768629359875604e+02,-2.895103738694319873e+02,-4.112235097568848232e+02,-4.793184734827502780e+01,-1.335848447243025703e+02,9.408499717712402344e+00,-5.736890435218811035e-01,1.147378161549568176e-01,3.290000000000000000e+02
-4.990271704135948312e+02,-5.010413572599239842e+02,-1.362210912214543441e+02,-2.483007102889080784e+02,-2.887832165199088195e+02,-4.102868207553744924e+02,-4.525969678152114284e+01,-1.315689561707483790e+02,9.408499717712402344e+00,-5.736890435218811035e-01,1.147378161549568176e-01,3.300000000000000000e+02
-4.992580479034381824e+02,-4.975222891850085034e+02,-1.338783459565288467e+02,-2.489516270094494530e+02,-2.836692053251430252e+02,-4.088680109472820732e+02,-4.272939993189265806e+01,-1.289229427037788582e+02,9.408499717712402344e+00,-5.736890435218811035e-01,1.147378161549568176e-01,3.310000000000000000e+02
-5.000004576682814559e+02,-4.943156079823888831e+02,-1.308088857364107298e+02,-2.491362519520975525e+02,-2.762564060729026778e+02,-4.072390434417640108e+02,-4.192192565191317044e+01,-1.270392293875696623e+02,9.408499717712402344e+00,-5.736890435218811035e-01,1.147378161549568176e-01,3.320000000000000000e+02
-5.014677554230287342e+02,-4.913138188700111186e+02,-1.280646805541470030e+02,-2.487970301421294721e+02,-2.691984572092916324e+02,-4.053556916104429320e+02,-4.275456313636914274e+01,-1.260133238486415621e+02,9.408499717712402344e+00,-5.736890435218811035e-01,1.147378161549568176e-01,3.330000000000000000e+02
-5.027760294222455286e+02,-4.881953706136694109e+02,-1.257974620230862683e+02,-2.476828882224285167e+02,-2.643725369698004215e+02,-4.030233287245729343e+02,-4.376007163338601913e+01,-1.249342090137118930e+02,9.408499717712402344e+00,-5.736890435218811035e-01,1.147378161549568176e-01,3.340000000000000000e+02
-5.027574774859082254e+02,-4.850966347027247139e+02,-1.236817768562403899e+02,-2.459119554757655237e+02,-2.624837805541930038e+02,-4.003515611399847103e+02,-4.359417398997459259e+01,-1.233715387135206356e+02,9.408499717712402344e+00,-5.736890435218811035e-01,1.147378161549568176e-01,3.350000000000000000e+02
-5.011035633439712456e+02,-4.829485345432647136e+02,-1.218048046124906705e+02,-2.443045908096368635e+02,-2.634601203077843365e+02,-3.979987608192949438e+02,-4.232052087042382027e+01,-1.223255050929047911e+02,9.408499717712402344e+00,-5.736890435218811035e-01,1.147378161549568176e-01,3.360000000000000000e+02
-4.987441214932158573e+02,-4.830163056817249299e+02,-1.210610634617557935e+02,-2.440296611324963578e+02,-2.669420616213876656e+02,-3.968925151261476003e+02,-4.133296378300201468e+01,-1.234055372557753572e+02,9.408499717712402344e+00,-5.736890435218811035e-01,1.147378161549568176e-01,3.370000000000000000e+02
-4.971184710669829201e+02,-4.858518129098933969e+02,-1.226089275067711242e+02,-2.457370458091370438e+02,-2.723671566445534609e+02,-3.975659116275087399e+02,-4.207714281491939801e+01,-1.269545377986542007e+02,9.408499717712402344e+00,-5.736890435218811035e-01,1.147378161549568176e-01,3.380000000000000000e+02
-4.969839811259421367e+02,-4.904739325186994847e+02,-1.268294576698867786e+02,-2.488721006769889073e+02,-2.787349122046840648e+02,-3.996129958825504218e+02,-4.476859363237213074e+01,-1.312152373428114061e+02,9.408499717712402344e+00,-5.736890435218811035e-01,1.147378161549568176e-01,3.390000000000000000e+02
-4.977702987388296378e+02,-4.945783440106538364e+02,-1.326915664971957085e+02,-2.518188438343224789e+02,-2.845239526270726174e+02,-4.017470749108205155e+02,-4.819135240294099276e+01,-1.337465102638383314e+02,9.408499717712402344e+00,-5.736890435218811035e-01,1.147378161549568176e-01,3.400000000000000000e+02
-4.980000412156304037e+02,-4.958220186830901639e+02,-1.381022461003901753e+02,-2.528672732402260408e+02,-2.880739689552171967e+02,-4.025171652654455556e+02,-5.061869734253264141e+01,-1.339260876080863909e+02,9.408499717712402344e+00,-5.736890435218811035e-01,1.147378161549568176e-01,3.410000000000000000e+02
-4.964243019492392932e+02,-4.932986158479892538e+02,-1.410398411013508166e+02,-2.513053346177553067e+02,-2.882922746424876550e+02,-4.012095587793813820e+02,-5.099451783442145825e+01,-1.339239141770099195e+02,9.408499717712402344e+00,-5.736890435218811035e-01,1.147378161549568176e-01,3.420000000000000000e+02
-4.929660594759818650e+02,-4.880644649784746889e+02,-1.406822826578937793e+02,-2.478014940625419058e+02,-2.852210079873651694e+02,-3.982606130495892103e+02,-4.947836784041976443e+01,-1.367477281848003940e+02,9.523238182067871094e+00,-6.501809358596801758e-01,1.912296712398529053e-01,3.430000000000000000e+02
-4.887327443749237545e+02,-4.823123039322937302e+02,-1.377823734919591061e+02,-2.438175451598558539e+02,-2.800563055400791654e+02,-3.948523016649446618e+02,-4.715012263791732039e+01,-1.428964136395906053e+02,9.523238182067871094e+00,-6.501809358596801758e-01,1.912296712398529053e-01,3.440000000000000000e+02
-4.851052432167392681e+02,-4.779012738345107891e+02,-1.341221919431185370e+02,-2.405878769482209236e+02,-2.745847592164118396e+02,-3.920225268798329807e+02,-4.533283000663902840e+01,-1.490024681898702283e+02,9.523238182067871094e+00,-6.501809358596801758e-01,1.912296712398529053e-01,3.450000000000000000e+02
-4.826167077940689296e+02,-4.753940474312639708e+02,-1.314607944863286093e+02,-2.384769968676685039e+02,-2.703565311095559309e+02,-3.899977563972834105e+02,-4.501844174954408118e+01,-1.502733473737391705e+02,9.523238182067871094e+00,-6.501809358596801758e-01,1.912296712398529053e-01,3.460000000000000000e+02
-4.805072259424049435e+02,-4.741796984112248765e+02,-1.306404066923490745e+02,-2.370867549238207630e+02,-2.680640719354740895e+02,-3.882288131706878858e+02,-4.653128686554157412e+01,-1.448528131113930613e+02,9.523238182067871094e+00,-6.501809358596801758e-01,1.912296712398529053e-01,3.470000000000000000e+02
-4.773260194735707955e+02,-4.732897079222312868e+02,-1.313424956375361035e+02,-2.358189019619633200e+02,-2.674628134255790428e+02,-3.860040013488212480e+02,-4.937257922600713300e+01,-1.361188254129117468e+02,9.523238182067871094e+00,-6.501809358596801758e-01,1.912296712398529053e-01,3.480000000000000000e+02
-4.721192944604298418e+02,-4.720768412374308127e+02,-1.325771095726511248e+02,-2.343389953131252241e+02,-2.678574850911040812e+02,-3.830888769458479146e+02,-5.232671977794416307e+01,-1.305347001809822132e+02,9.523238182067871094e+00,-6.501809358596801758e-01,1.912296712398529053e-01,3.490000000000000000e+02
-4.652218965273934828e+02,-4.703341605637003795e+02,-1.335488136089441014e+02,-2.326773623141177723e+02,-2.688024840917582878e+02,-3.799279190124252636e+02,-5.400542960373491042e+01,-1.325610032588901959e+02,9.523238182067871094e+00,-6.501809358596801758e-01,1.912296712398529053e-01,3.500000000000000000e+02
-4.579678129093816779e+02,-4.680907547039636256e+02,-1.342659251129509812e+02,-2.311069548074917748e+02,-2.704487357322007028e+02,-3.773685189983577857e+02,-5.367999333779005156e+01,-1.408958711710488387e+02,9.523238182067871094e+00,-6.501809358596801758e-01,1.912296712398529053e-01,3.510000000000000000e+02
-4.515501906622937440e+02,-4.655075353606988529e+02,-1.354055558690450880e+02,-2.300151049222961319e+02,-2.731967571265478227e+02,-3.761692239647225051e+02,-5.179046429009247277e+01,-1.493498374608716404e+02,9.523238182067871094e+00,-6.501809358596801758e-01,1.912296712398529053e-01,3.520000000000000000e+02
-4.460252914729406939e+02,-4.629154902641067793e+02,-1.375073270220166251e+02,-2.297610978016618901e+02,-2.768943839354449210e+02,-3.765696846879903887e+02,-4.959295238205220357e+01,-1.517485873176259474e+02,9.523238182067871094e+00,-6.501809358596801758e-01,1.912296712398529053e-01,3.530000000000000000e+02
-4.403707713308200482e+02,-4.607159926311096569e+02,-1.402056495593841419e+02,-2.304143560144030971e+02,-2.803166304747655886e+02,-3.780854329600520032e+02,-4.814040349257834350e+01,-1.468480931193827246e+02,9.523238182067871094e+00,-6.501809358596801758e-01,1.912296712398529053e-01,3.540000000000000000e+02
-4.335904997451928011e+02,-4.590792866523227076e+02,-1.422901165952874862e+02,-2.315030702246046985e+02,-2.815894013551907165e+02,-3.796282179618447117e+02,-4.752941211498432494e+01,-1.392724387229068270e+02,9.523238182067871094e+00,-6.501809358596801758e-01,1.912296712398529053e-01,3.550000000000000000e+02
-4.258801458649670622e+02,-4.577814389868088938e+02,-1.426781014965280292e+02,-2.321010390761216513e+02,-2.794191183551602080e+02,-3.799667737313484395e+02,-4.716569075092695584e+01,-1.357618935801548332e+02,9.523238182067871094e+00,-6.501809358596801758e-01,1.912296712398529053e-01,3.560000000000000000e+02
-4.187631570759858732e+02,-4.564945117625572948e+02,-1.414522255206192085e+02,-2.313762622095183588e+02,-2.741632055917688149e+02,-3.783444532875168989e+02,-4.676547651948601469e+01,-1.397714503149566099e+02,9.523238182067871094e+00,-6.501809358596801758e-01,1.912296712398529053e-01,3.570000000000000000e+02
-4.139967966646993318e+02,-4.553036032904694821e+02,-1.399290654587575773e+02,-2.292431227799710314e+02,-2.677660809846773873e+02,-3.748873873401437322e+02,-4.698040945877482955e+01,-1.487438118420623141e+02,9.523238182067871094e+00,-6.501809358596801758e-01,1.912296712398529053e-01,3.580000000000000000e+02
-4.121226144106290121e+02,-4.547968430127320971e+02,-1.395573760362890425e+02,-2.265116537607736973e+02,-2.624743960708152599e+02,-3.704886253193583343e+02,-4.883357343652528471e+01,-1.560770698500738263e+02,9.523238182067871094e+00,-6.501809358596801758e-01,1.912296712398529053e-01,3.590000000000000000e+02
-4.118850399770612967e+02,-4.554249209881755860e+02,-1.406153666803132865e+02,-2.243291181377564953e+02,-2.593686085479226904e+02,-3.662522760470674257e+02,-5.243024278591428811e+01,-1.560626593829279045e+02,9.523238182067871094e+00,-6.501809358596801758e-01,1.912296712398529053e-01,3.600000000000000000e+02
-4.110156455197625291e+02,-4.566873639234231632e+02,-1.419443462342109115e+02,-2.233571499620818486e+02,-2.579083732290664557e+02,-3.629254217594707370e+02,-5.628877783862628803e+01,-1.478812901056739975e+02,9.523238182067871094e+00,-6.501809358596801758e-01,1.912296712398529053e-01,3.610000000000000000e+02
-4.077323680654328655e+02,-4.571074330240663812e+02,-1.419805633487812884e+02,-2.233740134484631881e+02,-2.567694618923942471e+02,-3.606961734532510491e+02,-5.814485439052123184e+01,-1.357206254848445042e+02,9.523238182067871094e+00,-6.501809358596801758e-01,1.912296712398529053e-01,3.620000000000000000e+02
-4.017894172278279257e+02,-4.553090719122958490e+02,-1.401055178618045147e+02,-2.235967133072376782e+02,-2.551379334777197982e+02,-3.593753193913626092e+02,-5.667775576143185390e+01,-1.253192931830494672e+02,9.523238182067871094e+00,-6.501809358596801758e-01,1.912296712398529053e-01,3.630000000000000000e+02
-3.943738778857314173e+02,-4.513445755050324806e+02,-1.370801087606679403e+02,-2.233669405375499082e+02,-2.533337286217106339e+02,-3.586776439871764524e+02,-5.267591623631574294e+01,-1.199979450788337090e+02,9.446745872497558594e+00,-5.736890435218811035e-01,1.529837548732757568e-01,3.640000000000000000e+02
-3.871127417101013179e+02,-4.469829873103185491e+02,-1.342891599209997366e+02,-2.225868323471961503e+02,-2.523635685516685498e+02,-3.583690703307393051e+02,-4.860687675122426299e+01,-1.192681437661694872e+02,9.446745872497558594e+00,-5.736890435218811035e-01,1.529837548732757568e-01,3.650000000000000000e+02
-3.810760782181957893e+02,-4.444833633912958248e+02,-1.326455174815088185e+02,-2.215900372192115810e+02,-2.529619924807439020e+02,-3.582599850072422214e+02,-4.693035019472335989e+01,-1.205434084851221996e+02,9.446745872497558594e+00,-5.736890435218811035e-01,1.529837548732757568e-01,3.660000000000000000e+02
-3.764567371343471223e+02,-4.448043750018541687e+02,-1.321678663616813765e+02,-2.206706386410387495e+02,-2.550009912832847476e+02,-3.581615076850816877e+02,-4.850322841688648623e+01,-1.217655198578136151e+02,9.446745872497558594e+00,-5.736890435218811035e-01,1.529837548732757568e-01,3.670000000000000000e+02
-3.729152185553155050e+02,-4.468138097019536872e+02,-1.324057030321725961e+02,-2.197395716856642593e+02,-2.576395002525844120e+02,-3.578551457008138641e+02,-5.221817913067229711e+01,-1.224110122071097067e+02,9.446745872497558594e+00,-5.736890435218811035e-01,1.529837548732757568e-01,3.680000000000000000e+02
-3.700857782303530712e+02,-4.482104938595250587e+02,-1.330374920959793599e+02,-2.184011243260029005e+02,-2.599145725804819449e+02,-3.570596216228216235e+02,-5.596732264000911528e+01,-1.225246933499347506e+02,9.446745872497558594e+00,-5.736890435218811035e-01,1.529837548732757568e-01,3.690000000000000000e+02
-3.677948043366295678e+02,-4.473365241290630365e+02,-1.339872957284333097e+02,-2.163571797717791014e+02,-2.612454720054247446e+02,-3.554567415822259591e+02,-5.807802148489145111e+01,-1.215629707329385383e+02,9.446745872497558594e+00,-5.736890435218811035e-01,1.529837548732757568e-01,3.700000000000000000e+02
-3.659564862050301599e+02,-4.442882585954475871e+02,-1.351026338288588704e+02,-2.137741531439455684e+02,-2.615550519551738944e+02,-3.528740624430706703e+02,-5.820552968859692555e+01,-1.187687643608278449e+02,9.446745872497558594e+00,-5.736890435218811035e-01,1.529837548732757568e-01,3.710000000000000000e+02
-3.644119180089887777e+02,-4.404490030641127305e+02,-1.359308539329886116e+02,-2.112790566291753294e+02,-2.610476587406874387e+02,-3.495397771883453970e+02,-5.721654319068875338e+01,-1.146630133471094268e+02,9.446745872497558594e+00,-5.736890435218811035e-01,1.529837548732757568e-01,3.720000000000000000e+02
-3.629008062207099101e+02,-4.370278947812664683e+02,-1.359115398631115568e+02,-2.095401454116865807e+02,-2.598626200754497404e+02,-3.461199057474000256e+02,-5.630262018470602925e+01,-1.115360961107226103e+02,9.446745872497558594e+00,-5.736890435218811035e-01,1.529837548732757568e-01,3.730000000000000000e+02
-3.611205831094484893e+02,-4.340294635233990448e+02,-1.347650844602935649e+02,-2.087384700283055281e+02,-2.578570900649929172e+02,-3.433342044253463428e+02,-5.600722674917665245e+01,-1.117033237569185076e+02,9.446745872497558594e+00,-5.736890435218811035e-01,1.529837548732757568e-01,3.740000000000000000e+02
-3.587735524100880866e+02,-4.305532474445603839e+02,-1.326730893582100634e+02,-2.083809879601119519e+02,-2.547271991727818659e+02,-3.413909765779069403e+02,-5.585056481663605155e+01,-1.149329804818898992e+02,9.446745872497558594e+00,-5.736890435218811035e-01,1.529837548732757568e-01,3.750000000000000000e+02
-3.556487940368929230e+02,-4.259932471653803532e+02,-1.301473896200968738e+02,-2.076580310478702813e+02,-2.504687062642528872e+02,-3.397935789565149207e+02,-5.482453660822875463e+01,-1.178780885014266460e+02,9.446745872497558594e+00,-5.736890435218811035e-01,1.529837548732757568e-01,3.760000000000000000e+02
-3.518303384818432278e+02,-4.208982557752101457e+02,-1.278296975185210158e+02,-2.060812015060471367e+02,-2.458291553551689503e+02,-3.378031046298765432e+02,-5.240085158351121208e+01,-1.166530400456304051e+02,9.446745872497558594e+00,-5.736890435218811035e-01,1.529837548732757568e-01,3.770000000000000000e+02
-3.479392554690282395e+02,-4.166719322147830553e+02,-1.263835276916811381e+02,-2.038624930252126433e+02,-2.422228089038176222e+02,-3.351843747303969394e+02,-4.923958034605198009e+01,-1.103510889814554048e+02,9.446745872497558594e+00,-5.736890435218811035e-01,1.529837548732757568e-01,3.780000000000000000e+02
-3.450872336694158093e+02,-4.144219960044692925e+02,-1.263408896955347700e+02,-2.017025701868592478e+02,-2.408994046033033101e+02,-3.325011347312390626e+02,-4.694354161723117613e+01,-1.020408444144320583e+02,9.446745872497558594e+00,-5.736890435218811035e-01,1.529837548732757568e-01,3.790000000000000000e+02
-3.442844413434027047e+02,-4.140394058749482156e+02,-1.277393110228445039e+02,-2.002193041911680211e+02,-2.418686519335783487e+02,-3.306257493307730329e+02,-4.694937231849530690e+01,-9.605901660391555197e+01,9.446745872497558594e+00,-5.736890435218811035e-01,1.529837548732757568e-01,3.800000000000000000e+02
-3.455861055510254118e+02,-4.143119898350582844e+02,-1.297558254595483049e+02,-1.995659505607097799e+02,-2.435505561938466599e+02,-3.299141655946257288e+02,-4.941418688588760233e+01,-9.412673566895182375e+01,9.446745872497558594e+00,-5.736890435218811035e-01,1.529837548732757568e-01,3.810000000000000000e+02
-3.477062710667014471e+02,-4.138813787080625843e+02,-1.308471435156743610e+02,-1.995420396137160424e+02,-2.437250251515097261e+02,-3.298569780833158802e+02,-5.305753465115822110e+01,-9.411962592960912843e+01,9.446745872497558594e+00,-5.736890435218811035e-01,1.529837548732757568e-01,3.820000000000000000e+02
-3.486388570738201906e+02,-4.121405808601671197e+02,-1.295921387576918278e+02,-1.999461492387895305e+02,-2.411945902820416450e+02,-3.295248982487410103e+02,-5.611357701432325484e+01,-9.266220976897307082e+01,9.446745872497558594e+00,-5.736890435218811035e-01,1.529837548732757568e-01,3.830000000000000000e+02
-3.470148749406278057e+02,-4.093717849886024851e+02,-1.257545943902168801e+02,-2.007026938156157030e+02,-2.367918899802975830e+02,-3.283362037004358172e+02,-5.757862696967686134e+01,-8.883126706774305603e+01,9.446745872497558594e+00,-5.736890435218811035e-01,1.529837548732757568e-01,3.840000000000000000e+02
-3.431496675516573305e+02,-4.062367563988843813e+02,-1.206840589728024042e+02,-2.016470949313511483e+02,-2.327779754262642200e+02,-3.264047036085512445e+02,-5.770082713256965690e+01,-8.511505668496806720e+01,9.446745872497558594e+00,-5.736890435218811035e-01,1.529837548732757568e-01,3.850000000000000000e+02
-3.388334955426996657e+02,-4.032469007302743194e+02,-1.165562202698420151e+02,-2.023216377812041173e+02,-2.310201677792142618e+02,-3.242000638362187601e+02,-5.735577722124139655e+01,-8.460441785595457986e+01,9.446745872497558594e+00,-5.736890435218811035e-01,1.529837548732757568e-01,3.860000000000000000e+02
-3.359404780926156491e+02,-4.006384680554701845e+02,-1.149232264169338578e+02,-2.021506558494770616e+02,-2.314687937867572600e+02,-3.219465690280273975e+02,-5.697401717644652308e+01,-8.730985805232762687e+01,9.446745872497558594e+00,-5.736890435218811035e-01,1.529837548732757568e-01,3.870000000000000000e+02
-3.350084194083194689e+02,-3.985143387985922345e+02,-1.156990401580994785e+02,-2.008921856961126196e+02,-2.322626676531936027e+02,-3.193854444857024646e+02,-5.607196950224442844e+01,-8.947158474904972536e+01,9.446745872497558594e+00,-5.736890435218811035e-01,1.529837548732757568e-01,3.880000000000000000e+02
-3.350106595165780163e+02,-3.968617625338263224e+02,-1.174048902491190347e+02,-1.988801557097708610e+02,-2.313642758199698619e+02,-3.161010905052594353e+02,-5.384061980410297110e+01,-8.678379623089494999e+01,9.484992027282714844e+00,-6.501809358596801758e-01,1.912296712398529053e-01,3.890000000000000000e+02
-3.344730252410111007e+02,-3.953686339928917732e+02,-1.184270606132658941e+02,-1.967524430318069335e+02,-2.282562479650191563e+02,-3.120434635763608640e+02,-5.021431905084045866e+01,-7.859105006510435487e+01,9.484992027282714844e+00,-6.501809358596801758e-01,1.912296712398529053e-01,3.900000000000000000e+02
-3.328626180490339266e+02,-3.933892796322284084e+02,-1.181859661652142677e+02,-1.949244018880076510e+02,-2.242156164973876002e+02,-3.077331403709770257e+02,-4.637664073053701941e+01,-6.897679468458682095e+01,9.484992027282714844e+00,-6.501809358596801758e-01,1.912296712398529053e-01,3.910000000000000000e+02
-3.309362369965379003e+02,-3.903520922369962136e+02,-1.172278225469378867e+02,-1.933434422547902614e+02,-2.209754959293652519e+02,-3.039605963500098369e+02,-4.414234027395150406e+01,-6.348556334875183893e+01,9.484992027282714844e+00,-6.501809358596801758e-01,1.912296712398529053e-01,3.920000000000000000e+02
-3.297521170867221372e+02,-3.863729856148524959e+02,-1.162750429975033057e+02,-1.917486212873225213e+02,-2.190397689753749546e+02,-3.012389720124319865e+02,-4.466398992955464564e+01,-6.431324316880886727e+01,9.484992027282714844e+00,-6.501809358596801758e-01,1.912296712398529053e-01,3.930000000000000000e+02
-3.293502763609415069e+02,-3.824286719848616940e+02,-1.152533776405207391e+02,-1.901075550674690930e+02,-2.172182766852599798e+02,-2.994556116330363693e+02,-4.753037835950681256e+01,-6.826885744269930001e+01,9.484992027282714844e+00,-6.501809358596801758e-01,1.912296712398529053e-01,3.940000000000000000e+02
-3.284664262855806101e+02,-3.797392396762277258e+02,-1.133437497868408173e+02,-1.887526017464142569e+02,-2.138306586999306091e+02,-2.980003847690668408e+02,-5.101639561178126314e+01,-6.941812728273043831e+01,9.484992027282714844e+00,-6.501809358596801758e-01,1.912296712398529053e-01,3.950000000000000000e+02
-3.256571897361736774e+02,-3.787840744987520338e+02,-1.100691586301234111e+02,-1.881063551255704169e+02,-2.084946608696880048e+02,-2.962769132947651087e+02,-5.327935583751559534e+01,-6.425231044670772462e+01,9.484992027282714844e+00,-6.501809358596801758e-01,1.912296712398529053e-01,3.960000000000000000e+02
-3.208174018158699710e+02,-3.788333551648261164e+02,-1.063104055956155207e+02,-1.883189594665198001e+02,-2.028625847126381814e+02,-2.941930115264954111e+02,-5.353648608113689988e+01,-5.490836526376779148e+01,9.484992027282714844e+00,-6.501809358596801758e-01,1.912296712398529053e-01,3.970000000000000000e+02
-3.156243986947940812e+02,-3.784752150064684884e+02,-1.040902810401630632e+02,-1.891678401293509069e+02,-1.995797181966302105e+02,-2.922228636110035040e+02,-5.234324378696396707e+01,-4.754521409642575236e+01,9.484992027282714844e+00,-6.501809358596801758e-01,1.912296712398529053e-01,3.980000000000000000e+02
-3.123722016138908657e+02,-3.766936293466733332e+02,-1.050963318788508332e+02,-1.902284736288440854e+02,-2.003006260353279231e+02,-2.909724103980743166e+02,-5.089229354412782413e+01,-4.716076064267099355e+01,9.484992027282714844e+00,-6.501809358596801758e-01,1.912296712398529053e-01,3.990000000000000000e+02
-3.121233724364219597e+02,-3.735240392815335326e+02,-1.091881971364955461e+02,-1.910585194208704252e+02,-2.044188876667894874e+02,-2.906045912506338027e+02,-5.003583336517772295e+01,-5.328040163515561289e+01,9.484992027282714844e+00,-6.501809358596801758e-01,1.912296712398529053e-01,4.000000000000000000e+02
-3.137648471089228224e+02,-3.697277490215662965e+02,-1.142868303047325753e+02,-1.912444254502536296e+02,-2.095455521385651991e+02,-2.906270988577853132e+02,-4.983200888283272434e+01,-6.032315234224870437e+01,9.484992027282714844e+00,-6.501809358596801758e-01,1.912296712398529053e-01,4.010000000000000000e+02
-3.147846673266540165e+02,-3.658907327573049315e+02,-1.178377993090896325e+02,-1.904279615574926083e+02,-2.132739635214143163e+02,-2.902533895853566719e+02,-4.984065313432847688e+01,-6.240417216608125273e+01,9.484992027282714844e+00,-6.501809358596801758e-01,1.912296712398529053e-01,4.020000000000000000e+02
-3.131190486258819874e+02,-3.619090289937207672e+02,-1.186142961807036045e+02,-1.884901516858053583e+02,-2.147293521387464352e+02,-2.890464504208521248e+02,-4.973627298849623912e+01,-5.838218675030293525e+01,9.484992027282714844e+00,-6.501809358596801758e-01,1.912296712398529053e-01,4.030000000000000000e+02
-3.085802451025906521e+02,-3.573950283393533027e+02,-1.173322354287770395e+02,-1.858285738761551329e+02,-2.147101478788938493e+02,-2.873037898146048974e+02,-4.964876405227846590e+01,-5.267945127559687535e+01,9.484992027282714844e+00,-6.501809358596801758e-01,1.912296712398529053e-01,4.040000000000000000e+02
-3.028064412751682539e+02,-3.525323437599956833e+02,-1.156488357590092164e+02,-1.834075966894374687e+02,-2.144942680448280043e+02,-2.858538720610140444e+02,-5.000346533449555864e+01,-5.115246546046773801e+01,9.484992027282714844e+00,-6.501809358596801758e-01,1.912296712398529053e-01,4.050000000000000000e+02
-2.979352029439087346e+02,-3.483858041965518169e+02,-1.145658846276469376e+02,-1.823430591620360701e+02,-2.144729978106302042e+02,-2.854246520231654358e+02,-5.109483599155055344e+01,-5.578309725767621785e+01,9.484992027282714844e+00,-6.501809358596801758e-01,1.912296712398529053e-01,4.060000000000000000e+02
-2.951585434180828997e+02,-3.462105717885860940e+02,-1.137103287736504171e+02,-1.831967327227093847e+02,-2.138037388131192529e+02,-2.860746447466203790e+02,-5.280635994616477547e+01,-6.300040270351064464e+01,9.484992027282714844e+00,-6.501809358596801758e-01,1.912296712398529053e-01,4.070000000000000000e+02
-2.942012794953466255e+02,-3.463261490176726056e+02,-1.120242209759835532e+02,-1.854913965650007412e+02,-2.112711873484213356e+02,-2.870943852614295793e+02,-5.467045415652546581e+01,-6.689114024573382267e+01,9.484992027282714844e+00,-6.501809358596801758e-01,1.912296712398529053e-01,4.080000000000000000e+02
-2.938765825558507458e+02,-3.476382477263848614e+02,-1.090776345980521000e+02,-1.878893762226070976e+02,-2.065367135716942357e+02,-2.874271563752427028e+02,-5.616686641918931855e+01,-6.405472158707698327e+01,9.484992027282714844e+00,-6.501809358596801758e-01,1.912296712398529053e-01,4.090000000000000000e+02
-2.930487982656409258e+02,-3.483419023251067301e+02,-1.057282900322334172e+02,-1.889851196270060427e+02,-2.006989451734611976e+02,-2.863202569228237735e+02,-5.701104915918904226e+01,-5.562755808144947878e+01,9.484992027282714844e+00,-6.501809358596801758e-01,1.912296712398529053e-01,4.100000000000000000e+02
-2.912174434541061601e+02,-3.472181589427086692e+02,-1.035272641406977527e+02,-1.881357230184271430e+02,-1.957026371217480119e+02,-2.837759993631470934e+02,-5.722197981836688996e+01,-4.518602772127951539e+01,9.484992027282714844e+00,-6.501809358596801758e-01,1.912296712398529053e-01,4.110000000000000000e+02
-2.884664475154509091e+02,-3.443929825272625749e+02,-1.034402377536421227e+02,-1.856951311394880122e+02,-1.930751543536157442e+02,-2.805064089605666595e+02,-5.694090313865854114e+01,-3.547577111812415751e+01,9.484992027282714844e+00,-6.501809358596801758e-01,1.912296712398529053e-01,4.120000000000000000e+02
-2.850642739452805472e+02,-3.409694229199922120e+02,-1.049886978348913544e+02,-1.825099320674305545e+02,-1.929333176359004938e+02,-2.774152487654146171e+02,-5.615324250976891562e+01,-2.764194502043619650e+01,9.484992027282714844e+00,-6.501809358596801758e-01,1.912296712398529053e-01,4.130000000000000000e+02
-2.811622949004772636e+02,-3.380190445272373836e+02,-1.065142481295592916e+02,-1.791717300805339619e+02,-1.939810904596301953e+02,-2.749790599491539069e+02,-5.460869913806936893e+01,-2.326548650474251190e+01,9.484992027282714844e+00,-6.501809358596801758e-01,1.912296712398529053e-01,4.140000000000000000e+02
-2.768190255857284683e+02,-3.359403963608269805e+02,-1.063471446786843444e+02,-1.757403534673030663e+02,-1.944999009885450505e+02,-2.730287917296477644e+02,-5.213346295938026742e+01,-2.591384391273004439e+01,9.484992027282714844e+00,-6.501809358596801758e-01,1.912296712398529053e-01,4.150000000000000000e+02
-2.722481501594074871e+02,-3.346687260376329505e+02,-1.039873728659815697e+02,-1.721794276681030169e+02,-1.936124144433124457e+02,-2.711345866812675922e+02,-4.916786901190334902e+01,-3.923639483373699477e+01,9.484992027282714844e+00,-6.119350194931030273e-01,1.912296712398529053e-01,4.160000000000000000e+02
-2.680076661540488203e+02,-3.342689883172556620e+02,-1.004564146165466809e+02,-1.690090008211577697e+02,-1.918970973315322226e+02,-2.692585516509398076e+02,-4.702041901913617039e+01,-6.266713438882425180e+01,9.484992027282714844e+00,-6.119350194931030273e-01,1.912296712398529053e-01,4.170000000000000000e+02
-2.648884052122557478e+02,-3.351061339441657765e+02,-9.760155090741363892e+01,-1.673915736343924436e+02,-1.908955065519207892e+02,-2.680364217300243581e+02,-4.736276657750022423e+01,-8.915303679032922446e+01,9.484992027282714844e+00,-6.119350194931030273e-01,1.912296712398529053e-01,4.180000000000000000e+02
-2.634737734297495990e+02,-3.373439371515783023e+02,-9.684978121858193845e+01,-1.683752326863495909e+02,-1.918514526541648593e+02,-2.683202869700180599e+02,-5.106691647823390667e+01,-1.081064456473732207e+02,9.484992027282714844e+00,-6.119350194931030273e-01,1.912296712398529053e-01,4.190000000000000000e+02
-2.636426953420273094e+02,-3.403412353139988227e+02,-9.825322894662804174e+01,-1.718704825685658761e+02,-1.946025876899120703e+02,-2.703068857771731928e+02,-5.718355239754009745e+01,-1.117985918961144307e+02,9.484992027282714844e+00,-6.119350194931030273e-01,1.912296712398529053e-01,4.200000000000000000e+02
-2.644710312830998191e+02,-3.426944708808496216e+02,-1.004581210888968599e+02,-1.763051172495461287e+02,-1.974830030417169837e+02,-2.730326663419828037e+02,-6.300830518226166532e+01,-9.991625155322026330e+01,9.484992027282714844e+00,-6.119350194931030273e-01,1.912296712398529053e-01,4.210000000000000000e+02
-2.647632547742168754e+02,-3.430210094178833060e+02,-1.016171593982685408e+02,-1.793881067727602385e+02,-1.983516463172286421e+02,-2.747632523894239966e+02,-6.549201867376177688e+01,-7.860788991842855467e+01,9.484992027282714844e+00,-6.119350194931030273e-01,1.912296712398529053e-01,4.220000000000000000e+02
-2.639502825927088452e+02,-3.408222227862984255e+02,-1.006445048527752988e+02,-1.794718618201241043e+02,-1.960289073091817045e+02,-2.740420379234433312e+02,-6.319216670261266700e+01,-5.545268265068625624e+01,9.484992027282714844e+00,-6.119350194931030273e-01,1.912296712398529053e-01,4.230000000000000000e+02
-2.626524152500651326e+02,-3.366961596758819724e+02,-9.796637173384169728e+01,-1.764962711900702743e+02,-1.910984263382401878e+02,-2.705971722060749016e+02,-5.739570379745237005e+01,-3.519616676889381779e+01,9.484992027282714844e+00,-6.119350194931030273e-01,1.912296712398529053e-01,4.240000000000000000e+02
-2.623270584851111380e+02,-3.318023069940159075e+02,-9.523924827469954835e+01,-1.718806255079007315e+02,-1.854995068157459173e+02,-2.654618673817803938e+02,-5.151772427281184719e+01,-1.950902371034226235e+01,9.484992027282714844e+00,-6.119350194931030273e-01,1.912296712398529053e-01,4.250000000000000000e+02
-2.641538875465003002e+02,-3.271304398519514507e+02,-9.419997511146948455e+01,-1.675711057110192996e+02,-1.812412771212780171e+02,-2.603157014392413657e+02,-4.908533806434161306e+01,-9.415999414152793179e+00,9.484992027282714844e+00,-6.119350194931030273e-01,1.912296712398529053e-01,4.260000000000000000e+02
-2.680206489116740158e+02,-3.231641767135756709e+02,-9.544410724655745071e+01,-1.649816167957164907e+02,-1.791931142854755308e+02,-2.565883582422343352e+02,-5.162492210763139155e+01,-6.487713119689942687e+00,9.484992027282714844e+00,-6.119350194931030273e-01,1.912296712398529053e-01,4.270000000000000000e+02
-2.724893638751409526e+02,-3.200313719511682393e+02,-9.802872647331105327e+01,-1.644702488327839092e+02,-1.788171488503153341e+02,-2.549013815003495438e+02,-5.783580867832051808e+01,-1.104189714113044829e+01,9.484992027282714844e+00,-6.119350194931030273e-01,1.912296712398529053e-01,4.280000000000000000e+02
-2.758157432795551358e+02,-3.177659973187619471e+02,-1.002128698193591845e+02,-1.654801022067917984e+02,-1.789440136522143803e+02,-2.550461219204753434e+02,-6.452085132427646386e+01,-1.975306775720491714e+01,9.484992027282714844e+00,-6.119350194931030273e-01,1.912296712398529053e-01,4.290000000000000000e+02
-2.771680617857809921e+02,-3.163372079638193100e+02,-1.007683103038643821e+02,-1.670523929254459290e+02,-1.788816815046275224e+02,-2.563364524657727088e+02,-6.853656690898560555e+01,-2.632401548008692771e+01,9.484992027282714844e+00,-6.119350194931030273e-01,1.912296712398529053e-01,4.300000000000000000e+02
-2.770530324218079841e+02,-3.154945508866189812e+02,-9.982692979578632730e+01,-1.683408343678042911e+02,-1.789150347608651828e+02,-2.580284426088464897e+02,-6.843995167856928674e+01,-2.567764340398116474e+01,9.484992027282714844e+00,-6.119350194931030273e-01,1.912296712398529053e-01,4.310000000000000000e+02
-2.767124396356780380e+02,-3.147343875880069390e+02,-9.859639152588988509e+01,-1.689079056480559302e+02,-1.797991572233336228e+02,-2.595622232200084909e+02,-6.488778096249097871e+01,-1.796575820924226718e+01,9.484992027282714844e+00,-6.119350194931030273e-01,1.912296712398529053e-01,4.320000000000000000e+02
-2.771687356259690205e+02,-3.135493266892058273e+02,-9.824139655206317912e+01,-1.687585986356657486e+02,-1.817657936839950708e+02,-2.605607856894475844e+02,-5.983480161016495913e+01,-8.257589493078285159e+00,9.484992027282714844e+00,-6.119350194931030273e-01,1.912296712398529053e-01,4.330000000000000000e+02
-2.787519022170081371e+02,-3.117782272822178129e+02,-9.894944951957040757e+01,-1.681827487514556196e+02,-1.840079702513598932e+02,-2.607060259893282819e+02,-5.535302687796638565e+01,-1.834752894557823311e+00,9.484992027282714844e+00,-6.119350194931030273e-01,1.912296712398529053e-01,4.340000000000000000e+02
-2.813112792407664529e+02,-3.097169829341910372e+02,-9.999475625142167701e+01,-1.675502434852946863e+02,-1.851713517170805972e+02,-2.597274214448325438e+02,-5.287911255455765058e+01,4.423702697099543002e-01,9.484992027282714844e+00,-6.119350194931030273e-01,1.912296712398529053e-01,4.350000000000000000e+02
-2.846169678750338790e+02,-3.078404174174647778e+02,-1.006206153820721738e+02,-1.671599392039156555e+02,-1.844253087912338742e+02,-2.576075925562627162e+02,-5.303945277216234899e+01,2.184012610604440852e+00,9.484992027282714844e+00,-6.119350194931030273e-01,1.912296712398529053e-01,4.360000000000000000e+02
-2.884292001273415735e+02,-3.063433935081502568e+02,-1.007746339951227128e+02,-1.671524128313758411e+02,-1.820963689927552878e+02,-2.548273922892508381e+02,-5.567392632223391047e+01,7.076686286894528166e+00,9.484992027282714844e+00,-6.119350194931030273e-01,1.912296712398529053e-01,4.370000000000000000e+02
-2.922935808534580246e+02,-3.049050738534688207e+02,-1.009396850566413377e+02,-1.674418338793398107e+02,-1.792420817958895896e+02,-2.523112445713936722e+02,-5.975572901615441879e+01,1.474954168458498316e+01,9.484992027282714844e+00,-6.119350194931030273e-01,1.912296712398529053e-01,4.380000000000000000e+02
-2.955458825399027774e+02,-3.029330650484785110e+02,-1.013127871603883250e+02,-1.676952646046283917e+02,-1.766083818803735994e+02,-2.509479303423781857e+02,-6.343722982059807691e+01,2.127584746987622566e+01,9.484992027282714844e+00,-6.119350194931030273e-01,1.912296712398529053e-01,4.390000000000000000e+02
-2.977528854392235189e+02,-3.001322818952030502e+02,-1.013125109760553642e+02,-1.674713797279364371e+02,-1.740385133256509107e+02,-2.509939049148479171e+02,-6.465478373977657611e+01,2.379047057750722161e+01,9.484992027282714844e+00,-6.119350194931030273e-01,1.912296712398529053e-01,4.400000000000000000e+02
-2.991861974770990855e+02,-2.969192355141140069e+02,-1.000346721988685204e+02,-1.665414812692351916e+02,-1.709491944409137432e+02,-2.518894475472611703e+02,-6.224627517486032957e+01,2.422046110335622870e+01,9.484992027282714844e+00,-6.119350194931030273e-01,1.912296712398529053e-01,4.410000000000000000e+02
-3.007136590310519750e+02,-2.942625661713937006e+02,-9.721935548254305104e+01,-1.651621569553421978e+02,-1.673474017509097393e+02,-2.526915891323988035e+02,-5.682086931160029053e+01,2.781006950796927413e+01,9.484992027282714844e+00,-6.119350194931030273e-01,1.912296712398529053e-01,4.420000000000000000e+02
-3.030256673154026430e+02,-2.929779623156459820e+02,-9.368306037396996544e+01,-1.639629114744220715e+02,-1.642274894201568713e+02,-2.527413312145295095e+02,-5.052531139878101385e+01,3.750140810382845302e+01,9.484992027282714844e+00,-6.119350194931030273e-01,1.912296712398529053e-01,4.430000000000000000e+02
-3.058619600941701719e+02,-2.930226224070843273e+02,-9.071410860335072357e+01,-1.634108061824226752e+02,-1.627987962469196646e+02,-2.519827172168852485e+02,-4.571947324871052842e+01,4.978804809939720144e+01,9.484992027282714844e+00,-6.119350194931030273e-01,1.912296712398529053e-01,4.440000000000000000e+02
-3.080275974621890782e+02,-2.934186706763375696e+02,-8.901124962041376421e+01,-1.632790241086941023e+02,-1.632200528653065703e+02,-2.507268657280642401e+02,-4.357055411390911104e+01,5.668807929712102123e+01,9.484992027282714844e+00,-6.119350194931030273e-01,1.912296712398529053e-01,4.450000000000000000e+02
-3.083194399793642333e+02,-2.929332932988795619e+02,-8.820250690388138537e+01,-1.626793634288865178e+02,-1.641437917042762820e+02,-2.492051223411795036e+02,-4.367923952990349790e+01,5.254643782546054354e+01,9.484992027282714844e+00,-6.119350194931030273e-01,1.912296712398529053e-01,4.460000000000000000e+02
-3.066243725383310448e+02,-2.909810404002942050e+02,-8.737349568984882353e+01,-1.607624664601653421e+02,-1.636892037034481291e+02,-2.474087193026903151e+02,-4.492273014283000521e+01,3.941182006701956198e+01,9.484992027282714844e+00,-5.736890435218811035e-01,2.294756323099136353e-01,4.470000000000000000e+02
-3.042488690412696997e+02,-2.880058099960165237e+02,-8.602504101382055524e+01,-1.575250253964068179e+02,-1.610882157683859077e+02,-2.453257378072084975e+02,-4.658972738784677858e+01,2.582139282356638432e+01,9.484992027282714844e+00,-5.736890435218811035e-01,2.294756323099136353e-01,4.480000000000000000e+02
-3.031841628906186088e+02,-2.850412757812832751e+02,-8.453213791601319826e+01,-1.539721260910810088e+02,-1.575242687542649946e+02,-2.432211861684331780e+02,-4.872820752869120042e+01,2.005064349565327575e+01,9.484992027282714844e+00,-5.736890435218811035e-01,2.294756323099136353e-01,4.490000000000000000e+02
-3.048615531165278298e+02,-2.828491176728493883e+02,-8.378007746442654025e+01,-1.514362161096523778e+02,-1.553517957145800210e+02,-2.415898896041276203e+02,-5.152340107473355602e+01,2.414066103347840908e+01,9.484992027282714844e+00,-5.736890435218811035e-01,2.294756323099136353e-01,4.500000000000000000e+02
-3.092784594913341607e+02,-2.813526399016645883e+02,-8.442513972902179376e+01,-1.506167035926146127e+02,-1.562952441030502087e+02,-2.408086831656137292e+02,-5.450333075477828970e+01,3.400059197865675742e+01,9.484992027282714844e+00,-5.736890435218811035e-01,2.294756323099136353e-01,4.510000000000000000e+02
-3.150240107199942940e+02,-2.797839143157416402e+02,-8.642008757714165768e+01,-1.511452450703891373e+02,-1.600997933394228312e+02,-2.408455444685537259e+02,-5.647659916378052003e+01,4.461276728800430647e+01,9.484992027282714844e+00,-5.736890435218811035e-01,2.294756323099136353e-01,4.520000000000000000e+02
-3.200656573098954141e+02,-2.773563099375219281e+02,-8.903245511085560793e+01,-1.519866989449647008e+02,-1.646883748257305342e+02,-2.413136195754118489e+02,-5.629849495256712544e+01,5.426567002713227339e+01,9.484992027282714844e+00,-5.736890435218811035e-01,2.294756323099136353e-01,4.530000000000000000e+02
-3.227339051352410024e+02,-2.739109162214808748e+02,-9.113953634937524839e+01,-1.522643367994310211e+02,-1.676033717870736837e+02,-2.417996395207601381e+02,-5.373488164918398979e+01,6.322527857275326824e+01,9.484992027282714844e+00,-5.736890435218811035e-01,2.294756323099136353e-01,4.540000000000000000e+02
-3.223972308118090950e+02,-2.701061245110181517e+02,-9.157239945546189119e+01,-1.518392101141726016e+02,-1.675332824977167547e+02,-2.421685633360275460e+02,-4.966568958660855060e+01,6.872352565533083180e+01,9.484992027282714844e+00,-5.736890435218811035e-01,2.294756323099136353e-01,4.550000000000000000e+02
-3.195932011335698917e+02,-2.670722502805892873e+02,-8.949030888567040165e+01,-1.512838313858269430e+02,-1.648226764016612833e+02,-2.426065228040665716e+02,-4.553475299840374646e+01,6.289011646266226307e+01,9.484992027282714844e+00,-5.736890435218811035e-01,2.294756323099136353e-01,4.560000000000000000e+02
-3.156615798953134799e+02,-2.657561244579674167e+02,-8.479728045955198468e+01,-1.513808501110011093e+02,-1.608068147978497109e+02,-2.433954234786378947e+02,-4.257990207993771037e+01,3.783861306623157361e+01,9.484992027282714844e+00,-5.736890435218811035e-01,2.294756323099136353e-01,4.570000000000000000e+02
-3.121152369734813874e+02,-2.663444697652507784e+02,-7.840223681961060720e+01,-1.525471326129713816e+02,-1.567309374028109232e+02,-2.446020562355206494e+02,-4.140620154678572362e+01,-5.551748128938925220e+00,9.484992027282714844e+00,-5.736890435218811035e-01,2.294756323099136353e-01,4.580000000000000000e+02
-3.100687469493136632e+02,-2.681267286128354499e+02,-7.202261983266726020e+01,-1.545312813267905767e+02,-1.531577438910953788e+02,-2.459089650431947121e+02,-4.201412565068039839e+01,-5.371978845964258653e+01,9.484992027282714844e+00,-5.736890435218811035e-01,2.294756323099136353e-01,4.590000000000000000e+02
-3.099921155054562405e+02,-2.699162759118485155e+02,-6.750242729543379028e+01,-1.565258725937387680e+02,-1.501468747805520252e+02,-2.467198321048181242e+02,-4.400676361752175580e+01,-8.668846432483269382e+01,9.484992027282714844e+00,-5.736890435218811035e-01,2.294756323099136353e-01,4.600000000000000000e+02
-3.118131235107193788e+02,-2.707726820896555182e+02,-6.599845660824666993e+01,-1.576112240986999495e+02,-1.477632708574824392e+02,-2.464890769359922160e+02,-4.669479215572118846e+01,-9.071989521318755578e+01,9.484992027282714844e+00,-5.736890435218811035e-01,2.294756323099136353e-01,4.610000000000000000e+02
-3.151386171483763974e+02,-2.704862256963574509e+02,-6.751381192994949743e+01,-1.572717191022697989e+02,-1.463046670398434799e+02,-2.450614786270666627e+02,-4.911677495239882774e+01,-6.721865087652804505e+01,9.484992027282714844e+00,-5.736890435218811035e-01,2.294756323099136353e-01,4.620000000000000000e+02
-3.193285212827436226e+02,-2.694144985586281109e+02,-7.099016361956137189e+01,-1.556629872489957052e+02,-1.460595484706100251e+02,-2.427675323492462667e+02,-5.019132830601392925e+01,-3.055554175518864213e+01,9.484992027282714844e+00,-5.736890435218811035e-01,2.294756323099136353e-01,4.630000000000000000e+02
-3.234265894232853498e+02,-2.678605343619228734e+02,-7.483759837984007390e+01,-1.534616241686885587e+02,-1.469467109227957735e+02,-2.402069050902377967e+02,-4.912772025594995284e+01,2.966123660968150944e+00,9.484992027282714844e+00,-5.736890435218811035e-01,2.294756323099136353e-01,4.640000000000000000e+02
-3.262473070528299104e+02,-2.656768407671916066e+02,-7.762729752391260263e+01,-1.514331505851964721e+02,-1.484979835924123108e+02,-2.379303548643010799e+02,-4.593424080209479143e+01,2.538290498625792679e+01,9.484992027282714844e+00,-5.736890435218811035e-01,2.294756323099136353e-01,4.650000000000000000e+02
-3.268365493856804278e+02,-2.625492486728821859e+02,-7.865750038696205593e+01,-1.500536833216738160e+02,-1.502065984464579742e+02,-2.362919718743137310e+02,-4.162635302609169230e+01,3.869132926042993859e+01,9.484992027282714844e+00,-5.736890435218811035e-01,2.294756323099136353e-01,4.660000000000000000e+02
-3.250912839268735297e+02,-2.586345954424714364e+02,-7.815502057590401819e+01,-1.494033974847270656e+02,-1.518192345241373005e+02,-2.355038289146241368e+02,-3.782425621267748284e+01,4.852586813684138178e+01,9.484992027282714844e+00,-5.736890435218811035e-01,2.294756323099136353e-01,4.670000000000000000e+02
-3.219900546853659762e+02,-2.547488259591864335e+02,-7.699881210678950083e+01,-1.492739798983388937e+02,-1.532389463147860624e+02,-2.356760682036924663e+02,-3.586746076405324857e+01,5.735603280929763059e+01,9.446745872497558594e+00,-6.119350194931030273e-01,2.294756323099136353e-01,4.680000000000000000e+02
-3.190817456212294019e+02,-2.517492025787546481e+02,-7.608515515827684794e+01,-1.492794862630553325e+02,-1.541826487057123813e+02,-2.366565320960180543e+02,-3.601892289310080741e+01,6.357094256734626470e+01,9.446745872497558594e+00,-6.119350194931030273e-01,2.294756323099136353e-01,4.690000000000000000e+02
-3.175119918045675149e+02,-2.497101062177348467e+02,-7.573704626588641986e+01,-1.489109174421637363e+02,-1.540742484125603369e+02,-2.378336873692501285e+02,-3.736313533617385474e+01,6.582127117352911227e+01,9.446745872497558594e+00,-6.119350194931030273e-01,2.294756323099136353e-01,4.700000000000000000e+02
-3.173541965769964008e+02,-2.478623358141239805e+02,-7.558980822205148797e+01,-1.476748983049947128e+02,-1.524203949388247565e+02,-2.382660455453560644e+02,-3.851271786482448078e+01,6.664128381771524801e+01,9.446745872497558594e+00,-6.119350194931030273e-01,2.294756323099136353e-01,4.710000000000000000e+02
-3.178049107000820186e+02,-2.454996586303504955e+02,-7.503727611944941600e+01,-1.453943521964120009e+02,-1.493489212374920498e+02,-2.372278783832803128e+02,-3.857265530812856014e+01,7.085660104205180687e+01,9.446745872497558594e+00,-6.119350194931030273e-01,2.294756323099136353e-01,4.720000000000000000e+02
-3.180119085889564303e+02,-2.429018660203187210e+02,-7.381862893449806506e+01,-1.424572302210003727e+02,-1.456779915823149167e+02,-2.347557473246947666e+02,-3.756625973968084509e+01,8.031793293630926200e+01,9.446745872497558594e+00,-6.119350194931030273e-01,2.294756323099136353e-01,4.730000000000000000e+02
-3.177450447752767104e+02,-2.411618698176225735e+02,-7.221636429458249040e+01,-1.396847443612837196e+02,-1.423123052531259418e+02,-2.316332383194276190e+02,-3.601487524519416183e+01,9.043285099117019854e+01,9.446745872497558594e+00,-6.119350194931030273e-01,2.294756323099136353e-01,4.740000000000000000e+02
-3.173317423036137370e+02,-2.409650821886466474e+02,-7.071851161044151013e+01,-1.377956203547819314e+02,-1.394671587736920628e+02,-2.287402778006066910e+02,-3.416403671555872279e+01,9.224380647263251376e+01,9.446745872497558594e+00,-6.119350194931030273e-01,2.294756323099136353e-01,4.750000000000000000e+02
-3.170437089922929772e+02,-2.416162915469803920e+02,-6.949626560868591696e+01,-1.368752920064689533e+02,-1.364525125017189566e+02,-2.263245060577905861e+02,-3.166669755736756997e+01,7.846129835410556552e+01,9.446745872497558594e+00,-6.119350194931030273e-01,2.294756323099136353e-01,4.760000000000000000e+02
-3.166353036068685469e+02,-2.414923027713143711e+02,-6.820246695155174166e+01,-1.363423895506375629e+02,-1.322723378574701201e+02,-2.238728616454650364e+02,-2.805847559225639998e+01,4.842509684506376288e+01,9.446745872497558594e+00,-6.119350194931030273e-01,2.294756323099136353e-01,4.770000000000000000e+02
-3.155137922520279972e+02,-2.395986517215419553e+02,-6.625621268293639332e+01,-1.354688479237358933e+02,-1.265375395913715693e+02,-2.206884543459714223e+02,-2.351582351360184475e+01,8.475302269387611886e+00,9.446745872497558594e+00,-6.119350194931030273e-01,2.294756323099136353e-01,4.780000000000000000e+02
-3.133506003575575960e+02,-2.366286276743517192e+02,-6.335526270170021235e+01,-1.339850625383828628e+02,-1.199315365024876883e+02,-2.166163224175388677e+02,-1.907198748387327214e+01,-3.168612783072921957e+01,9.446745872497558594e+00,-6.119350194931030273e-01,2.294756323099136353e-01,4.790000000000000000e+02
-3.105114193769932172e+02,-2.343099952536640558e+02,-5.981735811617022591e+01,-1.322250557534832751e+02,-1.139002472230495187e+02,-2.122507707317527093e+02,-1.598263687737608052e+01,-6.352620190983225257e+01,9.446745872497558594e+00,-6.119350194931030273e-01,2.294756323099136353e-01,4.800000000000000000e+02
-3.078789597492718713e+02,-2.335853408807565756e+02,-5.649494677155666977e+01,-1.306908232806374599e+02,-1.098288452519241218e+02,-2.084614033725065383e+02,-1.474493478159865845e+01,-8.254287104634249772e+01,9.446745872497558594e+00,-6.119350194931030273e-01,2.294756323099136353e-01,4.810000000000000000e+02
-3.062578869296407902e+02,-2.334967274185805763e+02,-5.433074383783332451e+01,-1.294724455578345896e+02,-1.083009949804918506e+02,-2.057070410414253274e+02,-1.467702476426347857e+01,-8.897849439706624253e+01,9.446745872497558594e+00,-6.119350194931030273e-01,2.294756323099136353e-01,4.820000000000000000e+02
-3.058861081969835141e+02,-2.320374820447370894e+02,-5.382908054429390177e+01,-1.280953253332238546e+02,-1.088776424104362377e+02,-2.037508068403180914e+02,-1.450064314659130105e+01,-8.706528048077780113e+01,9.446745872497558594e+00,-6.119350194931030273e-01,2.294756323099136353e-01,4.830000000000000000e+02
-3.063766047041854108e+02,-2.282172354728816117e+02,-5.473206196656246902e+01,-1.259542261330511792e+02,-1.104153518601135602e+02,-2.019700738232845652e+02,-1.346970086090914265e+01,-8.327837646699526886e+01,9.446745872497558594e+00,-6.119350194931030273e-01,2.294756323099136353e-01,4.840000000000000000e+02
-3.070264437803125475e+02,-2.232963709405401005e+02,-5.612103145151581884e+01,-1.229797927329657341e+02,-1.116802579488028186e+02,-1.999562612671679744e+02,-1.210519014059877918e+01,-8.387483299130553860e+01,9.446745872497558594e+00,-6.119350194931030273e-01,2.294756323099136353e-01,4.850000000000000000e+02
-3.072118147779847277e+02,-2.199098569005520858e+02,-5.693820688699611310e+01,-1.199632597707902733e+02,-1.119302819924821506e+02,-1.979022902102142325e+02,-1.188354772101251910e+01,-9.246032274034769216e+01,9.446745872497558594e+00,-6.119350194931030273e-01,2.294756323099136353e-01,4.860000000000000000e+02
-3.066776650943627374e+02,-2.198522136746587421e+02,-5.663619750924590335e+01,-1.182166802643992014e+02,-1.112031495240030381e+02,-1.964867248421533077e+02,-1.406395801324947570e+01,-1.087793265358136523e+02,9.446745872497558594e+00,-6.119350194931030273e-01,2.294756323099136353e-01,4.870000000000000000e+02
-3.056522736227104815e+02,-2.225775231068100766e+02,-5.551298049123261080e+01,-1.187424104345698197e+02,-1.101877594546042474e+02,-1.963642237738908989e+02,-1.852344934931807074e+01,-1.293977220290937566e+02,9.446745872497558594e+00,-6.119350194931030273e-01,2.294756323099136353e-01,4.880000000000000000e+02
-3.047113848451340345e+02,-2.257278547658424941e+02,-5.445823565418618273e+01,-1.214596405977977156e+02,-1.097816768035877431e+02,-1.976483814513626385e+02,-2.348766362372703043e+01,-1.497003523836922341e+02,9.446745872497558594e+00,-6.119350194931030273e-01,2.294756323099136353e-01,4.890000000000000000e+02
-3.043740715507901768e+02,-2.270541237099287173e+02,-5.427009976813428693e+01,-1.250517504037277376e+02,-1.106173824688769400e+02,-1.997760652814397417e+02,-2.642395392450112013e+01,-1.659327140121474713e+02,9.446745872497558594e+00,-6.119350194931030273e-01,2.294756323099136353e-01,4.900000000000000000e+02
-3.046119752824631632e+02,-2.258961291179764430e+02,-5.504008046088188166e+01,-1.275957134232810404e+02,-1.127880437362277917e+02,-2.018329906764765838e+02,-2.553339990160793604e+01,-1.764144912823771847e+02,9.446745872497558594e+00,-6.119350194931030273e-01,2.294756323099136353e-01,4.910000000000000000e+02
-3.046731618283911303e+02,-2.230292990589357487e+02,-5.604336196060967268e+01,-1.276016872382665497e+02,-1.158128506502278015e+02,-2.030588695537703643e+02,-2.085010856784242605e+01,-1.818596003779973671e+02,9.446745872497558594e+00,-6.119350194931030273e-01,2.294756323099136353e-01,4.920000000000000000e+02
-3.035289452905278722e+02,-2.193966790069689523e+02,-5.620608864306518626e+01,-1.248228393376923577e+02,-1.187619018423874877e+02,-2.031459519614652436e+02,-1.425293649012860442e+01,-1.849591143205157096e+02,9.484992027282714844e+00,-6.119350194931030273e-01,1.147378161549568176e-01,4.930000000000000000e+02
-3.007344763510686789e+02,-2.152183898677735669e+02,-5.481480542919234722e+01,-1.203373896604027777e+02,-1.204981505655673573e+02,-2.021747858789954080e+02,-8.438608746109139247e+00,-1.888744645400488480e+02,9.484992027282714844e+00,-6.119350194931030273e-01,1.147378161549568176e-01,4.940000000000000000e+02
-2.970112346141938815e+02,-2.103397204286379747e+02,-5.200778210214093633e+01,-1.159036608757558042e+02,-1.200977317469521495e+02,-2.003921570205798162e+02,-5.553456429419838969e+00,-1.946679089675840260e+02,9.484992027282714844e+00,-6.119350194931030273e-01,1.147378161549568176e-01,4.950000000000000000e+02
-2.939388918894194376e+02,-2.052166043059555705e+02,-4.875323811800944895e+01,-1.130309121120910731e+02,-1.173784420425852204e+02,-1.981206489562416664e+02,-6.258581220432233749e+00,-1.991381702066400976e+02,9.484992027282714844e+00,-6.119350194931030273e-01,1.147378161549568176e-01,4.960000000000000000e+02
-2.928394022772899916e+02,-2.012236097801867345e+02,-4.630851866842021991e+01,-1.122938901776976763e+02,-1.131794072813540879e+02,-1.958145241715596967e+02,-9.601594385077532934e+00,-1.954663862557217726e+02,9.484992027282714844e+00,-6.119350194931030273e-01,1.147378161549568176e-01,4.970000000000000000e+02
-2.937243405732820065e+02,-1.997441974604723782e+02,-4.547220268454827874e+01,-1.131960845693787405e+02,-1.090255093342734654e+02,-1.940161000349926326e+02,-1.359575576513339001e+01,-1.776927643953811184e+02,9.484992027282714844e+00,-6.119350194931030273e-01,1.147378161549568176e-01,4.980000000000000000e+02
-2.952295586992695462e+02,-2.008537507281760099e+02,-4.610349524214734629e+01,-1.145580444727439726e+02,-1.062366302847588031e+02,-1.930568122658123684e+02,-1.615605648781684067e+01,-1.465671064988614489e+02,9.484992027282714844e+00,-6.119350194931030273e-01,1.147378161549568176e-01,4.990000000000000000e+02
-2.956558268099452107e+02,-2.029313941011756697e+02,-4.726688727133841894e+01,-1.151840744830807353e+02,-1.051055314294610525e+02,-1.927292966449385858e+02,-1.602347517246641928e+01,-1.118707054709111617e+02,9.484992027282714844e+00,-6.119350194931030273e-01,1.147378161549568176e-01,5.000000000000000000e+02
-2.942525681768338472e+02,-2.036914758822481417e+02,-4.791592781407632629e+01,-1.144619497207341965e+02,-1.048162293553440350e+02,-1.923274040333496941e+02,-1.332124983138260177e+01,-8.796328257401273731e+01,9.484992027282714844e+00,-6.119350194931030273e-01,1.147378161549568176e-01,5.010000000000000000e+02
-2.916434988858020461e+02,-2.017995434521421885e+02,-4.758207618304334119e+01,-1.125952535693628533e+02,-1.041795400213582070e+02,-1.911346537565327708e+02,-9.456685636956649432e+00,-8.473813388982000561e+01,9.484992027282714844e+00,-6.119350194931030273e-01,1.147378161549568176e-01,5.020000000000000000e+02
-2.890373419740126337e+02,-1.977296616171495316e+02,-4.650225823528171532e+01,-1.103648113144723766e+02,-1.025184975333016837e+02,-1.889538922010813167e+02,-6.332608435879819808e+00,-1.007423150184524729e+02,9.484992027282714844e+00,-6.119350194931030273e-01,1.147378161549568176e-01,5.030000000000000000e+02
-2.869696707748125846e+02,-1.932641803402465257e+02,-4.513912022219574283e+01,-1.086029043153424709e+02,-9.995804469630775202e+01,-1.861901359187824028e+02,-5.283485640132994376e+00,-1.242909049582244734e+02,9.484992027282714844e+00,-6.119350194931030273e-01,1.147378161549568176e-01,5.040000000000000000e+02
-2.847489552087085940e+02,-1.901986202857306125e+02,-4.362498132820371666e+01,-1.077516472363756179e+02,-9.700791079206419454e+01,-1.834542462201184208e+02,-6.398499087278310071e+00,-1.422051826894825126e+02,9.484992027282714844e+00,-6.119350194931030273e-01,1.147378161549568176e-01,5.050000000000000000e+02
-2.811473287282161095e+02,-1.892987945213563989e+02,-4.171689998161843960e+01,-1.077578304517805350e+02,-9.399043304666781751e+01,-1.811196488726186544e+02,-8.632065749374191910e+00,-1.493133893052897747e+02,9.484992027282714844e+00,-6.119350194931030273e-01,1.147378161549568176e-01,5.060000000000000000e+02
-2.757348028275929437e+02,-1.900871933502240267e+02,-3.927128355281246286e+01,-1.082274381296176671e+02,-9.089401673510582214e+01,-1.792187505877400326e+02,-1.051628191463237272e+01,-1.509443758284872388e+02,9.484992027282714844e+00,-6.119350194931030273e-01,1.147378161549568176e-01,5.070000000000000000e+02
-2.695976955418720991e+02,-1.912735300207207274e+02,-3.664140347430642919e+01,-1.085867736569151702e+02,-8.766087628066168236e+01,-1.776120712502685137e+02,-1.089159306335929500e+01,-1.565610517225049989e+02,9.484992027282714844e+00,-6.119350194931030273e-01,1.147378161549568176e-01,5.080000000000000000e+02
-2.647125687330053552e+02,-1.913681955628963465e+02,-3.448809772026336873e+01,-1.081666927488016654e+02,-8.448689654141179517e+01,-1.760917850403216107e+02,-9.253294833662380370e+00,-1.702793444019048650e+02,9.484992027282714844e+00,-6.119350194931030273e-01,1.147378161549568176e-01,5.090000000000000000e+02
-2.624681759397401493e+02,-1.892732620371749590e+02,-3.319810310615698512e+01,-1.063951132074012520e+02,-8.182990563105715864e+01,-1.743287130075501352e+02,-5.809476694872039104e+00,-1.865875349382392301e+02,9.484992027282714844e+00,-6.119350194931030273e-01,1.147378161549568176e-01,5.100000000000000000e+02
-2.626057175190813950e+02,-1.848400507248981057e+02,-3.259553719284980389e+01,-1.032053790833428195e+02,-8.021321705434971250e+01,-1.719312109647502496e+02,-1.499373067298506612e+00,-1.948811198418117385e+02,9.484992027282714844e+00,-6.119350194931030273e-01,1.147378161549568176e-01,5.110000000000000000e+02
-2.634789516741642501e+02,-1.791899709565501553e+02,-3.227953480026030775e+01,-9.935462733312593286e+01,-8.003872311596791178e+01,-1.687828759903420917e+02,2.116229769012250017e+00,-1.886855390836411175e+02,9.484992027282714844e+00,-6.119350194931030273e-01,1.147378161549568176e-01,5.120000000000000000e+02
-2.633414523800556708e+02,-1.743806694395816521e+02,-3.215545281131392130e+01,-9.615362515092999729e+01,-8.141321204596476946e+01,-1.653605025191277491e+02,3.431929542580405723e+00,-1.715145170919373641e+02,9.484992027282714844e+00,-6.119350194931030273e-01,1.147378161549568176e-01,5.130000000000000000e+02
-2.614660226227643989e+02,-1.723040915994527609e+02,-3.245107194215756863e+01,-9.454704877441974986e+01,-8.388522065335325806e+01,-1.625411411388761280e+02,1.829200072336789162e+00,-1.544605342405305350e+02,9.484992027282714844e+00,-6.119350194931030273e-01,1.147378161549568176e-01,5.140000000000000000e+02
-2.581613607134095218e+02,-1.734213261009334701e+02,-3.310498959045992251e+01,-9.425503229201035538e+01,-8.622933607499567188e+01,-1.608626233623949702e+02,-1.551915118340389199e+00,-1.478335776083670225e+02,9.484992027282714844e+00,-6.119350194931030273e-01,1.147378161549568176e-01,5.150000000000000000e+02
-2.538928705224224132e+02,-1.763217736087283356e+02,-3.324409675069125569e+01,-9.387834188325018658e+01,-8.669654584351860649e+01,-1.598891476566163874e+02,-4.186791846124378935e+00,-1.539926509490907165e+02,9.484992027282714844e+00,-6.119350194931030273e-01,1.147378161549568176e-01,5.160000000000000000e+02
-2.485823765040249782e+02,-1.786028129734897902e+02,-3.153520982260488381e+01,-9.206990121108356107e+01,-8.393657979083752707e+01,-1.584153581659962811e+02,-3.762072483452357119e+00,-1.669827690394420188e+02,9.484992027282714844e+00,-6.119350194931030273e-01,1.147378161549568176e-01,5.170000000000000000e+02
-2.418869125554804214e+02,-1.784976762877024612e+02,-2.731609958278613703e+01,-8.877718244049094665e+01,-7.807765869700392614e+01,-1.554629984778525795e+02,1.229589920998250818e-01,-1.784689852717639269e+02,9.484992027282714844e+00,-6.119350194931030273e-01,1.147378161549568176e-01,5.180000000000000000e+02
-2.341443554267364107e+02,-1.760155625580250671e+02,-2.150137948901021900e+01,-8.533739782098552951e+01,-7.099707539682208335e+01,-1.511757708213444857e+02,5.601837739905931812e+00,-1.843458754171369947e+02,9.484992027282714844e+00,-6.119350194931030273e-01,1.147378161549568176e-01,5.190000000000000000e+02
-2.268629509942350069e+02,-1.727659898680822153e+02,-1.630787519886598602e+01,-8.325316475760223511e+01,-6.530303615292882569e+01,-1.467384257022829388e+02,9.938549872444355060e+00,-1.865777853135100486e+02,9.408499717712402344e+00,-6.119350194931030273e-01,1.912296712398529053e-01,5.200000000000000000e+02
-2.219808399130961334e+02,-1.707110993795786271e+02,-1.385607789629966646e+01,-8.277790855235434719e+01,-6.264309534732296925e+01,-1.433541874615925735e+02,1.157970492812728480e+01,-1.895954856987159474e+02,9.408499717712402344e+00,-6.119350194931030273e-01,1.912296712398529053e-01,5.210000000000000000e+02
-2.203604308102485447e+02,-1.708728483325785419e+02,-1.472567281527722116e+01,-8.266102288286538169e+01,-6.265256819804449151e+01,-1.412141561674784498e+02,1.119276413452053021e+01,-1.953538411993040427e+02,9.408499717712402344e+00,-6.119350194931030273e-01,1.912296712398529053e-01,5.220000000000000000e+02
-2.208714826176731094e+02,-1.728887241702000210e+02,-1.761325371995508249e+01,-8.128740351677583931e+01,-6.339962921801611628e+01,-1.393733230469158570e+02,1.092074710908582347e+01,-2.016990119014201355e+02,9.408499717712402344e+00,-6.119350194931030273e-01,1.912296712398529053e-01,5.230000000000000000e+02
-2.210140777991180130e+02,-1.755162721325682469e+02,-2.032791688479960612e+01,-7.811056529174993557e+01,-6.293963163617354439e+01,-1.365854140330320661e+02,1.258887482718364481e+01,-2.049927969627638049e+02,9.408499717712402344e+00,-6.119350194931030273e-01,1.912296712398529053e-01,5.240000000000000000e+02
-2.186732698376295048e+02,-1.775174972911297573e+02,-2.131149909334430959e+01,-7.407129750224135023e+01,-6.069595810898749733e+01,-1.323285487686011948e+02,1.634300666596209339e+01,-2.039119330339383396e+02,9.408499717712402344e+00,-6.119350194931030273e-01,1.912296712398529053e-01,5.250000000000000000e+02
-2.135790882510891606e+02,-1.782660004309179840e+02,-2.052817923575639725e+01,-7.072493934774252011e+01,-5.760605679160926229e+01,-1.271753087472779953e+02,2.068894914608335966e+01,-2.006202292013390434e+02,9.408499717712402344e+00,-6.119350194931030273e-01,1.912296712398529053e-01,5.260000000000000000e+02
-2.073083412782257255e+02,-1.777997361619245567e+02,-1.914849969723309187e+01,-6.899529052075854452e+01,-5.508012156519862401e+01,-1.223031827695731408e+02,2.370628425149379837e+01,-1.984704108291143712e+02,9.408499717712402344e+00,-6.119350194931030273e-01,1.912296712398529053e-01,5.270000000000000000e+02
-2.019231718461742275e+02,-1.764491893113054175e+02,-1.839200067441470310e+01,-6.865139581005314540e+01,-5.375065462498696434e+01,-1.186252896019987020e+02,2.441349320162225922e+01,-1.988069537116766696e+02,9.408499717712402344e+00,-6.119350194931030273e-01,1.912296712398529053e-01,5.280000000000000000e+02
-1.984480420746426717e+02,-1.743731084604469288e+02,-1.848956236822505161e+01,-6.876806559354918136e+01,-5.303889226333285478e+01,-1.162056832240104995e+02,2.335112011018964040e+01,-2.000192233734173897e+02,9.408499717712402344e+00,-6.119350194931030273e-01,1.912296712398529053e-01,5.290000000000000000e+02
-1.963840612984931795e+02,-1.713278362537748762e+02,-1.857413263625903710e+01,-6.855112664842226877e+01,-5.180957846623823571e+01,-1.143346061205625119e+02,2.211480162004454542e+01,-1.995826236661246185e+02,9.408499717712402344e+00,-6.119350194931030273e-01,1.912296712398529053e-01,5.300000000000000000e+02
-1.944388254388495625e+02,-1.668230484683899704e+02,-1.754593293779907981e+01,-6.775810604988600971e+01,-4.947358955367280942e+01,-1.121296117364609017e+02,2.228610666320400924e+01,-1.968611739046646107e+02,9.408499717712402344e+00,-6.119350194931030273e-01,1.912296712398529053e-01,5.310000000000000000e+02
-1.916567933403339339e+02,-1.605631611829935537e+02,-1.515523383376603306e+01,-6.651347139987683477e+01,-4.658411110039287450e+01,-1.091859750234684725e+02,2.449791972774437454e+01,-1.938793203060886299e+02,9.408499717712402344e+00,-6.119350194931030273e-01,1.912296712398529053e-01,5.320000000000000000e+02
-1.879868994362441299e+02,-1.528505710110139262e+02,-1.234034757009885652e+01,-6.491901812089190571e+01,-4.443347081459114634e+01,-1.058036632079119954e+02,2.818594121695196009e+01,-1.934357195929424051e+02,9.408499717712402344e+00,-6.119350194931030273e-01,1.912296712398529053e-01,5.330000000000000000e+02
-1.839789698399908957e+02,-1.446056384046769381e+02,-1.048872603393556346e+01,-6.293140965584052537e+01,-4.398543243140420600e+01,-1.026526410287842737e+02,3.209413942857281654e+01,-1.965240666388572208e+02,9.408499717712402344e+00,-6.119350194931030273e-01,1.912296712398529053e-01,5.340000000000000000e+02
-1.800910148890829987e+02,-1.369268622632075676e+02,-1.023256436679503167e+01,-6.058865400162267179e+01,-4.503469538449098764e+01,-1.001857947115913703e+02,3.511144581754933824e+01,-2.015232117023597311e+02,9.408499717712402344e+00,-6.119350194931030273e-01,1.912296712398529053e-01,5.350000000000000000e+02
-1.763020463690627366e+02,-1.304848348367077051e+02,-1.087651824376098375e+01,-5.827196139262514407e+01,-4.633440496855610036e+01,-9.830616707160697842e+01,3.683471649576767959e+01,-2.057453095132455019e+02,9.408499717712402344e+00,-6.119350194931030273e-01,1.912296712398529053e-01,5.360000000000000000e+02
-1.722809325780208383e+02,-1.251794680206894554e+02,-1.103796052312736720e+01,-5.664665166696613596e+01,-4.663597724215742346e+01,-9.655877497157052858e+01,3.753064023934848592e+01,-2.077039191365620354e+02,9.408499717712402344e+00,-6.119350194931030273e-01,1.912296712398529053e-01,5.370000000000000000e+02
-1.678271395347755970e+02,-1.202836436550314829e+02,-9.952100771662571788e+00,-5.623802493559833238e+01,-4.576512985649242182e+01,-9.462344995868716069e+01,3.767133316434683366e+01,-2.080243034023769724e+02,9.408499717712402344e+00,-6.119350194931030273e-01,1.912296712398529053e-01,5.380000000000000000e+02
-1.631504893329274637e+02,-1.149498267458502596e+02,-8.253789867654631962e+00,-5.697054999103920636e+01,-4.476418550013659114e+01,-9.260945061252186861e+01,3.752692804346224875e+01,-2.084386026250222130e+02,9.408499717712402344e+00,-6.119350194931030273e-01,1.912296712398529053e-01,5.390000000000000000e+02
-1.587974655707657803e+02,-1.087157492881033249e+02,-7.477557831184185488e+00,-5.809679384740229580e+01,-4.490083975873130839e+01,-9.086147430638902733e+01,3.715629032891138195e+01,-2.100954971070932515e+02,9.408499717712402344e+00,-6.119350194931030273e-01,1.912296712398529053e-01,5.400000000000000000e+02
-1.553518524970004364e+02,-1.017077897111230413e+02,-8.693893551836481493e+00,-5.864497640352328744e+01,-4.638663486981931783e+01,-8.949998111722288741e+01,3.668986744872927375e+01,-2.127903237198479474e+02,9.408499717712402344e+00,-6.119350194931030273e-01,1.912296712398529053e-01,5.410000000000000000e+02
-1.531248290584926508e+02,-9.449506479851697804e+01,-1.150627843057827704e+01,-5.806063383673608769e+01,-4.800388352473419218e+01,-8.819695143308854313e+01,3.651365228889972059e+01,-2.155707675752792056e+02,9.408499717712402344e+00,-6.119350194931030273e-01,1.912296712398529053e-01,5.420000000000000000e+02
-1.519546939937281422e+02,-8.774102039280660392e+01,-1.428378619072645961e+01,-5.651094505461605877e+01,-4.805117075310499786e+01,-8.643903211643282702e+01,3.712179087180629722e+01,-2.177940486672041516e+02,9.408499717712402344e+00,-6.119350194931030273e-01,1.912296712398529053e-01,5.430000000000000000e+02
-1.511735529762399892e+02,-8.187443546803297068e+01,-1.539582669947867544e+01,-5.459197397980005917e+01,-4.581677581365966034e+01,-8.401881364389737428e+01,3.876154059205418889e+01,-2.195134122097097134e+02,9.408499717712402344e+00,-6.119350194931030273e-01,1.912296712398529053e-01,5.440000000000000000e+02
-1.498032078496617032e+02,-7.696287249657598295e+01,-1.437935746888706490e+01,-5.274329183178633684e+01,-4.227184064665379992e+01,-8.127187579600922618e+01,4.118326127954605909e+01,-2.210439695631857830e+02,9.408499717712402344e+00,-6.119350194931030273e-01,1.912296712398529053e-01,5.450000000000000000e+02
-1.469823096291938782e+02,-7.282683642964275350e+01,-1.210961179425521550e+01,-5.095230525858005421e+01,-3.933829843093553791e+01,-7.882916351842595759e+01,4.369388572997286246e+01,-2.224183171755557851e+02,9.408499717712402344e+00,-6.119350194931030273e-01,1.912296712398529053e-01,5.460000000000000000e+02
-1.424540369772012127e+02,-6.927001342156472674e+01,-9.966966518806657405e+00,-4.901618207063438604e+01,-3.836434909751733358e+01,-7.711498417941220396e+01,4.546693043362938624e+01,-2.233882311682937143e+02,9.408499717712402344e+00,-6.119350194931030273e-01,1.912296712398529053e-01,5.470000000000000000e+02
-1.367841385399406136e+02,-6.622501381214988214e+01,-8.818469956357148476e+00,-4.701404895857922384e+01,-3.912768142398999771e+01,-7.603544016022715368e+01,4.592892568635124917e+01,-2.239221845973834206e+02,9.408499717712402344e+00,-6.119350194931030273e-01,1.912296712398529053e-01,5.480000000000000000e+02
-1.310766890899049031e+02,-6.371357029922819493e+01,-8.615654711117713305e+00,-4.539613353963886766e+01,-4.016115262746825465e+01,-7.508974025835050270e+01,4.507432492866064422e+01,-2.245121646756233531e+02,9.408499717712402344e+00,-6.119350194931030273e-01,1.912296712398529053e-01,5.490000000000000000e+02
-1.263318133608381686e+02,-6.169814016758118669e+01,-8.743964289706127602e+00,-4.452363976768083376e+01,-3.999152179155589693e+01,-7.375275299861459644e+01,4.360492171903024428e+01,-2.257736728101572226e+02,9.408499717712402344e+00,-6.119350194931030273e-01,1.912296712398529053e-01,5.500000000000000000e+02
-1.229232005053281682e+02,-6.001179479407619510e+01,-8.626470806693760096e+00,-4.414362258457003918e+01,-3.815479201508787810e+01,-7.179677006685960805e+01,4.275303829986114579e+01,-2.276533993930897850e+02,9.523238182067871094e+00,-6.119350194931030273e-01,2.294756323099136353e-01,5.510000000000000000e+02
-1.205845762579519942e+02,-5.845591429442447406e+01,-8.027884335477210698e+00,-4.341771603246797895e+01,-3.520950233528310491e+01,-6.932915919170227426e+01,4.371477443618096004e+01,-2.291511300707534247e+02,9.523238182067871094e+00,-6.119350194931030273e-01,2.294756323099136353e-01,5.520000000000000000e+02
-1.188101425340755668e+02,-5.693953474143927451e+01,-6.932323685259689228e+00,-4.156647783647804317e+01,-3.194832226097696548e+01,-6.658492743727038032e+01,4.690167738550735521e+01,-2.289999493220439035e+02,9.523238182067871094e+00,-6.119350194931030273e-01,2.294756323099136353e-01,5.530000000000000000e+02
-1.171897685465319228e+02,-5.547225715339118324e+01,-5.299480880338705902e+00,-3.852362830358288193e+01,-2.866333491921341192e+01,-6.369319613466541341e+01,5.150806145584192564e+01,-2.267496577310375869e+02,9.523238182067871094e+00,-6.119350194931030273e-01,2.294756323099136353e-01,5.540000000000000000e+02
-1.153505688609930075e+02,-5.399333202103662188e+01,-3.029046803754681605e+00,-3.494713376884101308e+01,-2.508917057278449647e+01,-6.060104777896958694e+01,5.584811893530331872e+01,-2.232092004061305488e+02,9.523238182067871094e+00,-6.119350194931030273e-01,2.294756323099136353e-01,5.550000000000000000e+02
-1.127096761968950887e+02,-5.223750518557608302e+01,-1.483777916910185013e-01,-3.157930624763775995e+01,-2.092122820052645693e+01,-5.718104062924612663e+01,5.839566122027463280e+01,-2.197713258916464838e+02,9.523238182067871094e+00,-6.119350194931030273e-01,2.294756323099136353e-01,5.560000000000000000e+02
-1.085361867070096196e+02,-4.985342730975753511e+01,3.024504281491317670e+00,-2.861774033301117015e+01,-1.633413014017241949e+01,-5.342372541404074582e+01,5.880863363298522017e+01,-2.172656069880831637e+02,9.523238182067871094e+00,-6.119350194931030273e-01,2.294756323099136353e-01,5.570000000000000000e+02
-1.024838390583208820e+02,-4.672431657004017325e+01,5.954633483833276841e+00,-2.572560624679772445e+01,-1.207736533323804906e+01,-4.957629631593408703e+01,5.811663077024968516e+01,-2.155070567247603321e+02,9.523238182067871094e+00,-6.119350194931030273e-01,2.294756323099136353e-01,5.580000000000000000e+02
-9.513511848726921016e+01,-4.318425163314714155e+01,8.152947913274147140e+00,-2.263731985477807029e+01,-9.166713385584444040e+00,-4.614403022950136801e+01,5.786188797272916418e+01,-2.139651594933766319e+02,9.523238182067871094e+00,-6.119350194931030273e-01,2.294756323099136353e-01,5.590000000000000000e+02
-8.790419712476796121e+01,-3.987602679811971029e+01,9.407402118833488203e+00,-1.969647230639384361e+01,-8.430591342592379078e+00,-4.374462852554097481e+01,5.886736479569481162e+01,-2.127965330059250846e+02,9.523238182067871094e+00,-6.119350194931030273e-01,2.294756323099136353e-01,5.600000000000000000e+02
-8.219052961821762437e+01,-3.731331170897283300e+01,9.827115393112762831e+00,-1.772809352286094509e+01,-1.009575223002138955e+01,-4.283501493518815550e+01,6.066241714570060140e+01,-2.130492063485580729e+02,9.523238182067871094e+00,-6.119350194931030273e-01,2.294756323099136353e-01,5.610000000000000000e+02
-7.846092661384500389e+01,-3.550081409867379989e+01,9.726630106777520268e+00,-1.732620661874352663e+01,-1.350637060970802850e+01,-4.338852121326635825e+01,6.203484063709947804e+01,-2.156064366716218501e+02,9.523238182067871094e+00,-6.119350194931030273e-01,2.294756323099136353e-01,5.620000000000000000e+02
-7.610208207033247163e+01,-3.393830519822404312e+01,9.461896436112510855e+00,-1.823902581353831920e+01,-1.717302867852413328e+01,-4.472195899837242905e+01,6.215322869156443630e+01,-2.198810814509997726e+02,9.523238182067871094e+00,-6.119350194931030273e-01,2.294756323099136353e-01,5.630000000000000000e+02
-7.416517977728472033e+01,-3.200376438064813556e+01,9.286171042616842897e+00,-1.945962166554636497e+01,-1.934879997911775718e+01,-4.569610764392200508e+01,6.121753015979084012e+01,-2.237477872243689490e+02,9.523238182067871094e+00,-6.119350194931030273e-01,2.294756323099136353e-01,5.640000000000000000e+02
-7.223229342700687994e+01,-2.941906082234163478e+01,9.257934261877380777e+00,-1.997667467281280551e+01,-1.898278647875667957e+01,-4.533615290732996073e+01,6.009647248502187722e+01,-2.250832368560877512e+02,9.523238182067871094e+00,-6.119350194931030273e-01,2.294756323099136353e-01,5.650000000000000000e+02
-7.056031867272577074e+01,-2.647283764442181564e+01,9.245054398379579652e+00,-1.954666395745516638e+01,-1.644863353971049946e+01,-4.353741849481230020e+01,5.937870021580783941e+01,-2.236384854796397121e+02,9.523238182067871094e+00,-6.119350194931030273e-01,2.294756323099136353e-01,5.660000000000000000e+02
-6.944342741042783018e+01,-2.384128402748137887e+01,9.092069282845841371e+00,-1.881584463446415612e+01,-1.335750841345725348e+01,-4.126205070200740010e+01,5.882224559269707242e+01,-2.213972624168382026e+02,9.523238182067871094e+00,-6.119350194931030273e-01,2.294756323099136353e-01,5.670000000000000000e+02
-6.857559156651768717e+01,-2.210774680407484993e+01,8.871382592471491080e+00,-1.869613082670730364e+01,-1.141840049424899917e+01,-3.990127801371636451e+01,5.773372373489110032e+01,-2.208872142413038091e+02,9.523238182067871094e+00,-6.119350194931030273e-01,2.294756323099136353e-01,5.680000000000000000e+02
-6.717097715892487031e+01,-2.128815494959053467e+01,8.954340360371134011e+00,-1.954528900295008498e+01,-1.119261154657033330e+01,-4.017612767164428078e+01,5.584254042151223985e+01,-2.229078039481355518e+02,9.523238182067871094e+00,-6.119350194931030273e-01,2.294756323099136353e-01,5.690000000000000000e+02
-6.472397718041247572e+01,-2.066844022572331596e+01,9.735782291294526658e+00,-2.084135021819929534e+01,-1.178017202198861924e+01,-4.146359661379392492e+01,5.375202805734988942e+01,-2.257677176661054546e+02,9.523238182067871094e+00,-6.119350194931030273e-01,2.294756323099136353e-01,5.700000000000000000e+02
-6.156362273524246120e+01,-1.908787752898933832e+01,1.119978222788631683e+01,-2.157523798034890206e+01,-1.170609271151261055e+01,-4.217428875844052527e+01,5.251136249497722019e+01,-2.267578035382066446e+02,9.523238182067871094e+00,-6.119350194931030273e-01,2.294756323099136353e-01,5.710000000000000000e+02
-5.854778098130009312e+01,-1.552643474849173799e+01,1.279031955111895513e+01,-2.096778382877528202e+01,-1.017907531816490518e+01,-4.091026399582733575e+01,5.275694160925559117e+01,-2.245089457570084051e+02,9.446745872497558594e+00,-5.736890435218811035e-01,1.529837548732757568e-01,5.720000000000000000e+02
-5.617138597757002572e+01,-9.645179489787551574e+00,1.386014467721361143e+01,-1.890436600236171216e+01,-7.597112887246112223e+00,-3.743396112499067385e+01,5.427078414880088530e+01,-2.200656206949061016e+02,9.446745872497558594e+00,-5.736890435218811035e-01,1.529837548732757568e-01,5.730000000000000000e+02
-5.400918361858566641e+01,-1.925060667641446344e+00,1.437593120109886513e+01,-1.582299243471243244e+01,-4.941503059219030547e+00,-3.267209271182946395e+01,5.633516624330877676e+01,-2.157698246998697869e+02,9.446745872497558594e+00,-5.736890435218811035e-01,1.529837548732757568e-01,5.740000000000000000e+02
-5.107909652323360206e+01,6.662333657423005207e+00,1.515893129616961232e+01,-1.231168463616450026e+01,-2.764549073275702540e+00,-2.789334617880376754e+01,5.844981098095740890e+01,-2.131683949510479579e+02,9.446745872497558594e+00,-5.736890435218811035e-01,1.529837548732757568e-01,5.750000000000000000e+02
-4.675005434634476842e+01,1.518622009812315810e+01,1.729804856793089129e+01,-8.843512302300950978e+00,-7.573573964364186395e-01,-2.388109285634709522e+01,6.069974082766748325e+01,-2.119367363056699105e+02,9.446745872497558594e+00,-5.736890435218811035e-01,1.529837548732757568e-01,5.760000000000000000e+02
-4.127440549160564842e+01,2.311122561471165682e+01,2.119149406852011452e+01,-5.775995627547672484e+00,1.819069621629751055e+00,-2.074070114964342793e+01,6.351672719557063829e+01,-2.106383522004089173e+02,9.446745872497558594e+00,-5.736890435218811035e-01,1.529837548732757568e-01,5.770000000000000000e+02
-3.545795100641407771e+01,3.027569417278755282e+01,2.613124194169176917e+01,-3.384547163817842375e+00,5.409180265440227231e+00,-1.822851520375843393e+01,6.718820692611552658e+01,-2.083224678061596933e+02,9.446745872497558594e+00,-5.736890435218811035e-01,1.529837548732757568e-01,5.780000000000000000e+02
-2.989761189805358299e+01,3.661718559837390785e+01,3.086490777955259546e+01,-1.714950612640677718e+00,9.860977504933543969e+00,-1.605141543502759305e+01,7.161010896020889049e+01,-2.053273108227240300e+02,9.446745872497558594e+00,-5.736890435218811035e-01,1.529837548732757568e-01,5.790000000000000000e+02
-2.464349236343696248e+01,4.194337526306117070e+01,3.459417159179065493e+01,-3.873545698952511884e-01,1.466583642734076420e+01,-1.386997576160865719e+01,7.638979883729916764e+01,-2.026652687757778040e+02,9.446745872497558594e+00,-5.736890435218811035e-01,1.529837548732757568e-01,5.800000000000000000e+02
-1.963459354297447135e+01,4.595062236208286777e+01,3.741968759443443560e+01,1.300431341769581195e+00,1.928973669933475321e+01,-1.126541688112774864e+01,8.101122281238895084e+01,-2.008993049149976287e+02,9.446745872497558594e+00,-5.736890435218811035e-01,1.529837548732757568e-01,5.810000000000000000e+02
-1.536576310572127113e+01,4.845040430614244542e+01,3.981507187432362116e+01,3.878133960448394646e+00,2.323208351375251368e+01,-7.977231255885271821e+00,8.483891258507719613e+01,-1.997963637558059418e+02,9.446745872497558594e+00,-5.736890435218811035e-01,1.529837548732757568e-01,5.820000000000000000e+02
-1.291821945748961298e+01,4.958078450802531734e+01,4.174658914398060006e+01,7.195760989194241120e+00,2.593435184027475771e+01,-4.262451409886125475e+00,8.709221388832520461e+01,-1.989980138408536732e+02,9.446745872497558594e+00,-5.736890435218811035e-01,1.529837548732757568e-01,5.830000000000000000e+02
-1.309756726307386998e+01,4.980702756672872056e+01,4.243524832944603986e+01,1.041700112599028216e+01,2.688243165924723144e+01,-9.100298296398250386e-01,8.706127214182924945e+01,-1.987637011591250484e+02,9.446745872497558594e+00,-5.736890435218811035e-01,1.529837548732757568e-01,5.840000000000000000e+02
-1.536336265137288137e+01,4.969732431728334632e+01,4.110781381835840875e+01,1.261313960011102608e+01,2.597678819975772058e+01,1.279798942021443509e+00,8.457759731214537169e+01,-1.997915447004488669e+02,9.446745872497558594e+00,-5.736890435218811035e-01,1.529837548732757568e-01,5.850000000000000000e+02
-1.759585349599728943e+01,4.962446399563123123e+01,3.803848414013555157e+01,1.347494645638107613e+01,2.381138314630152308e+01,2.129418224572873442e+00,8.038786365258420119e+01,-2.022434163226062083e+02,9.446745872497558594e+00,-5.736890435218811035e-01,1.529837548732757568e-01,5.860000000000000000e+02
-1.712837910044254386e+01,4.960726093212724663e+01,3.480522184723122336e+01,1.351832433745403250e+01,2.149868970984971384e+01,2.215416103586903773e+00,7.602973802804262959e+01,-2.051055315947560302e+02,9.446745872497558594e+00,-5.736890435218811035e-01,1.529837548732757568e-01,5.870000000000000000e+02
-1.242122360903158551e+01,4.940860444244026439e+01,3.337973555429198314e+01,1.361844851935893530e+01,2.009699161807657219e+01,2.359509850906761130e+00,7.315549626874417299e+01,-2.067540272058940900e+02,9.446745872497558594e+00,-5.736890435218811035e-01,1.529837548732757568e-01,5.880000000000000000e+02
-4.157168409859878011e+00,4.882545249475151650e+01,3.473314858678349992e+01,1.430515374262904515e+01,2.007984767468587961e+01,2.979875893881398952e+00,7.269815682746411767e+01,-2.063061745890008751e+02,9.446745872497558594e+00,-5.736890435218811035e-01,1.529837548732757568e-01,5.890000000000000000e+02
5.076920723171497229e+00,4.795330729386841995e+01,3.809570061877093394e+01,1.541842003222336643e+01,2.122491493327106582e+01,3.896912329219048843e+00,7.440965353075807798e+01,-2.044291798982631008e+02,9.446745872497558594e+00,-5.736890435218811035e-01,1.529837548732757568e-01,5.900000000000000000e+02
1.232905281226339866e+01,4.721345332772762049e+01,4.151199839238688583e+01,1.637152405349479523e+01,2.293873514448205242e+01,4.696307550078927306e+00,7.707542570029181661e+01,-2.027408981206281169e+02,9.446745872497558594e+00,-5.736890435218811035e-01,1.529837548732757568e-01,5.910000000000000000e+02
1.599116842216608347e+01,4.710321992466924712e+01,4.330099454598166631e+01,1.675556103759299731e+01,2.473304126887524035e+01,5.231507736549247056e+00,7.929801982079152367e+01,-2.023306806055843481e+02,9.446745872497558594e+00,-5.736890435218811035e-01,1.529837548732757568e-01,5.920000000000000000e+02
1.653563909060903825e+01,4.782111723611524212e+01,4.329746391334265354e+01,1.677618601586436853e+01,2.652213908953490318e+01,5.792551387443381827e+00,8.037925758171331836e+01,-2.028266542880883208e+02,9.446745872497558594e+00,-5.736890435218811035e-01,1.529837548732757568e-01,5.930000000000000000e+02
1.586547132947089267e+01,4.903545082259006449e+01,4.288357822921534535e+01,1.717266266611477477e+01,2.855909390155647998e+01,6.841036002777400427e+00,8.071088223459082656e+01,-2.028860859621381678e+02,9.446745872497558594e+00,-5.736890435218811035e-01,1.529837548732757568e-01,5.940000000000000000e+02
1.585483834645856405e+01,5.000062312998124980e+01,4.374717644634074531e+01,1.866540739624542766e+01,3.105267728097896907e+01,8.577780095751222689e+00,8.136724392797623295e+01,-2.015454344423887960e+02,9.446745872497558594e+00,-5.736890435218811035e-01,1.529837548732757568e-01,5.950000000000000000e+02
1.717551464742064127e+01,4.998822510875834269e+01,4.633832472960421001e+01,2.132503211329822079e+01,3.373282432732594316e+01,1.068918202105487580e+01,8.315181080240290612e+01,-1.990616152723159757e+02,9.446745872497558594e+00,-5.736890435218811035e-01,1.529837548732757568e-01,5.960000000000000000e+02
1.919655421585412114e+01,4.875182944427069742e+01,4.931041061982978135e+01,2.433391955808838247e+01,3.573486177112499718e+01,1.243293669530976331e+01,8.581203780831492622e+01,-1.965091935194541293e+02,9.446745872497558594e+00,-5.736890435218811035e-01,1.912296712398529053e-01,5.970000000000000000e+02
2.088442187106556958e+01,4.668460186081210850e+01,5.052918400711860158e+01,2.639163069655842264e+01,3.605633132252478390e+01,1.303497988564049592e+01,8.810200840033940040e+01,-1.947104270688832912e+02,9.446745872497558594e+00,-5.736890435218811035e-01,1.912296712398529053e-01,5.980000000000000000e+02
2.187374916121552815e+01,4.451919376420119079e+01,4.892145434210760868e+01,2.656533212727663340e+01,3.441026036590483272e+01,1.222029209894753876e+01,8.872697542250170955e+01,-1.936608396186093159e+02,9.446745872497558594e+00,-5.736890435218811035e-01,1.912296712398529053e-01,5.990000000000000000e+02
2.281655457979286439e+01,4.277149799208564218e+01,4.562710908705048496e+01,2.500723790896881837e+01,3.182043632075146888e+01,1.056310881221361342e+01,8.743978513603724423e+01,-1.928627342722538742e+02,9.446745872497558594e+00,-5.736890435218811035e-01,1.912296712398529053e-01,6.000000000000000000e+02
2.477767295729790931e+01,4.138037455116500496e+01,4.339756195989320986e+01,2.298145806121829082e+01,3.031376185253975564e+01,9.351684579822176602e+00,8.538504789649232407e+01,-1.918930410453758668e+02,9.446745872497558594e+00,-5.736890435218811035e-01,1.912296712398529053e-01,6.010000000000000000e+02
2.826103924750714214e+01,3.987734025816826033e+01,4.462508748958498472e+01,2.211908171943650814e+01,3.172164101311864215e+01,9.925978173636394786e+00,8.439027631654244033e+01,-1.904040101566861267e+02,9.446745872497558594e+00,-5.736890435218811035e-01,1.912296712398529053e-01,6.020000000000000000e+02
3.271576838809050969e+01,3.795906212884074193e+01,4.957234600223091547e+01,2.340804679958455381e+01,3.639683060456445673e+01,1.286755513878597412e+01,8.575646406918167486e+01,-1.877350553762335039e+02,9.446745872497558594e+00,-5.736890435218811035e-01,1.912296712398529053e-01,6.030000000000000000e+02
3.690738019681884907e+01,3.591454050161701161e+01,5.621422637033901992e+01,2.662794965960347326e+01,4.283648731869470794e+01,1.761808097481844015e+01,8.944506796775021940e+01,-1.831339917082332249e+02,9.446745872497558594e+00,-5.736890435218811035e-01,1.912296712398529053e-01,6.040000000000000000e+02
3.980974046390474541e+01,3.442436357061887975e+01,6.172374052516533993e+01,3.057956229621413513e+01,4.854322477145251469e+01,2.282374195738157141e+01,9.416596050234147697e+01,-1.769513118072536599e+02,9.446745872497558594e+00,-5.736890435218811035e-01,1.912296712398529053e-01,6.050000000000000000e+02
4.126026356541115092e+01,3.382615242433166713e+01,6.430916190177958924e+01,3.386050251614506124e+01,5.148239438768723630e+01,2.713946871427106089e+01,9.816059574728569714e+01,-1.716247646266856464e+02,9.446745872497558594e+00,-5.736890435218811035e-01,1.912296712398529053e-01,6.060000000000000000e+02
4.187882818769139703e+01,3.353126074383908417e+01,6.398725370326792472e+01,3.560981408018051297e+01,5.106761984595868853e+01,2.988323764084270806e+01,1.000902284570038319e+02,-1.707093635823985096e+02,9.446745872497558594e+00,-5.736890435218811035e-01,1.912296712398529053e-01,6.070000000000000000e+02
4.242862920526022208e+01,3.226147288660285994e+01,6.196580090813222341e+01,3.579689541856714641e+01,4.810646817530869157e+01,3.113061307902535191e+01,9.957592794419178972e+01,-1.757759113490574236e+02,9.446745872497558594e+00,-5.736890435218811035e-01,1.912296712398529053e-01,6.080000000000000000e+02
4.324336528818457737e+01,2.904909996104106540e+01,5.949714848805888323e+01,3.502866535143402871e+01,4.402180830661382060e+01,3.135034699797324720e+01,9.728118704922599136e+01,-1.835083331167152210e+02,9.446745872497558594e+00,-5.736890435218811035e-01,1.912296712398529053e-01,6.090000000000000000e+02
4.418370638730993960e+01,2.414822565506256069e+01,5.725744825991569087e+01,3.411598182648594957e+01,4.009305277920793742e+01,3.099710633110225899e+01,9.459898740657081362e+01,-1.860995073752710596e+02,9.446745872497558594e+00,-5.736890435218811035e-01,1.912296712398529053e-01,6.100000000000000000e+02
4.504340335425877129e+01,1.898652024962939322e+01,5.554049552463038708e+01,3.368514579345719540e+01,3.719206715825930587e+01,3.038175867542304331e+01,9.304117014921575901e+01,-1.756782727580502979e+02,9.446745872497558594e+00,-5.736890435218811035e-01,1.912296712398529053e-01,6.110000000000000000e+02
4.593518768752255710e+01,1.513776079903618665e+01,5.471235901347245090e+01,3.399566268404669245e+01,3.589398610693751834e+01,2.979395454980112845e+01,9.352685052414744860e+01,-1.498129213885695208e+02,9.446745872497558594e+00,-5.736890435218811035e-01,1.912296712398529053e-01,6.120000000000000000e+02
4.726576677233970258e+01,1.319584477690295898e+01,5.526678553193778498e+01,3.496777402749285102e+01,3.653043038800387876e+01,2.960246860192273743e+01,9.590065318199776812e+01,-1.136630913856715779e+02,9.446745872497558594e+00,-5.736890435218811035e-01,1.912296712398529053e-01,6.130000000000000000e+02
4.935341226590753649e+01,1.250637697914498858e+01,5.739706356038368540e+01,3.632088379748893203e+01,3.899200727552306489e+01,3.012769068604393397e+01,9.900307479529146804e+01,-7.682182325137182488e+01,9.446745872497558594e+00,-5.736890435218811035e-01,1.912296712398529053e-01,6.140000000000000000e+02
