F3,F4,C3,C4,P3,P4,Cz,Pz,Accel_x,Accel_y,Accel_z,Sample
-3.365130396559834480e-11,-3.456079866737127304e-11,-3.547029336914420128e-11,-4.092726157978177071e-11,-3.547029336914420128e-11,-6.912159733474254608e-11,-3.183231456205248833e-11,-4.001776687800884247e-11,9.446745872497558594e+00,-1.109132170677185059e+00,-4.589512646198272705e-01,2.270000000000000000e+02
-7.451042745821723656e+00,-6.283831747007752710e+00,5.321326103047795186e+00,1.016050053911840223e+01,1.066301549192667153e+01,1.231908023019059328e+00,4.677898632346114027e+00,3.118727671459055273e+00,9.446745872497558594e+00,-1.109132170677185059e+00,-4.589512646198272705e-01,2.280000000000000000e+02
-1.524350072875313344e+01,-1.273848609487777139e+01,7.907518810174224200e+00,1.596438469802524196e+01,1.338434037160914158e+01,-2.307288228583274758e+00,5.665763187900665798e+00,4.796683839116667514e+00,9.446745872497558594e+00,-1.109132170677185059e+00,-4.589512646198272705e-01,2.290000000000000000e+02
-2.323814877464337769e+01,-1.907489609381900664e+01,6.899879870035874774e+00,1.674149003629918298e+01,6.615214015505443967e+00,-1.121126400847970217e+01,2.299154564500895503e+00,4.442840925689779397e+00,9.446745872497558594e+00,-1.109132170677185059e+00,-4.589512646198272705e-01,2.300000000000000000e+02
-3.094348534119762917e+01,-2.460473228028695303e+01,3.494600646121398313e+00,1.577820174651606067e+01,-4.451285157506390533e+00,-2.180460394127840118e+01,-2.809251552589557832e+00,2.572329666720179375e+00,9.446745872497558594e+00,-1.109132170677185059e+00,-4.589512646198272705e-01,2.310000000000000000e+02
-3.811209126159883454e+01,-2.878885904948219832e+01,-5.292284735660359729e-01,1.709735128985448682e+01,-1.346743365906604595e+01,-2.998098721150199708e+01,-6.301719854940529331e+00,3.574641438617618405e-01,9.446745872497558594e+00,-1.109132170677185059e+00,-4.589512646198272705e-01,2.320000000000000000e+02
-4.507221774075696885e+01,-3.174307541761936591e+01,-4.303959066611241724e+00,2.194423287430436176e+01,-1.858186796735753887e+01,-3.491758350286454515e+01,-6.793151349561412644e+00,-1.111991268866404425e+00,9.446745872497558594e+00,-1.109132170677185059e+00,-4.589512646198272705e-01,2.330000000000000000e+02
-5.235539217929726874e+01,-3.418850129946258676e+01,-7.957669007520962623e+00,2.816810195011476026e+01,-2.278734840992001409e+01,-3.909179772120205598e+01,-5.343899319791489688e+00,-1.299906926755284076e+00,9.523238182067871094e+00,-1.032640218734741211e+00,-4.207052886486053467e-01,2.340000000000000000e+02
-6.001644842030236759e+01,-3.687236241841219453e+01,-1.151144370879592316e+01,3.265873640404061007e+01,-2.945561975883447303e+01,-4.511662185284876614e+01,-3.774512776094525179e+00,-1.998148900675005279e-01,9.523238182067871094e+00,-1.032640218734741211e+00,-4.207052886486053467e-01,2.350000000000000000e+02
-6.741689061526903970e+01,-3.998948763695534581e+01,-1.403293198833398492e+01,3.419665269286633702e+01,-3.823845371422794415e+01,-5.302466548618758679e+01,-2.895914029064442730e+00,1.987462014230004570e+00,9.523238182067871094e+00,-1.032640218734741211e+00,-4.207052886486053467e-01,2.360000000000000000e+02
-7.373122938874257670e+01,-4.313460395422771398e+01,-1.405714317147885595e+01,3.413596810885974264e+01,-4.542378686208394356e+01,-6.065636997994533886e+01,-2.306231312715681270e+00,5.100293838925608725e+00,9.523238182067871094e+00,-1.032640218734741211e+00,-4.207052886486053467e-01,2.370000000000000000e+02
-7.864600279981277708e+01,-4.581673880943162658e+01,-1.085621932015510538e+01,3.474950802613147971e+01,-4.780869387045731855e+01,-6.625555642901599640e+01,-1.446441850279370556e+00,8.952550782933030860e+00,9.523238182067871094e+00,-1.032640218734741211e+00,-4.207052886486053467e-01,2.380000000000000000e+02
-8.255991787579478114e+01,-4.805430879230425489e+01,-5.282270428229821846e+00,3.716117409123853577e+01,-4.579950979368277331e+01,-7.026436986015414732e+01,-4.253320542302390095e-01,1.305940556808764086e+01,9.523238182067871094e+00,-1.032640218734741211e+00,-4.207052886486053467e-01,2.390000000000000000e+02
-8.621815164842337254e+01,-5.052180781245351682e+01,5.305805312545999186e-01,4.066857331429400801e+01,-4.292365918048744788e+01,-7.466214974755075673e+01,1.578527177807700355e-01,1.643862482783879386e+01,9.523238182067871094e+00,-1.032640218734741211e+00,-4.207052886486053467e-01,2.400000000000000000e+02
-9.028654929271033325e+01,-5.413160849001542374e+01,4.219062388431666477e+00,4.361154214727503131e+01,-4.289732337087116321e+01,-8.099246227664571052e+01,-1.956764220713012037e-01,1.774800483765557146e+01,9.523238182067871094e+00,-1.032640218734741211e+00,-4.207052886486053467e-01,2.410000000000000000e+02
-9.527923161873604840e+01,-5.942116150809397368e+01,4.153862673041658127e+00,4.465846729978966323e+01,-4.736154893867751525e+01,-8.928733338882648241e+01,-1.766137445429194486e+00,1.581030190596720786e+01,9.523238182067871094e+00,-1.032640218734741211e+00,-4.207052886486053467e-01,2.420000000000000000e+02
-1.016931734810141279e+02,-6.621458322635407967e+01,-1.383387272817344638e-01,4.349725071893499262e+01,-5.587830270076028683e+01,-9.864942798747870256e+01,-4.941743536432113615e+00,1.029922341742076242e+01,9.523238182067871094e+00,-1.032640218734741211e+00,-4.207052886486053467e-01,2.430000000000000000e+02
-1.099007879296796091e+02,-7.376134798071780097e+01,-7.964506735265786119e+00,4.078517128514158685e+01,-6.718609166456189996e+01,-1.083455679909748142e+02,-1.021298500331886316e+01,2.166220217230147682e+00,9.523238182067871094e+00,-1.032640218734741211e+00,-4.207052886486053467e-01,2.440000000000000000e+02
-1.197336855871162697e+02,-8.120052865884827042e+01,-1.765746986701651622e+01,3.770375042573868996e+01,-7.999160910683804104e+01,-1.181064776363127748e+02,-1.751045736210471659e+01,-6.579714747245816397e+00,9.523238182067871094e+00,-1.032640218734741211e+00,-4.207052886486053467e-01,2.450000000000000000e+02
-1.302335351434821860e+02,-8.798333356269995420e+01,-2.701851227589304472e+01,3.539091401124369440e+01,-9.287963384099202813e+01,-1.276604998905795583e+02,-2.558785908342360926e+01,-1.374040894540485169e+01,9.523238182067871094e+00,-1.032640218734741211e+00,-4.207052886486053467e-01,2.460000000000000000e+02
-1.400177360157949806e+02,-9.399470918903443817e+01,-3.405815756822266849e+01,3.439275533998352330e+01,-1.041919317811707515e+02,-1.364828251065246150e+02,-3.237996773707800457e+01,-1.797274071147967334e+01,9.523238182067871094e+00,-1.032640218734741211e+00,-4.207052886486053467e-01,2.470000000000000000e+02
-1.480962995186109765e+02,-9.938697555164162623e+01,-3.777400622460663726e+01,3.436988668350841181e+01,-1.125374329018104618e+02,-1.442472374323142503e+02,-3.632840993937315943e+01,-1.938537212789469777e+01,9.523238182067871094e+00,-1.032640218734741211e+00,-4.207052886486053467e-01,2.480000000000000000e+02
-1.544474758593814840e+02,-1.043206444831266708e+02,-3.848516193031355215e+01,3.435321628386282100e+01,-1.175282697356969948e+02,-1.513484054484570152e+02,-3.756237421054538572e+01,-1.932822434511945175e+01,9.523238182067871094e+00,-1.032640218734741211e+00,-4.207052886486053467e-01,2.490000000000000000e+02
-1.598417949725271683e+02,-1.088224322317228143e+02,-3.749865065212088666e+01,3.349471119812915276e+01,-1.199620783162336011e+02,-1.586810931683985473e+02,-3.782432674842766573e+01,-1.956266163452255569e+01,9.523238182067871094e+00,-1.032640218734741211e+00,-4.207052886486053467e-01,2.500000000000000000e+02
-1.651242613491440352e+02,-1.128284262651395693e+02,-3.637813449274017330e+01,3.175073449539650028e+01,-1.213102837304932109e+02,-1.667820403546102170e+02,-3.916073212481842347e+01,-2.136752168662496842e+01,9.523238182067871094e+00,-1.032640218734741211e+00,-4.207052886486053467e-01,2.510000000000000000e+02
-1.706493127601106607e+02,-1.163162390048019006e+02,-3.628913333432683430e+01,2.989782208238830208e+01,-1.230383837293702527e+02,-1.752713087101628844e+02,-4.248922718754511152e+01,-2.507292243035772117e+01,9.523238182067871094e+00,-1.032640218734741211e+00,-4.207052886486053467e-01,2.520000000000000000e+02
-1.763076355059156413e+02,-1.193769234781502746e+02,-3.768032521935947443e+01,2.887406706821184343e+01,-1.261949363958929098e+02,-1.832230713064782321e+02,-4.714190661697739415e+01,-3.011825675851741835e+01,9.523238182067871094e+00,-1.032640218734741211e+00,-4.207052886486053467e-01,2.530000000000000000e+02
-1.819309660367589458e+02,-1.221656337788126621e+02,-4.025517299190778431e+01,2.905616459163502441e+01,-1.312122515957698852e+02,-1.900425021254523017e+02,-5.154350084736051940e+01,-3.542275360607527546e+01,9.523238182067871094e+00,-1.032640218734741211e+00,-4.207052886486053467e-01,2.540000000000000000e+02
-1.875130016938137487e+02,-1.247845997269259897e+02,-4.312227921256726404e+01,3.011438148375418677e+01,-1.377278251114985324e+02,-1.958974305429183005e+02,-5.429455532927022432e+01,-3.979537829349919775e+01,9.523238182067871094e+00,-1.032640218734741211e+00,-4.207052886486053467e-01,2.550000000000000000e+02
-1.930082977598458456e+02,-1.271946169003358591e+02,-4.513670345630271186e+01,3.149087956505718466e+01,-1.445561595689123351e+02,-2.012961529053773120e+02,-5.482035227201959060e+01,-4.223854166926230391e+01,9.523238182067871094e+00,-1.032640218734741211e+00,-4.207052886486053467e-01,2.560000000000000000e+02
-1.980397257001040998e+02,-1.292210238816742276e+02,-4.542387393409080687e+01,3.296204104918160738e+01,-1.501010709031152146e+02,-2.063365043624835380e+02,-5.332506747085153620e+01,-4.213016207760301768e+01,9.523238182067871094e+00,-1.032640218734741211e+00,-4.207052886486053467e-01,2.570000000000000000e+02
-2.020076588122019530e+02,-1.306474132456360167e+02,-4.386277018009786843e+01,3.475324740768428455e+01,-1.531391748391051806e+02,-2.104553478724037632e+02,-5.038723289570680208e+01,-3.931971897049788822e+01,9.523238182067871094e+00,-1.032640218734741211e+00,-4.207052886486053467e-01,2.580000000000000000e+02
-2.046425276016034331e+02,-1.313738855218362005e+02,-4.118351477685428108e+01,3.716490173295642307e+01,-1.534243120941682719e+02,-2.129303763729631100e+02,-4.664980201547314209e+01,-3.416585821058106376e+01,9.523238182067871094e+00,-1.032640218734741211e+00,-4.207052886486053467e-01,2.590000000000000000e+02
-2.064854710389977299e+02,-1.316012911163120407e+02,-3.857498960378370612e+01,4.010106923813964386e+01,-1.516825780195531479e+02,-2.136469722115643890e+02,-4.280480245061517053e+01,-2.756721590583947545e+01,9.523238182067871094e+00,-1.032640218734741211e+00,-4.207052886486053467e-01,2.600000000000000000e+02
-2.087443892069968570e+02,-1.319511508906671224e+02,-3.709404605092140628e+01,4.290523505937471782e+01,-1.491568653812000775e+02,-2.134630841819562193e+02,-3.972412428060670209e+01,-2.098960338085271360e+01,9.484992027282714844e+00,-1.109132170677185059e+00,-4.207052886486053467e-01,2.610000000000000000e+02
-2.125292069819370226e+02,-1.333575619225716764e+02,-3.729590369256447957e+01,4.460472831558126927e+01,-1.472047109815903241e+02,-2.139190858101737831e+02,-3.844548679669242119e+01,-1.635746393458248349e+01,9.484992027282714844e+00,-1.109132170677185059e+00,-4.207052886486053467e-01,2.620000000000000000e+02
-2.180703997447612892e+02,-1.366277922699805458e+02,-3.922072883888904471e+01,4.439597265301654261e+01,-1.471483505917121875e+02,-2.165377947301030872e+02,-3.985404973929416883e+01,-1.559850120385726768e+01,9.484992027282714844e+00,-1.109132170677185059e+00,-4.207052886486053467e-01,2.630000000000000000e+02
-2.245883498677112584e+02,-1.418477152003338233e+02,-4.253834594416821346e+01,4.210113491212996450e+01,-1.500680632552839597e+02,-2.221366181291014072e+02,-4.419520474866385484e+01,-1.982062379471790337e+01,9.484992027282714844e+00,-1.109132170677185059e+00,-4.207052886486053467e-01,2.640000000000000000e+02
-2.309278718706596010e+02,-1.480761481288063806e+02,-4.662749821054330823e+01,3.835048955082220346e+01,-1.562957711436611135e+02,-2.304623663186202975e+02,-5.078401806288820808e+01,-2.850872553777890062e+01,9.484992027282714844e+00,-1.109132170677185059e+00,-4.207052886486053467e-01,2.650000000000000000e+02
-2.363893481375284864e+02,-1.537116143768739676e+02,-5.062523481337302655e+01,3.436187578925728303e+01,-1.649310415101363105e+02,-2.402746274018081749e+02,-5.820742990257940619e+01,-3.936126966602614630e+01,9.484992027282714844e+00,-1.109132170677185059e+00,-4.207052886486053467e-01,2.660000000000000000e+02
-2.410544549907303917e+02,-1.574412089029856361e+02,-5.364046945307927672e+01,3.138910126621613017e+01,-1.739962154104778165e+02,-2.498416225484834285e+02,-6.495656460445979974e+01,-4.913058823050096180e+01,9.484992027282714844e+00,-1.109132170677185059e+00,-4.207052886486053467e-01,2.670000000000000000e+02
-2.454029889887065110e+02,-1.591144156090617798e+02,-5.513295834494419978e+01,3.013507230216055177e+01,-1.813734113644254649e+02,-2.576370896855760293e+02,-7.005158383154457624e+01,-5.509927031921051821e+01,9.484992027282714844e+00,-1.109132170677185059e+00,-4.207052886486053467e-01,2.680000000000000000e+02
-2.496619840919752278e+02,-1.598021242920112854e+02,-5.517403282028089961e+01,3.052841580892982165e+01,-1.858619374024101489e+02,-2.628827646176141570e+02,-7.320646728702467954e+01,-5.625502341289757169e+01,9.484992027282714844e+00,-1.109132170677185059e+00,-4.207052886486053467e-01,2.690000000000000000e+02
-2.535083266475767232e+02,-1.609506121646304564e+02,-5.433204074277909967e+01,3.200983678913053154e+01,-1.875249632078530340e+02,-2.656780789776312304e+02,-7.452027368622702852e+01,-5.342815630146469630e+01,9.484992027282714844e+00,-1.109132170677185059e+00,-4.207052886486053467e-01,2.700000000000000000e+02
-2.563587584650658755e+02,-1.633343318640577309e+02,-5.327738331914997616e+01,3.402470627038019302e+01,-1.871949456475126681e+02,-2.667517695045444270e+02,-7.413113676477905756e+01,-4.846563052485680601e+01,9.484992027282714844e+00,-1.109132170677185059e+00,-4.207052886486053467e-01,2.710000000000000000e+02
-2.579282534029975977e+02,-1.667043254492095912e+02,-5.249678327052424720e+01,3.622965018908462298e+01,-1.858354443355096919e+02,-2.671252332660860702e+02,-7.227063602891121263e+01,-4.322477892298638835e+01,9.484992027282714844e+00,-1.109132170677185059e+00,-4.207052886486053467e-01,2.720000000000000000e+02
-2.585438824736602328e+02,-1.703497215227134802e+02,-5.233989018924285119e+01,3.825600258142776511e+01,-1.844001020293853799e+02,-2.678906221759980326e+02,-6.962795142336199206e+01,-3.909544670003424471e+01,9.484992027282714844e+00,-1.109132170677185059e+00,-4.207052886486053467e-01,2.730000000000000000e+02
-2.589914035769847942e+02,-1.738858893098040426e+02,-5.316726660758286016e+01,3.944299259901208643e+01,-1.839964541164508773e+02,-2.700042560604824757e+02,-6.742781648175787268e+01,-3.702024151974819688e+01,9.484992027282714844e+00,-1.109132170677185059e+00,-4.207052886486053467e-01,2.740000000000000000e+02
-2.601036211174468917e+02,-1.774066438389727409e+02,-5.523129733881705761e+01,3.907096528014699288e+01,-1.856815820183119286e+02,-2.739405767199887123e+02,-6.682709975345187559e+01,-3.744767498930923466e+01,9.484992027282714844e+00,-1.109132170677185059e+00,-4.207052886486053467e-01,2.750000000000000000e+02
-2.624109115874430245e+02,-1.808596998782500123e+02,-5.825575505701908696e+01,3.712638309638623468e+01,-1.896662739997123026e+02,-2.792858397357890681e+02,-6.795452380102324241e+01,-3.989438837225270618e+01,9.484992027282714844e+00,-1.109132170677185059e+00,-4.207052886486053467e-01,2.760000000000000000e+02
-2.659784347929635260e+02,-1.834279149636940929e+02,-6.114690525098694707e+01,3.493440990139561109e+01,-1.946083321297724069e+02,-2.846374089530936544e+02,-6.947279915196850197e+01,-4.257823244361179604e+01,9.484992027282714844e+00,-1.109132170677185059e+00,-4.207052886486053467e-01,2.770000000000000000e+02
-2.703513193784065152e+02,-1.837942031619518275e+02,-6.230377797914707116e+01,3.483763480009884006e+01,-1.979603931547312641e+02,-2.881367123589243420e+02,-6.927612984349616454e+01,-4.292946845074038720e+01,9.484992027282714844e+00,-1.109132170677185059e+00,-4.207052886486053467e-01,2.780000000000000000e+02
-2.745681034512717815e+02,-1.812667491851507293e+02,-6.047956143249712113e+01,3.879815670191055688e+01,-1.974925575089550875e+02,-2.884898884848389571e+02,-6.597589967468866234e+01,-3.912558284002943765e+01,9.484992027282714844e+00,-1.109132170677185059e+00,-4.207052886486053467e-01,2.790000000000000000e+02
-2.773812196950907492e+02,-1.767746039775875033e+02,-5.560729220965004060e+01,4.679723350600170306e+01,-1.929438765202353352e+02,-2.858531189680902571e+02,-6.007798534939092860e+01,-3.167643080735388139e+01,9.484992027282714844e+00,-1.109132170677185059e+00,-4.207052886486053467e-01,2.800000000000000000e+02
-2.778076560632307519e+02,-1.727003009020536410e+02,-4.897451227669080254e+01,5.631513475575957273e+01,-1.864449163791528008e+02,-2.819184898271014390e+02,-5.390153705641523629e+01,-2.364810088156855272e+01,9.484992027282714844e+00,-1.109132170677185059e+00,-4.207052886486053467e-01,2.810000000000000000e+02
-2.758245675300768198e+02,-1.715102405152133542e+02,-4.263060172588529895e+01,6.350765810417715329e+01,-1.812651104209362529e+02,-2.790459907649460547e+02,-5.024344629335018908e+01,-1.899448125337812598e+01,9.484992027282714844e+00,-1.109132170677185059e+00,-4.207052886486053467e-01,2.820000000000000000e+02
-2.726944306090690588e+02,-1.742215424519099543e+02,-3.846192369522759691e+01,6.542037815638195752e+01,-1.797961859949432437e+02,-2.789659830425093787e+02,-5.072449808913779634e+01,-2.002580664454944781e+01,9.484992027282714844e+00,-1.109132170677185059e+00,-4.207052886486053467e-01,2.830000000000000000e+02
-2.705162326025420043e+02,-1.798776774804441629e+02,-3.750701089715084890e+01,6.175317545466032243e+01,-1.822790885636163694e+02,-2.818865702293119284e+02,-5.492920597327793075e+01,-2.587847986105361997e+01,9.484992027282714844e+00,-1.109132170677185059e+00,-4.207052886486053467e-01,2.840000000000000000e+02
-2.711297668346178398e+02,-1.863105780268278977e+02,-3.976926369476086620e+01,5.496971334755198768e+01,-1.871098005585008650e+02,-2.865643004226303674e+02,-6.079427423624110816e+01,-3.315015797688056409e+01,9.484992027282714844e+00,-1.109132170677185059e+00,-4.207052886486053467e-01,2.850000000000000000e+02
-2.750454302837206342e+02,-1.914542477712129767e+02,-4.440947816079733457e+01,4.874363529869924605e+01,-1.922881590812999093e+02,-2.912173494322546503e+02,-6.583786611917457776e+01,-3.818593283372274527e+01,9.484992027282714844e+00,-1.109132170677185059e+00,-4.207052886486053467e-01,2.860000000000000000e+02
-2.811252943452550426e+02,-1.942387772072197549e+02,-5.009340489983242151e+01,4.587926177629788071e+01,-1.967631441169714890e+02,-2.945927318596350233e+02,-6.839503288552759841e+01,-3.927789654854859691e+01,9.484992027282714844e+00,-1.109132170677185059e+00,-4.207052886486053467e-01,2.870000000000000000e+02
-2.872422425783311155e+02,-1.946897613289679612e+02,-5.537814874413288635e+01,4.706322846194780141e+01,-2.006853694686701601e+02,-2.964687735449178945e+02,-6.820234130724338684e+01,-3.725209652784769787e+01,9.484992027282714844e+00,-1.109132170677185059e+00,-4.207052886486053467e-01,2.880000000000000000e+02
-2.914628243037814173e+02,-1.935245543164783157e+02,-5.909388130164506947e+01,5.104870777019095840e+01,-2.045913628539751699e+02,-2.973656870081376837e+02,-6.619183222880747053e+01,-3.430711567185335298e+01,9.484992027282714844e+00,-1.109132170677185059e+00,-4.207052886486053467e-01,2.890000000000000000e+02
-2.929919977415295307e+02,-1.917012275201453804e+02,-6.065058741924667629e+01,5.580957419288824894e+01,-2.084071005274004165e+02,-2.978667356236392152e+02,-6.378090745008444173e+01,-3.227129573226466164e+01,9.484992027282714844e+00,-1.109132170677185059e+00,-4.207052886486053467e-01,2.900000000000000000e+02
-2.923642398865259793e+02,-1.900712889333531166e+02,-6.014396644033195116e+01,5.971164968351058633e+01,-2.111973830166025436e+02,-2.981798377089771748e+02,-6.207319830153710427e+01,-3.161386159493690684e+01,9.484992027282714844e+00,-1.109132170677185059e+00,-4.207052886486053467e-01,2.910000000000000000e+02
-2.908907267997770987e+02,-1.890839583059718052e+02,-5.819786566528500771e+01,6.204598827980498754e+01,-2.118645224826277627e+02,-2.982373787922663269e+02,-6.136211369646298408e+01,-3.167833170532730946e+01,9.484992027282714844e+00,-1.070886254310607910e+00,-3.824593424797058105e-01,2.920000000000000000e+02
-2.898142729157987105e+02,-1.886209112626771685e+02,-5.564712909243939976e+01,6.289668229736503235e+01,-2.101781346779819160e+02,-2.980943561833930744e+02,-6.118424963994198151e+01,-3.161856478000277093e+01,9.484992027282714844e+00,-1.070886254310607910e+00,-3.824593424797058105e-01,2.930000000000000000e+02
-2.897107770263000930e+02,-1.881971558741574881e+02,-5.324705850772284066e+01,6.272332925744967724e+01,-2.072440599610854406e+02,-2.981358222514299996e+02,-6.087598469430940895e+01,-3.116455284231278711e+01,9.484992027282714844e+00,-1.070886254310607910e+00,-3.824593424797058105e-01,2.940000000000000000e+02
-2.904157939231529326e+02,-1.875219211745164785e+02,-5.150964753562539045e+01,6.201560543550908733e+01,-2.049707453086364239e+02,-2.988517373321822106e+02,-6.026487193253683472e+01,-3.073027565572624553e+01,9.484992027282714844e+00,-1.070886254310607910e+00,-3.824593424797058105e-01,2.950000000000000000e+02
-2.913863258164070658e+02,-1.869610331254386892e+02,-5.065078205318332039e+01,6.111923060873800750e+01,-2.048999925006480680e+02,-3.004208978916640262e+02,-5.995464921257553215e+01,-3.098628385722440726e+01,9.484992027282714844e+00,-1.070886254310607910e+00,-3.824593424797058105e-01,2.960000000000000000e+02
-2.921726050466063498e+02,-1.873556790234579239e+02,-5.059593748193674401e+01,6.018664182678412544e+01,-2.072472073829255805e+02,-3.025329786767933911e+02,-6.089103512269912244e+01,-3.232091164291250607e+01,9.484992027282714844e+00,-1.070886254310607910e+00,-3.824593424797058105e-01,2.970000000000000000e+02
-2.926894558350288662e+02,-1.891950757980052913e+02,-5.105564475314190531e+01,5.922172420886181499e+01,-2.108183547575083594e+02,-3.046241011975971560e+02,-6.348076435205234702e+01,-3.453577593122872713e+01,9.484992027282714844e+00,-1.070886254310607910e+00,-3.824593424797058105e-01,2.980000000000000000e+02
-2.931700941923155597e+02,-1.918820218949091441e+02,-5.166957819702884080e+01,5.821288813482942714e+01,-2.138136077434078288e+02,-3.062775511420616112e+02,-6.696656449541023903e+01,-3.687183227623972925e+01,9.484992027282714844e+00,-1.070886254310607910e+00,-3.824593424797058105e-01,2.990000000000000000e+02
-2.939041062019173296e+02,-1.939039779882059520e+02,-5.213443648589873192e+01,5.728577835661644713e+01,-2.149105252748063322e+02,-3.074069939868643360e+02,-6.964195824974558491e+01,-3.829101830466720457e+01,9.484992027282714844e+00,-1.070886254310607910e+00,-3.824593424797058105e-01,3.000000000000000000e+02
-2.949686248279554093e+02,-1.939222349500774953e+02,-5.222473730553201676e+01,5.673951481567314659e+01,-2.139025399857705452e+02,-3.081018209082226349e+02,-6.986266427913665211e+01,-3.791035690396256541e+01,9.484992027282714844e+00,-1.070886254310607910e+00,-3.824593424797058105e-01,3.010000000000000000e+02
-2.961209565485158919e+02,-1.918663659031724364e+02,-5.172635349595157095e+01,5.690318641700582702e+01,-2.115644712108479553e+02,-3.083517922668052051e+02,-6.713113306606169317e+01,-3.544598169145456268e+01,9.484992027282714844e+00,-1.070886254310607910e+00,-3.824593424797058105e-01,3.020000000000000000e+02
-2.969078744435698809e+02,-1.890193595005544012e+02,-5.044809690915576539e+01,5.791649877602003471e+01,-2.090127336734803976e+02,-3.079674422901518938e+02,-6.246271853649454897e+01,-3.148639433187031500e+01,9.484992027282714844e+00,-1.070886254310607910e+00,-3.824593424797058105e-01,3.030000000000000000e+02
-2.969534956948884883e+02,-1.869805100875996686e+02,-4.845874580281883937e+01,5.962327895181942949e+01,-2.071199825671577628e+02,-3.067947199683383133e+02,-5.781372581163691393e+01,-2.741464688015048523e+01,9.484992027282714844e+00,-1.070886254310607910e+00,-3.824593424797058105e-01,3.040000000000000000e+02
-2.962781890936079208e+02,-1.864421875789124670e+02,-4.637830197066887195e+01,6.165338517349846370e+01,-2.063395573347818299e+02,-3.050276591091545697e+02,-5.502816968172714951e+01,-2.489809315680713553e+01,9.484992027282714844e+00,-1.070886254310607910e+00,-3.824593424797058105e-01,3.050000000000000000e+02
-2.954118586421708414e+02,-1.868589813731073264e+02,-4.531030849002581817e+01,6.360529511404479308e+01,-2.068376986877929085e+02,-3.033105411953645216e+02,-5.498511024317463125e+01,-2.509242040234425986e+01,9.484992027282714844e+00,-1.070886254310607910e+00,-3.824593424797058105e-01,3.060000000000000000e+02
-2.951343716046478676e+02,-1.872079316728621734e+02,-4.620176913294449150e+01,6.517324778335751034e+01,-2.085858737362603961e+02,-3.024757671391298572e+02,-5.733088074227885045e+01,-2.795479011969393923e+01,9.484992027282714844e+00,-1.070886254310607910e+00,-3.824593424797058105e-01,3.070000000000000000e+02
-2.959251833876094224e+02,-1.870015417120935126e+02,-4.897236063901027592e+01,6.618589912285597165e+01,-2.112213641707937768e+02,-3.030311605651656919e+02,-6.073146116554858054e+01,-3.209917749669727982e+01,9.484992027282714844e+00,-1.070886254310607910e+00,-3.824593424797058105e-01,3.080000000000000000e+02
-2.975192783333918669e+02,-1.865757949668354740e+02,-5.220051352610494177e+01,6.662825040585721581e+01,-2.139065963574239504e+02,-3.047273904046901407e+02,-6.344331159589069102e+01,-3.540963117914384384e+01,9.484992027282714844e+00,-1.070886254310607910e+00,-3.824593424797058105e-01,3.090000000000000000e+02
-2.989885714217797386e+02,-1.865070626462351129e+02,-5.385397652341498542e+01,6.668365125058039666e+01,-2.155683392614818104e+02,-3.065641499038122220e+02,-6.404602427559348143e+01,-3.615288398911684453e+01,9.484992027282714844e+00,-1.070886254310607910e+00,-3.824593424797058105e-01,3.100000000000000000e+02
-2.993946777316803036e+02,-1.869011394588793564e+02,-5.266400469809536844e+01,6.670875051568145864e+01,-2.155356012610423022e+02,-3.073442471570527914e+02,-6.214218137093462246e+01,-3.394256829475307313e+01,9.484992027282714844e+00,-1.070886254310607910e+00,-3.824593424797058105e-01,3.110000000000000000e+02
-2.985205246407140294e+02,-1.873316543027646048e+02,-4.906147028692089407e+01,6.704889292083794317e+01,-2.140691796021482105e+02,-3.064634006580404275e+02,-5.867012367106281090e+01,-2.990055975093287088e+01,9.484992027282714844e+00,-1.070886254310607910e+00,-3.824593424797058105e-01,3.120000000000000000e+02
-2.970230583509398912e+02,-1.874325732037063972e+02,-4.483477680389273701e+01,6.776473588477483645e+01,-2.121895366137491692e+02,-3.043423907088706528e+02,-5.546831050398554908e+01,-2.585329785431292748e+01,9.484992027282714844e+00,-1.032640218734741211e+00,-3.824593424797058105e-01,3.130000000000000000e+02
-2.958290385838170096e+02,-1.874291586883584841e+02,-4.174651162956774897e+01,6.852323914012049499e+01,-2.108203859371706130e+02,-3.020895628456713666e+02,-5.416680105923728661e+01,-2.310849364762123059e+01,9.484992027282714844e+00,-1.032640218734741211e+00,-3.824593424797058105e-01,3.140000000000000000e+02
-2.953284954199556296e+02,-1.879595125065532102e+02,-4.027597631565356551e+01,6.884332442605636970e+01,-2.100118248728828121e+02,-3.005858154703889795e+02,-5.510018963342054121e+01,-2.169865268443595596e+01,9.484992027282714844e+00,-1.032640218734741211e+00,-3.824593424797058105e-01,3.150000000000000000e+02
-2.951452990935169964e+02,-1.893330036210345497e+02,-3.954819346078238596e+01,6.856544633683370193e+01,-2.090446852428306102e+02,-2.997446676069928344e+02,-5.709134904965469559e+01,-2.062855071974570365e+01,9.484992027282714844e+00,-1.032640218734741211e+00,-3.824593424797058105e-01,3.160000000000000000e+02
-2.946901978347095792e+02,-1.910092155068912234e+02,-3.840872947840568941e+01,6.814996922108730359e+01,-2.073601530223908185e+02,-2.986199912241643233e+02,-5.834377991632163685e+01,-1.886052872295306315e+01,9.484992027282714844e+00,-1.032640218734741211e+00,-3.824593424797058105e-01,3.170000000000000000e+02
-2.939032225895806505e+02,-1.919094909985099093e+02,-3.658910276936364880e+01,6.845345264643651717e+01,-2.053603882698794223e+02,-2.963231271516120842e+02,-5.777725465381001868e+01,-1.621404261359884913e+01,9.484992027282714844e+00,-1.032640218734741211e+00,-3.824593424797058105e-01,3.180000000000000000e+02
-2.933764431314177727e+02,-1.913584770224789509e+02,-3.491702549358410579e+01,7.003496973224628164e+01,-2.041822198403493758e+02,-2.929650591734572345e+02,-5.576563682857704407e+01,-1.350010060001341117e+01,9.484992027282714844e+00,-1.032640218734741211e+00,-3.824593424797058105e-01,3.190000000000000000e+02
-2.936870866717648596e+02,-1.898014262587552139e+02,-3.448200775980001254e+01,7.250694880567675682e+01,-2.045767506039929913e+02,-2.897713490070836997e+02,-5.374223291539442471e+01,-1.188581173349064102e+01,9.484992027282714844e+00,-1.032640218734741211e+00,-3.824593424797058105e-01,3.200000000000000000e+02
-2.946165629486893067e+02,-1.885994022507644559e+02,-3.560803530472253442e+01,7.452878650368984381e+01,-2.060249487854782728e+02,-2.882343420032740369e+02,-5.308478000973946109e+01,-1.208225001968207835e+01,9.484992027282714844e+00,-1.032640218734741211e+00,-3.824593424797058105e-01,3.210000000000000000e+02
-2.950933947601999989e+02,-1.890103883812296317e+02,-3.754159320935639244e+01,7.460406702569343906e+01,-2.070549495739758186e+02,-2.890191017369036217e+02,-5.419830664315850299e+01,-1.395526711397849340e+01,9.484992027282714844e+00,-1.032640218734741211e+00,-3.824593424797058105e-01,3.220000000000000000e+02
-2.939882470949985418e+02,-1.911936401995430970e+02,-3.901047258617779789e+01,7.217531551674528600e+01,-2.065112823526734473e+02,-2.915369049072494363e+02,-5.640730263361206198e+01,-1.669719444364488936e+01,9.484992027282714844e+00,-1.032640218734741211e+00,-3.824593424797058105e-01,3.230000000000000000e+02
-2.910336066300950506e+02,-1.940502346098903672e+02,-3.907885563865409040e+01,6.817108339427909414e+01,-2.045461830458326631e+02,-2.944809847707458630e+02,-5.854604111269611622e+01,-1.928861009170736907e+01,9.484992027282714844e+00,-1.032640218734741211e+00,-3.824593424797058105e-01,3.240000000000000000e+02
-2.870216000982356945e+02,-1.959922661440004958e+02,-3.763971203018525102e+01,6.449424940551261898e+01,-2.024013726675804037e+02,-2.967840370461007069e+02,-5.968505860714833489e+01,-2.093449109283687903e+01,9.484992027282714844e+00,-1.032640218734741211e+00,-3.824593424797058105e-01,3.250000000000000000e+02
-2.831643478150450619e+02,-1.959679490055269753e+02,-3.532741054321968477e+01,6.277507011356033217e+01,-2.012532770748118764e+02,-2.981674142691249472e+02,-5.951118436920239674e+01,-2.134340392626927496e+01,9.484992027282714844e+00,-1.032640218734741211e+00,-3.824593424797058105e-01,3.260000000000000000e+02
-2.802812080337920406e+02,-1.939455732500379099e+02,-3.310137364574779895e+01,6.334681209184213913e+01,-2.013047021650196484e+02,-2.989251760830943567e+02,-5.827670737402297618e+01,-2.083971681595573955e+01,9.484992027282714844e+00,-1.032640218734741211e+00,-3.824593424797058105e-01,3.270000000000000000e+02
-2.785239968120241656e+02,-1.906197200632134354e+02,-3.182077182758246181e+01,6.523747935722690272e+01,-2.019557381363700870e+02,-2.993133313749636955e+02,-5.653494458524096444e+01,-2.025269350429130100e+01,9.484992027282714844e+00,-1.032640218734741211e+00,-3.824593424797058105e-01,3.280000000000000000e+02
-2.777117108638077525e+02,-1.867905375153575278e+02,-3.194500828885338706e+01,6.710111676095357325e+01,-2.027135257676972060e+02,-2.992080879063155407e+02,-5.490274685432666502e+01,-2.050904195772352523e+01,9.484992027282714844e+00,-1.032640218734741211e+00,-3.824593424797058105e-01,3.290000000000000000e+02
-2.777319454942155517e+02,-1.830195508008348497e+02,-3.338362621202588798e+01,6.822968840193493634e+01,-2.037777417896636507e+02,-2.983300627639995355e+02,-5.392648716289374988e+01,-2.204167020788236186e+01,9.484992027282714844e+00,-1.032640218734741211e+00,-3.824593424797058105e-01,3.300000000000000000e+02
-2.785301940765780273e+02,-1.797338563996237326e+02,-3.555099965354270353e+01,6.879553594085473378e+01,-2.056893203035075430e+02,-2.967245224090740976e+02,-5.400469830887220724e+01,-2.441015620588575530e+01,9.484992027282714844e+00,-1.032640218734741211e+00,-3.824593424797058105e-01,3.310000000000000000e+02
-2.797954387882448373e+02,-1.774280884683872728e+02,-3.766856620276632839e+01,6.925283394578968910e+01,-2.084820189888889672e+02,-2.949432636118631308e+02,-5.529180786853589780e+01,-2.649935562118491816e+01,9.484992027282714844e+00,-1.032640218734741211e+00,-3.824593424797058105e-01,3.320000000000000000e+02
-2.808379599300357086e+02,-1.765313486959813645e+02,-3.915958233093522267e+01,6.963650844082803815e+01,-2.112864887767834716e+02,-2.936910811452411281e+02,-5.754925507525831563e+01,-2.722146469324206919e+01,9.484992027282714844e+00,-1.032640218734741211e+00,-3.824593424797058105e-01,3.330000000000000000e+02
-2.809370387022672730e+02,-1.769685768234065790e+02,-3.984842781687257229e+01,6.951817564628436230e+01,-2.128300985106631060e+02,-2.932575364828406919e+02,-6.004689839102252336e+01,-2.619810130893745281e+01,9.484992027282714844e+00,-1.032640218734741211e+00,-3.824593424797058105e-01,3.340000000000000000e+02
-2.798688472441090198e+02,-1.779172337612833417e+02,-3.981332177248634707e+01,6.860651534324233580e+01,-2.123574220885157047e+02,-2.932875668830569111e+02,-6.172002244237739887e+01,-2.389189203673061002e+01,9.484992027282714844e+00,-1.032640218734741211e+00,-3.824593424797058105e-01,3.350000000000000000e+02
-2.780565725809053674e+02,-1.781706222666150552e+02,-3.906307746730510644e+01,6.728224412275721988e+01,-2.101007708345118772e+02,-2.931220994717023132e+02,-6.167061604794344021e+01,-2.114066024346925587e+01,9.484992027282714844e+00,-1.032640218734741211e+00,-3.824593424797058105e-01,3.360000000000000000e+02
-2.761394621174724762e+02,-1.769318199377391920e+02,-3.739558694190350252e+01,6.643746201156238840e+01,-2.069238600803211057e+02,-2.923850423555727502e+02,-5.978378226365111914e+01,-1.857275775663129025e+01,9.484992027282714844e+00,-1.032640218734741211e+00,-3.824593424797058105e-01,3.370000000000000000e+02
-2.743678519101740676e+02,-1.743723247491274151e+02,-3.461827065218778898e+01,6.672999799702699875e+01,-2.035738077549183345e+02,-2.912750238665532834e+02,-5.698495348344249578e+01,-1.642903605779781628e+01,9.599730491638183594e+00,-1.032640218734741211e+00,-3.059675097465515137e-01,3.380000000000000000e+02
-2.724252814405508616e+02,-1.714309753194793302e+02,-3.092696998642588824e+01,6.799611562229813444e+01,-2.002660142671201129e+02,-2.903265229257730198e+02,-5.476324120803951701e+01,-1.482469762731329865e+01,9.599730491638183594e+00,-1.032640218734741211e+00,-3.059675097465515137e-01,3.390000000000000000e+02
-2.698807930403918363e+02,-1.690227184478902700e+02,-2.707034811869436908e+01,6.939737797788075113e+01,-1.969201790201398126e+02,-2.899318110308797714e+02,-5.416469247284055655e+01,-1.402075612828662088e+01,9.599730491638183594e+00,-1.032640218734741211e+00,-3.059675097465515137e-01,3.400000000000000000e+02
-2.668269302550613702e+02,-1.673641598639355834e+02,-2.409837203640734060e+01,7.015277612718557521e+01,-1.936937799127060771e+02,-2.900818005450518058e+02,-5.499274237718725544e+01,-1.429469835223892460e+01,9.599730491638183594e+00,-1.032640218734741211e+00,-3.059675097465515137e-01,3.410000000000000000e+02
-2.640216683334267032e+02,-1.659725717439816890e+02,-2.283969406259689094e+01,7.016721340792673800e+01,-1.911724961474469637e+02,-2.904708568404647622e+02,-5.588400988824582782e+01,-1.548153777400284525e+01,9.599730491638183594e+00,-1.032640218734741211e+00,-3.059675097465515137e-01,3.420000000000000000e+02
-2.623051759831454319e+02,-1.642211766284683563e+02,-2.343765595953129832e+01,7.002809953097948892e+01,-1.899392024228332048e+02,-2.907090083339330704e+02,-5.525945270761178563e+01,-1.668701703316980911e+01,9.599730491638183594e+00,-1.032640218734741211e+00,-3.059675097465515137e-01,3.430000000000000000e+02
-2.617803815649867829e+02,-1.618529371262372933e+02,-2.521160184824134376e+01,7.046689506832865391e+01,-1.898864727580877343e+02,-2.903562193069918749e+02,-5.242784599397941747e+01,-1.658280771524005104e+01,9.599730491638183594e+00,-1.032640218734741211e+00,-3.059675097465515137e-01,3.440000000000000000e+02
-2.615517596770941964e+02,-1.590242459098552672e+02,-2.692493510210124441e+01,7.181067827720755758e+01,-1.899494313206784000e+02,-2.888592593284729446e+02,-4.799800043783102410e+01,-1.414924568093704238e+01,9.599730491638183594e+00,-1.032640218734741211e+00,-3.059675097465515137e-01,3.450000000000000000e+02
-2.603541736842877299e+02,-1.560246412163547802e+02,-2.734908884141441376e+01,7.383438092983124079e+01,-1.886318646888977355e+02,-2.857015712029431143e+02,-4.336597958214144910e+01,-9.289792351187088570e+00,9.599730491638183594e+00,-1.032640218734741211e+00,-3.059675097465515137e-01,3.460000000000000000e+02
-2.575895217069517003e+02,-1.531116749041624416e+02,-2.586511803752784999e+01,7.601361356159850402e+01,-1.849926653617651482e+02,-2.808308565495360654e+02,-3.978037228065556974e+01,-2.847369055820422545e+00,9.599730491638183594e+00,-1.032640218734741211e+00,-3.059675097465515137e-01,3.470000000000000000e+02
-2.538707883606933819e+02,-1.506315423922719674e+02,-2.279710295141194365e+01,7.788320399932661076e+01,-1.793334481933396773e+02,-2.749852552931910168e+02,-3.772284215692184262e+01,3.903251048881429597e+00,9.599730491638183594e+00,-1.032640218734741211e+00,-3.059675097465515137e-01,3.480000000000000000e+02
-2.505471303529197939e+02,-1.491126225982540063e+02,-1.921964374974709244e+01,7.925132088331656632e+01,-1.730354412075201935e+02,-2.694453856884766765e+02,-3.690023225580989674e+01,9.818329507236967402e+00,9.599730491638183594e+00,-1.032640218734741211e+00,-3.059675097465515137e-01,3.490000000000000000e+02
-2.485759507777866020e+02,-1.489694289776334699e+02,-1.627744731962809510e+01,8.023062869849286471e+01,-1.676876768022939359e+02,-2.652569275813161767e+02,-3.660778170953176414e+01,1.412722083421533625e+01,9.599730491638183594e+00,-1.032640218734741211e+00,-3.059675097465515137e-01,3.500000000000000000e+02
-2.477153456163446208e+02,-1.499674333721332005e+02,-1.446286913733695201e+01,8.113010035188108304e+01,-1.642138912745892867e+02,-2.625739083202139454e+02,-3.610055950855803530e+01,1.636328983539715409e+01,9.599730491638183594e+00,-1.032640218734741211e+00,-3.059675097465515137e-01,3.510000000000000000e+02
-2.467468196615755005e+02,-1.510411373974641265e+02,-1.339224882329358479e+01,8.226248828343545938e+01,-1.626056872169042435e+02,-2.607263529564058899e+02,-3.483926542961717132e+01,1.631272020401615919e+01,9.599730491638183594e+00,-1.032640218734741211e+00,-3.059675097465515137e-01,3.520000000000000000e+02
-2.445372654005407185e+02,-1.508519371860018055e+02,-1.228109016212124516e+01,8.374989289597738207e+01,-1.622871621655887111e+02,-2.589143568758698848e+02,-3.268910897649629987e+01,1.418168631740411456e+01,9.599730491638183594e+00,-1.032640218734741211e+00,-3.059675097465515137e-01,3.530000000000000000e+02
-2.410170960631725166e+02,-1.487636034742179163e+02,-1.072094445580046340e+01,8.544421332801368862e+01,-1.626249919127325256e+02,-2.568138978757179984e+02,-3.005901105894099601e+01,1.080252645729251526e+01,9.599730491638183594e+00,-1.032640218734741211e+00,-3.059675097465515137e-01,3.540000000000000000e+02
-2.372288885321008820e+02,-1.454003928613975631e+02,-9.056781521263474133e+00,8.703913844649537168e+01,-1.631215887565429057e+02,-2.545248642441608808e+02,-2.776598734834215065e+01,7.535112970932686949e+00,9.599730491638183594e+00,-1.032640218734741211e+00,-3.059675097465515137e-01,3.550000000000000000e+02
-2.344221746288008035e+02,-1.422430437662783334e+02,-8.011845168371792170e+00,8.831611453816105950e+01,-1.633138160043354219e+02,-2.520596886275982342e+02,-2.650614035772321131e+01,5.738613495404024434e+00,9.599730491638183594e+00,-1.032640218734741211e+00,-3.059675097465515137e-01,3.560000000000000000e+02
-2.329994588702535339e+02,-1.405568352054771140e+02,-7.910594193164911303e+00,8.933489172945576229e+01,-1.627201135045346518e+02,-2.490726430046171345e+02,-2.620252817142659296e+01,6.105317374204105363e+00,9.599730491638183594e+00,-1.032640218734741211e+00,-3.059675097465515137e-01,3.570000000000000000e+02
-2.322284553667856244e+02,-1.405546291426614971e+02,-8.275747954279381702e+00,9.038764042528055143e+01,-1.610540162307012224e+02,-2.452206326194805115e+02,-2.581754236580843553e+01,8.305701725748690478e+00,9.599730491638183594e+00,-1.032640218734741211e+00,-3.059675097465515137e-01,3.580000000000000000e+02
-2.309440727325109037e+02,-1.414462065387953089e+02,-8.254147563861806702e+00,9.173102676979556236e+01,-1.585260543669373874e+02,-2.407670617439348462e+02,-2.400047969625768474e+01,1.117088599661451553e+01,9.599730491638183594e+00,-1.032640218734741211e+00,-3.059675097465515137e-01,3.590000000000000000e+02
-2.285886503656255400e+02,-1.421890127697733988e+02,-7.514603765871925134e+00,9.332443453325322480e+01,-1.558697443901228326e+02,-2.366732730397234263e+02,-2.021510361197806560e+01,1.327085953161815723e+01,9.599730491638183594e+00,-1.032640218734741211e+00,-3.059675097465515137e-01,3.600000000000000000e+02
-2.256536163067406733e+02,-1.421994439288521335e+02,-6.742890296782320547e+00,9.480656362899367195e+01,-1.539587976162882796e+02,-2.339320404300648306e+02,-1.543194418408211277e+01,1.353284596009746110e+01,9.599730491638183594e+00,-1.032640218734741211e+00,-3.059675097465515137e-01,3.610000000000000000e+02
-2.231339848725585853e+02,-1.414904803186504978e+02,-7.156804032436980378e+00,9.572530525306910931e+01,-1.532685455981464884e+02,-2.327269096686766261e+02,-1.166914121517913827e+01,1.162170318359108023e+01,9.599730491638183594e+00,-1.032640218734741211e+00,-3.059675097465515137e-01,3.620000000000000000e+02
-2.215016805024083624e+02,-1.403224718025139737e+02,-9.380553626838832315e+00,9.583706232004146841e+01,-1.535858529811773678e+02,-2.322415211534387254e+02,-1.059440486944436088e+01,8.002304910186353482e+00,9.599730491638183594e+00,-1.032640218734741211e+00,-3.059675097465515137e-01,3.630000000000000000e+02
-2.201498239022160988e+02,-1.388532352917339949e+02,-1.267812552367070111e+01,9.526524065767512184e+01,-1.541650043990375707e+02,-2.313198802731251362e+02,-1.224801587092508726e+01,3.728336849346533199e+00,9.599730491638183594e+00,-1.032640218734741211e+00,-3.059675097465515137e-01,3.640000000000000000e+02
-2.178684476296912180e+02,-1.371144229061120541e+02,-1.530445117633666996e+01,9.443446937786234230e+01,-1.541962045179732286e+02,-2.293617385310699319e+02,-1.493194720884798699e+01,2.100378846375861031e-02,9.523238182067871094e+00,-1.109132170677185059e+00,-3.442134261131286621e-01,3.650000000000000000e+02
-2.139764261283913811e+02,-1.351972268604365581e+02,-1.575661829256875990e+01,9.387429298288589052e+01,-1.532698825823092648e+02,-2.266489110029547192e+02,-1.637646916697235611e+01,-2.248138626133595608e+00,9.523238182067871094e+00,-1.109132170677185059e+00,-3.442134261131286621e-01,3.660000000000000000e+02
-2.090937540588488446e+02,-1.333312511749994655e+02,-1.388272059966845973e+01,9.403422822037805417e+01,-1.515715924190858459e+02,-2.238834120287147016e+02,-1.524947684708422457e+01,-2.945227532329113274e+00,9.523238182067871094e+00,-1.109132170677185059e+00,-3.442134261131286621e-01,3.670000000000000000e+02
-2.047955947928869591e+02,-1.317514858672075206e+02,-1.092567259569045746e+01,9.516237237328505216e+01,-1.497208963553255217e+02,-2.214683764042147232e+02,-1.186254770443929374e+01,-2.681687249859919575e+00,9.523238182067871094e+00,-1.109132170677185059e+00,-3.442134261131286621e-01,3.680000000000000000e+02
-2.023574916821124816e+02,-1.305402788625634685e+02,-8.502472668494874597e+00,9.720352875843832408e+01,-1.483464472318615890e+02,-2.192309626929109072e+02,-7.673409814576416466e+00,-2.392976009377548507e+00,9.523238182067871094e+00,-1.109132170677185059e+00,-3.442134261131286621e-01,3.690000000000000000e+02
-2.016502339264026205e+02,-1.296518505345358108e+02,-7.427870280134015957e+00,9.970313131762168268e+01,-1.476471999105334589e+02,-2.167776001465354057e+02,-4.194243189529743177e+00,-2.745586328378976759e+00,9.523238182067871094e+00,-1.109132170677185059e+00,-3.442134261131286621e-01,3.700000000000000000e+02
-2.011530351235609260e+02,-1.290707864582286675e+02,-7.322284961833133821e+00,1.018323525036837509e+02,-1.472006607895056050e+02,-2.140407223758172677e+02,-2.214820202435703322e+00,-3.773776897218908744e+00,9.523238182067871094e+00,-1.109132170677185059e+00,-3.442134261131286621e-01,3.710000000000000000e+02
-1.991163533479641501e+02,-1.288796348456323813e+02,-7.164985566972973174e+00,1.026792509463161878e+02,-1.461754559609944408e+02,-2.114492116320971036e+02,-1.730544101116265665e+00,-4.979544893154638885e+00,9.523238182067871094e+00,-1.109132170677185059e+00,-3.442134261131286621e-01,3.720000000000000000e+02
-1.948925461108092350e+02,-1.291220540051529042e+02,-6.152953084862474498e+00,1.017621547620724414e+02,-1.438536690306864330e+02,-2.095742718840474481e+02,-2.264338174464683107e+00,-5.768298927841328805e+00,9.523238182067871094e+00,-1.109132170677185059e+00,-3.442134261131286621e-01,3.730000000000000000e+02
-1.893401966934021630e+02,-1.296119489659453166e+02,-4.142184081950972541e+00,9.943911124703595306e+01,-1.401228437844847576e+02,-2.086197845012247853e+02,-3.100918181291149267e+00,-5.847985978399151463e+00,9.523238182067871094e+00,-1.109132170677185059e+00,-3.442134261131286621e-01,3.740000000000000000e+02
-1.840535188054382161e+02,-1.299288840181533260e+02,-1.483886349216959388e+00,9.683595147967616867e+01,-1.355888324342145097e+02,-2.082310022391943676e+02,-3.353964137163302439e+00,-5.293420722548830781e+00,9.523238182067871094e+00,-1.109132170677185059e+00,-3.442134261131286621e-01,3.750000000000000000e+02
-1.801725549841278280e+02,-1.296542101854200837e+02,1.353636904568929822e+00,9.523686215402881317e+01,-1.312236284907060053e+02,-2.077397577876176911e+02,-2.172335117855709541e+00,-4.299561479774411055e+00,9.523238182067871094e+00,-1.109132170677185059e+00,-3.442134261131286621e-01,3.760000000000000000e+02
-1.777927847238788672e+02,-1.286494866318732875e+02,3.956400970486583901e+00,9.533927621648604145e+01,-1.278132906757168712e+02,-2.065661143872889625e+02,7.607862237982772058e-01,-2.917397143020707517e+00,9.523238182067871094e+00,-1.109132170677185059e+00,-3.442134261131286621e-01,3.770000000000000000e+02
-1.763175779580135440e+02,-1.271237220243860975e+02,5.925297349760285215e+00,9.693873672012364295e+01,-1.256014488308680939e+02,-2.044044204153794908e+02,4.798588520845441963e+00,-1.033247653126636578e+00,9.523238182067871094e+00,-1.109132170677185059e+00,-3.442134261131286621e-01,3.780000000000000000e+02
-1.752050569186603752e+02,-1.254479148740424534e+02,6.890977380902995719e+00,9.924147518356312503e+01,-1.243520526274612621e+02,-2.011387619225542949e+02,8.499687778054521914e+00,1.386377465688383381e+00,9.523238182067871094e+00,-1.109132170677185059e+00,-3.442134261131286621e-01,3.790000000000000000e+02
-1.743347421925300296e+02,-1.239094272579989138e+02,6.695921613507834991e+00,1.014354903335311064e+02,-1.237182651738241930e+02,-1.967705466258535125e+02,1.047566380721264068e+01,4.013102861991683312e+00,9.523238182067871094e+00,-1.109132170677185059e+00,-3.442134261131286621e-01,3.800000000000000000e+02
-1.737549733390103484e+02,-1.226054699111773516e+02,5.568769508573950588e+00,1.029982559148143082e+02,-1.235675165243105766e+02,-1.915822700204764715e+02,1.033736753193602453e+01,6.132441939659656782e+00,9.523238182067871094e+00,-1.109132170677185059e+00,-3.442134261131286621e-01,3.810000000000000000e+02
-1.732268705030278397e+02,-1.214999164978528370e+02,4.067637877794140877e+00,1.036043007070556996e+02,-1.239724228800464516e+02,-1.863763125003069945e+02,8.975945940708243143e+00,6.993614968981319180e+00,9.523238182067871094e+00,-1.109132170677185059e+00,-3.442134261131286621e-01,3.820000000000000000e+02
-1.721380812899410557e+02,-1.205113726873878477e+02,2.819987011190050907e+00,1.029975221190863977e+02,-1.248845303264724862e+02,-1.823475960593718810e+02,7.954664426242288755e+00,6.363020305376267061e+00,9.523238182067871094e+00,-1.109132170677185059e+00,-3.442134261131286621e-01,3.830000000000000000e+02
-1.699033914854853720e+02,-1.195127787529213492e+02,2.291863500610588744e+00,1.012044706260164730e+02,-1.258262214515739288e+02,-1.804105886170093527e+02,8.507376213384759467e+00,4.868169441577720136e+00,9.523238182067871094e+00,-1.109132170677185059e+00,-3.442134261131286621e-01,3.840000000000000000e+02
-1.664568500946747918e+02,-1.182726192476868619e+02,2.713389602568440750e+00,9.892757936732141388e+01,-1.259665521026818169e+02,-1.803972258280905407e+02,1.087743955622863723e+01,3.779467946094655417e+00,9.523238182067871094e+00,-1.109132170677185059e+00,-3.442134261131286621e-01,3.850000000000000000e+02
-1.623880179395223422e+02,-1.164774885942770197e+02,4.048414994290851610e+00,9.750779344639067858e+01,-1.246325737206084341e+02,-1.808889931975218133e+02,1.434120886671462358e+01,4.237072392472782667e+00,9.523238182067871094e+00,-1.109132170677185059e+00,-3.442134261131286621e-01,3.860000000000000000e+02
-1.586311537440246866e+02,-1.139032144011237051e+02,5.896847944817636744e+00,9.813633597329157965e+01,-1.218828861853958188e+02,-1.800431076263173509e+02,1.769420342265084400e+01,6.399231176985495040e+00,9.523238182067871094e+00,-1.109132170677185059e+00,-3.442134261131286621e-01,3.870000000000000000e+02
-1.559703492565217857e+02,-1.106357751441510118e+02,7.463932839184053591e+00,1.008224521049705800e+02,-1.186347360945851506e+02,-1.768914683778316430e+02,1.979057207904816096e+01,9.189795288490586245e+00,9.523238182067871094e+00,-1.109132170677185059e+00,-3.442134261131286621e-01,3.880000000000000000e+02
-1.546637414293236361e+02,-1.071525435958051276e+02,7.882779055374612653e+00,1.041123049904667823e+02,-1.161247075203068562e+02,-1.720620847277396024e+02,1.994096873224543742e+01,1.097349946548092703e+01,9.523238182067871094e+00,-1.109132170677185059e+00,-3.442134261131286621e-01,3.890000000000000000e+02
-1.543249350633477661e+02,-1.041557372416773433e+02,6.866011712742874806e+00,1.060291889784894011e+02,-1.150487224940561646e+02,-1.672761309593333863e+02,1.818868211210883601e+01,1.076175614355861399e+01,9.523238182067871094e+00,-1.109132170677185059e+00,-3.442134261131286621e-01,3.900000000000000000e+02
-1.540583637622999049e+02,-1.022349404251131091e+02,5.172148771324373229e+00,1.055761175129450748e+02,-1.150402647017917843e+02,-1.640112336564845918e+02,1.543689931195649478e+01,9.045101637018433394e+00,9.523238182067871094e+00,-1.109132170677185059e+00,-3.442134261131286621e-01,3.910000000000000000e+02
-1.528402470764667669e+02,-1.015626563281343806e+02,4.284993154969924944e+00,1.035091353765155873e+02,-1.149066625662080696e+02,-1.624489136824447542e+02,1.321338032392486639e+01,7.524471852771057456e+00,9.523238182067871094e+00,-1.109132170677185059e+00,-3.442134261131286621e-01,3.920000000000000000e+02
-1.500597991873555657e+02,-1.018133408949365730e+02,5.338478618890803773e+00,1.016530858321989399e+02,-1.134630984716734474e+02,-1.615500422435206929e+02,1.295894006272828847e+01,7.851793228001952230e+00,9.523238182067871094e+00,-1.109132170677185059e+00,-3.442134261131286621e-01,3.930000000000000000e+02
-1.459447456050579603e+02,-1.023587145226658777e+02,8.132804175452747586e+00,1.013446264286990299e+02,-1.103473171770860972e+02,-1.600985450221492101e+02,1.514681557561016234e+01,1.032756165385808345e+01,9.523238182067871094e+00,-1.109132170677185059e+00,-3.442134261131286621e-01,3.940000000000000000e+02
-1.415261882624695318e+02,-1.026066857774153505e+02,1.116711795808032548e+01,1.023680154998844500e+02,-1.062670885429274676e+02,-1.577652156586541423e+02,1.885970913404480598e+01,1.358845979662510217e+01,9.523238182067871094e+00,-1.109132170677185059e+00,-3.442134261131286621e-01,3.950000000000000000e+02
-1.380242779683298977e+02,-1.022566192716979003e+02,1.277489177066445336e+01,1.032856851639489832e+02,-1.025715656131890228e+02,-1.553099298088163778e+02,2.229187776543403743e+01,1.557666242792856792e+01,9.484992027282714844e+00,-1.109132170677185059e+00,-4.971971809864044189e-01,3.960000000000000000e+02
-1.360120944696727747e+02,-1.013125720141856618e+02,1.244269918129680264e+01,1.027964695569887681e+02,-1.004687448878378291e+02,-1.538457549243462381e+02,2.394955535744702502e+01,1.505242074153875365e+01,9.484992027282714844e+00,-1.109132170677185059e+00,-4.971971809864044189e-01,3.970000000000000000e+02
-1.350052604339600748e+02,-9.988785687893255272e+01,1.117350285352245010e+01,1.008775521345653488e+02,-1.003732674859529652e+02,-1.538656689749682300e+02,2.368426006133086048e+01,1.249211126195268662e+01,9.484992027282714844e+00,-1.109132170677185059e+00,-4.971971809864044189e-01,3.980000000000000000e+02
-1.338608769957450022e+02,-9.799638634397024362e+01,1.060281164295111012e+01,9.876150459512473390e+01,-1.017149408601464984e+02,-1.548203346207942559e+02,2.274212174271247022e+01,9.730062704907595617e+00,9.484992027282714844e+00,-1.109132170677185059e+00,-4.971971809864044189e-01,3.990000000000000000e+02
-1.316882406365007228e+02,-9.553585444114787606e+01,1.168839426805834592e+01,9.789790806788141708e+01,-1.032691226368624484e+02,-1.554986362423749142e+02,2.276765754424468469e+01,8.693297673847382612e+00,9.484992027282714844e+00,-1.109132170677185059e+00,-4.971971809864044189e-01,4.000000000000000000e+02
-1.285130024026339015e+02,-9.247240175119395644e+01,1.410743321153813667e+01,9.889253182837796885e+01,-1.037878392904663087e+02,-1.548198091893873425e+02,2.456263130530214767e+01,1.022867618458485595e+01,9.484992027282714844e+00,-1.109132170677185059e+00,-4.971971809864044189e-01,4.010000000000000000e+02
-1.251530642895154415e+02,-8.902796327846454005e+01,1.675893588933604406e+01,1.012774115626152707e+02,-1.025607146586194176e+02,-1.524268312170024728e+02,2.759651031075190986e+01,1.382656757426661898e+01,9.484992027282714844e+00,-1.109132170677185059e+00,-4.971971809864044189e-01,4.020000000000000000e+02
-1.224574279381881752e+02,-8.564330040951608680e+01,1.877670808022003257e+01,1.041159909443599645e+02,-9.959752087163133183e+01,-1.487278037737778504e+02,3.061481802373828032e+01,1.826535419429842477e+01,9.484992027282714844e+00,-1.109132170677185059e+00,-4.971971809864044189e-01,4.030000000000000000e+02
-1.206094629630229065e+02,-8.268944165970879112e+01,2.011794130540488368e+01,1.067548092332342549e+02,-9.539630057957197096e+01,-1.444781422285263943e+02,3.275036766462972082e+01,2.251567653351617082e+01,9.484992027282714844e+00,-1.109132170677185059e+00,-4.971971809864044189e-01,4.040000000000000000e+02
-1.190856263467485405e+02,-8.016731951758492869e+01,2.133590368341788235e+01,1.090681922842691165e+02,-9.056858636946276420e+01,-1.402810227937879972e+02,3.414044918230092662e+01,2.620195043833746240e+01,9.484992027282714844e+00,-1.109132170677185059e+00,-4.971971809864044189e-01,4.050000000000000000e+02
-1.172215908402654350e+02,-7.768513077577290460e+01,2.292721435381167794e+01,1.111471399983711308e+02,-8.564282780421467578e+01,-1.363457530060190948e+02,3.556487110554166975e+01,2.942526213707310490e+01,9.484992027282714844e+00,-1.109132170677185059e+00,-4.971971809864044189e-01,4.060000000000000000e+02
-1.148225319751204552e+02,-7.477646751592169494e+01,2.489771209671653196e+01,1.129083555449628875e+02,-8.110778832227583734e+01,-1.325927801144175646e+02,3.752649547183818868e+01,3.229622464381554892e+01,9.484992027282714844e+00,-1.109132170677185059e+00,-4.971971809864044189e-01,4.070000000000000000e+02
-1.122911969423521441e+02,-7.131773826576409192e+01,2.680670803871703356e+01,1.140487338130126318e+02,-7.747797422050280147e+01,-1.289449799713297580e+02,3.965545192757736004e+01,3.466012334735432887e+01,9.484992027282714844e+00,-1.109132170677185059e+00,-4.971971809864044189e-01,4.080000000000000000e+02
-1.102477421611561113e+02,-6.768596706488801829e+01,2.808300856091409514e+01,1.143125851723591495e+02,-7.515342916132613027e+01,-1.255512988652199056e+02,4.095167545683261778e+01,3.619401486778542676e+01,9.484992027282714844e+00,-1.109132170677185059e+00,-4.971971809864044189e-01,4.090000000000000000e+02
-1.090435313048360513e+02,-6.451372106725875710e+01,2.830233395770642346e+01,1.137109909760984010e+02,-7.414548071448984956e+01,-1.227794291191503362e+02,4.058612368188664732e+01,3.667383830981361825e+01,9.484992027282714844e+00,-1.109132170677185059e+00,-4.971971809864044189e-01,4.100000000000000000e+02
-1.085515714724383542e+02,-6.224531688197362200e+01,2.732924752067810914e+01,1.124495906031461345e+02,-7.399138393283919868e+01,-1.209914959949255717e+02,3.854271714836863794e+01,3.612376245470795766e+01,9.484992027282714844e+00,-1.109132170677185059e+00,-4.971971809864044189e-01,4.110000000000000000e+02
-1.082892965211970022e+02,-6.085179832796256960e+01,2.543158973628328567e+01,1.107245097353402343e+02,-7.401419933834199583e+01,-1.202416940041102862e+02,3.564914788996361494e+01,3.479842177852447094e+01,9.484992027282714844e+00,-1.109132170677185059e+00,-4.971971809864044189e-01,4.120000000000000000e+02
-1.076809278005171109e+02,-5.990602773349064591e+01,2.336751035578754454e+01,1.087115128855048169e+02,-7.370510254022315166e+01,-1.200915881510741201e+02,3.312444777502605575e+01,3.314305157247144962e+01,9.484992027282714844e+00,-1.109132170677185059e+00,-4.971971809864044189e-01,4.130000000000000000e+02
-1.062824397793438038e+02,-5.888971034917221914e+01,2.224883884851715266e+01,1.068215293472499070e+02,-7.285730416327714920e+01,-1.196923825936828507e+02,3.207927994470765043e+01,3.181742876379394147e+01,9.484992027282714844e+00,-1.109132170677185059e+00,-4.971971809864044189e-01,4.140000000000000000e+02
-1.039604727809821725e+02,-5.744859989156861957e+01,2.304342763625436419e+01,1.058674778069905642e+02,-7.140848428448043705e+01,-1.181660274990426842e+02,3.319880808985794829e+01,3.162876831414951084e+01,9.484992027282714844e+00,-1.109132170677185059e+00,-4.971971809864044189e-01,4.150000000000000000e+02
-1.010252454023275277e+02,-5.544955813825436053e+01,2.592577043646201673e+01,1.067425073435865670e+02,-6.931015753055612549e+01,-1.151366170165911171e+02,3.653079817962361631e+01,3.317391693110494089e+01,9.484992027282714844e+00,-1.109132170677185059e+00,-4.971971809864044189e-01,4.160000000000000000e+02
-9.818385796362554174e+01,-5.291902535450867617e+01,2.998870093051459662e+01,1.096933064376162292e+02,-6.668181624657154316e+01,-1.110789544220842799e+02,4.131567489299686713e+01,3.629586360193252403e+01,9.408499717712402344e+00,-1.070886254310607910e+00,-4.589512646198272705e-01,4.170000000000000000e+02
-9.617528618952701436e+01,-5.003295380585382190e+01,3.366238926726691716e+01,1.138039421623302587e+02,-6.407145109274824790e+01,-1.071791357097745276e+02,4.604663432289976299e+01,3.981534556424617222e+01,9.408499717712402344e+00,-1.070886254310607910e+00,-4.589512646198272705e-01,4.180000000000000000e+02
-9.521560685759550324e+01,-4.717853096084104436e+01,3.564038169166519765e+01,1.172916225796241179e+02,-6.235041015393085218e+01,-1.046992741203989681e+02,4.901116333726258745e+01,4.197458900792776149e+01,9.408499717712402344e+00,-1.070886254310607910e+00,-4.589512646198272705e-01,4.190000000000000000e+02
-9.469723773387522670e+01,-4.492665325790449060e+01,3.565878859809390633e+01,1.185576817931155347e+02,-6.210284201562012640e+01,-1.042314575665409393e+02,4.918881739578046108e+01,4.149288812745203359e+01,9.408499717712402344e+00,-1.070886254310607910e+00,-4.589512646198272705e-01,4.200000000000000000e+02
-9.352721800555877962e+01,-4.378670823981519789e+01,3.454954327264317726e+01,1.172160685888338776e+02,-6.300529474466725333e+01,-1.053712530112170498e+02,4.691226090757822931e+01,3.850540815389035743e+01,9.408499717712402344e+00,-1.070886254310607910e+00,-4.589512646198272705e-01,4.210000000000000000e+02
-9.096425638838309169e+01,-4.386293143328384758e+01,3.355479888065087835e+01,1.142711330057186387e+02,-6.388602403429376864e+01,-1.070357491454442425e+02,4.371349543846667984e+01,3.459416524621383360e+01,9.408499717712402344e+00,-1.070886254310607910e+00,-4.589512646198272705e-01,4.220000000000000000e+02
-8.729277873984960934e+01,-4.471338124590192820e+01,3.347587309769846797e+01,1.113198401988233854e+02,-6.355988752669145470e+01,-1.081436755429322147e+02,4.138906384466781674e+01,3.181352802925357537e+01,9.408499717712402344e+00,-1.070886254310607910e+00,-4.589512646198272705e-01,4.230000000000000000e+02
-8.369761582468709094e+01,-4.559661813266279751e+01,3.431929530286629415e+01,1.094658378871745299e+02,-6.172534209986997666e+01,-1.081208097219196134e+02,4.097140092732342964e+01,3.143978932387472014e+01,9.408499717712402344e+00,-1.070886254310607910e+00,-4.589512646198272705e-01,4.240000000000000000e+02
-8.135235869560892752e+01,-4.593817027356817562e+01,3.563464926277129052e+01,1.088191103855556321e+02,-5.907884266197925172e+01,-1.069177043414256332e+02,4.235367306208331684e+01,3.340019552842068151e+01,9.408499717712402344e+00,-1.070886254310607910e+00,-4.589512646198272705e-01,4.250000000000000000e+02
-8.046657347325299270e+01,-4.562627716953625168e+01,3.713612571329895218e+01,1.088543992772056299e+02,-5.653122955281241957e+01,-1.046990287828225519e+02,4.470249352985865698e+01,3.672191266393815567e+01,9.408499717712402344e+00,-1.070886254310607910e+00,-4.589512646198272705e-01,4.260000000000000000e+02
-8.014163878259478224e+01,-4.490756739348648807e+01,3.898508695235227606e+01,1.091331829429964273e+02,-5.431446664195118501e+01,-1.016046692727318259e+02,4.714225340375878659e+01,4.043751384358847645e+01,9.408499717712402344e+00,-1.070886254310607910e+00,-4.589512646198272705e-01,4.270000000000000000e+02
-7.918443307554366584e+01,-4.402880104125324578e+01,4.147508432599306616e+01,1.096862519445658108e+02,-5.186988263364855811e+01,-9.778612917603913957e+01,4.914125896223663403e+01,4.409314913288039861e+01,9.408499717712402344e+00,-1.070886254310607910e+00,-4.589512646198272705e-01,4.280000000000000000e+02
-7.715881850281698462e+01,-4.300026749242738333e+01,4.446776119803871552e+01,1.108104668038349701e+02,-4.858911660969897639e+01,-9.356458176881824329e+01,5.051018796502739860e+01,4.756235893008897619e+01,9.408499717712402344e+00,-1.070886254310607910e+00,-4.589512646198272705e-01,4.290000000000000000e+02
-7.471412288611463737e+01,-4.168809855586232516e+01,4.721276360104980085e+01,1.126295769145303893e+02,-4.460722248751699226e+01,-8.942376505337324488e+01,5.134518543666945334e+01,5.063123538529953294e+01,9.408499717712402344e+00,-1.070886254310607910e+00,-4.589512646198272705e-01,4.300000000000000000e+02
-7.290015000878202045e+01,-4.007516162085357792e+01,4.883650237130382266e+01,1.149090980380892688e+02,-4.080087065311636252e+01,-8.577865236291972906e+01,5.211671809267909339e+01,5.296485530911286332e+01,9.408499717712402344e+00,-1.070886254310607910e+00,-4.589512646198272705e-01,4.310000000000000000e+02
-7.211511032031194190e+01,-3.837275345652960823e+01,4.911007852216971514e+01,1.172515460709819308e+02,-3.798849092572254449e+01,-8.274835686752703623e+01,5.367753126495290417e+01,5.450133588893254455e+01,9.408499717712402344e+00,-1.070886254310607910e+00,-4.589512646198272705e-01,4.320000000000000000e+02
-7.168742939680760173e+01,-3.686050742959878335e+01,4.874494893620249059e+01,1.193790077669532366e+02,-3.615959534663943487e+01,-8.016582725147100064e+01,5.685023733281241221e+01,5.571672613271903174e+01,9.408499717712402344e+00,-1.070886254310607910e+00,-4.589512646198272705e-01,4.330000000000000000e+02
-7.051155516066319251e+01,-3.565862341378488054e+01,4.880620122933737548e+01,1.211797866791262095e+02,-3.454700522449638811e+01,-7.782789695772271443e+01,6.167022704618375428e+01,5.726812751798593126e+01,9.408499717712402344e+00,-1.070886254310607910e+00,-4.589512646198272705e-01,4.340000000000000000e+02
-6.816608625814251354e+01,-3.471050091542201699e+01,4.967984164030508509e+01,1.225032992158680827e+02,-3.249071372496973709e+01,-7.576253747396413019e+01,6.691782552746008150e+01,5.923466363535590062e+01,9.408499717712402344e+00,-1.070886254310607910e+00,-4.589512646198272705e-01,4.350000000000000000e+02
-6.545288433089035607e+01,-3.397632980812159076e+01,5.057806173784729253e+01,1.230081737497362155e+02,-3.021144869632007612e+01,-7.426790234024838355e+01,7.057698147453857018e+01,6.077335038937599165e+01,9.408499717712402344e+00,-1.070886254310607910e+00,-4.589512646198272705e-01,4.360000000000000000e+02
-6.379601157505203446e+01,-3.355651770677332024e+01,5.018809363379864408e+01,1.223271092571144436e+02,-2.867422088615921894e+01,-7.367744905492327234e+01,7.112591808270144611e+01,6.070947287169929041e+01,9.408499717712402344e+00,-1.070886254310607910e+00,-4.589512646198272705e-01,4.370000000000000000e+02
-6.399000045694083383e+01,-3.353894928453814828e+01,4.801228141810724992e+01,1.204584744797348321e+02,-2.861588195030390125e+01,-7.402497276290796435e+01,6.871187269625306726e+01,5.863169628558352997e+01,9.408499717712402344e+00,-1.070886254310607910e+00,-4.589512646198272705e-01,4.380000000000000000e+02
-6.542703536135172726e+01,-3.372785928830717239e+01,4.515018862914280362e+01,1.179950528482872869e+02,-2.968491506175450922e+01,-7.487664637705120185e+01,6.515979274049686865e+01,5.544401755456920000e+01,9.408499717712402344e+00,-1.070886254310607910e+00,-4.589512646198272705e-01,4.390000000000000000e+02
-6.653154730372580161e+01,-3.361966656777190110e+01,4.364477475314174626e+01,1.158862048751552720e+02,-3.058504079066051418e+01,-7.550014005108096171e+01,6.265974615079176147e+01,5.275700737855777334e+01,9.408499717712402344e+00,-1.070886254310607910e+00,-4.589512646198272705e-01,4.400000000000000000e+02
-6.603791003037167684e+01,-3.276205103156053156e+01,4.482482866749842287e+01,1.148346220600328706e+02,-3.013283080735527619e+01,-7.529284138768616685e+01,6.215263357521052967e+01,5.164011840269949971e+01,9.408499717712402344e+00,-1.070886254310607910e+00,-4.589512646198272705e-01,4.410000000000000000e+02
-6.397550990514127989e+01,-3.119495795852571973e+01,4.810199683514451863e+01,1.147783726072902937e+02,-2.823654688371880184e+01,-7.416891433814635093e+01,6.274646722059878812e+01,5.190817291653593202e+01,9.484992027282714844e+00,-1.070886254310607910e+00,-4.971971809864044189e-01,4.420000000000000000e+02
-6.150174598799776504e+01,-2.948213159065335276e+01,5.138472881836219130e+01,1.149165118817754774e+02,-2.584817710338211327e+01,-7.257086878932477703e+01,6.266574037176224010e+01,5.261275416458738619e+01,9.484992027282714844e+00,-1.070886254310607910e+00,-4.971971809864044189e-01,4.430000000000000000e+02
-5.978534444684464688e+01,-2.821183872014535154e+01,5.279836065469066853e+01,1.143190596269491834e+02,-2.396166230638709749e+01,-7.103738329967700338e+01,6.091364892391720787e+01,5.319031850340297751e+01,9.484992027282714844e+00,-1.070886254310607910e+00,-4.971971809864044189e-01,4.440000000000000000e+02
-5.900065410211891503e+01,-2.739904087047807479e+01,5.217008639595110253e+01,1.126775110895000580e+02,-2.269090165070201692e+01,-6.967242331483021189e+01,5.820939136112792767e+01,5.404190434496058515e+01,9.484992027282714844e+00,-1.070886254310607910e+00,-4.971971809864044189e-01,4.450000000000000000e+02
-5.834037724829886429e+01,-2.639029366097338425e+01,5.095940637721082567e+01,1.105921368307217563e+02,-2.135731874343537129e+01,-6.802372751407256146e+01,5.641527200893642657e+01,5.592378539892888512e+01,9.484992027282714844e+00,-1.070886254310607910e+00,-4.971971809864044189e-01,4.460000000000000000e+02
-5.694043109274252856e+01,-2.442770062986710400e+01,5.078804021793780521e+01,1.091442995892393810e+02,-1.944737558849010384e+01,-6.555181361261520578e+01,5.698463154557339294e+01,5.880537196674049483e+01,9.484992027282714844e+00,-1.070886254310607910e+00,-4.971971809864044189e-01,4.470000000000000000e+02
-5.475961901796654274e+01,-2.139374858309338379e+01,5.201604642748998231e+01,1.090528145668504294e+02,-1.736874689560318075e+01,-6.230128449827225268e+01,5.977461972199353113e+01,6.147160512881691830e+01,9.484992027282714844e+00,-1.070886254310607910e+00,-4.971971809864044189e-01,4.480000000000000000e+02
-5.258729456777109590e+01,-1.806029584869020255e+01,5.362990389436959049e+01,1.100558621957807190e+02,-1.614140681156823121e+01,-5.911470364846081793e+01,6.317383581487865740e+01,6.242557728572683118e+01,9.484992027282714844e+00,-1.070886254310607910e+00,-4.971971809864044189e-01,4.490000000000000000e+02
-5.127318981975622592e+01,-1.560230434336745020e+01,5.433664875839508568e+01,1.110114501760735948e+02,-1.632290446931119732e+01,-5.709835631860823923e+01,6.532917064102230142e+01,6.128042760846892634e+01,9.484992027282714844e+00,-1.070886254310607910e+00,-4.971971809864044189e-01,4.500000000000000000e+02
-5.101159959705319125e+01,-1.477709745096126426e+01,5.365879898376829260e+01,1.106855573649509097e+02,-1.732177107543748207e+01,-5.674676361787487622e+01,6.540910705151418369e+01,5.926879178247418167e+01,9.484992027282714844e+00,-1.070886254310607910e+00,-4.971971809864044189e-01,4.510000000000000000e+02
-5.135272424449613027e+01,-1.541953848117645975e+01,5.204700561911727164e+01,1.086706632988402816e+02,-1.787768319974838960e+01,-5.749483633450563502e+01,6.397564001193268268e+01,5.830306109407911208e+01,9.484992027282714844e+00,-1.070886254310607910e+00,-4.971971809864044189e-01,4.520000000000000000e+02
-5.180084113746715957e+01,-1.659883944337116191e+01,5.018802515269840114e+01,1.057479275105970373e+02,-1.726966697724310507e+01,-5.811793698744531866e+01,6.236871504306600400e+01,5.940321240650973778e+01,9.484992027282714844e+00,-1.070886254310607910e+00,-4.971971809864044189e-01,4.530000000000000000e+02
-5.226701959285173871e+01,-1.723979790387738831e+01,4.845172326442821031e+01,1.033949223849040209e+02,-1.601098962615287746e+01,-5.763768350820510022e+01,6.174765061587777382e+01,6.192743201265875541e+01,9.484992027282714844e+00,-1.070886254310607910e+00,-4.971971809864044189e-01,4.540000000000000000e+02
-5.289793664464923495e+01,-1.671664445673241062e+01,4.702689431182238877e+01,1.027838353526803985e+02,-1.529412720598293163e+01,-5.596773565581133880e+01,6.250659554858657430e+01,6.425826600160962698e+01,9.484992027282714844e+00,-1.070886254310607910e+00,-4.971971809864044189e-01,4.550000000000000000e+02
-5.355715598809274525e+01,-1.504882796141782819e+01,4.633998189575254401e+01,1.040361656163499902e+02,-1.573502944728670627e+01,-5.380210624504479711e+01,6.431479246369690372e+01,6.524963474078595027e+01,9.484992027282714844e+00,-1.070886254310607910e+00,-4.971971809864044189e-01,4.560000000000000000e+02
-5.361473035357903427e+01,-1.266534698568329986e+01,4.702439988440892193e+01,1.063129186773730908e+02,-1.666396294328251315e+01,-5.192601723247435075e+01,6.654996274826453373e+01,6.513630518167747141e+01,9.484992027282714844e+00,-1.070886254310607910e+00,-4.971971809864044189e-01,4.570000000000000000e+02
-5.234329487559853078e+01,-9.981887173367795185e+00,4.934332096326011197e+01,1.086172067820816665e+02,-1.664601981219902882e+01,-5.059183255734842533e+01,6.872822470743722079e+01,6.521368962742599251e+01,9.484992027282714844e+00,-1.070886254310607910e+00,-4.971971809864044189e-01,4.580000000000000000e+02
-4.952925028959134579e+01,-7.113515250728596584e+00,5.274848607888065999e+01,1.105724256517469257e+02,-1.469991941784473966e+01,-4.945189124419403015e+01,7.068561770757560225e+01,6.671395866618331638e+01,9.484992027282714844e+00,-1.070886254310607910e+00,-4.971971809864044189e-01,4.590000000000000000e+02
-4.568864161806050106e+01,-3.924500867220103828e+00,5.616673372079048931e+01,1.124596302430209107e+02,-1.108731055874659432e+01,-4.802126141982171248e+01,7.247822845950122428e+01,6.988137729664776998e+01,9.484992027282714844e+00,-1.070886254310607910e+00,-4.971971809864044189e-01,4.600000000000000000e+02
-4.170225956974263681e+01,-3.625582486447456176e-01,5.878703662494126547e+01,1.145215754850819394e+02,-7.057841473718326597e+00,-4.620207402869391444e+01,7.415178191413906461e+01,7.388917772633658387e+01,9.484992027282714844e+00,-1.070886254310607910e+00,-4.971971809864044189e-01,4.610000000000000000e+02
-3.827557635612038212e+01,3.208458542993867013e+00,6.050603961082561000e+01,1.162836161628692935e+02,-3.943808951673418051e+00,-4.441572850233751524e+01,7.558812994885602166e+01,7.745665168654250010e+01,9.484992027282714844e+00,-1.070886254310607910e+00,-4.971971809864044189e-01,4.620000000000000000e+02
-3.573795730760139122e+01,6.007228683000903402e+00,6.157637434042703717e+01,1.166735295998105357e+02,-2.446256366617944877e+00,-4.327376121534825870e+01,7.654899378067602811e+01,7.958314562576970275e+01,9.484992027282714844e+00,-1.070886254310607910e+00,-4.971971809864044189e-01,4.630000000000000000e+02
-3.424688508089093375e+01,7.276519369584548258e+00,6.195298580026860691e+01,1.149536485244470896e+02,-2.540620220144319319e+00,-4.308369577701523667e+01,7.687068449459729891e+01,7.996125840709737531e+01,9.484992027282714844e+00,-1.070886254310607910e+00,-4.971971809864044189e-01,4.640000000000000000e+02
-3.399262193295749057e+01,6.896961969762514855e+00,6.121534355279868578e+01,1.116119530097762436e+02,-3.765339872889853723e+00,-4.358968918012942595e+01,7.660662667866654374e+01,7.900006292477473835e+01,9.484992027282714844e+00,-1.070886254310607910e+00,-4.971971809864044189e-01,4.650000000000000000e+02
-3.505112198273354807e+01,5.662802638417815615e+00,5.924936511009309470e+01,1.083030336887891281e+02,-5.442131440649518481e+00,-4.412276193472644081e+01,7.594913033856983020e+01,7.759518392008567389e+01,9.484992027282714844e+00,-1.070886254310607910e+00,-4.971971809864044189e-01,4.660000000000000000e+02
-3.702482256455232346e+01,4.908704419984815104e+00,5.689071677880792777e+01,1.067910767696880612e+02,-6.721838966809627891e+00,-4.399816478666980402e+01,7.500506355202514897e+01,7.675608761629609944e+01,9.484992027282714844e+00,-1.070886254310607910e+00,-4.971971809864044189e-01,4.670000000000000000e+02
-3.893958050055789499e+01,5.697162436284543219e+00,5.564492083061986705e+01,1.077949627907250942e+02,-6.694775224350451026e+00,-4.283350005270494876e+01,7.371704021597133760e+01,7.720099983268619326e+01,9.484992027282714844e+00,-1.070886254310607910e+00,-4.971971809864044189e-01,4.680000000000000000e+02
-3.967674337510516125e+01,8.174473952255311815e+00,5.655915781172643619e+01,1.107054130110832375e+02,-4.744067515076494601e+00,-4.059210996246520153e+01,7.210333237014447150e+01,7.908612632806352849e+01,9.484992027282714844e+00,-1.032640218734741211e+00,-3.824593424797058105e-01,4.690000000000000000e+02
-3.867092598435624495e+01,1.156700097945486050e+01,5.932384810974190259e+01,1.142798480807396118e+02,-9.431899766582318989e-01,-3.743609061797360482e+01,7.060027455280305730e+01,8.203116895524976826e+01,9.484992027282714844e+00,-1.032640218734741211e+00,-3.824593424797058105e-01,4.700000000000000000e+02
-3.626695171045730604e+01,1.476108140089399967e+01,6.255510336449174247e+01,1.175381355363133480e+02,3.894017933631857886e+00,-3.362464488680552677e+01,7.005912851091557059e+01,8.542427471479936685e+01,9.484992027282714844e+00,-1.032640218734741211e+00,-3.824593424797058105e-01,4.710000000000000000e+02
-3.340596201553694300e+01,1.694888062284917396e+01,6.502236273891230667e+01,1.200391723683328564e+02,8.640535816756255372e+00,-2.958605090401397320e+01,7.118500619991959866e+01,8.873933706459888526e+01,9.484992027282714844e+00,-1.032640218734741211e+00,-3.824593424797058105e-01,4.720000000000000000e+02
-3.093074115124795753e+01,1.786266543923534300e+01,6.661143027777598036e+01,1.214957261348722568e+02,1.245965256988438341e+01,-2.602368221141205140e+01,7.377212726759626094e+01,9.159450448760208019e+01,9.484992027282714844e+00,-1.032640218734741211e+00,-3.824593424797058105e-01,4.730000000000000000e+02
-2.913350875322771572e+01,1.758089085425808662e+01,6.807279875555127546e+01,1.214078898755465161e+02,1.509993903077338473e+01,-2.380387578372028656e+01,7.643871030962873192e+01,9.356641400083253757e+01,9.484992027282714844e+00,-1.032640218734741211e+00,-3.824593424797058105e-01,4.740000000000000000e+02
-2.789314143597425755e+01,1.627521678234052160e+01,6.986726702003443279e+01,1.192941241443741092e+02,1.669060734706090443e+01,-2.355892894632233947e+01,7.727243812939741474e+01,9.408677344686839206e+01,9.484992027282714844e+00,-1.032640218734741211e+00,-3.824593424797058105e-01,4.750000000000000000e+02
-2.716197163901870226e+01,1.422003251293290305e+01,7.136664684490506261e+01,1.153395512722099738e+02,1.733137542581789603e+01,-2.524092618863232929e+01,7.506003071027203077e+01,9.270209227695590926e+01,9.484992027282714844e+00,-1.032640218734741211e+00,-3.824593424797058105e-01,4.760000000000000000e+02
-2.720919379262522853e+01,1.198997674729866958e+01,7.130731569215095078e+01,1.107392439507116251e+02,1.694961356126032115e+01,-2.797232288602344852e+01,7.024444721038366879e+01,8.959914509721920695e+01,9.484992027282714844e+00,-1.032640218734741211e+00,-3.824593424797058105e-01,4.770000000000000000e+02
-2.830155676025401590e+01,1.048811390138212118e+01,6.908887862592450801e+01,1.072492748880440558e+02,1.558121602991968757e+01,-3.036683339427554529e+01,6.487500065290487328e+01,8.592041999613138614e+01,9.484992027282714844e+00,-1.032640218734741211e+00,-3.824593424797058105e-01,4.780000000000000000e+02
-3.013294419591579754e+01,1.058944195999583826e+01,6.561503299618470919e+01,1.061990511698459159e+02,1.373858705070460928e+01,-3.117413548191552763e+01,6.152424739272100851e+01,8.343814991066051334e+01,9.484992027282714844e+00,-1.032640218734741211e+00,-3.824593424797058105e-01,4.790000000000000000e+02
-3.166808781425811503e+01,1.258859447244321927e+01,6.280213424825387847e+01,1.077180302030005805e+02,1.237449223889302630e+01,-2.989126576314220074e+01,6.184430791737281652e+01,8.363171167822110874e+01,9.484992027282714844e+00,-1.032640218734741211e+00,-3.824593424797058105e-01,4.800000000000000000e+02
-3.173213159594115496e+01,1.588784373572138975e+01,6.216682400756189963e+01,1.107177461546234554e+02,1.232547516895874651e+01,-2.700745308748673779e+01,6.565581659463214237e+01,8.673934547768385528e+01,9.484992027282714844e+00,-1.032640218734741211e+00,-3.824593424797058105e-01,4.810000000000000000e+02
-2.993305651986179328e+01,1.923454438648036557e+01,6.376178654928207834e+01,1.135655469873704533e+02,1.369211259202029396e+01,-2.373918697027193048e+01,7.111095952715777457e+01,9.149499296101384971e+01,9.484992027282714844e+00,-1.032640218734741211e+00,-3.824593424797058105e-01,4.820000000000000000e+02
-2.711420531878457041e+01,2.139080697610529569e+01,6.632916265239896347e+01,1.149290728065659550e+02,1.574325966898186380e+01,-2.138756723092774337e+01,7.577875858283641719e+01,9.579541129140670819e+01,9.484992027282714844e+00,-1.032640218734741211e+00,-3.824593424797058105e-01,4.830000000000000000e+02
-2.485772049380761928e+01,2.178592789512617856e+01,6.838361246335080068e+01,1.142932533594234883e+02,1.747859522790395204e+01,-2.067602480871573789e+01,7.795874743653257610e+01,9.787540536083383813e+01,9.484992027282714844e+00,-1.032640218734741211e+00,-3.824593424797058105e-01,4.840000000000000000e+02
-2.437998539002364851e+01,2.074751691557798949e+01,6.918384204853259689e+01,1.119855683248358673e+02,1.836091789109559613e+01,-2.146383565425639972e+01,7.744607262952467863e+01,9.720831780018966128e+01,9.484992027282714844e+00,-1.032640218734741211e+00,-3.824593424797058105e-01,4.850000000000000000e+02
-2.570679459652637888e+01,1.920877615025028717e+01,6.887016034066323300e+01,1.088457190552353495e+02,1.856295469358838091e+01,-2.301138177773486859e+01,7.536374857785722270e+01,9.457594415394055432e+01,9.484992027282714844e+00,-1.032640218734741211e+00,-3.824593424797058105e-01,4.860000000000000000e+02
-2.778143622118045641e+01,1.812830048950445416e+01,6.795548571117024039e+01,1.057902281291301279e+02,1.857422349549847240e+01,-2.457714123659434335e+01,7.328532341289292162e+01,9.137268497996228689e+01,9.484992027282714844e+00,-1.032640218734741211e+00,-3.824593424797058105e-01,4.870000000000000000e+02
-2.936279681188193535e+01,1.797839033732338976e+01,6.684886678096381729e+01,1.034722925287233011e+02,1.863462874223364452e+01,-2.586775042141289305e+01,7.227810324083407068e+01,8.871875322043888445e+01,9.484992027282714844e+00,-1.032640218734741211e+00,-3.824593424797058105e-01,4.880000000000000000e+02
-2.993009826187426370e+01,1.856367860623640809e+01,6.580083201815591565e+01,1.021380894223382256e+02,1.856011393998210224e+01,-2.700256381925555615e+01,7.244124358026692789e+01,8.698294983576261075e+01,9.484992027282714844e+00,-1.032640218734741211e+00,-3.824593424797058105e-01,4.890000000000000000e+02
-2.988094030327738437e+01,1.922061066016817676e+01,6.504635634209171258e+01,1.016585495767731118e+02,1.804013355643837713e+01,-2.812013845993487848e+01,7.309426078025717288e+01,8.590215169950033669e+01,9.484992027282714844e+00,-1.032640218734741211e+00,-3.824593424797058105e-01,4.900000000000000000e+02
-2.995957827010124674e+01,1.926183476526330196e+01,6.477219437204234964e+01,1.016718313642863905e+02,1.701948954991075880e+01,-2.906699958026274544e+01,7.335750292786769933e+01,8.504624712795339292e+01,9.484992027282714844e+00,-1.032640218734741211e+00,-3.824593424797058105e-01,4.910000000000000000e+02
-3.048935865049543281e+01,1.841958349360379543e+01,6.490363332316655942e+01,1.017670717190164851e+02,1.577941679141713394e+01,-2.947497445609747047e+01,7.270318244258078266e+01,8.421395329722258793e+01,9.484992027282714844e+00,-1.032640218734741211e+00,-3.824593424797058105e-01,4.920000000000000000e+02
-3.107960658521687947e+01,1.704765752085017994e+01,6.506481320810121360e+01,1.016767394580390373e+02,1.473925696498440630e+01,-2.910157591897768725e+01,7.119991349482006626e+01,8.353109030227051335e+01,9.484992027282714844e+00,-1.032640218734741211e+00,-3.824593424797058105e-01,4.930000000000000000e+02
-3.100257920426702185e+01,1.595540125190473191e+01,6.490325474124756511e+01,1.014457457677945058e+02,1.428032438229820400e+01,-2.802946869890502057e+01,6.941459284016264064e+01,8.330796214479869377e+01,9.484992027282714844e+00,-1.032640218734741211e+00,-3.824593424797058105e-01,4.940000000000000000e+02
-2.988339601705797577e+01,1.593960323058399808e+01,6.446848800336715613e+01,1.014679164924878023e+02,1.471541092525376371e+01,-2.653294667805266727e+01,6.807562187251141950e+01,8.381604121260443208e+01,9.484992027282714844e+00,-1.032640218734741211e+00,-3.824593424797058105e-01,4.950000000000000000e+02
-2.810303017857540908e+01,1.728093665534447609e+01,6.418974196292174383e+01,1.022721630334087877e+02,1.624681800312760060e+01,-2.482160520109641766e+01,6.767987992243865847e+01,8.511538429167057984e+01,9.484992027282714844e+00,-1.032640218734741211e+00,-3.824593424797058105e-01,4.960000000000000000e+02
-2.654414325762456883e+01,1.954249003381414695e+01,6.443439505321634897e+01,1.040995365458061315e+02,1.878631413992434318e+01,-2.298752246335470772e+01,6.826159380208855509e+01,8.698948349777992917e+01,9.484992027282714844e+00,-1.032640218734741211e+00,-3.824593424797058105e-01,4.970000000000000000e+02
-2.584878382607109870e+01,2.183489527313827239e+01,6.513396384916075021e+01,1.065541193688977728e+02,2.181297136898933786e+01,-2.119610762567390339e+01,6.946845716927668946e+01,8.899718268130368415e+01,9.484992027282714844e+00,-1.032640218734741211e+00,-3.824593424797058105e-01,4.980000000000000000e+02
-2.579002576158484317e+01,2.339070957713045118e+01,6.593427138224308237e+01,1.086689601145235429e+02,2.456302200184711637e+01,-1.981228877194621418e+01,7.088228705419874132e+01,9.064002416580660793e+01,9.484992027282714844e+00,-1.032640218734741211e+00,-3.824593424797058105e-01,4.990000000000000000e+02
-2.533654070484885779e+01,2.403073764755708908e+01,6.670841212664731756e+01,1.094489221358971918e+02,2.651599470446376472e+01,-1.921825566852248812e+01,7.229403057734828053e+01,9.157843334663880341e+01,9.484992027282714844e+00,-1.109132170677185059e+00,-3.824593424797058105e-01,5.000000000000000000e+02
-2.345344838686196454e+01,2.417829428415609527e+01,6.780174499893519169e+01,1.085207916437096856e+02,2.772898931341160278e+01,-1.946422192674538110e+01,7.366178145843559832e+01,9.176227094714749910e+01,9.484992027282714844e+00,-1.109132170677185059e+00,-3.824593424797058105e-01,5.010000000000000000e+02
-2.002812075492317945e+01,2.443539635671595533e+01,6.964872295765690069e+01,1.063820043272024805e+02,2.865174227459192480e+01,-2.013445405521065368e+01,7.483050809768531053e+01,9.140004723553829535e+01,9.484992027282714844e+00,-1.109132170677185059e+00,-3.824593424797058105e-01,5.020000000000000000e+02
-1.612345886419961971e+01,2.510169269751270349e+01,7.212920247427791764e+01,1.040518107504467480e+02,2.960625294881515401e+01,-2.061254024437801036e+01,7.539832019124855833e+01,9.082451554465046684e+01,9.484992027282714844e+00,-1.109132170677185059e+00,-3.824593424797058105e-01,5.030000000000000000e+02
-1.326983993061810452e+01,2.605135041846608601e+01,7.439601490922746052e+01,1.024384935551062199e+02,3.050536104736431753e+01,-2.049567121978896012e+01,7.501215139529927001e+01,9.039320418501006316e+01,9.484992027282714844e+00,-1.109132170677185059e+00,-3.824593424797058105e-01,5.040000000000000000e+02
-1.233964828138243774e+01,2.703147485015762186e+01,7.544949637108175011e+01,1.019378985413775354e+02,3.111407521910200558e+01,-1.976269544198089534e+01,7.388595103447346446e+01,9.046243963123129106e+01,9.484992027282714844e+00,-1.109132170677185059e+00,-3.824593424797058105e-01,5.050000000000000000e+02
-1.295905971481306551e+01,2.803535610905134945e+01,7.492933765784039224e+01,1.024977946317540045e+02,3.149390820118679812e+01,-1.858804464589377403e+01,7.295405127583899230e+01,9.133122698030814490e+01,9.484992027282714844e+00,-1.109132170677185059e+00,-3.824593424797058105e-01,5.060000000000000000e+02
-1.395136770646683999e+01,2.935784271890577202e+01,7.334173679299993864e+01,1.039129682614652097e+02,3.201002830427967183e+01,-1.707497247130027063e+01,7.330697510219664537e+01,9.304726795773342474e+01,9.484992027282714844e+00,-1.109132170677185059e+00,-3.824593424797058105e-01,5.070000000000000000e+02
-1.436707575138393622e+01,3.127897411171898057e+01,7.153502345426693410e+01,1.059597707486755098e+02,3.278710687781727984e+01,-1.522754818563606705e+01,7.527665026138913618e+01,9.515801718656035746e+01,9.484992027282714844e+00,-1.109132170677185059e+00,-3.824593424797058105e-01,5.080000000000000000e+02
-1.412948788837934444e+01,3.369600019615791098e+01,7.000058060775108970e+01,1.082639312835497662e+02,3.322530912504015532e+01,-1.316112543074524410e+01,7.797821064612733721e+01,9.669287431689002688e+01,9.484992027282714844e+00,-1.109132170677185059e+00,-3.824593424797058105e-01,5.090000000000000000e+02
-1.376282580361312569e+01,3.606238275685871031e+01,6.866672148843451851e+01,1.101538980966999191e+02,3.225034943710767266e+01,-1.127559573725528708e+01,7.979776171835186460e+01,9.656504159328933667e+01,9.484992027282714844e+00,-1.109132170677185059e+00,-3.824593424797058105e-01,5.100000000000000000e+02
-1.360995311023614818e+01,3.767806887446467101e+01,6.726887663672145834e+01,1.108099189949595313e+02,2.924023857922372116e+01,-1.014862722922678984e+01,7.950317730638661828e+01,9.423494803294371991e+01,9.484992027282714844e+00,-1.109132170677185059e+00,-3.824593424797058105e-01,5.110000000000000000e+02
-1.342637388739757398e+01,3.806711716184030792e+01,6.578816615608329244e+01,1.097122020040426662e+02,2.480514364547045147e+01,-1.018971818518947714e+01,7.710289060712850073e+01,9.019024214468186074e+01,9.484992027282714844e+00,-1.109132170677185059e+00,-3.824593424797058105e-01,5.120000000000000000e+02
-1.275418894158173089e+01,3.717593923450334614e+01,6.449136887625621739e+01,1.070592846173076822e+02,2.062833750842031577e+01,-1.132403055208979481e+01,7.381416584262400704e+01,8.585395044240868856e+01,9.484992027282714844e+00,-1.109132170677185059e+00,-3.824593424797058105e-01,5.130000000000000000e+02
-1.157724920628953669e+01,3.537681928845842094e+01,6.364058252120344150e+01,1.038018409140974825e+02,1.841947869144115657e+01,-1.293415254220866473e+01,7.124461328545473293e+01,8.292248188874418702e+01,9.484992027282714844e+00,-1.109132170677185059e+00,-3.824593424797058105e-01,5.140000000000000000e+02
-1.046758017063564239e+01,3.339329924967756824e+01,6.329199217921154741e+01,1.012307783539893080e+02,1.883700306048064022e+01,-1.410765379967625677e+01,7.043457466108066001e+01,8.253391297741313792e+01,9.484992027282714844e+00,-1.109132170677185059e+00,-3.824593424797058105e-01,5.150000000000000000e+02
-1.001441717862996938e+01,3.215343511071205285e+01,6.341320433179089378e+01,1.003946016458077679e+02,2.122645881938535695e+01,-1.406117332771839301e+01,7.139423376492777606e+01,8.475916773580928520e+01,9.484992027282714844e+00,-1.109132170677185059e+00,-3.824593424797058105e-01,5.160000000000000000e+02
-1.016275160228826735e+01,3.246310048247767099e+01,6.409285930460828240e+01,1.016983772552429173e+02,2.427900201747877418e+01,-1.252266706822024389e+01,7.330707329714203979e+01,8.867679070775318451e+01,9.484992027282714844e+00,-1.109132170677185059e+00,-3.824593424797058105e-01,5.170000000000000000e+02
-1.022223287697488558e+01,3.452876053363047504e+01,6.551361461474209591e+01,1.048538048001935294e+02,2.697584124866136790e+01,-9.868091015962818346e+00,7.514809656069053290e+01,9.293882694542026002e+01,9.484992027282714844e+00,-1.109132170677185059e+00,-3.824593424797058105e-01,5.180000000000000000e+02
-9.588008369463636882e+00,3.765983833498705735e+01,6.767607003951593470e+01,1.090862919177808408e+02,2.906316991546668760e+01,-6.914289053043489730e+00,7.630903529904708193e+01,9.646521702412576360e+01,9.484992027282714844e+00,-1.109132170677185059e+00,-3.824593424797058105e-01,5.190000000000000000e+02
-8.413131388069359673e+00,4.054153276247177473e+01,7.019045274211475771e+01,1.134008988786781629e+02,3.080412609428663018e+01,-4.473373750807468241e+00,7.687843022815491167e+01,9.886028205312379669e+01,9.484992027282714844e+00,-1.109132170677185059e+00,-3.824593424797058105e-01,5.200000000000000000e+02
-7.508397658077001324e+00,4.206367684393580930e+01,7.241493733168726976e+01,1.168232534323612981e+02,3.237626201755301736e+01,-2.951580801851150682e+00,7.743472855567279112e+01,1.003291331088191782e+02,9.446745872497558594e+00,-1.070886254310607910e+00,-3.442134261131286621e-01,5.210000000000000000e+02
-7.552329597192851907e+00,4.210543496036859779e+01,7.384734344156117913e+01,1.186441238668505775e+02,3.350747249712799203e+01,-2.252397661212171442e+00,7.849126980744790671e+01,1.012191367401949265e+02,9.446745872497558594e+00,-1.070886254310607910e+00,-3.442134261131286621e-01,5.220000000000000000e+02
-8.420577266319241971e+00,4.157994848549105882e+01,7.442794048048767763e+01,1.186750685323791004e+02,3.367349395573319271e+01,-2.003214292598386237e+00,8.000065404168526584e+01,1.016010683311408229e+02,9.446745872497558594e+00,-1.070886254310607910e+00,-3.442134261131286621e-01,5.230000000000000000e+02
-9.300874673888529287e+00,4.164149905010731345e+01,7.453623664549877503e+01,1.174105963628371683e+02,3.270038447939509751e+01,-1.845977947317123835e+00,8.136610119111946915e+01,1.013017970619946482e+02,9.446745872497558594e+00,-1.070886254310607910e+00,-3.442134261131286621e-01,5.240000000000000000e+02
-9.443636966911299169e+00,4.274055655647362073e+01,7.474240170035545816e+01,1.159016518707380783e+02,3.124404299341563274e+01,-1.532772743098576029e+00,8.200927514585077915e+01,1.003814769398049975e+02,9.446745872497558594e+00,-1.070886254310607910e+00,-3.442134261131286621e-01,5.250000000000000000e+02
-8.790899658916259796e+00,4.437368069886997546e+01,7.550360729088856715e+01,1.152681366186998275e+02,3.064563075192450015e+01,-8.346641911077767872e-01,8.198443719777537808e+01,9.954492078811563260e+01,9.446745872497558594e+00,-1.070886254310607910e+00,-3.442134261131286621e-01,5.260000000000000000e+02
-7.920127212457600763e+00,4.571107356767311103e+01,7.693750878363857737e+01,1.160733795507644572e+02,3.212516988958373076e+01,5.108824109793204116e-01,8.201809253438977976e+01,9.992329224573109059e+01,9.446745872497558594e+00,-1.070886254310607910e+00,-3.442134261131286621e-01,5.270000000000000000e+02
-7.460780308960920593e+00,4.642656783100619577e+01,7.870986863242569598e+01,1.179677141648080578e+02,3.583127127137413481e+01,2.641163882221462700e+00,8.284666695194960084e+01,1.022107183159196211e+02,9.446745872497558594e+00,-1.070886254310607910e+00,-3.442134261131286621e-01,5.280000000000000000e+02
-7.606942230254844617e+00,4.689601531507992149e+01,8.009333797904992025e+01,1.198858857979926142e+02,4.048716927862301418e+01,5.299103833354820381e+00,8.442301335770457626e+01,1.058434972692311931e+02,9.446745872497558594e+00,-1.070886254310607910e+00,-3.442134261131286621e-01,5.290000000000000000e+02
-8.139385048112899312e+00,4.759314888774156316e+01,8.026214830862386407e+01,1.206763489379168277e+02,4.400227808509680472e+01,7.743592752335189289e+00,8.576272380990712918e+01,1.090532714935677632e+02,9.446745872497558594e+00,-1.070886254310607910e+00,-3.442134261131286621e-01,5.300000000000000000e+02
-8.794828901290657086e+00,4.833460520076414468e+01,7.874212759936767725e+01,1.197122391601769777e+02,4.467863853009475861e+01,8.999660388887605222e+00,8.560662364730296758e+01,1.099271796344910399e+02,9.446745872497558594e+00,-1.070886254310607910e+00,-3.442134261131286621e-01,5.310000000000000000e+02
-9.524606625217529654e+00,4.819740828932526711e+01,7.572497884917447664e+01,1.170787463351484803e+02,4.215691293442978349e+01,8.322876835795796069e+00,8.330496574734706883e+01,1.076740638093651796e+02,9.446745872497558594e+00,-1.070886254310607910e+00,-3.442134261131286621e-01,5.320000000000000000e+02
-1.041874522740363318e+01,4.625504943761643517e+01,7.197643125767535821e+01,1.133100564258556915e+02,3.743959527431252354e+01,5.582479741805400408e+00,7.915402856570426593e+01,1.030446795470784309e+02,9.446745872497558594e+00,-1.070886254310607910e+00,-3.442134261131286621e-01,5.330000000000000000e+02
-1.147932089253208687e+01,4.245464995775546413e+01,6.840051420889267320e+01,1.089922403182627022e+02,3.205406268289289073e+01,1.334769792391398369e+00,7.401082544398468599e+01,9.758774775355004749e+01,9.446745872497558594e+00,-1.070886254310607910e+00,-3.442134261131286621e-01,5.340000000000000000e+02
-1.254638448568357489e+01,3.781219566671734356e+01,6.561970591770659667e+01,1.045615288606900322e+02,2.705841979130218533e+01,-3.429248088937129069e+00,6.870321598534519580e+01,9.246022381417515135e+01,9.446745872497558594e+00,-1.070886254310607910e+00,-3.442134261131286621e-01,5.350000000000000000e+02
-1.343838099943332054e+01,3.375651594807777656e+01,6.387932334262177392e+01,1.003668570327058660e+02,2.262228543751871257e+01,-7.703371023245381366e+00,6.382994109009587191e+01,8.785631823287849329e+01,9.446745872497558594e+00,-1.070886254310607910e+00,-3.442134261131286621e-01,5.360000000000000000e+02
-1.412415968756886286e+01,3.120826344964007149e+01,6.321106722069498574e+01,9.680559580350063698e+01,1.836850462524125760e+01,-1.084070705267549783e+01,5.995578077418667817e+01,8.344596518280832242e+01,9.446745872497558594e+00,-1.070886254310607910e+00,-3.442134261131286621e-01,5.370000000000000000e+02
-1.473201736600185541e+01,3.016033246351980779e+01,6.352785327930769199e+01,9.431999669623201044e+01,1.405516321207642250e+01,-1.271079660434679681e+01,5.769731319952825288e+01,7.922827870964192698e+01,9.446745872497558594e+00,-1.070886254310607910e+00,-3.442134261131286621e-01,5.380000000000000000e+02
-1.540547119010625465e+01,3.000069588201904480e+01,6.449805636115252128e+01,9.323829301001069325e+01,9.994531545727568300e+00,-1.358065693035132426e+01,5.735647880152328071e+01,7.587187557665220083e+01,9.446745872497558594e+00,-1.070886254310607910e+00,-3.442134261131286621e-01,5.390000000000000000e+02
-1.617018570875507066e+01,3.016271684647472284e+01,6.543871043777471641e+01,9.359157737880423156e+01,6.906486401431720878e+00,-1.381510004218944232e+01,5.840967448184255773e+01,7.423416176932869348e+01,9.446745872497558594e+00,-1.070886254310607910e+00,-3.442134261131286621e-01,5.400000000000000000e+02
-1.690922044932540302e+01,3.050515710182207840e+01,6.557677591114770621e+01,9.503761206371018488e+01,5.396939765315437398e+00,-1.361941394124005456e+01,5.953302650369732874e+01,7.462155646418341348e+01,9.446745872497558594e+00,-1.070886254310607910e+00,-3.442134261131286621e-01,5.410000000000000000e+02
-1.740419937901378944e+01,3.116960138084732534e+01,6.462597675122333385e+01,9.691888554603565353e+01,5.534188492659268377e+00,-1.300960994752858824e+01,5.941329285058327514e+01,7.655988278661970980e+01,9.446745872497558594e+00,-1.070886254310607910e+00,-3.442134261131286621e-01,5.420000000000000000e+02
-1.737456394290347816e+01,3.218552510070503558e+01,6.317030697581685672e+01,9.844760041998779343e+01,6.884653282269027841e+00,-1.198203320400716620e+01,5.777381163692916743e+01,7.927940886330088688e+01,9.446745872497558594e+00,-1.070886254310607910e+00,-3.442134261131286621e-01,5.430000000000000000e+02
-1.653836025314421931e+01,3.327508876446245267e+01,6.237781844209621340e+01,9.900406251629829057e+01,8.962227788774725923e+00,-1.066641296208763379e+01,5.569509374592416862e+01,8.238346241301496775e+01,9.446745872497558594e+00,-1.070886254310607910e+00,-3.442134261131286621e-01,5.440000000000000000e+02
-1.473931010211708781e+01,3.405021321070307749e+01,6.316525741827626916e+01,9.847722553781932220e+01,1.168306006592774793e+01,-9.265826172750166734e+00,5.485164846132283856e+01,8.602042778704981174e+01,9.446745872497558594e+00,-1.070886254310607910e+00,-3.442134261131286621e-01,5.450000000000000000e+02
-1.210188429713070946e+01,3.436846669071564975e+01,6.548806147362392949e+01,9.742891163038893865e+01,1.537438596740594221e+01,-7.859657285744106048e+00,5.621879296092174627e+01,9.040290657147488673e+01,9.523238182067871094e+00,-9.561483860015869141e-01,-3.442134261131286621e-01,5.460000000000000000e+02
-9.079667934426652209e+00,3.447020738017818076e+01,6.836860662442268222e+01,9.685837667098712700e+01,2.025975129733524227e+01,-6.326783040869486285e+00,5.928737476696096564e+01,9.516177847220023978e+01,9.523238182067871094e+00,-9.561483860015869141e-01,-3.442134261131286621e-01,5.470000000000000000e+02
-6.299957429232563300e+00,3.474561922227530886e+01,7.061179835290386109e+01,9.757714278118874063e+01,2.583700259056149662e+01,-4.529071255193230172e+00,6.239786732959510118e+01,9.919006275563788222e+01,9.523238182067871094e+00,-9.561483860015869141e-01,-3.442134261131286621e-01,5.480000000000000000e+02
-4.268060734060782124e+00,3.534065560631279368e+01,7.157138140316965291e+01,9.957475148410594556e+01,3.076637123421278375e+01,-2.574302992993580119e+00,6.388351655023143394e+01,1.012039765003710272e+02,9.523238182067871094e+00,-9.561483860015869141e-01,-3.442134261131286621e-01,5.490000000000000000e+02
-3.128449036423262442e+00,3.597664174737747089e+01,7.137864265590724244e+01,1.019037581610864436e+02,3.353233198139969318e+01,-8.355998746646946529e-01,6.311956415397980891e+01,1.006259968522299459e+02,9.523238182067871094e+00,-9.561483860015869141e-01,-3.442134261131286621e-01,5.500000000000000000e+02
-2.643632763633831928e+00,3.617066964106197702e+01,7.061333033313621854e+01,1.032790246414651847e+02,3.347827818742553063e+01,3.617037360181711847e-01,6.075766226246742008e+01,9.810324835036863078e+01,9.523238182067871094e+00,-9.561483860015869141e-01,-3.442134261131286621e-01,5.510000000000000000e+02
-2.388707116389014118e+00,3.567546916799165047e+01,6.985248600436352717e+01,1.029912581762164336e+02,3.138657086418788822e+01,1.082996820672633476e+00,5.811866601246492792e+01,9.522754095739583136e+01,9.523238182067871094e+00,-9.561483860015869141e-01,-3.442134261131286621e-01,5.520000000000000000e+02
-2.039904701407067478e+00,3.475466128860443860e+01,6.944690953692679614e+01,1.014132712004684436e+02,2.903668824973919982e+01,1.754727073912363267e+00,5.629873153810967779e+01,9.359771097018165165e+01,9.523238182067871094e+00,-9.561483860015869141e-01,-3.442134261131286621e-01,5.530000000000000000e+02
-1.582596429331715626e+00,3.402977332413138356e+01,6.950537012707263784e+01,9.966950537097181950e+01,2.799424399320196244e+01,2.726193553073244402e+00,5.562474977485726413e+01,9.386957762017209461e+01,9.523238182067871094e+00,-9.561483860015869141e-01,-3.442134261131286621e-01,5.540000000000000000e+02
-1.319198189466078475e+00,3.400840252237594541e+01,6.986516244967242528e+01,9.873626180216524517e+01,2.855569119249776122e+01,3.841264548784238286e+00,5.571876825536855904e+01,9.546658156087414682e+01,9.523238182067871094e+00,-9.561483860015869141e-01,-3.442134261131286621e-01,5.550000000000000000e+02
-1.645971373135580507e+00,3.467855950225748529e+01,7.004928794112674950e+01,9.873202858385775471e+01,2.970479332734248601e+01,4.501314285405896953e+00,5.596567858136222640e+01,9.714544156535612274e+01,9.523238182067871094e+00,-9.561483860015869141e-01,-3.442134261131286621e-01,5.560000000000000000e+02
-2.686397470131851151e+00,3.549976377408802364e+01,6.945416688040313602e+01,9.897742843074229313e+01,3.011840660287452920e+01,4.236091288714305847e+00,5.595822702330497123e+01,9.795131275972198637e+01,9.523238182067871094e+00,-9.561483860015869141e-01,-3.442134261131286621e-01,5.570000000000000000e+02
-4.018240090093058825e+00,3.579328554820767749e+01,6.784041282854741439e+01,9.871365220337611390e+01,2.936342609498933598e+01,3.244641596662404481e+00,5.562063205294816726e+01,9.779532874798587727e+01,9.523238182067871094e+00,-9.561483860015869141e-01,-3.442134261131286621e-01,5.580000000000000000e+02
-4.772487696660391521e+00,3.520346568702370860e+01,6.576071829770626209e+01,9.778491834748274414e+01,2.825628132275232929e+01,2.323071173093921971e+00,5.501611218469861342e+01,9.722498652609920100e+01,9.523238182067871094e+00,-9.561483860015869141e-01,-3.442134261131286621e-01,5.590000000000000000e+02
-4.166114291287158267e+00,3.387186890530028904e+01,6.440532857076959772e+01,9.667309629934243276e+01,2.810344157922736485e+01,2.166977300636062864e+00,5.410708302017064852e+01,9.668983009226849390e+01,9.523238182067871094e+00,-9.561483860015869141e-01,-3.442134261131286621e-01,5.600000000000000000e+02
-2.146026697343586420e+00,3.222702222357929713e+01,6.478430404473419912e+01,9.591850682995664101e+01,2.952971552458075166e+01,2.681009777608778677e+00,5.275896001216824516e+01,9.605718300738044491e+01,9.523238182067871094e+00,-9.561483860015869141e-01,-3.442134261131286621e-01,5.610000000000000000e+02
3.914793119183741510e-01,3.060514449727452302e+01,6.683860265325074579e+01,9.552930590258256416e+01,3.192619157051012735e+01,2.975493819534676732e+00,5.100650509380830044e+01,9.484743303587765695e+01,9.523238182067871094e+00,-9.561483860015869141e-01,-3.442134261131286621e-01,5.620000000000000000e+02
2.095428430813626619e+00,2.902856765733940847e+01,6.928148816888187866e+01,9.495055880425752548e+01,3.394482257710842532e+01,2.104744246185873635e+00,4.927901075493900862e+01,9.290108587458962575e+01,9.523238182067871094e+00,-9.561483860015869141e-01,-3.442134261131286621e-01,5.630000000000000000e+02
2.054752640840888489e+00,2.728502596421276394e+01,7.039504503710850258e+01,9.358113971127386321e+01,3.449970539718924556e+01,-1.276592464000714244e-01,4.823849513470759121e+01,9.070912739435971162e+01,9.523238182067871094e+00,-9.561483860015869141e-01,-3.442134261131286621e-01,5.640000000000000000e+02
3.911445728017497458e-01,2.519756254475578316e+01,6.918724039153767080e+01,9.132191155612781586e+01,3.336694897028064588e+01,-3.028778462641639635e+00,4.826269876786864188e+01,8.900912403111033200e+01,9.523238182067871094e+00,-9.561483860015869141e-01,-3.442134261131286621e-01,5.650000000000000000e+02
-1.923002671313952305e+00,2.284699158781768347e+01,6.601828077144455165e+01,8.867919376708778145e+01,3.100503651697727037e+01,-5.623184654998112819e+00,4.904131812299601734e+01,8.806400579825276509e+01,9.523238182067871094e+00,-9.561483860015869141e-01,-3.442134261131286621e-01,5.660000000000000000e+02
-3.825345768887927989e+00,2.057206657252572768e+01,6.228244401083611592e+01,8.641408547803803231e+01,2.801634530798401101e+01,-7.375099639695690712e+00,4.976882030188244244e+01,8.742544478748095571e+01,9.523238182067871094e+00,-9.561483860015869141e-01,-3.442134261131286621e-01,5.670000000000000000e+02
-4.806792096022036276e+00,1.877809426039129903e+01,5.953626145443558926e+01,8.513486195396399125e+01,2.494156250490232196e+01,-8.322004522371571511e+00,4.989760723405925091e+01,8.652255051766042016e+01,9.523238182067871094e+00,-9.561483860015869141e-01,-3.442134261131286621e-01,5.680000000000000000e+02
-4.923610482668664190e+00,1.772558445865433896e+01,5.877661868765426334e+01,8.515914326406709733e+01,2.251102067649844685e+01,-8.572207930335935089e+00,4.979407903958053794e+01,8.550095012129349925e+01,9.523238182067871094e+00,-9.561483860015869141e-01,-3.442134261131286621e-01,5.690000000000000000e+02
-4.346767120021468145e+00,1.744857319053699030e+01,6.021444197848904878e+01,8.658305547085365106e+01,2.177923205704428256e+01,-7.819828539146328694e+00,5.058080893248916254e+01,8.537318968028557720e+01,9.523238182067871094e+00,-9.561483860015869141e-01,-3.442134261131286621e-01,5.700000000000000000e+02
-3.075190153283983818e+00,1.781373959050870326e+01,6.335293193430516112e+01,8.928555986517676502e+01,2.361276381005336589e+01,-5.510543604055783362e+00,5.314873841607368377e+01,8.716072510841695475e+01,9.523238182067871094e+00,-9.561483860015869141e-01,-3.442134261131286621e-01,5.710000000000000000e+02
-1.174444651756857638e+00,1.861869500779721420e+01,6.707313656922997325e+01,9.278949636853212724e+01,2.779154258065318572e+01,-1.554411245742812753e+00,5.716900329493364552e+01,9.073254886823997367e+01,9.523238182067871094e+00,-9.561483860015869141e-01,-3.442134261131286621e-01,5.720000000000000000e+02
7.741728913097176701e-01,1.961780782277492108e+01,6.977026522435517109e+01,9.620626423767134838e+01,3.264385323016904294e+01,3.165332696842597215e+00,6.105443600578291807e+01,9.443804384067152569e+01,9.484992027282714844e+00,-1.109132170677185059e+00,-4.207052886486053467e-01,5.730000000000000000e+02
1.684653428903402528e+00,2.047110075863201928e+01,6.985336507441024878e+01,9.850134269657792174e+01,3.584612125122657744e+01,7.108669963787178858e+00,6.301417480364034418e+01,9.597962459920199763e+01,9.484992027282714844e+00,-1.109132170677185059e+00,-4.207052886486053467e-01,5.740000000000000000e+02
6.681853204772778554e-01,2.073106677196665260e+01,6.662896308067320206e+01,9.899942501440636988e+01,3.593015820610889932e+01,9.049586661174544133e+00,6.233222977582772728e+01,9.388402940367814153e+01,9.484992027282714844e+00,-1.109132170677185059e+00,-4.207052886486053467e-01,5.750000000000000000e+02
-2.137054564051140915e+00,1.996476040513334738e+01,6.098113002289028373e+01,9.772393166011534049e+01,3.324196337122521072e+01,8.865324433203568333e+00,5.975835712635853270e+01,8.838777959674735030e+01,9.484992027282714844e+00,-1.109132170677185059e+00,-4.207052886486053467e-01,5.760000000000000000e+02
-5.452764108304108959e+00,1.799654959366307594e+01,5.509497204419312766e+01,9.527817111839067366e+01,2.949162639027053956e+01,7.460586453165888088e+00,5.672529100883730280e+01,8.108364958262427535e+01,9.484992027282714844e+00,-1.109132170677185059e+00,-4.207052886486053467e-01,5.770000000000000000e+02
-7.730830613119906047e+00,1.509978433536161901e+01,5.109997506026047631e+01,9.237890292437805329e+01,2.628483630887967593e+01,5.935460179960500682e+00,5.416177048118333914e+01,7.369621723009731795e+01,9.484992027282714844e+00,-1.109132170677185059e+00,-4.207052886486053467e-01,5.780000000000000000e+02
-8.338290831376070855e+00,1.195496336540600169e+01,4.952662974852319167e+01,8.945159477192100894e+01,2.392980908734716650e+01,4.758279443107312545e+00,5.197023357993748505e+01,6.700770245555941074e+01,9.484992027282714844e+00,-1.109132170677185059e+00,-4.207052886486053467e-01,5.790000000000000000e+02
-8.005471128597491770e+00,9.358955520638119197e+00,4.888038382701415685e+01,8.658919761442302843e+01,2.151494342637306545e+01,3.616322324081920669e+00,4.954413509219193656e+01,6.073963416933293047e+01,9.484992027282714844e+00,-1.109132170677185059e+00,-4.207052886486053467e-01,5.800000000000000000e+02
-8.091103136590390932e+00,7.855680419439522666e+00,4.686533255425456446e+01,8.380600280452381412e+01,1.806957505966238386e+01,1.964199660891608801e+00,4.672367161291367665e+01,5.435191005153501465e+01,9.484992027282714844e+00,-1.109132170677185059e+00,-4.207052886486053467e-01,5.810000000000000000e+02
-9.298013085637649056e+00,7.513383575036641560e+00,4.237743758972646901e+01,8.126642735467430612e+01,1.368287878621231357e+01,-2.917279122466425179e-01,4.424491040701104794e+01,4.799151034896203782e+01,9.484992027282714844e+00,-1.109132170677185059e+00,-4.207052886486053467e-01,5.820000000000000000e+02
-1.099758752480556723e+01,7.951357556008588290e+00,3.661324942080682376e+01,7.927736568825275754e+01,9.601325965973956045e+00,-2.554444295514258556e+00,4.329276057000970468e+01,4.274400135729410977e+01,9.484992027282714844e+00,-1.109132170677185059e+00,-4.207052886486053467e-01,5.830000000000000000e+02
-1.177773096850069123e+01,8.560246437338719261e+00,3.226771053753509477e+01,7.810164837095362600e+01,7.292615540232873172e+00,-3.906738930152641842e+00,4.457813308767254057e+01,3.992343159996926261e+01,9.484992027282714844e+00,-1.109132170677185059e+00,-4.207052886486053467e-01,5.840000000000000000e+02
-1.071030067698848143e+01,8.782364347162001650e+00,3.142890339067162131e+01,7.778351132751231489e+01,7.326226965904425015e+00,-3.783557753908098675e+00,4.771178015969053376e+01,3.994644841438457661e+01,9.484992027282714844e+00,-1.109132170677185059e+00,-4.207052886486053467e-01,5.850000000000000000e+02
-8.180058382406059536e+00,8.349322006848524325e+00,3.394883784025660134e+01,7.811833368333645922e+01,8.990372234200549428e+00,-2.431993480200617341e+00,5.135414863069308922e+01,4.175297915751070832e+01,9.484992027282714844e+00,-1.109132170677185059e+00,-4.207052886486053467e-01,5.860000000000000000e+02
-5.559277443388054962e+00,7.385728696779551683e+00,3.764498629927766160e+01,7.873509329840271675e+01,1.087537338319452829e+01,-8.131989471476117615e-01,5.397846490210395132e+01,4.335557625724686659e+01,9.484992027282714844e+00,-1.109132170677185059e+00,-4.207052886486053467e-01,5.870000000000000000e+02
-4.089200836229792912e+00,6.303519824679824524e+00,4.008244601689511910e+01,7.921184416409960249e+01,1.190446656172753137e+01,3.424558900223928504e-02,5.469962399118048779e+01,4.322652008959266823e+01,9.484992027282714844e+00,-1.109132170677185059e+00,-4.207052886486053467e-01,5.880000000000000000e+02
-4.018872321263188496e+00,5.482937894508722820e+00,4.034329881364647008e+01,7.919654631480079843e+01,1.203978356006155082e+01,-2.413973407637968194e-01,5.367414243826533493e+01,4.148618626968527678e+01,9.484992027282714844e+00,-1.109132170677185059e+00,-4.207052886486053467e-01,5.890000000000000000e+02
-4.718664831194473663e+00,4.895733946235850453e+00,3.931644248162047006e+01,7.852315142884435772e+01,1.219484446274509537e+01,-9.927319916350825224e-01,5.188732501816957665e+01,3.988211619245157635e+01,9.484992027282714844e+00,-1.109132170677185059e+00,-4.207052886486053467e-01,5.900000000000000000e+02
-5.493911975429000449e+00,3.983712072948037530e+00,3.849106528479933331e+01,7.727961480955855222e+01,1.347055553715836140e+01,-1.031691304706328083e+00,5.050231208331024391e+01,4.045221294027032855e+01,9.484992027282714844e+00,-1.109132170677185059e+00,-4.207052886486053467e-01,5.910000000000000000e+02
-6.189662069920814247e+00,2.008249867592894589e+00,3.855913596463506110e+01,7.575596749946635100e+01,1.627788212398445467e+01,4.105512074784201104e-01,5.017202203501983604e+01,4.385354654118418694e+01,9.484992027282714844e+00,-1.109132170677185059e+00,-4.207052886486053467e-01,5.920000000000000000e+02
-6.997537860526790610e+00,-1.283511367029859684e+00,3.909140271675278200e+01,7.427313063172550756e+01,1.994807476210917230e+01,2.968455565081967507e+00,5.072021164956458961e+01,4.867720179879688658e+01,9.484992027282714844e+00,-1.109132170677185059e+00,-4.207052886486053467e-01,5.930000000000000000e+02
-7.814156168617046205e+00,-5.181921980436527519e+00,3.932995978729741182e+01,7.301189727447126643e+01,2.307283999893115833e+01,5.297280408252845518e+00,5.138207973451972066e+01,5.231172894343217195e+01,9.484992027282714844e+00,-1.109132170677185059e+00,-4.207052886486053467e-01,5.940000000000000000e+02
-8.017287843753365451e+00,-8.207432197481466574e+00,3.905729041154336301e+01,7.198009192412428092e+01,2.431800903628027299e+01,6.023455714017472928e+00,5.143676292593227117e+01,5.268976871988343191e+01,9.484992027282714844e+00,-1.109132170677185059e+00,-4.207052886486053467e-01,5.950000000000000000e+02
-7.057035137409911840e+00,-8.965797496521190624e+00,3.861221783226756088e+01,7.114373091884044698e+01,2.315538422515965067e+01,4.731559792093321448e+00,5.078838421699401806e+01,4.958297601440426661e+01,9.484992027282714844e+00,-1.109132170677185059e+00,-4.207052886486053467e-01,5.960000000000000000e+02
-5.285293760145577835e+00,-7.072832981066312641e+00,3.820360101427468180e+01,7.058462196272375877e+01,2.007428106131555978e+01,2.198583589928603033e+00,5.007021099308985868e+01,4.454644069643836701e+01,9.484992027282714844e+00,-1.109132170677185059e+00,-4.207052886486053467e-01,5.970000000000000000e+02
-4.049772449136071373e+00,-3.442573595817520982e+00,3.743480389756587101e+01,7.050353186293796171e+01,1.621757727195290499e+01,-2.474882802780484781e-01,5.016001109635544708e+01,3.970649562773542129e+01,9.484992027282714844e+00,-1.109132170677185059e+00,-4.207052886486053467e-01,5.980000000000000000e+02
-4.739717941400158452e+00,2.750930602196604013e-01,3.563595047750459344e+01,7.102453599836371723e+01,1.273434596430888632e+01,-1.638347984830033965e+00,5.142415837757653208e+01,3.639704025007449673e+01,9.484992027282714844e+00,-1.109132170677185059e+00,-4.207052886486053467e-01,5.990000000000000000e+02
-7.557504639153194148e+00,2.669397642934200121e+00,3.262030706536825164e+01,7.195101442441227846e+01,1.023236734831516515e+01,-1.818663065962027758e+00,5.325067942054374726e+01,3.458483452972359373e+01,9.484992027282714844e+00,-1.109132170677185059e+00,-4.207052886486053467e-01,6.000000000000000000e+02
-1.117437657371920068e+01,3.262088124356523622e+00,2.901151517994367168e+01,7.272804148338400410e+01,8.597855638465262018e+00,-1.220276728552562417e+00,5.428546633821679279e+01,3.330509329001142760e+01,9.484992027282714844e+00,-1.109132170677185059e+00,-4.207052886486053467e-01,6.010000000000000000e+02
-1.366228126756686834e+01,2.504536219574220013e+00,2.580947755540182698e+01,7.273023678685058258e+01,7.244108649862027960e+00,-3.335520239925244823e-01,5.331490255540120415e+01,3.159547155846667010e+01,9.484992027282714844e+00,-1.109132170677185059e+00,-4.207052886486053467e-01,6.020000000000000000e+02
-1.390876544063212350e+01,1.239982370825600810e+00,2.370372125782159856e+01,7.170549867083536810e+01,5.639551374933944317e+00,6.170509416988352314e-01,5.021467702215159079e+01,2.920733932718212600e+01,9.484992027282714844e+00,-1.109132170677185059e+00,-4.207052886486053467e-01,6.030000000000000000e+02
-1.229801181623770390e+01,1.088695516955340281e-01,2.283883269187208498e+01,7.001215198252975824e+01,3.809413057642814238e+00,1.613780725059768884e+00,4.622639265196994529e+01,2.668712742565912777e+01,9.484992027282714844e+00,-1.109132170677185059e+00,-4.207052886486053467e-01,6.040000000000000000e+02
-1.017986792116425931e+01,-7.237389413385244552e-01,2.311697379915858619e+01,6.841041967564160586e+01,2.456965699748252518e+00,2.605576454512629425e+00,4.323598081795717007e+01,2.491286241012130631e+01,9.484992027282714844e+00,-1.109132170677185059e+00,-4.207052886486053467e-01,6.050000000000000000e+02
-8.754560007040709024e+00,-1.464314946497324854e+00,2.448547446919110371e+01,6.752398508796250098e+01,2.540070550137897953e+00,3.378645937158580637e+00,4.247818918622215278e+01,2.447265035747113870e+01,9.484992027282714844e+00,-1.109132170677185059e+00,-4.207052886486053467e-01,6.060000000000000000e+02
-8.398209999908431200e+00,-2.409365468087344198e+00,2.675878299662144855e+01,6.738992790825795964e+01,4.525294178991316585e+00,3.649565372161305277e+00,4.363109296185939456e+01,2.528960010705122841e+01,9.484992027282714844e+00,-1.109132170677185059e+00,-4.207052886486053467e-01,6.070000000000000000e+02
-8.828819494432536885e+00,-3.712047605436964659e+00,2.923508442490856396e+01,6.747917815252003493e+01,7.866133792034815997e+00,3.290108667915774276e+00,4.507472123622937943e+01,2.669700674891646486e+01,9.484992027282714844e+00,-1.109132170677185059e+00,-4.207052886486053467e-01,6.080000000000000000e+02
-9.666015967788553098e+00,-5.304262280536931939e+00,3.073915671736540389e+01,6.715061724897532258e+01,1.114362685961168609e+01,2.476847490448562894e+00,4.516137858097135904e+01,2.784188424757303437e+01,9.484992027282714844e+00,-1.109132170677185059e+00,-4.207052886486053467e-01,6.090000000000000000e+02
-1.072041056488524191e+01,-6.965845453472866211e+00,3.030179627429242828e+01,6.611688381800559000e+01,1.281474676403377089e+01,1.612330699270387413e+00,4.346368797862305655e+01,2.809803216208092635e+01,9.484992027282714844e+00,-1.109132170677185059e+00,-4.207052886486053467e-01,6.100000000000000000e+02
-1.183577619843708817e+01,-8.453118875717336778e+00,2.792520369859266793e+01,6.453357633239647839e+01,1.206055071006267099e+01,1.040387282020674320e+00,4.098692340750494623e+01,2.723768206355089205e+01,9.484992027282714844e+00,-1.109132170677185059e+00,-4.207052886486053467e-01,6.110000000000000000e+02
-1.267500509283127030e+01,-9.580889015007414855e+00,2.465891542615281651e+01,6.272598737139924197e+01,9.159706571223068750e+00,7.490707665565423667e-01,3.923864004483039025e+01,2.534974066356517142e+01,9.484992027282714844e+00,-1.109132170677185059e+00,-4.207052886486053467e-01,6.120000000000000000e+02
-1.283612342003107187e+01,-1.020255026846280089e+01,2.185430712256493280e+01,6.091347862815382541e+01,5.214815785526297987e+00,3.434262239497911651e-01,3.903116948444585432e+01,2.271992019185927347e+01,9.484992027282714844e+00,-1.109132170677185059e+00,-4.207052886486053467e-01,6.130000000000000000e+02
-1.221001769287977368e+01,-1.013612568294774974e+01,2.026755943221360212e+01,5.922651455742379767e+01,1.531025731423142133e+00,-5.949304563255282119e-01,4.004326124049111968e+01,1.985210155363165541e+01,9.484992027282714844e+00,-1.109132170677185059e+00,-4.207052886486053467e-01,6.140000000000000000e+02
-1.116267557030005264e+01,-9.164678654575254768e+00,1.978647552834081580e+01,5.791783289068189333e+01,-9.203615478472784162e-01,-2.012544534216431202e+00,4.135125687376421411e+01,1.754166262982471380e+01,9.484992027282714844e+00,-1.109132170677185059e+00,-4.207052886486053467e-01,6.150000000000000000e+02
-1.031797240082960343e+01,-7.195091416946524987e+00,1.988941171025362564e+01,5.742140338578610681e+01,-1.720461237990093650e+00,-3.218713882866722997e+00,4.225054927719611442e+01,1.672235793260915671e+01,9.484992027282714844e+00,-1.109132170677185059e+00,-4.207052886486053467e-01,6.160000000000000000e+02
-1.015123741814022651e+01,-4.464088476994220400e+00,2.025367761481538764e+01,5.809406989968192647e+01,-9.515094394519110210e-01,-3.306023485187324695e+00,4.258901787282229634e+01,1.798034807954172720e+01,9.484992027282714844e+00,-1.109132170677185059e+00,-4.207052886486053467e-01,6.170000000000000000e+02
