F3,F4,C3,C4,P3,P4,Cz,Pz,Accel_x,Accel_y,Accel_z,Sample
-3.274180926382541656e-11,-3.365130396559834480e-11,-2.819433575496077538e-11,-3.637978807091712952e-11,-4.638422979041934013e-11,-6.366462912410497665e-11,-3.728928277269005775e-11,-4.183675628155469894e-11,9.484992027282714844e+00,-1.032640218734741211e+00,-3.059675097465515137e-01,2.260000000000000000e+02
-7.050746562305903353e+00,-4.019045882693717431e+00,-3.567324420576369448e+00,7.690733760919101769e+00,1.052719268787768669e+00,-1.381326422299025580e+00,-8.897218637757760007e-01,-4.341098237549886107e+00,9.484992027282714844e+00,-1.032640218734741211e+00,-3.059675097465515137e-01,2.270000000000000000e+02
-1.492823494624008163e+01,-7.751816863721614936e+00,-7.709706653928151354e+00,1.248042093070580449e+01,-2.939702606941864360e+00,-7.248765152364285314e+00,-1.948232847029430559e+00,-7.617335461916809436e+00,9.484992027282714844e+00,-1.032640218734741211e+00,-3.059675097465515137e-01,2.280000000000000000e+02
-2.307252680610145035e+01,-1.126447597239166498e+01,-1.191494240692554740e+01,1.345252280547538248e+01,-1.260442862106265238e+01,-1.813061627782371943e+01,-3.017001825644001656e+00,-9.747949122279351286e+00,9.484992027282714844e+00,-1.032640218734741211e+00,-3.059675097465515137e-01,2.290000000000000000e+02
-2.974167042713088449e+01,-1.494400576172574802e+01,-1.469582316152900603e+01,1.207467288449788612e+01,-2.399444454819968087e+01,-3.046808226599569025e+01,-3.825014290362560132e+00,-1.166052337546352646e+01,9.484992027282714844e+00,-1.032640218734741211e+00,-3.059675097465515137e-01,2.300000000000000000e+02
-3.366753212742514734e+01,-1.909755871829929674e+01,-1.481228001347426471e+01,1.086852900832309388e+01,-3.253775486173799436e+01,-4.015870350926707033e+01,-4.477343220254624612e+00,-1.426779461103524227e+01,9.484992027282714844e+00,-1.032640218734741211e+00,-3.059675097465515137e-01,2.310000000000000000e+02
-3.542618600238347426e+01,-2.356382670156290260e+01,-1.232878319222345453e+01,1.167355296951700439e+01,-3.688295270851540408e+01,-4.599044064827103284e+01,-5.436257342852513830e+00,-1.728267192111979966e+01,9.484992027282714844e+00,-1.032640218734741211e+00,-3.059675097465515137e-01,2.320000000000000000e+02
-3.707570498209770449e+01,-2.772592825190440635e+01,-8.499706602919104625e+00,1.486863806927976839e+01,-3.904684583295056655e+01,-4.974513512276644178e+01,-6.842380974108891678e+00,-1.900296875350613846e+01,9.484992027282714844e+00,-1.032640218734741211e+00,-3.059675097465515137e-01,2.330000000000000000e+02
-4.042407251253007416e+01,-3.094821395204871806e+01,-4.765788633599186142e+00,1.977106401554556214e+01,-4.145616562350642198e+01,-5.353200233003281028e+01,-7.999522321854783513e+00,-1.743326783355496445e+01,9.484992027282714844e+00,-1.032640218734741211e+00,-3.059675097465515137e-01,2.340000000000000000e+02
-4.566350022996448388e+01,-3.305040861307679734e+01,-1.964057919410151953e+00,2.542668918027356995e+01,-4.448413151266413479e+01,-5.761687363942201046e+01,-7.832626771976720192e+00,-1.191519507063458150e+01,9.484992027282714844e+00,-1.032640218734741211e+00,-3.059675097465515137e-01,2.350000000000000000e+02
-5.161220006478924915e+01,-3.441457347944106004e+01,-3.848407527239032788e-01,3.102490071434749552e+01,-4.690291316696493595e+01,-6.091777172500496818e+01,-6.008669282726259553e+00,-3.908091329975832195e+00,9.484992027282714844e+00,-1.032640218734741211e+00,-3.059675097465515137e-01,2.360000000000000000e+02
-5.710680850334119896e+01,-3.570311328224124736e+01,-2.322874841629527509e-01,3.587673937402723823e+01,-4.810071220570262085e+01,-6.307857149066330749e+01,-3.487793101845454657e+00,3.779502126340958057e+00,9.484992027282714844e+00,-1.032640218734741211e+00,-3.059675097465515137e-01,2.370000000000000000e+02
-6.203637399555918819e+01,-3.748432632523235952e+01,-1.676322991334018297e+00,3.936756892213816172e+01,-4.919007674467684410e+01,-6.545320683562295017e+01,-1.775004109031215194e+00,8.739459295725282573e+00,9.484992027282714844e+00,-1.032640218734741211e+00,-3.059675097465515137e-01,2.380000000000000000e+02
-6.708094591014742036e+01,-4.005725223912941146e+01,-4.379160010714258533e+00,4.113158352311711496e+01,-5.183023800686805771e+01,-6.989783546248509083e+01,-1.593919811140040110e+00,1.034849628252777620e+01,9.484992027282714844e+00,-1.032640218734741211e+00,-3.059675097465515137e-01,2.390000000000000000e+02
-7.264920016574160400e+01,-4.346541194089604687e+01,-7.177951160692828125e+00,4.129722618838513881e+01,-5.632894215205396904e+01,-7.684452916916143295e+01,-2.419677544205114827e+00,9.800892323556581687e+00,9.484992027282714844e+00,-1.032640218734741211e+00,-3.059675097465515137e-01,2.400000000000000000e+02
-7.824462629088338872e+01,-4.748674834828125313e+01,-8.540216795821834239e+00,4.056335428131751542e+01,-6.121806128481239284e+01,-8.477753715551989444e+01,-3.368845140493249346e+00,8.957626072359744285e+00,9.484992027282714844e+00,-1.032640218734741211e+00,-3.059675097465515137e-01,2.410000000000000000e+02
-8.289273077934012690e+01,-5.153524728318188863e+01,-7.546678389425323985e+00,4.006107324128606706e+01,-6.461935552343857125e+01,-9.150363283343995136e+01,-4.383464010208626860e+00,9.071688002142764162e+00,9.484992027282714844e+00,-1.032640218734741211e+00,-3.059675097465515137e-01,2.420000000000000000e+02
-8.611992374906549230e+01,-5.468708160675214458e+01,-4.550178616944322130e+00,4.105104463800853409e+01,-6.584178003502984211e+01,-9.579205956008172507e+01,-6.302255249714107777e+00,1.029289836040516093e+01,9.484992027282714844e+00,-1.032640218734741211e+00,-3.059675097465515137e-01,2.430000000000000000e+02
-8.847454810453473328e+01,-5.607604346664265904e+01,-9.477489347427763278e-01,4.444413375574913516e+01,-6.575063204656362359e+01,-9.795309185824044107e+01,-9.678153325063249213e+00,1.201080701533464890e+01,9.484992027282714844e+00,-1.032640218734741211e+00,-3.059675097465515137e-01,2.440000000000000000e+02
-9.110130650577320921e+01,-5.554551416569393041e+01,1.718126508453678980e+00,5.021797937937844836e+01,-6.594449945308679162e+01,-9.928706071590386273e+01,-1.365886402853539039e+01,1.345581368965940783e+01,9.484992027282714844e+00,-1.032640218734741211e+00,-3.059675097465515137e-01,2.450000000000000000e+02
-9.479361259113920823e+01,-5.401780880595651979e+01,2.612034971556568053e+00,5.710741253932792461e+01,-6.777625349034224200e+01,-1.012942539329997089e+02,-1.625536566403297911e+01,1.405151196928727586e+01,9.484992027282714844e+00,-1.032640218734741211e+00,-3.059675097465515137e-01,2.460000000000000000e+02
-9.935659185654003522e+01,-5.311938558138172084e+01,1.890237898700434016e+00,6.303603843554265040e+01,-7.187916835186661046e+01,-1.052030265682142272e+02,-1.587195785782569146e+01,1.349426323283023521e+01,9.484992027282714844e+00,-1.032640218734741211e+00,-3.059675097465515137e-01,2.470000000000000000e+02
-1.037793348024933948e+02,-5.418862898886527546e+01,4.077251845028513344e-01,6.627837869905033585e+01,-7.807311163871509052e+01,-1.116481492925067869e+02,-1.267038803165632999e+01,1.179544369098766765e+01,9.484992027282714844e+00,-1.032640218734741211e+00,-3.059675097465515137e-01,2.480000000000000000e+02
-1.070431257639211253e+02,-5.738505449381227663e+01,-8.633556967506592628e-01,6.659994885491778405e+01,-8.539814524723988143e+01,-1.202867424309506532e+02,-8.524159471860002668e+00,9.343116625464062963e+00,9.484992027282714844e+00,-1.032640218734741211e+00,-3.059675097465515137e-01,2.490000000000000000e+02
-1.089332715591599481e+02,-6.162325580667311442e+01,-1.397810138151726278e+00,6.540851131696581433e+01,-9.242384533705626382e+01,-1.296791939814484067e+02,-5.676505869077118405e+00,6.815886403332115151e+00,9.484992027282714844e+00,-1.032640218734741211e+00,-3.059675097465515137e-01,2.500000000000000000e+02
-1.102405219163711081e+02,-6.540703421717080346e+01,-1.382583782833535224e+00,6.470582056809416827e+01,-9.797367929597021430e+01,-1.378864934353487115e+02,-5.307351769175511436e+00,4.890554304295619659e+00,9.484992027282714844e+00,-1.032640218734741211e+00,-3.059675097465515137e-01,2.510000000000000000e+02
-1.121872257605436971e+02,-6.790739949025464739e+01,-1.463045614732436661e+00,6.570016748584021116e+01,-1.017807654821563119e+02,-1.435660661581023305e+02,-7.047281885519623756e+00,3.967713062984330463e+00,9.484992027282714844e+00,-1.032640218734741211e+00,-3.059675097465515137e-01,2.520000000000000000e+02
-1.155160305655399497e+02,-6.946253943268766307e+01,-2.076927117091145192e+00,6.823711416085188830e+01,-1.043645848624419159e+02,-1.466934139132717974e+02,-9.511227446351767867e+00,4.203228702333944966e+00,9.484992027282714844e+00,-1.032640218734741211e+00,-3.059675097465515137e-01,2.530000000000000000e+02
-1.199638540690084483e+02,-7.115528669665945927e+01,-2.865323458681814373e+00,7.142974544697517558e+01,-1.061202531005583296e+02,-1.482541433686792516e+02,-1.118475766979190666e+01,5.802227446753931872e+00,9.484992027282714844e+00,-1.032640218734741211e+00,-3.059675097465515137e-01,2.540000000000000000e+02
-1.245506043978921298e+02,-7.382628665852189442e+01,-2.754190803310848423e+00,7.476173945508526231e+01,-1.065790005709968682e+02,-1.492330698594423666e+02,-1.104287068524536153e+01,9.170482519210054306e+00,9.484992027282714844e+00,-1.032640218734741211e+00,-3.059675097465515137e-01,2.550000000000000000e+02
-1.284298922767338809e+02,-7.727450229178975860e+01,-8.166907638642442180e-01,7.857559098307865497e+01,-1.048115964532535145e+02,-1.498897584287269638e+02,-8.788982463820502744e+00,1.460758903961959732e+01,9.484992027282714844e+00,-1.032640218734741211e+00,-3.059675097465515137e-01,2.560000000000000000e+02
-1.315479549195333675e+02,-8.023697285859452677e+01,2.754406804864629521e+00,8.353435979264759226e+01,-1.007508175575803762e+02,-1.499383906913726605e+02,-4.886125908886242541e+00,2.169921378516573895e+01,9.484992027282714844e+00,-1.032640218734741211e+00,-3.059675097465515137e-01,2.570000000000000000e+02
-1.345327020908607665e+02,-8.122198291367112688e+01,6.478359696866391459e+00,8.961769454510340438e+01,-9.609676276295795105e+01,-1.493241329972297535e+02,-4.765383156500320183e-01,2.897685680581616907e+01,9.484992027282714844e+00,-1.032640218734741211e+00,-3.059675097465515137e-01,2.580000000000000000e+02
-1.379612496326667497e+02,-7.969336383481640951e+01,8.522804097607149743e+00,9.562465715323105542e+01,-9.366001070508173143e+01,-1.487428851528584346e+02,2.911642352471972117e+00,3.432818418603164901e+01,9.484992027282714844e+00,-1.032640218734741211e+00,-3.059675097465515137e-01,2.590000000000000000e+02
-1.417692679389824661e+02,-7.677454314611895825e+01,8.028212474268002552e+00,9.969712049757345085e+01,-9.547087725933124602e+01,-1.493805340780172628e+02,3.941657470595600898e+00,3.606238530066002568e+01,9.484992027282714844e+00,-1.032640218734741211e+00,-3.059675097465515137e-01,2.600000000000000000e+02
-1.453880993807201776e+02,-7.482065337280346284e+01,5.720807453851193713e+00,1.005183571652296450e+02,-1.012371327358450799e+02,-1.521056382603064776e+02,2.161203213090630015e+00,3.397710973892662878e+01,9.484992027282714844e+00,-1.032640218734741211e+00,-3.059675097465515137e-01,2.610000000000000000e+02
-1.484032976462849547e+02,-7.593740165921008156e+01,3.366790503678203095e+00,9.833310990349855274e+01,-1.084489781409247371e+02,-1.567763715062628762e+02,-1.544374628299010510e+00,2.969495924974671652e+01,9.484992027282714844e+00,-1.032640218734741211e+00,-3.059675097465515137e-01,2.620000000000000000e+02
-1.509700704419406065e+02,-8.040628311921955174e+01,2.609087230202931096e+00,9.503544656427311565e+01,-1.140203384240376181e+02,-1.621892875723260659e+02,-5.114337029340276786e+00,2.595247679752310432e+01,9.484992027282714844e+00,-1.032640218734741211e+00,-3.059675097465515137e-01,2.630000000000000000e+02
-1.535104895655408654e+02,-8.629633094063137833e+01,4.126830721911574074e+00,9.315568916495067242e+01,-1.161678650837420719e+02,-1.667362470598154687e+02,-6.242193399642928853e+00,2.513312289682244227e+01,9.484992027282714844e+00,-1.032640218734741211e+00,-3.059675097465515137e-01,2.640000000000000000e+02
-1.560488647656079593e+02,-9.075931854504824514e+01,7.580721567272121320e+00,9.433691069277847419e+01,-1.152059590082772047e+02,-1.693781637867396057e+02,-3.729391336353728548e+00,2.784093503367057565e+01,9.484992027282714844e+00,-1.032640218734741211e+00,-3.059675097465515137e-01,2.650000000000000000e+02
-1.580067664245475498e+02,-9.210804501928078025e+01,1.203927876694842780e+01,9.832576622884516837e+01,-1.129581715608446757e+02,-1.703208017546785413e+02,1.554693182539722329e+00,3.242700710589269875e+01,9.446745872497558594e+00,-1.070886254310607910e+00,-3.442134261131286621e-01,2.660000000000000000e+02
-1.588204915563223949e+02,-9.097104581480425622e+01,1.636746295429793463e+01,1.032450460834488695e+02,-1.114658064234990889e+02,-1.708875897167763469e+02,6.937761641217548458e+00,3.593676463388192133e+01,9.446745872497558594e+00,-1.070886254310607910e+00,-3.442134261131286621e-01,2.670000000000000000e+02
-1.588019529481425707e+02,-8.949459244493891674e+01,1.943873640350466303e+01,1.070305364347814248e+02,-1.119320095132716233e+02,-1.725774155027920642e+02,9.544176562397751695e+00,3.605005885047376069e+01,9.446745872497558594e+00,-1.070886254310607910e+00,-3.442134261131286621e-01,2.680000000000000000e+02
-1.592539226126091307e+02,-8.929405047615136937e+01,2.040282656719773513e+01,1.089983788683412058e+02,-1.143886050630076170e+02,-1.759101879318277497e+02,8.281303618109632225e+00,3.277387526949178209e+01,9.446745872497558594e+00,-1.070886254310607910e+00,-3.442134261131286621e-01,2.690000000000000000e+02
-1.615164662550869252e+02,-9.006741740622919679e+01,1.911917547310395094e+01,1.102978879276715816e+02,-1.180065982081487164e+02,-1.799537452304166436e+02,4.719576929865525017e+00,2.859715018547785803e+01,9.446745872497558594e+00,-1.070886254310607910e+00,-3.442134261131286621e-01,2.700000000000000000e+02
-1.657065744164242460e+02,-9.020775336860469906e+01,1.644157520002136152e+01,1.128161897759464409e+02,-1.216983141704208720e+02,-1.830159972004312294e+02,2.021948780009552138e+00,2.681370630909532338e+01,9.446745872497558594e+00,-1.070886254310607910e+00,-3.442134261131286621e-01,2.710000000000000000e+02
-1.703456402924534814e+02,-8.881274351488127650e+01,1.392323735150330322e+01,1.173934981728161802e+02,-1.246320071332402222e+02,-1.840073904255277739e+02,2.612644565412210795e+00,2.915196995484575382e+01,9.446745872497558594e+00,-1.070886254310607910e+00,-3.442134261131286621e-01,2.720000000000000000e+02
-1.733360107801900085e+02,-8.705263707833955777e+01,1.295171266879606264e+01,1.228453375539916124e+02,-1.264479018011525113e+02,-1.833412307597236577e+02,6.378946072498365538e+00,3.452099567352252052e+01,9.446745872497558594e+00,-1.070886254310607910e+00,-3.442134261131286621e-01,2.730000000000000000e+02
-1.735393423431009978e+02,-8.740597375733796071e+01,1.391520013284161905e+01,1.266292377721324556e+02,-1.272019474694034216e+02,-1.826204679324137032e+02,1.081625165717514392e+01,3.986267313285861746e+01,9.446745872497558594e+00,-1.070886254310607910e+00,-3.442134261131286621e-01,2.740000000000000000e+02
-1.716620252533143685e+02,-9.135673493095509912e+01,1.606530342876067152e+01,1.266218091478381211e+02,-1.272138787928456622e+02,-1.834316942757359357e+02,1.292158034424301150e+01,4.236743648160154407e+01,9.446745872497558594e+00,-1.070886254310607910e+00,-3.442134261131286621e-01,2.750000000000000000e+02
-1.697347632669057020e+02,-9.772225285676313433e+01,1.815546051410547079e+01,1.226046115137787638e+02,-1.269675022913434077e+02,-1.863055203366207024e+02,1.124781875549570032e+01,4.122489961094515820e+01,9.446745872497558594e+00,-1.070886254310607910e+00,-3.442134261131286621e-01,2.760000000000000000e+02
-1.696395734634852488e+02,-1.032759994913903938e+02,1.928532287132702550e+01,1.163853714878773644e+02,-1.270511086294209235e+02,-1.906431882419433350e+02,6.548565991631221550e+00,3.760452767278138708e+01,9.446745872497558594e+00,-1.070886254310607910e+00,-3.442134261131286621e-01,2.770000000000000000e+02
-1.718699548556182890e+02,-1.052144507895995957e+02,1.929189492848627197e+01,1.106046004906656890e+02,-1.280501694011018117e+02,-1.954757926316447083e+02,7.716569386734590807e-01,3.319320789136872918e+01,9.446745872497558594e+00,-1.070886254310607910e+00,-3.442134261131286621e-01,2.780000000000000000e+02
-1.754274941466446762e+02,-1.033405884806065842e+02,1.850373225746398020e+01,1.072116220531011095e+02,-1.303717365324678212e+02,-2.002311105395488084e+02,-4.482850991498708026e+00,2.881998531392264340e+01,9.446745872497558594e+00,-1.070886254310607910e+00,-3.442134261131286621e-01,2.790000000000000000e+02
-1.787805143939494883e+02,-1.001210380554862240e+02,1.724514278925607869e+01,1.066491471121303221e+02,-1.340785462710305183e+02,-2.048412842405887204e+02,-8.723334578011417761e+00,2.437241304664485142e+01,9.446745872497558594e+00,-1.070886254310607910e+00,-3.442134261131286621e-01,2.800000000000000000e+02
-1.810428966675026459e+02,-9.870158484713874714e+01,1.556873199301662680e+01,1.080856140610835610e+02,-1.388482727133514345e+02,-2.092780399384701013e+02,-1.218357180178099952e+01,1.979106310795577883e+01,9.446745872497558594e+00,-1.070886254310607910e+00,-3.442134261131286621e-01,2.810000000000000000e+02
-1.825127580187145213e+02,-1.006352880641634329e+02,1.337120013665844453e+01,1.103040908691937148e+02,-1.440562484160827808e+02,-2.131201623206811746e+02,-1.495822281587652469e+01,1.590427036419987417e+01,9.446745872497558594e+00,-1.070886254310607910e+00,-3.442134261131286621e-01,2.820000000000000000e+02
-1.842943378683535229e+02,-1.050572502415734562e+02,1.068263944534237453e+01,1.125694100970536056e+02,-1.488950144786858800e+02,-2.156239519863479472e+02,-1.654467114073395351e+01,1.416398277020789465e+01,9.446745872497558594e+00,-1.070886254310607910e+00,-3.442134261131286621e-01,2.830000000000000000e+02
-1.873703242867109111e+02,-1.096172781778759600e+02,7.858206671819516487e+00,1.149612806436539358e+02,-1.525011967621799158e+02,-2.162114825224575725e+02,-1.609732089278395506e+01,1.555917763918023411e+01,9.446745872497558594e+00,-1.070886254310607910e+00,-3.442134261131286621e-01,2.840000000000000000e+02
-1.917946974678147853e+02,-1.121172298212459282e+02,5.557976305035481346e+00,1.180501769293155121e+02,-1.541587664010576191e+02,-2.149168667393091710e+02,-1.305209465839561744e+01,1.978126974643282665e+01,9.446745872497558594e+00,-1.070886254310607910e+00,-3.442134261131286621e-01,2.850000000000000000e+02
-1.965188556174989571e+02,-1.116298452371715939e+02,4.535913142111439811e+00,1.221688052178515136e+02,-1.536020221221474458e+02,-2.124459009484912713e+02,-7.626149203538261645e+00,2.538192234025973448e+01,9.446745872497558594e+00,-1.070886254310607910e+00,-3.442134261131286621e-01,2.860000000000000000e+02
-1.999544697968171931e+02,-1.086640739632480290e+02,5.308960497145108093e+00,1.267940089880639789e+02,-1.512537997031649866e+02,-2.098669970830883358e+02,-9.237400325500857434e-01,3.066619277931431498e+01,9.484992027282714844e+00,-1.070886254310607910e+00,-3.059675097465515137e-01,2.870000000000000000e+02
-2.009446317029605780e+02,-1.046859410583315366e+02,7.821325243130559102e+00,1.305544139775156509e+02,-1.481487005814747135e+02,-2.081766743235916692e+02,5.370004008193063783e+00,3.448675729330989270e+01,9.484992027282714844e+00,-1.070886254310607910e+00,-3.059675097465515137e-01,2.880000000000000000e+02
-1.995422670444271489e+02,-1.014484111181361641e+02,1.131050774440200257e+01,1.319983547376193656e+02,-1.454710229123945737e+02,-2.079688326521948056e+02,9.601595521984791048e+00,3.641694672326616455e+01,9.484992027282714844e+00,-1.070886254310607910e+00,-3.059675097465515137e-01,2.890000000000000000e+02
-1.970399353421230444e+02,-1.003095390452722313e+02,1.462323915410161135e+01,1.306641448924385713e+02,-1.439359403677278806e+02,-2.092919624910098264e+02,1.088215003431105288e+01,3.651459266425467831e+01,9.484992027282714844e+00,-1.070886254310607910e+00,-3.059675097465515137e-01,2.900000000000000000e+02
-1.951496688093311604e+02,-1.016288728879123937e+02,1.695210244762097318e+01,1.276115250104421648e+02,-1.434282314983522610e+02,-2.116987883139117912e+02,9.568410884397508198e+00,3.515737950278298740e+01,9.484992027282714844e+00,-1.070886254310607910e+00,-3.059675097465515137e-01,2.910000000000000000e+02
-1.948558720381174680e+02,-1.045331078333883852e+02,1.847113136162624869e+01,1.248459076996234671e+02,-1.431813538060014253e+02,-2.144963721462513604e+02,7.073595964345713583e+00,3.305197978577416507e+01,9.484992027282714844e+00,-1.070886254310607910e+00,-3.059675097465515137e-01,2.920000000000000000e+02
-1.957673870494744506e+02,-1.073504143065540575e+02,2.025411213373763530e+01,1.239473791809291470e+02,-1.423696993258840848e+02,-2.171208669422885578e+02,4.982806347773930611e+00,3.111801507966833924e+01,9.484992027282714844e+00,-1.070886254310607910e+00,-3.059675097465515137e-01,2.930000000000000000e+02
-1.964908730299302988e+02,-1.085986015860461293e+02,2.338056575870837150e+01,1.249668347464328235e+02,-1.406851610298826927e+02,-2.194193355452114247e+02,4.059539403827557180e+00,3.006508181417939340e+01,9.484992027282714844e+00,-1.070886254310607910e+00,-3.059675097465515137e-01,2.940000000000000000e+02
-1.957751087608780836e+02,-1.078761944495648777e+02,2.788061079208091542e+01,1.265473037736226161e+02,-1.385018644481283445e+02,-2.215822194510444660e+02,3.965385188521395321e+00,2.997264487603342786e+01,9.484992027282714844e+00,-1.070886254310607910e+00,-3.059675097465515137e-01,2.950000000000000000e+02
-1.935360166379002749e+02,-1.059784107262497628e+02,3.245711027149150141e+01,1.272215629241572969e+02,-1.365583605707806782e+02,-2.237237422793868973e+02,3.955167310077968068e+00,3.036678829053880690e+01,9.484992027282714844e+00,-1.070886254310607910e+00,-3.059675097465515137e-01,2.960000000000000000e+02
-1.909462162140195005e+02,-1.041841571474623152e+02,3.532495524278624544e+01,1.267798509109527458e+02,-1.354448866246414127e+02,-2.254775029254151377e+02,3.876406908040962662e+00,3.081992212620457394e+01,9.484992027282714844e+00,-1.070886254310607910e+00,-3.059675097465515137e-01,2.970000000000000000e+02
-1.895398584870708873e+02,-1.033601962951973974e+02,3.550274451950213006e+01,1.264856070229297984e+02,-1.352968777629544093e+02,-2.260632535035542787e+02,4.450399467668148645e+00,3.148667632708566089e+01,9.484992027282714844e+00,-1.070886254310607910e+00,-3.059675097465515137e-01,2.980000000000000000e+02
-1.900813647957793364e+02,-1.036102600529246729e+02,3.346213673175702752e+01,1.279278391871910117e+02,-1.358851714730435560e+02,-2.249107731006486119e+02,6.480016092802543426e+00,3.294647404890247344e+01,9.484992027282714844e+00,-1.070886254310607910e+00,-3.059675097465515137e-01,2.990000000000000000e+02
-1.920836625217259552e+02,-1.045944702497762364e+02,3.064961567790305708e+01,1.315427780968461775e+02,-1.369141441910146568e+02,-2.223320377306670252e+02,9.747164108368679081e+00,3.544057607255967923e+01,9.484992027282714844e+00,-1.070886254310607910e+00,-3.059675097465515137e-01,3.000000000000000000e+02
-1.942909728873463564e+02,-1.059963382226700332e+02,2.839852302855229027e+01,1.361572057569405843e+02,-1.381908060177393054e+02,-2.195457402425033706e+02,1.279364466068977890e+01,3.831042403517517414e+01,9.484992027282714844e+00,-1.070886254310607910e+00,-3.059675097465515137e-01,3.010000000000000000e+02
-1.956391281645287563e+02,-1.075901389779688770e+02,2.721116864069972507e+01,1.399627679344862372e+02,-1.395099180171669104e+02,-2.178763167697743484e+02,1.396908182820880029e+01,4.033025142056294499e+01,9.484992027282714844e+00,-1.070886254310607910e+00,-3.059675097465515137e-01,3.020000000000000000e+02
-1.958941771487263850e+02,-1.089315306850136267e+02,2.689830761310645357e+01,1.420065375983260765e+02,-1.404435100270724206e+02,-2.177387767777295267e+02,1.286320977191894599e+01,4.074829849766570078e+01,9.484992027282714844e+00,-1.070886254310607910e+00,-3.059675097465515137e-01,3.030000000000000000e+02
-1.955481756928827508e+02,-1.092153322062202960e+02,2.717483723237478443e+01,1.428361289268857490e+02,-1.403803786688769151e+02,-2.183265830990571885e+02,1.076780245711302086e+01,4.004193419151806665e+01,9.484992027282714844e+00,-1.070886254310607910e+00,-3.059675097465515137e-01,3.040000000000000000e+02
-1.951982242051903995e+02,-1.077159782923354214e+02,2.797973535110713783e+01,1.437719514361888287e+02,-1.389259461417918828e+02,-2.183374106142193796e+02,9.668948180312099794e+00,3.955662257877338561e+01,9.484992027282714844e+00,-1.070886254310607910e+00,-3.059675097465515137e-01,3.050000000000000000e+02
-1.950129058757670464e+02,-1.045413083088052417e+02,2.926661339943530038e+01,1.455702021841959777e+02,-1.363502489737231826e+02,-2.171252868934573144e+02,1.062634746600588187e+01,4.026824063444632884e+01,9.484992027282714844e+00,-1.070886254310607910e+00,-3.059675097465515137e-01,3.060000000000000000e+02
-1.947229175354897279e+02,-1.009367076881375169e+02,3.068815541622416276e+01,1.477551337388686079e+02,-1.336086432233818186e+02,-2.152443885824566223e+02,1.296526019361363069e+01,4.183104884523777400e+01,9.484992027282714844e+00,-1.070886254310607910e+00,-3.059675097465515137e-01,3.070000000000000000e+02
-1.940468970726077487e+02,-9.866015540718024113e+01,3.169135991673033459e+01,1.491794818119699357e+02,-1.317887347500470696e+02,-2.139062110876438965e+02,1.495304189026728636e+01,4.287321382253537649e+01,9.484992027282714844e+00,-1.070886254310607910e+00,-3.059675097465515137e-01,3.080000000000000000e+02
-1.931051257427457131e+02,-9.877098616219757332e+01,3.197679304328835315e+01,1.491595041063617373e+02,-1.313958910094561361e+02,-2.138933251469680954e+02,1.529652041754980019e+01,4.231895366435196593e+01,9.484992027282714844e+00,-1.070886254310607910e+00,-3.059675097465515137e-01,3.090000000000000000e+02
-1.924368992064073609e+02,-1.008002451703915767e+02,3.179662752254205316e+01,1.480610633775952465e+02,-1.321008379624769304e+02,-2.149380354324631526e+02,1.414316600921665668e+01,4.049308433719352252e+01,9.484992027282714844e+00,-1.070886254310607910e+00,-3.059675097465515137e-01,3.100000000000000000e+02
-1.925946003298737423e+02,-1.030313327200196909e+02,3.171163377441507691e+01,1.468599658838106734e+02,-1.331686352678781304e+02,-2.160533514875412493e+02,1.281556264459732120e+01,3.893100738555222051e+01,9.484992027282714844e+00,-1.070886254310607910e+00,-3.059675097465515137e-01,3.110000000000000000e+02
-1.936591221960271696e+02,-1.037209209155015515e+02,3.201287425646012252e+01,1.462237136394776371e+02,-1.341523549891433049e+02,-2.163934973107332098e+02,1.263823367987447455e+01,3.902914596003870429e+01,9.523238182067871094e+00,-9.561483860015869141e-01,-3.059675097465515137e-01,3.120000000000000000e+02
-1.950940012107633947e+02,-1.022968392873464154e+02,3.241081443450912047e+01,1.460591340386613410e+02,-1.351796114112135001e+02,-2.158093804078791891e+02,1.391073990586914988e+01,4.079105245395044221e+01,9.523238182067871094e+00,-9.561483860015869141e-01,-3.059675097465515137e-01,3.130000000000000000e+02
-1.960840336972792102e+02,-9.961770082601890408e+01,3.230247864629188825e+01,1.458730290850169240e+02,-1.365796477940089062e+02,-2.146954979863919561e+02,1.579558444160079489e+01,4.282940164128569904e+01,9.523238182067871094e+00,-9.561483860015869141e-01,-3.059675097465515137e-01,3.140000000000000000e+02
-1.961045053874485120e+02,-9.719733168443508475e+01,3.130948147070921550e+01,1.454279626850411660e+02,-1.382647070411153436e+02,-2.134686073475693320e+02,1.704863132548462090e+01,4.359021600637538540e+01,9.523238182067871094e+00,-9.561483860015869141e-01,-3.059675097465515137e-01,3.150000000000000000e+02
-1.952744359990466592e+02,-9.611176095403607178e+01,2.955263073810476726e+01,1.449652720826090899e+02,-1.395266111033205334e+02,-2.122791560367020338e+02,1.691007016003027275e+01,4.264771741840570485e+01,9.523238182067871094e+00,-9.561483860015869141e-01,-3.059675097465515137e-01,3.160000000000000000e+02
-1.942320251755755862e+02,-9.646487359214506796e+01,2.746472290004430761e+01,1.448110466362265925e+02,-1.395105478819078826e+02,-2.111677612862565638e+02,1.549306300159901184e+01,4.092112468306186202e+01,9.523238182067871094e+00,-9.561483860015869141e-01,-3.059675097465515137e-01,3.170000000000000000e+02
-1.936623305748986468e+02,-9.767726863143718674e+01,2.543053269462711796e+01,1.448746268496684024e+02,-1.379556766027012600e+02,-2.103433380790254432e+02,1.352357382338686875e+01,3.974376449345436413e+01,9.523238182067871094e+00,-9.561483860015869141e-01,-3.059675097465515137e-01,3.180000000000000000e+02
-1.938550799886793357e+02,-9.911722138775712665e+01,2.366216520885950558e+01,1.446489651918407162e+02,-1.355023322370639107e+02,-2.101645590589453150e+02,1.180327403668366060e+01,3.979039856217832494e+01,9.523238182067871094e+00,-9.561483860015869141e-01,-3.059675097465515137e-01,3.190000000000000000e+02
-1.945786625211201226e+02,-1.004236070868645356e+02,2.237451421626201409e+01,1.437445192545728787e+02,-1.332309443574787338e+02,-2.108022270106689575e+02,1.086177973443511746e+01,4.084915057879027245e+01,9.523238182067871094e+00,-9.561483860015869141e-01,-3.059675097465515137e-01,3.200000000000000000e+02
-1.952769702455132119e+02,-1.013416530141238354e+02,2.194959800709227693e+01,1.423842336220898233e+02,-1.317984730510611371e+02,-2.119539592150335920e+02,1.095681156789885335e+01,4.244786108436301220e+01,9.523238182067871094e+00,-9.561483860015869141e-01,-3.059675097465515137e-01,3.210000000000000000e+02
-1.953665797803340638e+02,-1.014615897224575747e+02,2.281242798184359799e+01,1.413221173736942546e+02,-1.309207992387541708e+02,-2.129468701039066900e+02,1.221065576020009757e+01,4.447899366994181491e+01,9.523238182067871094e+00,-9.561483860015869141e-01,-3.059675097465515137e-01,3.220000000000000000e+02
-1.944476051713551215e+02,-1.003217170307505057e+02,2.507617242035701111e+01,1.412224881256861408e+02,-1.296636744874891747e+02,-2.131832292462333953e+02,1.455509306202520747e+01,4.707772215754312128e+01,9.523238182067871094e+00,-9.561483860015869141e-01,-3.059675097465515137e-01,3.230000000000000000e+02
-1.924201323370995169e+02,-9.787216706251911091e+01,2.828093135930453172e+01,1.420636129356221318e+02,-1.273159327649315173e+02,-2.125658645288493744e+02,1.743064023252168226e+01,4.992708065562192132e+01,9.523238182067871094e+00,-9.561483860015869141e-01,-3.059675097465515137e-01,3.240000000000000000e+02
-1.895766886792372361e+02,-9.483014316469655114e+01,3.147423417379877719e+01,1.430999251508603720e+02,-1.241184878969452257e+02,-2.115712997348505269e+02,1.960686626495055407e+01,5.188485862981440278e+01,9.523238182067871094e+00,-9.561483860015869141e-01,-3.059675097465515137e-01,3.250000000000000000e+02
-1.866397833578470227e+02,-9.245826771237148023e+01,3.359146695830202134e+01,1.434086972803561366e+02,-1.212242394603737239e+02,-2.109236384640402093e+02,1.956810399611788398e+01,5.156212484163722820e+01,9.523238182067871094e+00,-9.561483860015869141e-01,-3.059675097465515137e-01,3.260000000000000000e+02
-1.846085736952379648e+02,-9.181249635719916569e+01,3.388905773146382217e+01,1.425587715961194135e+02,-1.199041449554017618e+02,-2.111103386145739478e+02,1.646998294963816534e+01,4.848739881795631845e+01,9.523238182067871094e+00,-9.561483860015869141e-01,-3.059675097465515137e-01,3.270000000000000000e+02
-1.843555455203886595e+02,-9.302958407781352435e+01,3.221965879998447235e+01,1.408818114296600470e+02,-1.206365646564237295e+02,-2.120683395165195861e+02,1.101823821674577175e+01,4.380418686103882919e+01,9.523238182067871094e+00,-9.561483860015869141e-01,-3.059675097465515137e-01,3.280000000000000000e+02
-1.861537399824189833e+02,-9.521887961237746367e+01,2.906743223315561409e+01,1.392142512142713713e+02,-1.228017140653480510e+02,-2.132256082205091161e+02,5.442988321694770093e+00,3.977772032838731775e+01,9.523238182067871094e+00,-9.561483860015869141e-01,-3.059675097465515137e-01,3.290000000000000000e+02
-1.894365958991716070e+02,-9.702900786037537273e+01,2.535417015402140350e+01,1.383784949291068642e+02,-1.251841335415158483e+02,-2.138591485430741841e+02,2.343545954329442793e+00,3.842432931124574225e+01,9.523238182067871094e+00,-9.561483860015869141e-01,-3.059675097465515137e-01,3.300000000000000000e+02
-1.929766273210867666e+02,-9.745224024799358631e+01,2.209817033134856956e+01,1.387792300844807869e+02,-1.268133919638185034e+02,-2.135202227172939047e+02,3.130552733194917892e+00,4.034026539689170932e+01,9.523238182067871094e+00,-9.561483860015869141e-01,-3.059675097465515137e-01,3.310000000000000000e+02
-1.954111552381782531e+02,-9.632980850621800073e+01,2.005785415153729900e+01,1.402888075875102913e+02,-1.274463487073059014e+02,-2.122457181772082322e+02,7.216099320339822043e+00,4.456758586886678586e+01,9.523238182067871094e+00,-9.561483860015869141e-01,-3.059675097465515137e-01,3.320000000000000000e+02
-1.958352722480390185e+02,-9.434075864870783334e+01,1.952842762385159858e+01,1.423463569365899275e+02,-1.273787322091294527e+02,-2.104277519238801233e+02,1.252314711448013895e+01,4.942797564776219588e+01,9.523238182067871094e+00,-9.561483860015869141e-01,-3.059675097465515137e-01,3.330000000000000000e+02
-1.941693569885704846e+02,-9.260111844513073720e+01,2.038745134388238966e+01,1.441511727024721949e+02,-1.268855436767478295e+02,-2.084651864936556649e+02,1.684048051320269224e+01,5.355544713409346969e+01,9.523238182067871094e+00,-9.561483860015869141e-01,-3.059675097465515137e-01,3.340000000000000000e+02
-1.911376076200127727e+02,-9.212479721789657106e+01,2.228758226016452682e+01,1.449248898732500948e+02,-1.258517584918054126e+02,-2.064750106684977027e+02,1.896454484288062758e+01,5.640042172490097983e+01,9.523238182067871094e+00,-9.561483860015869141e-01,-3.059675097465515137e-01,3.350000000000000000e+02
-1.878857651172693295e+02,-9.335797301601155596e+01,2.477684562648755673e+01,1.442208966134344337e+02,-1.239111874546950958e+02,-2.042905907697346493e+02,1.890888006329134896e+01,5.806377445187183639e+01,9.523238182067871094e+00,-9.561483860015869141e-01,-3.059675097465515137e-01,3.360000000000000000e+02
-1.854230211905565966e+02,-9.595168264260939850e+01,2.725071367716827808e+01,1.421616796102533726e+02,-1.209228922721164281e+02,-2.017357854814745224e+02,1.734671063771259014e+01,5.883728240024981915e+01,9.523238182067871094e+00,-9.561483860015869141e-01,-3.059675097465515137e-01,3.370000000000000000e+02
-1.841717694507814258e+02,-9.889287559195213362e+01,2.891710722333368722e+01,1.394344571895295530e+02,-1.173478733261563320e+02,-1.989280180323061131e+02,1.499193296233590900e+01,5.887416738639728919e+01,9.523238182067871094e+00,-9.561483860015869141e-01,-3.059675097465515137e-01,3.380000000000000000e+02
-1.838808194035511860e+02,-1.009998454748561016e+02,2.903399408532129655e+01,1.369676453530316849e+02,-1.142093243389231247e+02,-1.963421390502903705e+02,1.240355526706525779e+01,5.812759937039572833e+01,9.408499717712402344e+00,-1.070886254310607910e+00,-3.442134261131286621e-01,3.390000000000000000e+02
-1.839253586834066709e+02,-1.015548249809677372e+02,2.742159360979792382e+01,1.354816291565696247e+02,-1.126336608232847993e+02,-1.945412495892229572e+02,1.013058225974350535e+01,5.647769251457214068e+01,9.408499717712402344e+00,-1.070886254310607910e+00,-3.442134261131286621e-01,3.400000000000000000e+02
-1.837440448499044123e+02,-1.006783713357966690e+02,2.483935848191754303e+01,1.352199151437318960e+02,-1.132482138732094654e+02,-1.937534181245296168e+02,8.798482712626650937e+00,5.392110942024180531e+01,9.408499717712402344e+00,-1.070886254310607910e+00,-3.442134261131286621e-01,3.410000000000000000e+02
-1.830715900469688222e+02,-9.919124986477265793e+01,2.273549248155427449e+01,1.359977647704243964e+02,-1.157869272995267238e+02,-1.936100799031004271e+02,8.921250360201270269e+00,5.074155479574972105e+01,9.408499717712402344e+00,-1.070886254310607910e+00,-3.442134261131286621e-01,3.420000000000000000e+02
-1.818685891403035839e+02,-9.810526569198100333e+01,2.234220934852817209e+01,1.374187914954512735e+02,-1.191363105825677167e+02,-1.932791577776652048e+02,1.058929511766132237e+01,4.756353565303209052e+01,9.408499717712402344e+00,-1.070886254310607910e+00,-3.442134261131286621e-01,3.430000000000000000e+02
-1.801918534781091239e+02,-9.814508905987349863e+01,2.371001475081584431e+01,1.389859924217220168e+02,-1.218539460955959157e+02,-1.919751383698911695e+02,1.329965519825498177e+01,4.516335368957129504e+01,9.408499717712402344e+00,-1.070886254310607910e+00,-3.442134261131286621e-01,3.440000000000000000e+02
-1.782501904058192395e+02,-9.956873015816370298e+01,2.550402344312851710e+01,1.400686260905155223e+02,-1.228947864267678369e+02,-1.895128990810976575e+02,1.606872267976359581e+01,4.405258807796633391e+01,9.408499717712402344e+00,-1.070886254310607910e+00,-3.442134261131286621e-01,3.450000000000000000e+02
-1.765772077894488348e+02,-1.022282590670782838e+02,2.583813192477930443e+01,1.399541489498615192e+02,-1.221183810822498117e+02,-1.864952908470311286e+02,1.778449539880625707e+01,4.407344520648280195e+01,9.408499717712402344e+00,-1.070886254310607910e+00,-3.442134261131286621e-01,3.460000000000000000e+02
-1.759298068419575429e+02,-1.056237947614463337e+02,2.357593761097609786e+01,1.381881525297166036e+02,-1.202460205541439109e+02,-1.839501222983869866e+02,1.770428016116659364e+01,4.435999250945337735e+01,9.408499717712402344e+00,-1.070886254310607910e+00,-3.442134261131286621e-01,3.470000000000000000e+02
-1.767111213293478613e+02,-1.089019656205418869e+02,1.913074347756833049e+01,1.350296505283361057e+02,-1.182958474876761557e+02,-1.826588194264173808e+02,1.595436596125784945e+01,4.380065073797345576e+01,9.408499717712402344e+00,-1.070886254310607910e+00,-3.442134261131286621e-01,3.480000000000000000e+02
-1.783212445011168938e+02,-1.110317966857116971e+02,1.417458497932477712e+01,1.315458078769265740e+02,-1.169161716768608130e+02,-1.826788010918658074e+02,1.373306189777190411e+01,4.172142342782831292e+01,9.408499717712402344e+00,-1.070886254310607910e+00,-3.442134261131286621e-01,3.490000000000000000e+02
-1.791817567819343822e+02,-1.113032585055917707e+02,1.054527307626676702e+01,1.290613262536890034e+02,-1.160964047349245902e+02,-1.833979121995022297e+02,1.288039036508496338e+01,3.828406966689124147e+01,9.408499717712402344e+00,-1.070886254310607910e+00,-3.442134261131286621e-01,3.500000000000000000e+02
-1.777290994197427381e+02,-1.098761015812203823e+02,9.213072775033879225e+00,1.282723767959790848e+02,-1.154061308987199936e+02,-1.840229471277164066e+02,1.481220880953605956e+01,3.428382326603616548e+01,9.408499717712402344e+00,-1.070886254310607910e+00,-3.442134261131286621e-01,3.510000000000000000e+02
-1.737074377411629484e+02,-1.078277190824140916e+02,9.976757479690036234e+00,1.287590572080373477e+02,-1.144851620866910480e+02,-1.840609898999150573e+02,1.941195696616443911e+01,3.051854333058940938e+01,9.408499717712402344e+00,-1.070886254310607910e+00,-3.442134261131286621e-01,3.520000000000000000e+02
-1.686048525498417803e+02,-1.064720308725126188e+02,1.187818454937860224e+01,1.293664384461370673e+02,-1.133501751852988946e+02,-1.834330842130251540e+02,2.477835862235997411e+01,2.725990566894483891e+01,9.408499717712402344e+00,-1.070886254310607910e+00,-3.442134261131286621e-01,3.530000000000000000e+02
-1.646988580684865155e+02,-1.064370174907221553e+02,1.382027756344018599e+01,1.291423840859284837e+02,-1.123221978268064731e+02,-1.822616444148387700e+02,2.828256614721772166e+01,2.425013633366597787e+01,9.408499717712402344e+00,-1.070886254310607910e+00,-3.442134261131286621e-01,3.540000000000000000e+02
-1.634103836251790653e+02,-1.073192288909402805e+02,1.494512093914431716e+01,1.280049799659138898e+02,-1.117047815727557918e+02,-1.806464295525289572e+02,2.835990718591142468e+01,2.118341231062072438e+01,9.408499717712402344e+00,-1.070886254310607910e+00,-3.442134261131286621e-01,3.550000000000000000e+02
-1.643437739869162897e+02,-1.082567584451907123e+02,1.473540405393589481e+01,1.265791925826733859e+02,-1.114980736819636604e+02,-1.786367871109649741e+02,2.570794654488224751e+01,1.820858029724092830e+01,9.408499717712402344e+00,-1.070886254310607910e+00,-3.442134261131286621e-01,3.560000000000000000e+02
-1.657921928205967106e+02,-1.088432478915739239e+02,1.308449081086780552e+01,1.254646332092706871e+02,-1.113226769497282476e+02,-1.763156489932616751e+02,2.286377596654040190e+01,1.600004007654570160e+01,9.408499717712402344e+00,-1.070886254310607910e+00,-3.442134261131286621e-01,3.570000000000000000e+02
-1.661836502817633345e+02,-1.094324220664205995e+02,1.044349217221201798e+01,1.247112970805803798e+02,-1.105604845110747192e+02,-1.738005178793926007e+02,2.236584694636167114e+01,1.531891669973572334e+01,9.408499717712402344e+00,-1.070886254310607910e+00,-3.442134261131286621e-01,3.580000000000000000e+02
-1.651567825826258513e+02,-1.105112041303131036e+02,7.831752252137221149e+00,1.239924409253767408e+02,-1.086426950936590856e+02,-1.711518906067576609e+02,2.488040390361584286e+01,1.641067579862544790e+01,9.408499717712402344e+00,-1.070886254310607910e+00,-3.442134261131286621e-01,3.590000000000000000e+02
-1.634357358282322821e+02,-1.118378464565059858e+02,6.450002037198714788e+00,1.232075472246174286e+02,-1.053662713616413384e+02,-1.683611638301974835e+02,2.874716888137277238e+01,1.872393911113329068e+01,9.408499717712402344e+00,-1.070886254310607910e+00,-3.442134261131286621e-01,3.600000000000000000e+02
-1.618707501420449262e+02,-1.123612314070491038e+02,6.961627782785967611e+00,1.227996569794695461e+02,-1.011106291160724595e+02,-1.655121419433446590e+02,3.127702879667742764e+01,2.115505682387561137e+01,9.408499717712402344e+00,-1.070886254310607910e+00,-3.442134261131286621e-01,3.610000000000000000e+02
-1.606980813743327872e+02,-1.111638975819548705e+02,8.926404968689212183e+00,1.233770563643586229e+02,-9.683072813570038306e+01,-1.629645060611146619e+02,3.073500513592898642e+01,2.258736256378233520e+01,9.408499717712402344e+00,-1.070886254310607910e+00,-3.442134261131286621e-01,3.620000000000000000e+02
-1.596308081045385734e+02,-1.085447169283328321e+02,1.092804191646132494e+01,1.249846904404753332e+02,-9.375941881452661164e+01,-1.612895168774375634e+02,2.745350906791804846e+01,2.232368528278834674e+01,9.408499717712402344e+00,-1.070886254310607910e+00,-3.442134261131286621e-01,3.630000000000000000e+02
-1.584369451293517841e+02,-1.060627692548511050e+02,1.145902593904520472e+01,1.267811657629958972e+02,-9.288313473827645339e+01,-1.609240498821891379e+02,2.333071735086241461e+01,2.019083702582884143e+01,9.408499717712402344e+00,-1.070886254310607910e+00,-3.442134261131286621e-01,3.640000000000000000e+02
-1.572478171367987443e+02,-1.053311520777584747e+02,9.978236897043416320e+00,1.275096094294544855e+02,-9.441144728271694930e+01,-1.618423827076214820e+02,2.029527495406114213e+01,1.640736493019596764e+01,9.408499717712402344e+00,-1.070886254310607910e+00,-3.442134261131286621e-01,3.650000000000000000e+02
-1.563023388063614902e+02,-1.066165028615916981e+02,7.338866828097593498e+00,1.263956767246477284e+02,-9.752472638005269800e+01,-1.635663697663644598e+02,1.904528877511484097e+01,1.147381340928779991e+01,9.408499717712402344e+00,-1.070886254310607910e+00,-3.442134261131286621e-01,3.660000000000000000e+02
-1.555642341724347943e+02,-1.085631142746108253e+02,5.191141144296352650e+00,1.237109485594953640e+02,-1.006090592643702166e+02,-1.655000955518555656e+02,1.894846739935633195e+01,6.181772045490447454e+00,9.408499717712402344e+00,-1.070886254310607910e+00,-3.442134261131286621e-01,3.670000000000000000e+02
-1.547706497478136498e+02,-1.093368086794291685e+02,4.760020863031058980e+00,1.205581577004440987e+02,-1.019751786069766695e+02,-1.672436464477641493e+02,1.891992201528273654e+01,1.580460923198984347e+00,9.408499717712402344e+00,-1.070886254310607910e+00,-3.442134261131286621e-01,3.680000000000000000e+02
-1.538727007555263526e+02,-1.081406698731963161e+02,5.933672826200108830e+00,1.181247474485098792e+02,-1.007461153838074779e+02,-1.686013841135800249e+02,1.837237575544440915e+01,-1.309035113460254252e+00,9.408499717712402344e+00,-1.070886254310607910e+00,-3.442134261131286621e-01,3.690000000000000000e+02
-1.532751976931847366e+02,-1.057249046691359808e+02,7.417517986551843023e+00,1.170436155405934642e+02,-9.734745731682710357e+01,-1.693526522377701440e+02,1.752427268327437559e+01,-1.948671400256785091e+00,9.484992027282714844e+00,-1.032640218734741211e+00,-3.824593424797058105e-01,3.700000000000000000e+02
-1.534607232322342725e+02,-1.035075817434257033e+02,7.860188858185210847e+00,1.172785195709018353e+02,-9.317412303669129869e+01,-1.691344336196646054e+02,1.705693632648558378e+01,-5.599696349479472701e-01,9.484992027282714844e+00,-1.032640218734741211e+00,-3.824593424797058105e-01,3.710000000000000000e+02
-1.543194784649166422e+02,-1.022543456456214699e+02,7.007691183198062390e+00,1.184050114687108817e+02,-8.958500955923545916e+01,-1.676627890290387768e+02,1.759019224110443247e+01,2.050236125821470523e+00,9.484992027282714844e+00,-1.032640218734741211e+00,-3.824593424797058105e-01,3.720000000000000000e+02
-1.549461448141756819e+02,-1.015837685348164996e+02,5.897761270082810370e+00,1.199027088756363355e+02,-8.696853308914978697e+01,-1.651051130021164681e+02,1.937077623837058127e+01,5.004295508578138652e+00,9.484992027282714844e+00,-1.032640218734741211e+00,-3.824593424797058105e-01,3.730000000000000000e+02
-1.542522467928282595e+02,-1.006442259092890481e+02,5.919195787564262901e+00,1.212627821621708790e+02,-8.466518615264953951e+01,-1.621767700665836855e+02,2.219675789900054497e+01,7.780849919544834847e+00,9.484992027282714844e+00,-1.032640218734741211e+00,-3.824593424797058105e-01,3.740000000000000000e+02
-1.518957125083067012e+02,-9.914653282092342579e+01,7.544688968626132919e+00,1.220306622580669682e+02,-8.186390825229864276e+01,-1.597586293392560037e+02,2.542516216641843130e+01,1.019270855761635630e+01,9.484992027282714844e+00,-1.032640218734741211e+00,-3.824593424797058105e-01,3.750000000000000000e+02
-1.486452764591372215e+02,-9.766798264128112805e+01,9.830347228662617454e+00,1.219550228349221470e+02,-7.869972158010341445e+01,-1.583066437194975151e+02,2.807243753122497765e+01,1.201014939400624826e+01,9.484992027282714844e+00,-1.032640218734741211e+00,-3.824593424797058105e-01,3.760000000000000000e+02
-1.458137580368116915e+02,-9.696824476129279446e+01,1.110961519685315579e+01,1.211728463690126318e+02,-7.650496041293899907e+01,-1.575613854726511818e+02,2.915805789030036976e+01,1.272576870774082636e+01,9.484992027282714844e+00,-1.032640218734741211e+00,-3.824593424797058105e-01,3.770000000000000000e+02
-1.443097290669388713e+02,-9.708722610606059789e+01,1.024962632856261280e+01,1.201680093264878906e+02,-7.689106139116165650e+01,-1.568380775593184353e+02,2.825477697704332058e+01,1.181866371657770287e+01,9.484992027282714844e+00,-1.032640218734741211e+00,-3.824593424797058105e-01,3.780000000000000000e+02
-1.441714617216114220e+02,-9.719620661038788967e+01,7.395405887728657035e+00,1.194006971624362450e+02,-8.039723991488972388e+01,-1.556673026900509740e+02,2.587126380064023579e+01,9.331795815115128789e+00,9.484992027282714844e+00,-1.032640218734741211e+00,-3.824593424797058105e-01,3.790000000000000000e+02
-1.448802501282302728e+02,-9.638375479895125864e+01,3.678558222436549840e+00,1.188809090951813232e+02,-8.585386522201542903e+01,-1.542357625361350983e+02,2.323377896515103203e+01,6.154767045927656000e+00,9.484992027282714844e+00,-1.032640218734741211e+00,-3.824593424797058105e-01,3.800000000000000000e+02
-1.459757017027777692e+02,-9.460803410719108797e+01,3.031931834834722395e-01,1.180937627343162148e+02,-9.100793558736063460e+01,-1.532559174653010814e+02,2.148343414160126486e+01,3.573218606093632843e+00,9.484992027282714844e+00,-1.032640218734741211e+00,-3.824593424797058105e-01,3.810000000000000000e+02
-1.473104623638359953e+02,-9.290739996610182061e+01,-2.172102277717385732e+00,1.163681743250385807e+02,-9.392669297742986600e+01,-1.534177993303096628e+02,2.084884209622487106e+01,2.307313972277370340e+00,9.484992027282714844e+00,-1.032640218734741211e+00,-3.824593424797058105e-01,3.820000000000000000e+02
-1.488466603848003160e+02,-9.269382969103662617e+01,-3.933596170348664600e+00,1.133189175283055192e+02,-9.415918333396098205e+01,-1.549503706913765200e+02,2.043020496056601587e+01,1.784739008432779883e+00,9.484992027282714844e+00,-1.032640218734741211e+00,-3.824593424797058105e-01,3.830000000000000000e+02
-1.504688172526493872e+02,-9.480121981217484972e+01,-5.638989993320137728e+00,1.088989352553933259e+02,-9.294360287378503926e+01,-1.576836278110226885e+02,1.873400305908853625e+01,2.992682157698709489e-01,9.484992027282714844e+00,-1.032640218734741211e+00,-3.824593424797058105e-01,3.840000000000000000e+02
-1.522059365173990955e+02,-9.913776684639015002e+01,-8.230949080365462578e+00,1.030293770089431291e+02,-9.250809656302863004e+01,-1.615032543555541906e+02,1.447199876637273519e+01,-4.010566726858314723e+00,9.484992027282714844e+00,-1.032640218734741211e+00,-3.824593424797058105e-01,3.850000000000000000e+02
-1.546223812447440196e+02,-1.051398955075419508e+02,-1.289534185018601420e+01,9.526084868740099409e+01,-9.500908808572876296e+01,-1.667014774380209019e+02,6.983504689237634011e+00,-1.210463974356230210e+01,9.484992027282714844e+00,-1.032640218734741211e+00,-3.824593424797058105e-01,3.860000000000000000e+02
-1.587695680424797047e+02,-1.124549375681378933e+02,-2.082053020650050712e+01,8.492994840372193721e+01,-1.016753887074266913e+02,-1.738422198074463267e+02,-3.890363742517365608e+00,-2.368225097898584863e+01,9.484992027282714844e+00,-1.032640218734741211e+00,-3.824593424797058105e-01,3.870000000000000000e+02
-1.654703322387827029e+02,-1.211544939337181859e+02,-3.259053567660021145e+01,7.176789323825960309e+01,-1.124942721610000262e+02,-1.832641545201527151e+02,-1.809042368229142994e+01,-3.770165531899237976e+01,9.484992027282714844e+00,-1.032640218734741211e+00,-3.824593424797058105e-01,3.880000000000000000e+02
-1.744900316893572381e+02,-1.313244829802106324e+02,-4.759610641251219931e+01,5.639970187735252694e+01,-1.264993471809430048e+02,-1.947230049561508167e+02,-3.529848543180628440e+01,-5.324689251092036102e+01,9.484992027282714844e+00,-1.032640218734741211e+00,-3.824593424797058105e-01,3.890000000000000000e+02
-1.844476508619554807e+02,-1.425202556452536555e+02,-6.408519929481826694e+01,4.021205466197397982e+01,-1.424340327583877297e+02,-2.075159528851513642e+02,-5.454713813309945181e+01,-6.997951136216920531e+01,9.484992027282714844e+00,-1.032640218734741211e+00,-3.824593424797058105e-01,3.900000000000000000e+02
-1.936637911950153921e+02,-1.536813355819749631e+02,-7.998542353217271739e+01,2.466742378641424693e+01,-1.593265166796852554e+02,-2.209028466157340063e+02,-7.395625280232343357e+01,-8.782339026957765782e+01,9.523238182067871094e+00,-1.070886254310607910e+00,-3.059675097465515137e-01,3.910000000000000000e+02
-2.012207465910094015e+02,-1.636101309486700757e+02,-9.389269836759535792e+01,1.064814678246398216e+01,-1.765391089404461127e+02,-2.343388035808320637e+02,-9.109570856821937923e+01,-1.062168708742115086e+02,9.523238182067871094e+00,-1.070886254310607910e+00,-3.059675097465515137e-01,3.920000000000000000e+02
-2.072835110355617871e+02,-1.715752606448040751e+02,-1.054284146299391978e+02,-1.655316278508962569e+00,-1.932913227266117246e+02,-2.472914601160046004e+02,-1.039535774042567482e+02,-1.236434977529324897e+02,9.523238182067871094e+00,-1.070886254310607910e+00,-3.059675097465515137e-01,3.930000000000000000e+02
-2.124570501689863704e+02,-1.775212384278727313e+02,-1.147554902146273434e+02,-1.232172306449774624e+01,-2.081974384914215079e+02,-2.589245603182828290e+02,-1.118808387808512634e+02,-1.379154538664065512e+02,9.523238182067871094e+00,-1.070886254310607910e+00,-3.059675097465515137e-01,3.940000000000000000e+02
-2.168914293044999795e+02,-1.817702417696507382e+02,-1.218649716088596051e+02,-2.120281859267242908e+01,-2.194345458743202926e+02,-2.681219079507770857e+02,-1.157823048276563895e+02,-1.470743722053084639e+02,9.523238182067871094e+00,-1.070886254310607910e+00,-3.059675097465515137e-01,3.950000000000000000e+02
-2.200621299884157906e+02,-1.845786010623319271e+02,-1.264067691836089580e+02,-2.779842510303069503e+01,-2.255882977435376233e+02,-2.739834559456553507e+02,-1.173573971307191641e+02,-1.503138178789176891e+02,9.523238182067871094e+00,-1.070886254310607910e+00,-3.059675097465515137e-01,3.960000000000000000e+02
-2.213983788208622627e+02,-1.859602138041939270e+02,-1.281847739795730376e+02,-3.155673576680032966e+01,-2.265116991127283654e+02,-2.763882579970750157e+02,-1.179313968769645271e+02,-1.483212350779449480e+02,9.523238182067871094e+00,-1.070886254310607910e+00,-3.059675097465515137e-01,3.970000000000000000e+02
-2.210185840385911433e+02,-1.858545964618724611e+02,-1.276877993232430981e+02,-3.230831971391853585e+01,-2.234260587120622858e+02,-2.760914791709633391e+02,-1.177558854663725469e+02,-1.428731773558679379e+02,9.523238182067871094e+00,-1.070886254310607910e+00,-3.059675097465515137e-01,3.980000000000000000e+02
-2.197392889932823437e+02,-1.843626731372378345e+02,-1.259752401825448942e+02,-3.050025043968707905e+01,-2.181563359162157667e+02,-2.742417624005424841e+02,-1.162580504109998856e+02,-1.360144112034290629e+02,9.523238182067871094e+00,-1.070886254310607910e+00,-3.059675097465515137e-01,3.990000000000000000e+02
-2.183191393914494256e+02,-1.817440019565792682e+02,-1.239340286419505901e+02,-2.706829354965702805e+01,-2.121588798391860564e+02,-2.717190528435307897e+02,-1.129113453128102265e+02,-1.293326144106879383e+02,9.523238182067871094e+00,-1.070886254310607910e+00,-3.059675097465515137e-01,4.000000000000000000e+02
-2.167261667854470488e+02,-1.781916428485735651e+02,-1.216250093296525847e+02,-2.301667328570079007e+01,-2.061080995210586480e+02,-2.687995323731606732e+02,-1.079021323538279375e+02,-1.236384847390645518e+02,9.523238182067871094e+00,-1.070886254310607910e+00,-3.059675097465515137e-01,4.010000000000000000e+02
-2.142082221962659787e+02,-1.736859275950519077e+02,-1.183940873820549768e+02,-1.895789215567128849e+01,-2.001763343598813663e+02,-2.652974090851112123e+02,-1.020245621678968746e+02,-1.190288423672179761e+02,9.523238182067871094e+00,-1.070886254310607910e+00,-3.059675097465515137e-01,4.020000000000000000e+02
-2.101166545560440682e+02,-1.681629691135512985e+02,-1.136734006715296346e+02,-1.492471532695140013e+01,-1.944828841577696039e+02,-2.609447641687006580e+02,-9.601424759456381253e+01,-1.151294659372158549e+02,9.523238182067871094e+00,-1.070886254310607910e+00,-3.059675097465515137e-01,4.030000000000000000e+02
-2.046536656453040450e+02,-1.618743835799587032e+02,-1.076925159143631845e+02,-1.061049155883756612e+01,-1.891654959407062506e+02,-2.556719549168858521e+02,-9.005080755031281114e+01,-1.113503884915203344e+02,9.523238182067871094e+00,-1.070886254310607910e+00,-3.059675097465515137e-01,4.040000000000000000e+02
-1.988020436451809019e+02,-1.555736688654405953e+02,-1.014054264787455395e+02,-5.890191208105761689e+00,-1.841218726537367729e+02,-2.496746790717074873e+02,-8.394696254894415688e+01,-1.071319745913156112e+02,9.523238182067871094e+00,-1.070886254310607910e+00,-3.059675097465515137e-01,4.050000000000000000e+02
-1.935199341554111925e+02,-1.502433328017182248e+02,-9.570987746381933903e+01,-1.173936714548517557e+00,-1.788997313220511387e+02,-2.433431769669882669e+02,-7.776963664902018536e+01,-1.021856710596416633e+02,9.523238182067871094e+00,-1.070886254310607910e+00,-3.059675097465515137e-01,4.060000000000000000e+02
-1.890043367382847919e+02,-1.464664386762513004e+02,-9.071627147504523236e+01,2.806897963402207097e+00,-1.730046798515061255e+02,-2.371260621628243825e+02,-7.213016156614185093e+01,-9.662889692128237584e+01,9.523238182067871094e+00,-1.070886254310607910e+00,-3.059675097465515137e-01,4.070000000000000000e+02
-1.847308359318058137e+02,-1.439211128462125089e+02,-8.576136461176020021e+01,5.683947388620026686e+00,-1.663617917518702143e+02,-2.313498652480502642e+02,-6.771517891307667014e+01,-9.088469593173931571e+01,9.523238182067871094e+00,-1.070886254310607910e+00,-3.059675097465515137e-01,4.080000000000000000e+02
-1.801620229912930427e+02,-1.414529903081017892e+02,-8.013978242851931100e+01,7.979818946110299294e+00,-1.594229360247795739e+02,-2.260580594913549248e+02,-6.449132194369667559e+01,-8.535406748675586641e+01,9.523238182067871094e+00,-1.070886254310607910e+00,-3.059675097465515137e-01,4.090000000000000000e+02
-1.753631555965587268e+02,-1.377564971686397257e+02,-7.385279146499442504e+01,1.087301927941962276e+01,-1.527692772453569887e+02,-2.209971398824091011e+02,-6.148199421965705369e+01,-8.010440317833536028e+01,9.523238182067871094e+00,-1.070886254310607910e+00,-3.059675097465515137e-01,4.100000000000000000e+02
-1.709120916129161287e+02,-1.322193990537330137e+02,-6.767970125120018565e+01,1.527627433293582726e+01,-1.466019426862762884e+02,-2.158164482250012952e+02,-5.751311020676052976e+01,-7.487070969188653180e+01,9.523238182067871094e+00,-1.070886254310607910e+00,-3.059675097465515137e-01,4.110000000000000000e+02
-1.672612967476511585e+02,-1.253401234883817779e+02,-6.252888605439511593e+01,2.100946719498438142e+01,-1.406462929551598791e+02,-2.103613438795359798e+02,-5.233573617221009044e+01,-6.942732863769242613e+01,9.523238182067871094e+00,-1.070886254310607910e+00,-3.059675097465515137e-01,4.120000000000000000e+02
-1.642304222178679538e+02,-1.184089041063875811e+02,-5.867249420964390083e+01,2.685302010012537721e+01,-1.345644971062220066e+02,-2.048035351462017388e+02,-4.702186459270183150e+01,-6.401665619690288622e+01,9.523238182067871094e+00,-1.070886254310607910e+00,-3.059675097465515137e-01,4.130000000000000000e+02
-1.611189756036551444e+02,-1.126749639943520833e+02,-5.551249755924732199e+01,3.150409276286973181e+01,-1.284262871389410066e+02,-1.994723464695798612e+02,-4.311023996334461117e+01,-5.935459985903435154e+01,9.523238182067871094e+00,-1.070886254310607910e+00,-3.059675097465515137e-01,4.140000000000000000e+02
-1.572845194820133656e+02,-1.085966135727567234e+02,-5.202102691897471232e+01,3.461251875449056570e+01,-1.227153941054325514e+02,-1.945216898233470602e+02,-4.116173476812446097e+01,-5.605493495445284680e+01,9.523238182067871094e+00,-1.070886254310607910e+00,-3.059675097465515137e-01,4.150000000000000000e+02
-1.526049967365599969e+02,-1.056880512747802641e+02,-4.744306770815433083e+01,3.698265100712251296e+01,-1.178360428635933204e+02,-1.897396850861050552e+02,-4.003225645306520164e+01,-5.389688415278124012e+01,9.446745872497558594e+00,-1.070886254310607910e+00,-3.442134261131286621e-01,4.160000000000000000e+02
-1.474461193915778949e+02,-1.030151716642151314e+02,-4.172858452509353810e+01,3.981596388757316163e+01,-1.136191945008208677e+02,-1.846751360971429676e+02,-3.760031781712609700e+01,-5.163806061869649966e+01,9.446745872497558594e+00,-1.070886254310607910e+00,-3.442134261131286621e-01,4.170000000000000000e+02
-1.423250872994542533e+02,-9.992748165415241601e+01,-3.548618548747617751e+01,4.373026162555743213e+01,-1.093773022305044833e+02,-1.789776486957639463e+02,-3.240122556257415454e+01,-4.773301214606021858e+01,9.446745872497558594e+00,-1.070886254310607910e+00,-3.442134261131286621e-01,4.180000000000000000e+02
-1.376862425005456316e+02,-9.647632167769006628e+01,-2.961080112014383303e+01,4.841414358913948490e+01,-1.045206556757618728e+02,-1.726583438373909303e+02,-2.479433994118039664e+01,-4.150665779179416859e+01,9.446745872497558594e+00,-1.070886254310607910e+00,-3.442134261131286621e-01,4.190000000000000000e+02
-1.339098365830932380e+02,-9.324552077626503888e+01,-2.484598789472261160e+01,5.309428321801965467e+01,-9.915600538657372454e+01,-1.660646956119312563e+02,-1.668085427946834898e+01,-3.380380705151537768e+01,9.446745872497558594e+00,-1.070886254310607910e+00,-3.442134261131286621e-01,4.200000000000000000e+02
-1.312916914886363884e+02,-9.079064525550575127e+01,-2.144356581627243941e+01,5.723963360250309051e+01,-9.402423094544906235e+01,-1.596086731056570898e+02,-1.003756654643302682e+01,-2.644883588325387791e+01,9.446745872497558594e+00,-1.070886254310607910e+00,-3.442134261131286621e-01,4.210000000000000000e+02
-1.297842428219728390e+02,-8.915491071852875393e+01,-1.901693465610901512e+01,6.082664653491883655e+01,-8.976215551397535819e+01,-1.534715423954412472e+02,-5.527688148911238386e+00,-2.085167805786909412e+01,9.446745872497558594e+00,-1.070886254310607910e+00,-3.442134261131286621e-01,4.220000000000000000e+02
-1.287213581146722845e+02,-8.782577961708921066e+01,-1.670496201169407868e+01,6.403348004326380760e+01,-8.616938592270889785e+01,-1.475308609343105672e+02,-2.314062481297241902e+00,-1.692059551169018050e+01,9.446745872497558594e+00,-1.070886254310607910e+00,-3.442134261131286621e-01,4.230000000000000000e+02
-1.270158524067674080e+02,-8.611958693925907937e+01,-1.369203575912160886e+01,6.683414463166900532e+01,-8.224977476859066883e+01,-1.415725346850754249e+02,9.007954150449677400e-01,-1.326138742484386057e+01,9.446745872497558594e+00,-1.070886254310607910e+00,-3.442134261131286621e-01,4.240000000000000000e+02
-1.239344757828243928e+02,-8.364836144175137633e+01,-9.845812590154309873e+00,6.898108093347218528e+01,-7.708627073721891065e+01,-1.356169497384644274e+02,4.631200779254186273e+00,-8.515854966298320505e+00,9.446745872497558594e+00,-1.070886254310607910e+00,-3.442134261131286621e-01,4.250000000000000000e+02
-1.198494214028423812e+02,-8.050757541568555098e+01,-5.982700006862160080e+00,7.037448343549021956e+01,-7.077656677571667387e+01,-1.300579148692681883e+02,8.268578101740558850e+00,-2.647900875040249957e+00,9.446745872497558594e+00,-1.070886254310607910e+00,-3.442134261131286621e-01,4.260000000000000000e+02
-1.161571378452547378e+02,-7.710354861328551124e+01,-3.403292016810382847e+00,7.135900227445654309e+01,-6.453911066742193725e+01,-1.254578389220068857e+02,1.085739228967941017e+01,2.982125895628314538e+00,9.446745872497558594e+00,-1.070886254310607910e+00,-3.442134261131286621e-01,4.270000000000000000e+02
-1.142037790724471051e+02,-7.381657500118990356e+01,-2.916489125111183967e+00,7.255892009699118717e+01,-5.985427657127775092e+01,-1.221264020934504515e+02,1.217890050645655720e+01,6.788598096475652710e+00,9.446745872497558594e+00,-1.070886254310607910e+00,-3.442134261131286621e-01,4.280000000000000000e+02
-1.140595558595432522e+02,-7.079425319905317338e+01,-4.116866938460361780e+00,7.435444701565575087e+01,-5.742665211059056674e+01,-1.198333836540909942e+02,1.309314093623584085e+01,8.251159341611128184e+00,9.446745872497558594e+00,-1.070886254310607910e+00,-3.442134261131286621e-01,4.290000000000000000e+02
-1.143041976035863172e+02,-6.800956030460838520e+01,-5.596640028801630251e+00,7.649850120328892444e+01,-5.690306769250628349e+01,-1.179486928682736107e+02,1.481200664639641218e+01,8.141228822378252517e+00,9.446745872497558594e+00,-1.070886254310607910e+00,-3.442134261131286621e-01,4.300000000000000000e+02
-1.131542093911004940e+02,-6.544716480190004404e+01,-5.996451665669155773e+00,7.828061232137270053e+01,-5.749092084360290755e+01,-1.159376782653966984e+02,1.778813982602514443e+01,7.604603166659671842e+00,9.446745872497558594e+00,-1.070886254310607910e+00,-3.442134261131286621e-01,4.310000000000000000e+02
-1.100140063402898249e+02,-6.321099384955095957e+01,-5.031399739179278185e+00,7.912205684096761615e+01,-5.874241986497145263e+01,-1.138098476972222670e+02,2.122477698861302997e+01,7.111267724352273945e+00,9.446745872497558594e+00,-1.070886254310607910e+00,-3.442134261131286621e-01,4.320000000000000000e+02
-1.060516733224151267e+02,-6.146240092332209315e+01,-3.601358175711538934e+00,7.905718693765629723e+01,-6.068667906603332085e+01,-1.121186910657993394e+02,2.361504997105475923e+01,6.309881528100504511e+00,9.446745872497558594e+00,-1.070886254310607910e+00,-3.442134261131286621e-01,4.330000000000000000e+02
-1.032336953520480165e+02,-6.029432172934230039e+01,-2.891696296760301266e+00,7.863943882999046764e+01,-6.325711771612077428e+01,-1.114897295957930510e+02,2.379838207091370350e+01,4.786985315455467571e+00,9.446745872497558594e+00,-1.070886254310607910e+00,-3.442134261131286621e-01,4.340000000000000000e+02
-1.026337743035689982e+02,-5.969197687159430643e+01,-3.269172556965713738e+00,7.835704911927768990e+01,-6.573268491533372071e+01,-1.120738208424008917e+02,2.165181849583814255e+01,2.785169392966736268e+00,9.446745872497558594e+00,-1.070886254310607910e+00,-3.442134261131286621e-01,4.350000000000000000e+02
-1.035067556282363057e+02,-5.960192461165479472e+01,-3.946977017168592283e+00,7.811128720113993040e+01,-6.689259824760938500e+01,-1.133873467071393861e+02,1.796464990065942402e+01,1.049027175037736015e+00,9.446745872497558594e+00,-1.070886254310607910e+00,-3.442134261131286621e-01,4.360000000000000000e+02
-1.039375715569749445e+02,-6.000362511094431284e+01,-3.681075726858580310e+00,7.726008683656300491e+01,-6.581659352467841018e+01,-1.146736806429935314e+02,1.379006373190895829e+01,7.630571376921579940e-03,9.446745872497558594e+00,-1.070886254310607910e+00,-3.442134261131286621e-01,4.370000000000000000e+02
-1.024575320039207327e+02,-6.086219455166315129e+01,-1.822868370016294648e+00,7.521407426614723590e+01,-6.256348362263133822e+01,-1.154613624718062965e+02,9.935641196646884055e+00,-6.993992568627618311e-01,9.446745872497558594e+00,-1.070886254310607910e+00,-3.442134261131286621e-01,4.380000000000000000e+02
-9.917257728308163678e+01,-6.197511783416462094e+01,1.235402294202231133e+00,7.208448678574359292e+01,-5.805981786532584010e+01,-1.158026254344499648e+02,6.950051980493753945e+00,-1.671363534910597082e+00,9.446745872497558594e+00,-1.070886254310607910e+00,-3.442134261131286621e-01,4.390000000000000000e+02
-9.547372237301624409e+01,-6.288707638422010859e+01,4.573691288856252868e+00,6.885235280917913769e+01,-5.328562971772453238e+01,-1.159381543959707415e+02,5.400569540248397971e+00,-2.615602205707091343e+00,9.446745872497558594e+00,-1.070886254310607910e+00,-3.442134261131286621e-01,4.400000000000000000e+02
-9.273236714664903957e+01,-6.300392260716512283e+01,7.662888327298333024e+00,6.695385828124608452e+01,-4.850821673647351417e+01,-1.156596058913928573e+02,5.969585768898468814e+00,-1.843525175289869367e+00,9.446745872497558594e+00,-1.070886254310607910e+00,-3.442134261131286621e-01,4.410000000000000000e+02
-9.123913006453699381e+01,-6.185615062913757356e+01,1.078107458662680074e+01,6.760289733191302730e+01,-4.325098324216332912e+01,-1.139897823021924523e+02,9.154333746406791761e+00,2.851203016329236561e+00,9.446745872497558594e+00,-1.070886254310607910e+00,-3.442134261131286621e-01,4.420000000000000000e+02
-9.029682163984034560e+01,-5.930524145875892827e+01,1.453217630588574139e+01,7.127543629344745568e+01,-3.699114910607477213e+01,-1.096254830492380279e+02,1.481804232262038568e+01,1.247682753310755288e+01,9.484992027282714844e+00,-1.109132170677185059e+00,-3.059675097465515137e-01,4.430000000000000000e+02
-8.921032048875440523e+01,-5.551733564081268923e+01,1.894672502904313660e+01,7.755977274592896720e+01,-2.993056950255049742e+01,-1.019688629756938099e+02,2.202506726694218742e+01,2.570224121964974984e+01,9.484992027282714844e+00,-1.109132170677185059e+00,-3.059675097465515137e-01,4.440000000000000000e+02
-8.807810989914128186e+01,-5.076110815063748305e+01,2.306975155362670193e+01,8.532467851638375578e+01,-2.317173200749584794e+01,-9.196500568160354305e+01,2.936037902579619185e+01,3.930583064065103827e+01,9.484992027282714844e+00,-1.109132170677185059e+00,-3.059675097465515137e-01,4.450000000000000000e+02
-8.757625380821787076e+01,-4.528121021293827653e+01,2.551744913077050114e+01,9.305722552821043791e+01,-1.816609363475208738e+01,-8.195736008219273572e+01,3.550929242686697762e+01,4.992010104679866345e+01,9.484992027282714844e+00,-1.109132170677185059e+00,-3.059675097465515137e-01,4.460000000000000000e+02
-8.801618815889901271e+01,-3.941990739985385517e+01,2.558286427029679544e+01,9.926809374942240538e+01,-1.588967610411873466e+01,-7.447830837864739806e+01,3.969495354181844959e+01,5.575974175523424492e+01,9.484992027282714844e+00,-1.109132170677185059e+00,-3.059675097465515137e-01,4.470000000000000000e+02
-8.872938297718087597e+01,-3.386375217296017581e+01,2.389416191928921762e+01,1.028888087797286062e+02,-1.637024344805058718e+01,-7.081486956171602287e+01,4.174496351551306361e+01,5.712482994516813051e+01,9.484992027282714844e+00,-1.109132170677185059e+00,-3.059675097465515137e-01,4.480000000000000000e+02
-8.850131987636586928e+01,-2.966820924399371506e+01,2.200338158168824521e+01,1.035376317993609518e+02,-1.883299063663343986e+01,-7.045597808130742123e+01,4.190661186625629853e+01,5.556391095968501759e+01,9.484992027282714844e+00,-1.109132170677185059e+00,-3.059675097465515137e-01,4.490000000000000000e+02
-8.668478730729839299e+01,-2.782931616389532792e+01,2.124641654031779581e+01,1.015552808271595495e+02,-2.219502843613736331e+01,-7.180752591625378045e+01,4.069787339885169786e+01,5.264439558579806544e+01,9.484992027282714844e+00,-1.109132170677185059e+00,-3.059675097465515137e-01,4.500000000000000000e+02
-8.388926403838559054e+01,-2.859784780463724019e+01,2.187449400942523425e+01,9.782746318844056077e+01,-2.545720073316942944e+01,-7.347965137789060464e+01,3.889994566009863775e+01,4.934857683479549451e+01,9.484992027282714844e+00,-1.109132170677185059e+00,-3.059675097465515137e-01,4.510000000000000000e+02
-8.151139531587250531e+01,-3.108659421512538756e+01,2.318443191018013749e+01,9.351482171409406874e+01,-2.780888785100705718e+01,-7.501889003914448040e+01,3.751329672635984025e+01,4.630093257363159864e+01,9.484992027282714844e+00,-1.109132170677185059e+00,-3.059675097465515137e-01,4.520000000000000000e+02
-8.050959567958852858e+01,-3.360014561334673999e+01,2.442378924927174921e+01,8.979201447212199128e+01,-2.863486806570836052e+01,-7.657355888000665800e+01,3.745050575653340275e+01,4.421241538983213104e+01,9.484992027282714844e+00,-1.109132170677185059e+00,-3.059675097465515137e-01,4.530000000000000000e+02
-8.059768311389052542e+01,-3.458235433344452758e+01,2.552455335431091044e+01,8.758848122229392175e+01,-2.767924462946893982e+01,-7.805000649190787954e+01,3.901735676592670643e+01,4.384943249800471676e+01,9.484992027282714844e+00,-1.109132170677185059e+00,-3.059675097465515137e-01,4.540000000000000000e+02
-8.062852215668908684e+01,-3.353734912545087354e+01,2.693889649290917987e+01,8.730166883245965437e+01,-2.532309362920886997e+01,-7.875548721785298767e+01,4.157641791373271190e+01,4.546716094582325240e+01,9.484992027282714844e+00,-1.109132170677185059e+00,-3.059675097465515137e-01,4.550000000000000000e+02
-7.975995583064445782e+01,-3.122193915307298084e+01,2.882729889289112180e+01,8.861023032802540911e+01,-2.259987585316002878e+01,-7.788397123956929136e+01,4.381398789955301254e+01,4.835456856442260687e+01,9.484992027282714844e+00,-1.109132170677185059e+00,-3.059675097465515137e-01,4.560000000000000000e+02
-7.822696277073623605e+01,-2.895955935487154420e+01,3.055257798775005540e+01,9.059584703131122296e+01,-2.067712003029646439e+01,-7.527601021852251506e+01,4.456511404550246880e+01,5.109552525137951307e+01,9.484992027282714844e+00,-1.109132170677185059e+00,-3.059675097465515137e-01,4.570000000000000000e+02
-7.697282901047469750e+01,-2.764207965855302973e+01,3.111305247245672945e+01,9.220240648174194575e+01,-2.006771097082764754e+01,-7.163684615351075990e+01,4.360045853950123274e+01,5.243151966132472808e+01,9.484992027282714844e+00,-1.109132170677185059e+00,-3.059675097465515137e-01,4.580000000000000000e+02
-7.656201240636005423e+01,-2.721478557248337893e+01,3.014614017563440029e+01,9.276461635314262821e+01,-2.024079943696779083e+01,-6.803866201756864029e+01,4.170749960072771501e+01,5.198047896867183226e+01,9.484992027282714844e+00,-1.109132170677185059e+00,-3.059675097465515137e-01,4.590000000000000000e+02
-7.651722692566363548e+01,-2.700746476414315111e+01,2.847591029984960187e+01,9.221589705469614273e+01,-2.004962887025203599e+01,-6.528057161092920069e+01,3.997150742626035935e+01,5.020183326701271653e+01,9.484992027282714844e+00,-1.109132170677185059e+00,-3.059675097465515137e-01,4.600000000000000000e+02
-7.575303639591425053e+01,-2.651690360794214030e+01,2.758561859700012064e+01,9.086988407508079035e+01,-1.866043025341787143e+01,-6.368910336175758857e+01,3.889438411268747586e+01,4.777647180082203704e+01,9.484992027282714844e+00,-1.109132170677185059e+00,-3.059675097465515137e-01,4.610000000000000000e+02
-7.365454075279990320e+01,-2.588563529306293276e+01,2.844143739461492260e+01,8.905876478718528233e+01,-1.618103031928012570e+01,-6.332779399504670437e+01,3.815150750233169674e+01,4.513743786547092895e+01,9.484992027282714844e+00,-1.109132170677185059e+00,-3.059675097465515137e-01,4.620000000000000000e+02
-7.070246322425305152e+01,-2.564861975541816719e+01,3.074065972648168099e+01,8.701731626363653049e+01,-1.345380800918883324e+01,-6.411483649422825692e+01,3.718442117537961167e+01,4.264169946466245165e+01,9.484992027282714844e+00,-1.109132170677185059e+00,-3.059675097465515137e-01,4.630000000000000000e+02
-6.803543395217593570e+01,-2.603132728414470876e+01,3.326373321368237157e+01,8.509290653115522218e+01,-1.127229078129312256e+01,-6.560591980828939995e+01,3.601933332458793302e+01,4.105992911429530068e+01,9.484992027282714844e+00,-1.109132170677185059e+00,-3.059675097465515137e-01,4.640000000000000000e+02
-6.642829560136578948e+01,-2.653342246444481134e+01,3.494793614151717520e+01,8.392977909772798739e+01,-9.791264535614573106e+00,-6.680785543592674003e+01,3.548800902580660477e+01,4.158594255992238686e+01,9.484992027282714844e+00,-1.109132170677185059e+00,-3.059675097465515137e-01,4.650000000000000000e+02
-6.571867296312393592e+01,-2.625715445337391429e+01,3.565755519258527784e+01,8.426109985059292740e+01,-8.623665550244822953e+00,-6.652284823156196580e+01,3.660177122158984275e+01,4.504930440432849537e+01,9.484992027282714844e+00,-1.109132170677185059e+00,-3.059675097465515137e-01,4.660000000000000000e+02
-6.518916338163603541e+01,-2.470423880456792176e+01,3.602036521187847029e+01,8.637953883217323892e+01,-7.396881216788642632e+00,-6.414091537241029073e+01,3.963726546367706760e+01,5.098214813971208059e+01,9.484992027282714844e+00,-1.109132170677185059e+00,-3.059675097465515137e-01,4.670000000000000000e+02
-6.440042370454466436e+01,-2.228833243812937326e+01,3.663832092520806327e+01,8.977698502097246092e+01,-6.137099901955025416e+00,-6.017165052931522951e+01,4.375350062726101896e+01,5.755779201027394265e+01,9.484992027282714844e+00,-1.109132170677185059e+00,-3.059675097465515137e-01,4.680000000000000000e+02
-6.355339198000547185e+01,-2.004393003186510214e+01,3.751248357138865686e+01,9.336023857949157900e+01,-5.138724486670525948e+00,-5.591627496663795682e+01,4.747003676643248582e+01,6.268921163738446012e+01,9.484992027282714844e+00,-1.109132170677185059e+00,-3.059675097465515137e-01,4.690000000000000000e+02
-6.304435868359723827e+01,-1.876389552502109836e+01,3.818874128426978132e+01,9.611680459249191699e+01,-4.562864244425782090e+00,-5.250369639367681884e+01,4.958479141138900559e+01,6.541314101217494681e+01,9.484992027282714844e+00,-1.109132170677185059e+00,-3.059675097465515137e-01,4.700000000000000000e+02
-6.277935360462265635e+01,-1.834744072287867311e+01,3.834856104182586023e+01,9.767103090715590952e+01,-4.262885113445918250e+00,-5.018013196793663155e+01,4.981698038162676312e+01,6.630423940965079055e+01,9.484992027282714844e+00,-1.109132170677185059e+00,-3.059675097465515137e-01,4.710000000000000000e+02
-6.206148549510226076e+01,-1.796518850639881748e+01,3.817105839313899196e+01,9.826808665289399869e+01,-4.014731882754858816e+00,-4.849610295564343687e+01,4.879063421369414755e+01,6.654831071094622530e+01,9.484992027282714844e+00,-1.109132170677185059e+00,-3.059675097465515137e-01,4.720000000000000000e+02
-6.023622420506194430e+01,-1.688550358745942503e+01,3.811524322808782017e+01,9.825987178012974255e+01,-3.862223277697694357e+00,-4.712721791005697014e+01,4.752196922197435924e+01,6.661631318490162812e+01,9.484992027282714844e+00,-1.109132170677185059e+00,-3.059675097465515137e-01,4.730000000000000000e+02
-5.742885477728827937e+01,-1.519531813470325687e+01,3.841205694272684923e+01,9.762289864474814749e+01,-4.173123072834641789e+00,-4.642892699232379528e+01,4.683645436382948901e+01,6.586567542968487032e+01,9.446745872497558594e+00,-9.943943619728088379e-01,-2.677215635776519775e-01,4.740000000000000000e+02
-5.456911565699579114e+01,-1.373521160306086131e+01,3.883559913139265518e+01,9.598987533107447234e+01,-5.309335642080441175e+00,-4.711750856037360791e+01,4.702655767845840273e+01,6.345473845563060422e+01,9.446745872497558594e+00,-9.943943619728088379e-01,-2.677215635776519775e-01,4.750000000000000000e+02
-5.264052792592178776e+01,-1.331043875684963496e+01,3.896655045070542656e+01,9.315542064154806212e+01,-7.224284797724749296e+00,-4.939167553165862046e+01,4.781502746828414274e+01,5.958478765077006756e+01,9.446745872497558594e+00,-9.943943619728088379e-01,-2.677215635776519775e-01,4.760000000000000000e+02
-5.189954879297374646e+01,-1.392906394971419104e+01,3.861261843656234305e+01,8.955991915242225332e+01,-9.384721852118218521e+00,-5.240067390032209005e+01,4.855011162295636495e+01,5.573671948947435340e+01,9.446745872497558594e+00,-9.943943619728088379e-01,-2.677215635776519775e-01,4.770000000000000000e+02
-5.183384571822534781e+01,-1.479323608495701592e+01,3.790680726613982188e+01,8.625930376523979248e+01,-1.111529726415255936e+01,-5.463157700946067052e+01,4.854817572148249383e+01,5.358913410290210777e+01,9.446745872497558594e+00,-9.943943619728088379e-01,-2.677215635776519775e-01,4.780000000000000000e+02
-5.184905826293766040e+01,-1.504142480575819718e+01,3.698991402216438473e+01,8.434218660454394012e+01,-1.209078316235309103e+01,-5.491232154380941211e+01,4.746732191828118630e+01,5.363394159297718033e+01,9.446745872497558594e+00,-9.943943619728088379e-01,-2.677215635776519775e-01,4.790000000000000000e+02
-5.191916289091864201e+01,-1.452698335638979188e+01,3.569229966560078537e+01,8.424233796674752739e+01,-1.255157587687835985e+01,-5.316276071697802763e+01,4.552864743854911467e+01,5.481752153032948627e+01,9.446745872497558594e+00,-9.943943619728088379e-01,-2.677215635776519775e-01,4.800000000000000000e+02
-5.249733745911453298e+01,-1.387905131850266116e+01,3.366357978364635528e+01,8.549933646666841014e+01,-1.303387655103301768e+01,-5.028496370192715403e+01,4.341249575314623144e+01,5.553015584874174237e+01,9.446745872497558594e+00,-9.943943619728088379e-01,-2.677215635776519775e-01,4.810000000000000000e+02
-5.380732401107616170e+01,-1.378153480846231105e+01,3.091376695257008578e+01,8.714391680213338987e+01,-1.382703608901329062e+01,-4.739281187766164294e+01,4.183995551217003595e+01,5.496799049111928070e+01,9.446745872497558594e+00,-9.943943619728088379e-01,-2.677215635776519775e-01,4.820000000000000000e+02
-5.531410941368517342e+01,-1.417335402511730535e+01,2.821400854350372356e+01,8.837795122364946110e+01,-1.463564440285517776e+01,-4.512130985965131913e+01,4.110410319264110512e+01,5.360521901766242081e+01,9.446745872497558594e+00,-9.943943619728088379e-01,-2.677215635776519775e-01,4.830000000000000000e+02
-5.600963407041695064e+01,-1.416558964476962501e+01,2.681871964913034390e+01,8.900608344312809095e+01,-1.479668714728245504e+01,-4.356164085538921427e+01,4.089749571716629362e+01,5.245702730780021739e+01,9.446745872497558594e+00,-9.943943619728088379e-01,-2.677215635776519775e-01,4.840000000000000000e+02
-5.528331300407899107e+01,-1.280424074662209932e+01,2.759785204965146477e+01,8.930818888629619323e+01,-1.391176109304865349e+01,-4.268934345791103624e+01,4.058449733683437444e+01,5.198453557339121289e+01,9.446745872497558594e+00,-9.943943619728088379e-01,-2.677215635776519775e-01,4.850000000000000000e+02
-5.351692532753600062e+01,-1.000858459848723214e+01,3.027642924383576428e+01,8.952122694086415322e+01,-1.233460118735524702e+01,-4.269756973733001360e+01,3.971861462288688926e+01,5.173231400821578063e+01,9.446745872497558594e+00,-9.943943619728088379e-01,-2.677215635776519775e-01,4.860000000000000000e+02
-5.180494011077666983e+01,-6.820785767664801824e+00,3.347976572374818716e+01,8.944437747302936259e+01,-1.101163855954246173e+01,-4.382628034166123143e+01,3.840993181898852527e+01,5.096613951769768391e+01,9.446745872497558594e+00,-9.943943619728088379e-01,-2.677215635776519775e-01,4.870000000000000000e+02
-5.105081055578875748e+01,-4.698411093559570872e+00,3.564041339863297253e+01,8.856836815886708791e+01,-1.072410683999100911e+01,-4.585950106145537575e+01,3.728086546523195466e+01,4.959669041989945981e+01,9.446745872497558594e+00,-9.943943619728088379e-01,-2.677215635776519775e-01,4.880000000000000000e+02
-5.128155348118480106e+01,-4.431324865567148663e+00,3.605402242915943134e+01,8.662799757579477955e+01,-1.139010321236628442e+01,-4.787992128352948384e+01,3.705041028715299944e+01,4.845691971229143746e+01,9.446745872497558594e+00,-9.943943619728088379e-01,-2.677215635776519775e-01,4.890000000000000000e+02
-5.174957291411237748e+01,-5.563399345420521058e+00,3.524269899246996829e+01,8.408583776415252942e+01,-1.207646988115220665e+01,-4.864308236087617843e+01,3.808451658355625113e+01,4.871293069508578810e+01,9.446745872497558594e+00,-9.943943619728088379e-01,-2.677215635776519775e-01,4.900000000000000000e+02
-5.161911688517102448e+01,-6.749805492167297416e+00,3.440841921718765661e+01,8.207092833056412928e+01,-1.172851385619014764e+01,-4.732827450026297811e+01,4.025009887836449707e+01,5.099717545391877138e+01,9.446745872497558594e+00,-9.943943619728088379e-01,-2.677215635776519775e-01,4.910000000000000000e+02
-5.056567523483386140e+01,-6.716510379525516328e+00,3.450283585807324016e+01,8.174327045106952028e+01,-9.976781054140474225e+00,-4.403169731301659340e+01,4.311516089640304017e+01,5.501593019019878739e+01,9.446745872497558594e+00,-9.943943619728088379e-01,-2.677215635776519775e-01,4.920000000000000000e+02
-4.884650438342032430e+01,-5.065907145844221304e+00,3.566643242443842610e+01,8.354548100389911269e+01,-7.333803072146565682e+00,-3.958992569395240935e+01,4.624377391544999227e+01,5.984253447581568253e+01,9.446745872497558594e+00,-9.943943619728088379e-01,-2.677215635776519775e-01,4.930000000000000000e+02
-4.698547155284177279e+01,-2.398977464392828551e+00,3.734455342244518761e+01,8.690293002242083276e+01,-4.728590415968710658e+00,-3.494551527417388570e+01,4.928515697873035606e+01,6.447308116154522395e+01,9.446745872497558594e+00,-9.943943619728088379e-01,-2.677215635776519775e-01,4.940000000000000000e+02
-4.545872375915837438e+01,2.026295257765013957e-01,3.879452662327980761e+01,9.057859519812200233e+01,-2.906555605615039894e+00,-3.065128403093467568e+01,5.183763029117972110e+01,6.814683404081642948e+01,9.446745872497558594e+00,-1.032640218734741211e+00,-3.442134261131286621e-01,4.950000000000000000e+02
-4.455386630205236997e+01,1.885916433053125729e+00,3.949778051595330908e+01,9.338567144353737604e+01,-2.206613717856725998e+00,-2.690671449418823613e+01,5.335954482485749395e+01,7.034308405739966474e+01,9.446745872497558594e+00,-1.032640218734741211e+00,-3.442134261131286621e-01,4.960000000000000000e+02
-4.427845380193718938e+01,2.463099673027727476e+00,3.928613945178881295e+01,9.472833628372200110e+01,-2.707464971281297039e+00,-2.394628474379373984e+01,5.338110643972163416e+01,7.073820190074889069e+01,9.446745872497558594e+00,-1.032640218734741211e+00,-3.442134261131286621e-01,4.970000000000000000e+02
-4.426340267592286182e+01,2.372771915628732131e+00,3.830729912776666879e+01,9.465379451632406926e+01,-4.355254440596354470e+00,-2.226431904055652922e+01,5.191528127268827575e+01,6.933822190355056136e+01,9.446745872497558594e+00,-1.032640218734741211e+00,-3.442134261131286621e-01,4.980000000000000000e+02
-4.385499543020330293e+01,2.280449175699232001e+00,3.697985995887779609e+01,9.352261311471249883e+01,-6.845743093927012524e+00,-2.236586030632747679e+01,4.965096614152673737e+01,6.664914528951453576e+01,9.446745872497558594e+00,-1.032640218734741211e+00,-3.442134261131286621e-01,4.990000000000000000e+02
-4.255070923405151007e+01,2.610912639901016519e+00,3.590003509757207212e+01,9.166090788478800278e+01,-9.480701567040568989e+00,-2.426491033497984517e+01,4.760990703532570478e+01,6.356774584432571373e+01,9.446745872497558594e+00,-1.032640218734741211e+00,-3.442134261131286621e-01,5.000000000000000000e+02
-4.052868781962729372e+01,3.297007229420842123e+00,3.558259658818406024e+01,8.926309834433016022e+01,-1.135201470567733395e+01,-2.725310850153346109e+01,4.644532621453186039e+01,6.091423677639897960e+01,9.446745872497558594e+00,-1.032640218734741211e+00,-3.442134261131286621e-01,5.010000000000000000e+02
-3.871343113230238941e+01,3.870766331352797351e+00,3.613052511567821057e+01,8.650492420499199397e+01,-1.184406466526922941e+01,-3.022939328250038216e+01,4.597096851269179751e+01,5.894583796458641700e+01,9.446745872497558594e+00,-1.032640218734741211e+00,-3.442134261131286621e-01,5.020000000000000000e+02
-3.810096652721381361e+01,3.820005294637780935e+00,3.713269109938096335e+01,8.364229514878638838e+01,-1.102107847823140219e+01,-3.235979187300461035e+01,4.538693109943915260e+01,5.730638726470351685e+01,9.446745872497558594e+00,-1.032640218734741211e+00,-3.442134261131286621e-01,5.030000000000000000e+02
-3.882976179959638330e+01,2.951314004589733031e+00,3.796102148043871694e+01,8.095308813607664433e+01,-9.518120528762437971e+00,-3.353892471131086950e+01,4.403409939964694786e+01,5.549335832299698268e+01,9.446745872497558594e+00,-1.032640218734741211e+00,-3.442134261131286621e-01,5.040000000000000000e+02
-3.989878887425231824e+01,1.500670798282840224e+00,3.825743185623531417e+01,7.860781780743792524e+01,-8.040902667142347582e+00,-3.429192378448510681e+01,4.200612636567473146e+01,5.342718828693637079e+01,9.446745872497558594e+00,-1.032640218734741211e+00,-3.442134261131286621e-01,5.050000000000000000e+02
-3.993332513371393588e+01,-4.641960163172598186e-02,3.815908112084025561e+01,7.665884099740424062e+01,-6.972764072015877446e+00,-3.522499174231370489e+01,4.006558825300567150e+01,5.159160880945808003e+01,9.446745872497558594e+00,-1.032640218734741211e+00,-3.442134261131286621e-01,5.060000000000000000e+02
-3.838193890700745214e+01,-1.229444925407165101e+00,3.804807988596326140e+01,7.518714983713698530e+01,-6.429560031357084426e+00,-3.650725239357984719e+01,3.895804011543469869e+01,5.061019532861837433e+01,9.446745872497558594e+00,-1.032640218734741211e+00,-3.442134261131286621e-01,5.070000000000000000e+02
-3.602777116188332229e+01,-1.743821580938345051e+00,3.810197398490993237e+01,7.445035732180187438e+01,-6.551302255136562280e+00,-3.777297550351644873e+01,3.879570609380039059e+01,5.068808289621622976e+01,9.446745872497558594e+00,-1.032640218734741211e+00,-3.442134261131286621e-01,5.080000000000000000e+02
-3.431019377805563408e+01,-1.413244815227912454e+00,3.812435104605327751e+01,7.481285881524951265e+01,-7.555575182806478551e+00,-3.845368303189167136e+01,3.908038810159382592e+01,5.147679813365169821e+01,9.446745872497558594e+00,-1.032640218734741211e+00,-3.442134261131286621e-01,5.090000000000000000e+02
-3.410769317033827974e+01,-1.971671465713527027e-01,3.781969317969488742e+01,7.643351264997600936e+01,-9.395353223023178657e+00,-3.821303920423953571e+01,3.927349595001614091e+01,5.247754279413989309e+01,9.446745872497558594e+00,-1.032640218734741211e+00,-3.442134261131286621e-01,5.100000000000000000e+02
-3.513622236772764040e+01,1.646513125445267178e+00,3.719294214741940152e+01,7.896824765199484375e+01,-1.140767646047756045e+01,-3.711725157993875257e+01,3.929944687278722171e+01,5.357090727585200796e+01,9.446745872497558594e+00,-1.032640218734741211e+00,-3.442134261131286621e-01,5.110000000000000000e+02
-3.645146443321732477e+01,3.418534898678245781e+00,3.662105876942263194e+01,8.159680785372871981e+01,-1.246392887573040298e+01,-3.545140140180009780e+01,3.951193900893036925e+01,5.514449341446848507e+01,9.446745872497558594e+00,-1.032640218734741211e+00,-3.442134261131286621e-01,5.120000000000000000e+02
-3.741532637457129340e+01,4.182406969331850632e+00,3.652070181944009164e+01,8.342898867320880640e+01,-1.165578138482050008e+01,-3.341259489506217051e+01,4.022357518570055390e+01,5.769780274220462957e+01,9.446745872497558594e+00,-1.032640218734741211e+00,-3.442134261131286621e-01,5.130000000000000000e+02
-3.809012396049865856e+01,3.366282036785264609e+00,3.697609794994258436e+01,8.402185461325797178e+01,-8.962754962260419234e+00,-3.098486490231846346e+01,4.131735826419225077e+01,6.129751215474198034e+01,9.446745872497558594e+00,-1.032640218734741211e+00,-3.442134261131286621e-01,5.140000000000000000e+02
-3.874316025098369209e+01,1.344183611125913558e+00,3.772653970539715829e+01,8.362646539580896388e+01,-5.274232002423104859e+00,-2.809276391741514090e+01,4.232912907431636995e+01,6.537442913337633854e+01,9.446745872497558594e+00,-1.032640218734741211e+00,-3.442134261131286621e-01,5.150000000000000000e+02
-3.916737820635620437e+01,-5.877336572073659227e-01,3.848689664514290598e+01,8.298349225544382080e+01,-1.734854825038269155e+00,-2.486403791303803246e+01,4.286093700886351598e+01,6.899026403596263890e+01,9.446745872497558594e+00,-1.032640218734741211e+00,-3.442134261131286621e-01,5.160000000000000000e+02
-3.870493527468556749e+01,-9.936986975943682410e-01,3.919096637326128985e+01,8.282510368914802257e+01,9.686365101957790102e-01,-2.174782044438700268e+01,4.286351857220347483e+01,7.128766426554807367e+01,9.446745872497558594e+00,-1.032640218734741211e+00,-3.442134261131286621e-01,5.170000000000000000e+02
-3.702143498739781080e+01,6.995093691447209494e-01,3.986512471324715534e+01,8.343315649257851874e+01,2.742537987464856997e+00,-1.937680387571992924e+01,4.253474191991654152e+01,7.178619206684288656e+01,9.446745872497558594e+00,-1.032640218734741211e+00,-3.442134261131286621e-01,5.180000000000000000e+02
-3.474010544972236403e+01,3.812622852347999469e+00,4.033128868467383654e+01,8.452995802993348207e+01,3.643109836697931314e+00,-1.826957076555368076e+01,4.204819735244427648e+01,7.045864009404169792e+01,9.446745872497558594e+00,-1.032640218734741211e+00,-3.442134261131286621e-01,5.190000000000000000e+02
-3.311743381086114368e+01,6.970607962754002074e+00,4.019041979810845078e+01,8.552541787082031988e+01,3.478435058174000005e+00,-1.855719808846652086e+01,4.149112557223566000e+01,6.774042841135360504e+01,9.523238182067871094e+00,-1.032640218734741211e+00,-1.912296712398529053e-01,5.200000000000000000e+02
-3.295437347619008506e+01,9.122300781214789822e+00,3.923335445013151457e+01,8.591981859640009134e+01,2.011087643809787551e+00,-1.986825956070356369e+01,4.107787840096398213e+01,6.455359241767678213e+01,9.523238182067871094e+00,-1.032640218734741211e+00,-1.912296712398529053e-01,5.210000000000000000e+02
-3.380666044814665838e+01,1.016560385107686670e+01,3.787936317643607254e+01,8.559507627277389474e+01,-4.155037870727937843e-01,-2.142782802003875986e+01,4.130004217535270072e+01,6.217330057426738676e+01,9.523238182067871094e+00,-1.032640218734741211e+00,-1.912296712398529053e-01,5.220000000000000000e+02
-3.432351788094092626e+01,1.074757354323446634e+01,3.709735939241363667e+01,8.485031103249752960e+01,-2.589807447771363513e+00,-2.235488914068082522e+01,4.268236977049559755e+01,6.176899546070831093e+01,9.523238182067871094e+00,-1.032640218734741211e+00,-1.912296712398529053e-01,5.230000000000000000e+02
-3.343789935688664627e+01,1.155988768441443426e+01,3.774541456564020336e+01,8.420796665997704622e+01,-3.011856590209845308e+00,-2.207365245799815057e+01,4.525457124618333182e+01,6.376338091985144274e+01,9.523238182067871094e+00,-1.032640218734741211e+00,-1.912296712398529053e-01,5.240000000000000000e+02
-3.127715462489595666e+01,1.281879760544507008e+01,3.988000258732677139e+01,8.412451206304626794e+01,-1.006523963785639353e+00,-2.064089781277812108e+01,4.823162906778907200e+01,6.745574957049666409e+01,9.523238182067871094e+00,-1.032640218734741211e+00,-1.912296712398529053e-01,5.250000000000000000e+02
-2.896024260752778900e+01,1.429007158837339375e+01,4.267748164759905194e+01,8.474913025995692806e+01,2.623418588206277491e+00,-1.873989700703123162e+01,5.030392726909030898e+01,7.131144913107800676e+01,9.523238182067871094e+00,-1.032640218734741211e+00,-1.912296712398529053e-01,5.260000000000000000e+02
-2.756357989375101170e+01,1.563442617843611515e+01,4.505125771975508542e+01,8.582932092370901955e+01,6.096512949317911989e+00,-1.724818407304064749e+01,5.041635651319279532e+01,7.383391556987544391e+01,9.523238182067871094e+00,-1.032640218734741211e+00,-1.912296712398529053e-01,5.270000000000000000e+02
-2.729211048729780487e+01,1.665114038185038225e+01,4.639476148849530546e+01,8.681947085871092895e+01,7.960424451302060334e+00,-1.662538160098574735e+01,4.846176482094574567e+01,7.444186023690417642e+01,9.523238182067871094e+00,-1.032640218734741211e+00,-1.912296712398529053e-01,5.280000000000000000e+02
-2.756944521004743365e+01,1.727288882662924152e+01,4.681080736794183395e+01,8.718636054335229346e+01,8.098070757392633823e+00,-1.658425131016792875e+01,4.537397313697147183e+01,7.373242006625105205e+01,9.523238182067871094e+00,-1.032640218734741211e+00,-1.912296712398529053e-01,5.290000000000000000e+02
-2.777539649537038713e+01,1.750421186081894120e+01,4.674397554975166713e+01,8.677050769671313901e+01,7.591633039542557526e+00,-1.634326813794859845e+01,4.257681414344460791e+01,7.296203806209905451e+01,9.523238182067871094e+00,-1.032640218734741211e+00,-1.912296712398529053e-01,5.300000000000000000e+02
-2.776438938800265532e+01,1.747237201445295796e+01,4.650935416967195124e+01,8.596013360282177018e+01,7.635207772066223697e+00,-1.528532282756214045e+01,4.119531794015210835e+01,7.314396997967105563e+01,9.523238182067871094e+00,-1.032640218734741211e+00,-1.912296712398529053e-01,5.310000000000000000e+02
-2.767827309759240961e+01,1.748476869682417600e+01,4.619214548768468376e+01,8.548014428833039347e+01,8.501859633750882494e+00,-1.347917619381769327e+01,4.152500678725346006e+01,7.439156427653961146e+01,9.523238182067871094e+00,-1.032640218734741211e+00,-1.912296712398529053e-01,5.320000000000000000e+02
-2.743062883612128644e+01,1.787563490391494270e+01,4.588907735473139837e+01,8.585948746244685026e+01,9.442201651389041217e+00,-1.161063389729042683e+01,4.300925890881126179e+01,7.592375013001992556e+01,9.523238182067871094e+00,-1.032640218734741211e+00,-1.912296712398529053e-01,5.330000000000000000e+02
-2.659871231947181514e+01,1.866988972383887813e+01,4.585651434899045853e+01,8.695305161874102851e+01,9.494346762901386683e+00,-1.039427520910021485e+01,4.463877826613997968e+01,7.666241752819132671e+01,9.523238182067871094e+00,-1.032640218734741211e+00,-1.912296712398529053e-01,5.340000000000000000e+02
-2.494656644640645027e+01,1.939286550804399667e+01,4.627468317053171631e+01,8.795225183315960749e+01,8.391859340989867633e+00,-9.998665568558863015e+00,4.549958459958997992e+01,7.594792824199475945e+01,9.523238182067871094e+00,-1.032640218734741211e+00,-1.912296712398529053e-01,5.350000000000000000e+02
-2.301587540046011782e+01,1.929048012234306952e+01,4.684512818301118386e+01,8.795028428483783500e+01,6.757530848137776047e+00,-9.995888160309732484e+00,4.518784675314145716e+01,7.386907693462399038e+01,9.523238182067871094e+00,-1.032640218734741211e+00,-1.912296712398529053e-01,5.360000000000000000e+02
-2.202889484355318928e+01,1.781831071235865238e+01,4.674491646772503373e+01,8.661756288172909990e+01,5.490181188810311141e+00,-9.851566098339844757e+00,4.390909127460054151e+01,7.102777323098234774e+01,9.523238182067871094e+00,-1.032640218734741211e+00,-1.912296712398529053e-01,5.370000000000000000e+02
-2.300354110253601903e+01,1.495831426127870145e+01,4.515053744583337902e+01,8.437984849017720990e+01,4.964267708130137180e+00,-9.492637879880930996e+00,4.224485295537488128e+01,6.798222037075902335e+01,9.523238182067871094e+00,-1.032640218734741211e+00,-1.912296712398529053e-01,5.380000000000000000e+02
-2.580197403729971484e+01,1.111280333779677676e+01,4.196980126212747564e+01,8.195820419901292553e+01,4.780467440780739707e+00,-9.404046200354059692e+00,4.079780201095263692e+01,6.488226617362670368e+01,9.523238182067871094e+00,-1.032640218734741211e+00,-1.912296712398529053e-01,5.390000000000000000e+02
-2.899965946294469177e+01,6.786063133012248727e+00,3.812258676536976054e+01,7.974790556116204243e+01,4.263783613809209783e+00,-1.013775629620977270e+01,3.998756266331747611e+01,6.161933503106138232e+01,9.523238182067871094e+00,-1.032640218734741211e+00,-1.912296712398529053e-01,5.400000000000000000e+02
-3.079490950073341082e+01,2.446260259605423926e+00,3.501024069477989542e+01,7.764592443697983981e+01,3.198254191771866317e+00,-1.167857571945933159e+01,4.006867096912810666e+01,5.827749806396604981e+01,9.523238182067871094e+00,-1.032640218734741211e+00,-1.912296712398529053e-01,5.410000000000000000e+02
-3.028111727566738409e+01,-1.339299466128522909e+00,3.351103513216730789e+01,7.545485230204212712e+01,2.061158461945524323e+00,-1.326023403813451296e+01,4.118422705558805319e+01,5.535419106512972576e+01,9.523238182067871094e+00,-1.032640218734741211e+00,-1.912296712398529053e-01,5.420000000000000000e+02
-2.809209394169783991e+01,-3.845650146927255264e+00,3.329281060812991200e+01,7.333712119130905194e+01,1.474902830844257551e+00,-1.386647994474515144e+01,4.321382514634660765e+01,5.340402240749926932e+01,9.523238182067871094e+00,-1.032640218734741211e+00,-1.912296712398529053e-01,5.430000000000000000e+02
-2.592273355218321740e+01,-4.537255505215398443e+00,3.305112845775056485e+01,7.174149890971420973e+01,1.378231845270420308e+00,-1.304092635744927975e+01,4.550410702974841115e+01,5.239055328875292616e+01,9.523238182067871094e+00,-1.032640218734741211e+00,-1.912296712398529053e-01,5.440000000000000000e+02
-2.530200516515560594e+01,-3.637217157566738024e+00,3.156916591989465815e+01,7.085601441378548770e+01,8.099802267588529503e-01,-1.130636743584000214e+01,4.690453877760774049e+01,5.144242665026195027e+01,9.523238182067871094e+00,-1.032640218734741211e+00,-1.912296712398529053e-01,5.450000000000000000e+02
-2.653427119142816082e+01,-2.294751538433956739e+00,2.880229723394404573e+01,7.026026033796824777e+01,-1.268743923944384733e+00,-9.775704614369715273e+00,4.639835647498875915e+01,4.943978421638803411e+01,9.523238182067871094e+00,-1.032640218734741211e+00,-1.912296712398529053e-01,5.460000000000000000e+02
-2.854830773830053658e+01,-1.941963744286113069e+00,2.608688684949083836e+01,6.930591796020416950e+01,-4.720960410632869753e+00,-9.232418515332938114e+00,4.399969128364318749e+01,4.603263893486109737e+01,9.561484336853027344e+00,-1.070886254310607910e+00,-2.677215635776519775e-01,5.470000000000000000e+02
-2.971673597859899019e+01,-3.233300676767612458e+00,2.520597351194101066e+01,6.792064208841475192e+01,-7.799518877798618632e+00,-9.468024601295837783e+00,4.108874177406960371e+01,4.212526841224917007e+01,9.561484336853027344e+00,-1.070886254310607910e+00,-2.677215635776519775e-01,5.480000000000000000e+02
-2.903342961173893855e+01,-5.503034381074030534e+00,2.695425331249225565e+01,6.692711377613522927e+01,-8.255317436331097269e+00,-9.496706447240285343e+00,3.963485432245579432e+01,3.922909316198820306e+01,9.561484336853027344e+00,-1.070886254310607910e+00,-2.677215635776519775e-01,5.490000000000000000e+02
-2.681266873502863746e+01,-7.300865424441326468e+00,3.034076005203587556e+01,6.736455718307661300e+01,-5.283555823099959525e+00,-8.494848158987224451e+00,4.072825075110449689e+01,3.814236422562771622e+01,9.561484336853027344e+00,-1.070886254310607910e+00,-2.677215635776519775e-01,5.500000000000000000e+02
-2.443341754747143568e+01,-7.595037009650695836e+00,3.314275351940705150e+01,6.935911218324963556e+01,-6.068526275103067746e-01,-6.638025201930759067e+00,4.361565007191074983e+01,3.812863920025210973e+01,9.561484336853027344e+00,-1.070886254310607910e+00,-2.677215635776519775e-01,5.510000000000000000e+02
-2.332817072446960083e+01,-6.587713987547431316e+00,3.346867013222617970e+01,7.168148987155927898e+01,2.489319281959978980e+00,-5.074187224580782640e+00,4.616123681654880784e+01,3.739825807379475009e+01,9.561484336853027344e+00,-1.070886254310607910e+00,-2.677215635776519775e-01,5.520000000000000000e+02
-2.396505612408145680e+01,-5.431846251384740754e+00,3.111361147068691935e+01,7.255860446999486157e+01,1.565934972813920467e+00,-5.043035796210460830e+00,4.645382488500945328e+01,3.453117498807478114e+01,9.561484336853027344e+00,-1.070886254310607910e+00,-2.677215635776519775e-01,5.530000000000000000e+02
-2.558178786627377121e+01,-5.178651348900530138e+00,2.760812736662319367e+01,7.108591167810209299e+01,-3.131621332026952587e+00,-6.932662673588311009e+00,4.423906703783814010e+01,2.960256842764920293e+01,9.561484336853027344e+00,-1.070886254310607910e+00,-2.677215635776519775e-01,5.540000000000000000e+02
-2.684615006340573018e+01,-5.966517947307693248e+00,2.494016588041540672e+01,6.795819439473143575e+01,-9.000490375193294312e+00,-1.007787257842392137e+01,4.101279421823528537e+01,2.406357238562122802e+01,9.561484336853027344e+00,-1.070886254310607910e+00,-2.677215635776519775e-01,5.550000000000000000e+02
-2.690525798076578212e+01,-7.152710924116945534e+00,2.404644979778731795e+01,6.485676008979680773e+01,-1.324249825595688890e+01,-1.338654584605137643e+01,3.878921208160863898e+01,1.956714222222308308e+01,9.561484336853027344e+00,-1.070886254310607910e+00,-2.677215635776519775e-01,5.560000000000000000e+02
-2.597855427030663122e+01,-8.134053390193912492e+00,2.432306617515132530e+01,6.309178912287734420e+01,-1.490097345329741074e+01,-1.614534703255412751e+01,3.864851988404006988e+01,1.683253237942062697e+01,9.561484336853027344e+00,-1.070886254310607910e+00,-2.677215635776519775e-01,5.570000000000000000e+02
-2.504131504369252070e+01,-8.962939404121243570e+00,2.446324875607842841e+01,6.273828676954235561e+01,-1.504156609342680895e+01,-1.827804888496029889e+01,4.021504003254085546e+01,1.549127831179430359e+01,9.561484336853027344e+00,-1.070886254310607910e+00,-2.677215635776519775e-01,5.580000000000000000e+02
-2.492466956420139468e+01,-1.014967792957213533e+01,2.374405209122323868e+01,6.293644005373334949e+01,-1.520115411728693289e+01,-1.995293224055239989e+01,4.227799915529794816e+01,1.485067181706926931e+01,9.561484336853027344e+00,-1.070886254310607910e+00,-2.677215635776519775e-01,5.590000000000000000e+02
-2.563205177901181742e+01,-1.191817702555999858e+01,2.258111285494123877e+01,6.290449695169809274e+01,-1.580582176238931424e+01,-2.106423048406577436e+01,4.382300486125495809e+01,1.470626564415215398e+01,9.561484336853027344e+00,-1.070886254310607910e+00,-2.677215635776519775e-01,5.600000000000000000e+02
-2.643028280693943088e+01,-1.373712355307725375e+01,2.195390506538933550e+01,6.263791680269605422e+01,-1.605070145952868188e+01,-2.115680726260325173e+01,4.458829679002246849e+01,1.545214539224161854e+01,9.561484336853027344e+00,-1.070886254310607910e+00,-2.677215635776519775e-01,5.610000000000000000e+02
-2.655629198260521662e+01,-1.465370576612622244e+01,2.239399002109803405e+01,6.273402269017788058e+01,-1.510567047261793050e+01,-1.985075243149549351e+01,4.488457113284675870e+01,1.751197990047967323e+01,9.561484336853027344e+00,-1.070886254310607910e+00,-2.677215635776519775e-01,5.620000000000000000e+02
-2.585643406899362162e+01,-1.413848951997806580e+01,2.356020935862579790e+01,6.368432612220567535e+01,-1.319784911417445983e+01,-1.732236806197943224e+01,4.508645569532109221e+01,2.074715156959155138e+01,9.561484336853027344e+00,-1.070886254310607910e+00,-2.677215635776519775e-01,5.630000000000000000e+02
-2.480007265890162671e+01,-1.264280969943138189e+01,2.473498078017473745e+01,6.539052856556736515e+01,-1.141831613837166515e+01,-1.436957536570116645e+01,4.531956358252318751e+01,2.440738002362559200e+01,9.561484336853027344e+00,-1.070886254310607910e+00,-2.677215635776519775e-01,5.640000000000000000e+02
-2.394412372682927526e+01,-1.131809659167174686e+01,2.561646490958264621e+01,6.729911292486394814e+01,-1.055248252913952456e+01,-1.197986383227544138e+01,4.551456054457958089e+01,2.757986942761090177e+01,9.561484336853027344e+00,-1.070886254310607910e+00,-2.677215635776519775e-01,5.650000000000000000e+02
-2.342932552084494091e+01,-1.110679354433341359e+01,2.652643383919985354e+01,6.889315295732012601e+01,-1.026472479021322215e+01,-1.075871379780255666e+01,4.560964950717061583e+01,2.963679329681144736e+01,9.561484336853027344e+00,-1.070886254310607910e+00,-2.677215635776519775e-01,5.660000000000000000e+02
-2.297210594675925677e+01,-1.195842827290653076e+01,2.782721131213202170e+01,7.002473460872170108e+01,-9.534427451832016231e+00,-1.065865499171377451e+01,4.562825308204264729e+01,3.030982824338752835e+01,9.561484336853027344e+00,-1.070886254310607910e+00,-2.677215635776519775e-01,5.670000000000000000e+02
-2.228789896728267195e+01,-1.281978811036242405e+01,2.920705351797005278e+01,7.083628384811345313e+01,-7.889388834579222021e+00,-1.118119632723937684e+01,4.557060456290491857e+01,2.948906380293374241e+01,9.561484336853027344e+00,-1.070886254310607910e+00,-2.677215635776519775e-01,5.680000000000000000e+02
-2.146052279236209870e+01,-1.242898734373375191e+01,2.966201193282176973e+01,7.144483001128355681e+01,-6.133763612546317745e+00,-1.184879895362973912e+01,4.527274084224154649e+01,2.713158901348469954e+01,9.561484336853027344e+00,-1.070886254310607910e+00,-2.677215635776519775e-01,5.690000000000000000e+02
-2.088963672198588029e+01,-1.032045692659630731e+01,2.828115726977557642e+01,7.173645546507032122e+01,-5.776670600380384712e+00,-1.254145506148051936e+01,4.441867663477205497e+01,2.348278863397354144e+01,9.561484336853027344e+00,-1.070886254310607910e+00,-2.677215635776519775e-01,5.700000000000000000e+02
-2.091616927870745712e+01,-7.288727086790458998e+00,2.511272495890807477e+01,7.144348494858786580e+01,-7.664931802701175911e+00,-1.342227734292282548e+01,4.276311934432123962e+01,1.937071748715970898e+01,9.561484336853027344e+00,-1.070886254310607910e+00,-2.677215635776519775e-01,5.710000000000000000e+02
-2.151585656344468589e+01,-4.943175407861417625e+00,2.127856999643699965e+01,7.041337525513699802e+01,-1.109905677684400871e+01,-1.453957686953071970e+01,4.043433357523645100e+01,1.613968172285422042e+01,9.561484336853027344e+00,-1.070886254310607910e+00,-2.677215635776519775e-01,5.720000000000000000e+02
-2.232185880713041115e+01,-4.642502536427855375e+00,1.821726699835926411e+01,6.884646710384004109e+01,-1.426296805347374175e+01,-1.551944486170032178e+01,3.806019903425294615e+01,1.505189717534994998e+01,9.561484336853027344e+00,-1.070886254310607910e+00,-2.677215635776519775e-01,5.730000000000000000e+02
-2.287062774731020909e+01,-6.550251227297849255e+00,1.675485963450046256e+01,6.730911963679864130e+01,-1.559270165925590845e+01,-1.573496878209152783e+01,3.653088469395515858e+01,1.650267518291730084e+01,9.561484336853027344e+00,-1.070886254310607910e+00,-2.677215635776519775e-01,5.740000000000000000e+02
-2.279399729158285481e+01,-9.483929558449744945e+00,1.680893783815190545e+01,6.647893970807308506e+01,-1.487929860889016709e+01,-1.487499856601971260e+01,3.647537354075393523e+01,1.967121314763244300e+01,9.561484336853027344e+00,-1.070886254310607910e+00,-2.677215635776519775e-01,5.750000000000000000e+02
-2.187019895920457202e+01,-1.168567348947181017e+01,1.784623123414166912e+01,6.675910598317932454e+01,-1.320595229983882746e+01,-1.336933858941483777e+01,3.779309662704872608e+01,2.297125112730645924e+01,9.561484336853027344e+00,-1.070886254310607910e+00,-2.677215635776519775e-01,5.760000000000000000e+02
-2.009960755650899955e+01,-1.198250505859869008e+01,1.946081992663130222e+01,6.801214302339212736e+01,-1.188709169264257071e+01,-1.215523512065556133e+01,3.960364889673837752e+01,2.503906058977918292e+01,9.561484336853027344e+00,-1.070886254310607910e+00,-2.677215635776519775e-01,5.770000000000000000e+02
-1.789628298445677501e+01,-1.051563246333353163e+01,2.143440593382001680e+01,6.962446048392303055e+01,-1.141577701658752630e+01,-1.187207852828942123e+01,4.070906366205781524e+01,2.554001088327822799e+01,9.446745872497558594e+00,-1.070886254310607910e+00,-3.824593424797058105e-01,5.780000000000000000e+02
-1.615464400163000391e+01,-8.540601842631076579e+00,2.335362921299201844e+01,7.090362235140128178e+01,-1.129380777819096693e+01,-1.220790876641694922e+01,4.029500392205773096e+01,2.521922240405365301e+01,9.446745872497558594e+00,-1.070886254310607910e+00,-3.824593424797058105e-01,5.790000000000000000e+02
-1.586867159145731421e+01,-7.490591153871719143e+00,2.445981162590032909e+01,7.153017442971940909e+01,-1.073147303479163384e+01,-1.208564307683445804e+01,3.842153389337181579e+01,2.523004256759486452e+01,9.446745872497558594e+00,-1.070886254310607910e+00,-3.824593424797058105e-01,5.800000000000000000e+02
-1.737413840759109007e+01,-8.011622482654274791e+00,2.418730333545317990e+01,7.169679090909994557e+01,-9.437290405057865428e+00,-1.059648148295855208e+01,3.601292463655408937e+01,2.632587394225265598e+01,9.446745872497558594e+00,-1.070886254310607910e+00,-3.824593424797058105e-01,5.810000000000000000e+02
-1.982543269204870739e+01,-9.633318849775605486e+00,2.296343739564508724e+01,7.181587632167429547e+01,-7.764349854702231823e+00,-7.827353833068627864e+00,3.439440451253904030e+01,2.852848269666719716e+01,9.446745872497558594e+00,-1.070886254310607910e+00,-3.824593424797058105e-01,5.820000000000000000e+02
-2.156017219420209585e+01,-1.121267606775654713e+01,2.230200962777053064e+01,7.206571822145087935e+01,-6.216230725536661339e+00,-4.781908041994029190e+00,3.465025304438859166e+01,3.138380421116198704e+01,9.446745872497558594e+00,-1.070886254310607910e+00,-3.824593424797058105e-01,5.830000000000000000e+02
-2.129009110222614254e+01,-1.174296287715151266e+01,2.373923099101739354e+01,7.220751047026169545e+01,-4.941116207701270469e+00,-2.479907118631672347e+00,3.707539699982044112e+01,3.440854981282609515e+01,9.446745872497558594e+00,-1.070886254310607910e+00,-3.824593424797058105e-01,5.840000000000000000e+02
-1.918357096235013159e+01,-1.094404488101099560e+01,2.738230205633408332e+01,7.185559012315206928e+01,-3.727251028445607517e+00,-1.126951789468876086e+00,4.093899687051816727e+01,3.729159966752195032e+01,9.446745872497558594e+00,-1.070886254310607910e+00,-3.824593424797058105e-01,5.850000000000000000e+02
-1.681503472908661934e+01,-9.313923040435838629e+00,3.148678552034107270e+01,7.092515518213076575e+01,-2.396190048557400587e+00,-1.530235122045269236e-01,4.470490844366759120e+01,3.980060429685727286e+01,9.446745872497558594e+00,-1.070886254310607910e+00,-3.824593424797058105e-01,5.860000000000000000e+02
-1.589794888991491462e+01,-7.708165867317802622e+00,3.370703681617305847e+01,6.979730142398693715e+01,-1.074657873434262001e+00,1.000979050262685632e+00,4.672998159866074275e+01,4.169114957798228716e+01,9.446745872497558594e+00,-1.070886254310607910e+00,-3.824593424797058105e-01,5.870000000000000000e+02
-1.685844066990466672e+01,-6.763775926201560651e+00,3.307273837333013944e+01,6.903372318002584507e+01,-3.217751661213696934e-02,2.231399749336560490e+00,4.618681527586522861e+01,4.284428431774904311e+01,9.446745872497558594e+00,-1.070886254310607910e+00,-3.824593424797058105e-01,5.880000000000000000e+02
-1.852102679580457334e+01,-6.513245037311207852e+00,3.089188194492817274e+01,6.892958669544350414e+01,6.703058124476228841e-01,2.933098188510484761e+00,4.366844232488801936e+01,4.348686588428427058e+01,9.446745872497558594e+00,-1.070886254310607910e+00,-3.824593424797058105e-01,5.890000000000000000e+02
-1.917138790745593724e+01,-6.411273477717259084e+00,2.965470515388915373e+01,6.934287225504886010e+01,1.263934984361185343e+00,2.752513945768441772e+00,4.094566737756940711e+01,4.415010504282327020e+01,9.446745872497558594e+00,-1.070886254310607910e+00,-3.824593424797058105e-01,5.900000000000000000e+02
-1.799886947284358030e+01,-5.781053076178068295e+00,3.087628769925868255e+01,6.992739182876903214e+01,1.996736264451101306e+00,2.070589336668490432e+00,3.987054019519018766e+01,4.526262905297153338e+01,9.446745872497558594e+00,-1.070886254310607910e+00,-3.824593424797058105e-01,5.910000000000000000e+02
-1.564169160665005620e+01,-4.415571344345153193e+00,3.383835382937832037e+01,7.045704847771776258e+01,2.852698075323132798e+00,1.659686416358454153e+00,4.110541594401183829e+01,4.670830523333279416e+01,9.446745872497558594e+00,-1.070886254310607910e+00,-3.824593424797058105e-01,5.920000000000000000e+02
-1.349069926550328091e+01,-2.891212849426665343e+00,3.634847650093797711e+01,7.084004336478756159e+01,3.598780214138969313e+00,1.839965383402159205e+00,4.360653715673652187e+01,4.778024511997864465e+01,9.446745872497558594e+00,-1.070886254310607910e+00,-3.824593424797058105e-01,5.930000000000000000e+02
-1.254993596793065080e+01,-2.254566195908410009e+00,3.672688181747435010e+01,7.084917949486043653e+01,4.064658971503376961e+00,2.017563702076586196e+00,4.531391536230512429e+01,4.762375458302994957e+01,9.446745872497558594e+00,-1.070886254310607910e+00,-3.824593424797058105e-01,5.940000000000000000e+02
-1.289651694508575019e+01,-3.203950965948024532e+00,3.512547702719530207e+01,7.001269749615676119e+01,4.258056804424995789e+00,1.125963318365393206e+00,4.461854915330695803e+01,4.581821913989915629e+01,9.446745872497558594e+00,-1.070886254310607910e+00,-3.824593424797058105e-01,5.950000000000000000e+02
-1.399584904859329981e+01,-5.375995063383015804e+00,3.304652076559614216e+01,6.798701043657638365e+01,4.155684490451676538e+00,-1.414144506314187311e+00,4.155721414133222424e+01,4.263644103389015072e+01,9.446745872497558594e+00,-1.070886254310607910e+00,-3.824593424797058105e-01,5.960000000000000000e+02
-1.527253410822595470e+01,-7.398888323012215551e+00,3.173186220569368743e+01,6.512949287351511884e+01,3.458411205097945640e+00,-5.120150996612210292e+00,3.782237245240685297e+01,3.882202262632563361e+01,9.446745872497558594e+00,-1.070886254310607910e+00,-3.824593424797058105e-01,5.970000000000000000e+02
-1.628596348677820060e+01,-7.812146057287463918e+00,3.110912873931010836e+01,6.259574675370458863e+01,1.727991814888810040e+00,-8.788039427614421584e+00,3.557643210637615994e+01,3.515247098034160445e+01,9.446745872497558594e+00,-1.070886254310607910e+00,-3.824593424797058105e-01,5.980000000000000000e+02
-1.654847178901763982e+01,-6.161499131001619389e+00,3.026398659935875912e+01,6.163523255397740286e+01,-1.088127757921029115e+00,-1.140461310689715901e+01,3.596401942945522023e+01,3.218480378444292000e+01,9.484992027282714844e+00,-1.070886254310607910e+00,-2.677215635776519775e-01,5.990000000000000000e+02
-1.553868972254349501e+01,-3.344187698803580133e+00,2.877897140082131955e+01,6.260497524480160791e+01,-4.247739122070925077e+00,-1.276596673167659901e+01,3.842069556911883410e+01,3.031100177357075154e+01,9.484992027282714844e+00,-1.070886254310607910e+00,-2.677215635776519775e-01,6.000000000000000000e+02
-1.315759900540069793e+01,-8.647685502437525429e-01,2.746480223056278192e+01,6.466607134600053541e+01,-6.394705449132743524e+00,-1.326206003415063606e+01,4.126002827115371474e+01,2.993758088898903225e+01,9.484992027282714844e+00,-1.070886254310607910e+00,-2.677215635776519775e-01,6.010000000000000000e+02
-1.018774651504645590e+01,3.714681929304788355e-01,2.771627688804073841e+01,6.655920834322751034e+01,-6.279101678283041110e+00,-1.312552349783800310e+01,4.302222554858599324e+01,3.151611371852050070e+01,9.484992027282714844e+00,-1.070886254310607910e+00,-2.677215635776519775e-01,6.020000000000000000e+02
-8.080669081558880862e+00,6.752568931915448047e-01,3.017164743802277371e+01,6.777800590294282301e+01,-3.463767707937222440e+00,-1.196844540477104601e+01,4.350727934216774884e+01,3.531516807878142572e+01,9.484992027282714844e+00,-1.070886254310607910e+00,-2.677215635776519775e-01,6.030000000000000000e+02
-8.010544992357608862e+00,1.092420737721113255e+00,3.402654097454069415e+01,6.898418220814346569e+01,1.502816585722030140e+00,-9.133847089680784848e+00,4.370585096196373343e+01,4.108476463935585343e+01,9.484992027282714844e+00,-1.070886254310607910e+00,-2.677215635776519775e-01,6.040000000000000000e+02
-9.940668034825648647e+00,2.341742641889140941e+00,3.763277067855233327e+01,7.121172268741065636e+01,7.464210557463957230e+00,-4.544608756390516646e+00,4.476340297314527561e+01,4.788415613308097818e+01,9.484992027282714844e+00,-1.070886254310607910e+00,-2.677215635776519775e-01,6.050000000000000000e+02
-1.256539679440902546e+01,4.195685238148143981e+00,3.975003868316343869e+01,7.463121264652727405e+01,1.317980320676724659e+01,8.094619944240548648e-01,4.690008803526507108e+01,5.426411731218831846e+01,9.484992027282714844e+00,-1.070886254310607910e+00,-2.677215635776519775e-01,6.060000000000000000e+02
-1.424010965323759592e+01,5.849858843263064045e+00,4.028756513053667732e+01,7.813282414521017927e+01,1.761739689126261510e+01,5.303708855753939133e+00,4.919680961568519706e+01,5.876782514987280592e+01,9.484992027282714844e+00,-1.070886254310607910e+00,-2.677215635776519775e-01,6.070000000000000000e+02
-1.412055505944954348e+01,6.832622724657994695e+00,3.999229985480269534e+01,8.018513904995052144e+01,1.997940177995042177e+01,7.724477814997953828e+00,5.038029700479091844e+01,6.049056359310998232e+01,9.484992027282714844e+00,-1.070886254310607910e+00,-2.677215635776519775e-01,6.080000000000000000e+02
-1.258416693828621646e+01,7.500357471941242693e+00,3.955167970409092959e+01,8.014119641155048157e+01,1.968346533137446386e+01,8.023816670429368969e+00,4.987060050520813093e+01,5.937161742329408298e+01,9.484992027282714844e+00,-1.070886254310607910e+00,-2.677215635776519775e-01,6.090000000000000000e+02
-1.068671080998319667e+01,8.630922377567912918e+00,3.902259852988936473e+01,7.872543997634056723e+01,1.650289382632035995e+01,7.143117470470315311e+00,4.818384794719167985e+01,5.606145538082273561e+01,9.484992027282714844e+00,-1.070886254310607910e+00,-2.677215635776519775e-01,6.100000000000000000e+02
-9.240430665737221716e+00,1.055457766065228498e+01,3.803428143426936003e+01,7.727974964258100954e+01,1.082367861561579048e+01,6.128224883308575954e+00,4.642670468801225070e+01,5.151289356515553663e+01,9.484992027282714844e+00,-1.070886254310607910e+00,-2.677215635776519775e-01,6.110000000000000000e+02
-8.313561245460732607e+00,1.272533934863167815e+01,3.642583177699634689e+01,7.658522945486038225e+01,3.793064256409707014e+00,5.370153616684547160e+00,4.542923778959811898e+01,4.663460951162051060e+01,9.484992027282714844e+00,-1.070886254310607910e+00,-2.677215635776519775e-01,6.120000000000000000e+02
-7.470881963061401621e+00,1.416392421994169126e+01,3.464706199148713495e+01,7.641556537419091910e+01,-2.850452612732624402e+00,4.597635562422510702e+00,4.530788645413485938e+01,4.223228943727372098e+01,9.484992027282714844e+00,-1.070886254310607910e+00,-2.677215635776519775e-01,6.130000000000000000e+02
-6.393202743423898937e+00,1.431771836005646037e+01,3.358048284772667103e+01,7.613028817521626479e+01,-7.294738373377185781e+00,3.479431856292649172e+00,4.572647525027059601e+01,3.911243371861928608e+01,9.484992027282714844e+00,-1.070886254310607910e+00,-2.677215635776519775e-01,6.140000000000000000e+02
-5.272337206373777008e+00,1.348179758154947194e+01,3.397825940163966152e+01,7.553136826201443910e+01,-8.324351592211314710e+00,2.149961399209132651e+00,4.641441910596404341e+01,3.802885391923337011e+01,9.484992027282714844e+00,-1.070886254310607910e+00,-2.677215635776519775e-01,6.150000000000000000e+02
-4.674911941638129065e+00,1.240841622738662409e+01,3.597601803712677793e+01,7.503922697020971100e+01,-5.805452983135182876e+00,1.164622120577405440e+00,4.734354458008965594e+01,3.933760787769278977e+01,9.484992027282714844e+00,-1.070886254310607910e+00,-2.677215635776519775e-01,6.160000000000000000e+02
