F3,F4,C3,C4,P3,P4,Cz,Pz,Accel_x,Accel_y,Accel_z,Sample
-4.456524038687348366e-11,-3.637978807091712952e-11,-5.184119800105690956e-11,-2.455635694786906242e-11,-3.274180926382541656e-11,-4.183675628155469894e-11,-3.819877747446298599e-11,-3.819877747446298599e-11,9.484992027282714844e+00,-1.109132170677185059e+00,-1.912296712398529053e-01,2.010000000000000000e+02
-1.389171924201764341e+01,2.532193871184063028e+00,-5.126623213035600202e+00,1.434218624522145547e+00,-1.988191811915567087e+01,-1.601800230888147780e+01,-3.685678513985294558e+00,-3.519237743441408384e+00,9.484992027282714844e+00,-1.109132170677185059e+00,-1.912296712398529053e-01,2.020000000000000000e+02
-2.466312978627502162e+01,2.227825441930690431e+00,-7.234175725573550153e+00,4.690982314496068284e+00,-3.208153080917418265e+01,-2.702423232798719255e+01,-4.289183787705042050e+00,-6.321335299341626524e+00,9.484992027282714844e+00,-1.109132170677185059e+00,-1.912296712398529053e-01,2.030000000000000000e+02
-3.129207154642153910e+01,-1.855645877813003608e+00,-5.510537034000662970e+00,9.942004311767959734e+00,-3.526554201980979997e+01,-3.239803314244090870e+01,-1.580846188549003273e+00,-7.716349862675997429e+00,9.484992027282714844e+00,-1.109132170677185059e+00,-1.912296712398529053e-01,2.040000000000000000e+02
-3.512580650535437599e+01,-8.359060794054130383e+00,-1.618668174906815693e+00,1.574527058715284511e+01,-3.475154923251193395e+01,-3.593076411655601987e+01,1.839275173440000799e+00,-7.250021273455786286e+00,9.484992027282714844e+00,-1.109132170677185059e+00,-1.912296712398529053e-01,2.050000000000000000e+02
-3.832007447172509274e+01,-1.491004428797805303e+01,2.017172277051940910e+00,2.062345306573206472e+01,-3.689002051735769783e+01,-4.170290573914644483e+01,3.311262022370101477e+00,-4.990542837526845688e+00,9.484992027282714844e+00,-1.109132170677185059e+00,-1.912296712398529053e-01,2.060000000000000000e+02
-4.213404069265016005e+01,-1.992626222412673087e+01,4.128042381448722153e+00,2.443488074187007442e+01,-4.342380552341455768e+01,-5.023905926519364584e+01,2.720879104360392375e+00,-1.594619299710757332e+00,9.484992027282714844e+00,-1.109132170677185059e+00,-1.912296712398529053e-01,2.070000000000000000e+02
-4.659543301513895130e+01,-2.345942809703228704e+01,5.017596878484255285e+00,2.816225581044000137e+01,-5.112799502607049362e+01,-5.872778399947037542e+01,2.340846600749500794e+00,1.993476861684939649e+00,9.523238182067871094e+00,-1.185624003410339355e+00,-2.294756323099136353e-01,2.080000000000000000e+02
-5.137631252987921471e+01,-2.658519828076805425e+01,5.494852646748768166e+00,3.257850658459028637e+01,-5.617781886138072878e+01,-6.457367412301482545e+01,4.264657968687970424e+00,5.010450412423779198e+00,9.523238182067871094e+00,-1.185624003410339355e+00,-2.294756323099136353e-01,2.090000000000000000e+02
-5.654489114824809803e+01,-3.013973684381653584e+01,5.750354094004251237e+00,3.737732312816660851e+01,-5.811622254857957159e+01,-6.821047502526744211e+01,8.155861168948831619e+00,7.143128243683349865e+00,9.523238182067871094e+00,-1.185624003410339355e+00,-2.294756323099136353e-01,2.100000000000000000e+02
-6.234015527680821833e+01,-3.401718195431021741e+01,5.344489931662792515e+00,4.162681041636460577e+01,-5.954532259395091387e+01,-7.234147247766577493e+01,1.150074067577861570e+01,8.439937058757095656e+00,9.523238182067871094e+00,-1.185624003410339355e+00,-2.294756323099136353e-01,2.110000000000000000e+02
-6.849108661236459739e+01,-3.753508923330537073e+01,4.062678394659997139e+00,4.482215068029472604e+01,-6.271130231993993220e+01,-7.885357133881461777e+01,1.191294013770220772e+01,9.049767050958507753e+00,9.523238182067871094e+00,-1.185624003410339355e+00,-2.294756323099136353e-01,2.120000000000000000e+02
-7.416415133261762094e+01,-4.030636980826784566e+01,2.483716524265219050e+00,4.727429035758541431e+01,-6.718132900376986072e+01,-8.695782362704358093e+01,9.148356897444500646e+00,9.087253943889663788e+00,9.523238182067871094e+00,-1.185624003410339355e+00,-2.294756323099136353e-01,2.130000000000000000e+02
-7.876912209679449006e+01,-4.266248421757245524e+01,1.576339991256645590e+00,4.954335659018488514e+01,-7.092621902210794360e+01,-9.437330493277022470e+01,5.098184220883922535e+00,8.681970339178405993e+00,9.523238182067871094e+00,-1.185624003410339355e+00,-2.294756323099136353e-01,2.140000000000000000e+02
-8.270460654384805821e+01,-4.521809947409201413e+01,1.795246320215483138e+00,5.180432310167907417e+01,-7.307471440329391044e+01,-9.991581036857678555e+01,2.145291361250201589e+00,8.034778762175847078e+00,9.523238182067871094e+00,-1.185624003410339355e+00,-2.294756323099136353e-01,2.150000000000000000e+02
-8.708267487760349468e+01,-4.807471135088781011e+01,2.669020465934409003e+00,5.398926836835562426e+01,-7.503897395575131668e+01,-1.045700311055188649e+02,1.599787841311808734e+00,7.367018553593879915e+00,9.523238182067871094e+00,-1.185624003410339355e+00,-2.294756323099136353e-01,2.160000000000000000e+02
-9.263231707901650225e+01,-5.055046696599310962e+01,3.268203239246759040e+00,5.642257353915556450e+01,-7.894821713515193551e+01,-1.101076760200830904e+02,3.363020393913757289e+00,6.861362546713280608e+00,9.523238182067871094e+00,-1.185624003410339355e+00,-2.294756323099136353e-01,2.170000000000000000e+02
-9.893913707421233994e+01,-5.179721970042282919e+01,3.026322941037506098e+00,5.995024333222227142e+01,-8.536134540583316266e+01,-1.170167633642849978e+02,6.555700425506074680e+00,6.747338693813617283e+00,9.523238182067871094e+00,-1.185624003410339355e+00,-2.294756323099136353e-01,2.180000000000000000e+02
-1.048342900607231059e+02,-5.178305037083555362e+01,2.128075811986491317e+00,6.514718988513141085e+01,-9.271367788937186560e+01,-1.240094661987004656e+02,1.014079946042147640e+01,7.434167283515307645e+00,9.523238182067871094e+00,-1.185624003410339355e+00,-2.294756323099136353e-01,2.190000000000000000e+02
-1.095197897238849691e+02,-5.169107489615453233e+01,1.204695388761138020e+00,7.135836742047104053e+01,-9.882357012454031064e+01,-1.294519831492043522e+02,1.305217173740311409e+01,9.374672696683774120e+00,9.523238182067871094e+00,-1.185624003410339355e+00,-2.294756323099136353e-01,2.200000000000000000e+02
-1.132451107526985652e+02,-5.321386630828328634e+01,7.480410400194159593e-01,7.672551567598475231e+01,-1.026858215394850049e+02,-1.330426753338488197e+02,1.419927467348134087e+01,1.257750873143322679e+01,9.523238182067871094e+00,-1.185624003410339355e+00,-2.294756323099136353e-01,2.210000000000000000e+02
-1.168913943421002841e+02,-5.721090459719289356e+01,8.162625382155965781e-01,7.942884838575810136e+01,-1.048675703213893939e+02,-1.360479194542785990e+02,1.285429275891692669e+01,1.620531258084520232e+01,9.523238182067871094e+00,-1.185624003410339355e+00,-2.294756323099136353e-01,2.220000000000000000e+02
-1.209944827353456276e+02,-6.283912967161722918e+01,1.206849953320670465e+00,7.913708438219055097e+01,-1.065319742563542604e+02,-1.400449568237709173e+02,9.322476357875530084e+00,1.886264025210130058e+01,9.523238182067871094e+00,-1.185624003410339355e+00,-2.294756323099136353e-01,2.230000000000000000e+02
-1.252551795636245515e+02,-6.796732565547245031e+01,1.812837627902808890e+00,7.740441856826328149e+01,-1.083440141174514793e+02,-1.455217944819196418e+02,5.219783990030009591e+00,1.960578844753126759e+01,9.523238182067871094e+00,-1.185624003410339355e+00,-2.294756323099136353e-01,2.240000000000000000e+02
-1.289836320592748962e+02,-7.065635056920109491e+01,2.748799441454139014e+00,7.667371302758874663e+01,-1.102273193706241727e+02,-1.515734391325986508e+02,2.812296116519064526e+00,1.884163922014158743e+01,9.523238182067871094e+00,-1.185624003410339355e+00,-2.294756323099136353e-01,2.250000000000000000e+02
-1.319210391316992173e+02,-7.058411615438126319e+01,4.093299147127254400e+00,7.868770344043423393e+01,-1.118786802270069529e+02,-1.567484985896153376e+02,3.631841599240033247e+00,1.811611625599198305e+01,9.523238182067871094e+00,-1.185624003410339355e+00,-2.294756323099136353e-01,2.260000000000000000e+02
-1.345593456038459408e+02,-6.930353095819828013e+01,5.498094770287025312e+00,8.348150292415539298e+01,-1.133440904249891901e+02,-1.601658943212132726e+02,7.310370901714122738e+00,1.874198291098946356e+01,9.523238182067871094e+00,-1.185624003410339355e+00,-2.294756323099136353e-01,2.270000000000000000e+02
-1.376767873180688184e+02,-6.916571235439096199e+01,6.105476676114449219e+00,8.953481117041337711e+01,-1.151664255261994185e+02,-1.620410368638267755e+02,1.160150858280485409e+01,2.044659240644523379e+01,9.523238182067871094e+00,-1.185624003410339355e+00,-2.294756323099136353e-01,2.280000000000000000e+02
-1.416173053068569061e+02,-7.177563881686000968e+01,5.014234624894925219e+00,9.481071864323348564e+01,-1.180880494322072991e+02,-1.633904265218379805e+02,1.376820647315616952e+01,2.142313814648514381e+01,9.523238182067871094e+00,-1.185624003410339355e+00,-2.294756323099136353e-01,2.290000000000000000e+02
-1.460455216743548590e+02,-7.712118155484222370e+01,2.028743368740833830e+00,9.793572953731381858e+01,-1.225409845594249418e+02,-1.652796269129994471e+02,1.243572876398138760e+01,1.992781182306316623e+01,9.523238182067871094e+00,-1.185624003410339355e+00,-2.294756323099136353e-01,2.300000000000000000e+02
-1.503824045483634109e+02,-8.388504370283772005e+01,-1.963765464199241251e+00,9.884149005411291000e+01,-1.282376953052398676e+02,-1.681736117851287418e+02,8.522458613952949236e+00,1.600719618168204761e+01,9.523238182067871094e+00,-1.185624003410339355e+00,-2.294756323099136353e-01,2.310000000000000000e+02
-1.544388564708074227e+02,-9.048108404392951343e+01,-5.452220126169777359e+00,9.859397065003850003e+01,-1.341586768586994367e+02,-1.717826896857823158e+02,4.479397596652233915e+00,1.167107252452842658e+01,9.523238182067871094e+00,-1.185624003410339355e+00,-2.294756323099136353e-01,2.320000000000000000e+02
-1.586160145456797181e+02,-9.591558016747512738e+01,-7.363170155735133449e+00,9.859595392730261665e+01,-1.390723646544520307e+02,-1.754633296450319904e+02,2.400288142122917634e+00,9.220749038915528217e+00,9.523238182067871094e+00,-1.185624003410339355e+00,-2.294756323099136353e-01,2.330000000000000000e+02
-1.634688252258397370e+02,-9.995602795087279446e+01,-7.860812180648281355e+00,9.969868996597688238e+01,-1.423066875663671453e+02,-1.788464730662662987e+02,2.542423959557709168e+00,9.249446895049914019e+00,9.523238182067871094e+00,-1.185624003410339355e+00,-2.294756323099136353e-01,2.340000000000000000e+02
-1.690375730015816771e+02,-1.027811662722137953e+02,-8.132032349620203604e+00,1.018016246653332928e+02,-1.441759474927775955e+02,-1.821724943184053700e+02,3.464392376378782501e+00,1.019287745478231955e+01,9.523238182067871094e+00,-1.185624003410339355e+00,-2.294756323099136353e-01,2.350000000000000000e+02
-1.745592973325228741e+02,-1.046117021731029126e+02,-9.308341019265753857e+00,1.041762013613506497e+02,-1.456813078867389777e+02,-1.860337835371428810e+02,3.558292951950534189e+00,9.838228029501806304e+00,9.523238182067871094e+00,-1.185624003410339355e+00,-2.294756323099136353e-01,2.360000000000000000e+02
-1.788580774223196386e+02,-1.056408274161458394e+02,-1.150642252607758564e+01,1.062014868002170260e+02,-1.477523860562196205e+02,-1.907339311404739419e+02,2.539774173649675504e+00,7.318769080418405792e+00,9.523238182067871094e+00,-1.185624003410339355e+00,-2.294756323099136353e-01,2.370000000000000000e+02
-1.811622908765457396e+02,-1.061661707576713525e+02,-1.387287919424807114e+01,1.078867582458069592e+02,-1.507098157912769238e+02,-1.958390039743444504e+02,1.573934647365604178e+00,3.725884088306429476e+00,9.523238182067871094e+00,-1.185624003410339355e+00,-2.294756323099136353e-01,2.380000000000000000e+02
-1.817069302385398260e+02,-1.066460004883601869e+02,-1.551950393330980660e+01,1.097714359660285481e+02,-1.543257446411607816e+02,-2.003503502480589304e+02,2.068854155270855699e+00,9.081366836103370588e-01,9.408499717712402344e+00,-1.147378087043762207e+00,-2.677215635776519775e-01,2.390000000000000000e+02
-1.816276535839347162e+02,-1.075617123724382509e+02,-1.635513494903716492e+01,1.123514844090641418e+02,-1.582043290531305502e+02,-2.033832350735201544e+02,4.394424119735049317e+00,-2.336210518114967272e-01,9.408499717712402344e+00,-1.147378087043762207e+00,-2.677215635776519775e-01,2.400000000000000000e+02
-1.822084764953774538e+02,-1.092014817307835983e+02,-1.696847352850045354e+01,1.155657496959493074e+02,-1.619583171748386121e+02,-2.047929636971721266e+02,7.714082678931390546e+00,-2.969948313107124704e-01,9.408499717712402344e+00,-1.147378087043762207e+00,-2.677215635776519775e-01,2.410000000000000000e+02
-1.840386161385154082e+02,-1.115208183295990239e+02,-1.774343422382071367e+01,1.187868539992232400e+02,-1.650725735957607867e+02,-2.052436064355197232e+02,1.092628594171856093e+01,-4.140195579288956651e-01,9.408499717712402344e+00,-1.147378087043762207e+00,-2.677215635776519775e-01,2.420000000000000000e+02
-1.867194904944917653e+02,-1.141459921144773944e+02,-1.823386018003202480e+01,1.212772506492237881e+02,-1.668779873192038394e+02,-2.057248810045548453e+02,1.363048818021070474e+01,-9.664765363309015811e-01,9.408499717712402344e+00,-1.147378087043762207e+00,-2.677215635776519775e-01,2.430000000000000000e+02
-1.893154560480625150e+02,-1.165093097907447373e+02,-1.755610137922212743e+01,1.226826802668056189e+02,-1.669867910620255316e+02,-2.069739686056163919e+02,1.615089306704703631e+01,-1.370574241760095902e+00,9.408499717712402344e+00,-1.147378087043762207e+00,-2.677215635776519775e-01,2.440000000000000000e+02
-1.911538328381816427e+02,-1.181250661534522806e+02,-1.547457899015989824e+01,1.231611527735576601e+02,-1.658935901166537406e+02,-2.092394292496755952e+02,1.873799465961610622e+01,-1.069260150008631172e+00,9.408499717712402344e+00,-1.147378087043762207e+00,-2.677215635776519775e-01,2.450000000000000000e+02
-1.923189024048342617e+02,-1.189668418781766377e+02,-1.302967057493560787e+01,1.231194607314391760e+02,-1.649963596065858837e+02,-2.124158925126193935e+02,2.091447046293387757e+01,-5.512433010990207549e-01,9.408499717712402344e+00,-1.147378087043762207e+00,-2.677215635776519775e-01,2.460000000000000000e+02
-1.935020939991150044e+02,-1.197185754028723750e+02,-1.195594311418608413e+01,1.228448177952927836e+02,-1.657687142640447746e+02,-2.162876176379413664e+02,2.167978638752401821e+01,-1.215945191385344515e+00,9.408499717712402344e+00,-1.147378087043762207e+00,-2.677215635776519775e-01,2.470000000000000000e+02
-1.954250701297114574e+02,-1.215523719427583274e+02,-1.333019571927934521e+01,1.223433247550938177e+02,-1.687349938339093569e+02,-2.206444876030791420e+02,2.032525581880145182e+01,-4.156501611276780750e+00,9.408499717712402344e+00,-1.147378087043762207e+00,-2.677215635776519775e-01,2.480000000000000000e+02
-1.983359840880980300e+02,-1.253380367307854613e+02,-1.665136917679501494e+01,1.214915994770772159e+02,-1.731634493535721049e+02,-2.252316299475969572e+02,1.703094054132952806e+01,-9.062407986007656291e+00,9.408499717712402344e+00,-1.147378087043762207e+00,-2.677215635776519775e-01,2.490000000000000000e+02
-2.019238837751777282e+02,-1.307520084747711735e+02,-2.019496702219930739e+01,1.203554431086831755e+02,-1.777362024708486388e+02,-2.296758784672119873e+02,1.273523704544049906e+01,-1.431373698965398944e+01,9.408499717712402344e+00,-1.147378087043762207e+00,-2.677215635776519775e-01,2.500000000000000000e+02
-2.056127778506170216e+02,-1.360889291310018052e+02,-2.233756686896595056e+01,1.193975668561838575e+02,-1.815260249576540446e+02,-2.335375403093994464e+02,8.529981111984398012e+00,-1.815069861849315203e+01,9.408499717712402344e+00,-1.147378087043762207e+00,-2.677215635776519775e-01,2.510000000000000000e+02
-2.089500175215762283e+02,-1.391989772025731327e+02,-2.272463038021987813e+01,1.193438528885471897e+02,-1.843895039277890646e+02,-2.364961924116742011e+02,5.179389050271765882e+00,-1.981619042527836427e+01,9.408499717712402344e+00,-1.147378087043762207e+00,-2.677215635776519775e-01,2.520000000000000000e+02
-2.118311908095238323e+02,-1.390308330696748271e+02,-2.236166320660368001e+01,1.207381623875958212e+02,-1.865654142255903025e+02,-2.385130452729604258e+02,3.044838332013114268e+00,-1.972466327451456891e+01,9.408499717712402344e+00,-1.147378087043762207e+00,-2.677215635776519775e-01,2.530000000000000000e+02
-2.144909587635906973e+02,-1.365838667731350142e+02,-2.268822494504047427e+01,1.234588211626364682e+02,-1.881148958185385709e+02,-2.398379295209406337e+02,2.182803433153821970e+00,-1.878808995814506488e+01,9.408499717712402344e+00,-1.147378087043762207e+00,-2.677215635776519775e-01,2.540000000000000000e+02
-2.173061441267918781e+02,-1.343765667336460865e+02,-2.448215890285291607e+01,1.265708883395332123e+02,-1.889204411313257879e+02,-2.408851638274541074e+02,2.305608788286008348e+00,-1.780374873540768021e+01,9.408499717712402344e+00,-1.147378087043762207e+00,-2.677215635776519775e-01,2.550000000000000000e+02
-2.204848115962017800e+02,-1.347193195100526282e+02,-2.742533638076383795e+01,1.287158178928084453e+02,-1.892290740425751210e+02,-2.421258712665226085e+02,2.677875797139222414e+00,-1.748423567400232059e+01,9.408499717712402344e+00,-1.147378087043762207e+00,-2.677215635776519775e-01,2.560000000000000000e+02
-2.237872471700466122e+02,-1.381108394107832282e+02,-3.049189899316934316e+01,1.288631467112477367e+02,-1.900192651099982868e+02,-2.440779852974424102e+02,2.315170319433036639e+00,-1.878802243675954742e+01,9.408499717712402344e+00,-1.147378087043762207e+00,-2.677215635776519775e-01,2.570000000000000000e+02
-2.265063523611429446e+02,-1.430150830291518105e+02,-3.268116953843264127e+01,1.269622044116063080e+02,-1.925573377293644626e+02,-2.472659051674741022e+02,6.291912743722605228e-01,-2.274221453563723117e+01,9.408499717712402344e+00,-1.147378087043762207e+00,-2.677215635776519775e-01,2.580000000000000000e+02
-2.278469329991303312e+02,-1.471204173892542713e+02,-3.351874355197924160e+01,1.240574362041284076e+02,-1.973463920431699989e+02,-2.519566043821241692e+02,-1.918095242765957664e+00,-2.951529546729670983e+01,9.408499717712402344e+00,-1.147378087043762207e+00,-2.677215635776519775e-01,2.590000000000000000e+02
-2.275521695295651625e+02,-1.489903042420337442e+02,-3.311504381172699141e+01,1.217768482726505681e+02,-2.034056382323115031e+02,-2.577121166413676292e+02,-3.847927871146112011e+00,-3.753876023485690894e+01,9.484992027282714844e+00,-1.185624003410339355e+00,-3.442134261131286621e-01,2.600000000000000000e+02
-2.262912572956038275e+02,-1.488099002808944533e+02,-3.195489454283733721e+01,1.215094043237031656e+02,-2.086649999956885040e+02,-2.631630764113392615e+02,-3.609460514595866698e+00,-4.376575044151832117e+01,9.484992027282714844e+00,-1.185624003410339355e+00,-3.442134261131286621e-01,2.610000000000000000e+02
-2.253576747548936510e+02,-1.478367747632660212e+02,-3.063867948194638302e+01,1.237462896740853466e+02,-2.112838587780529451e+02,-2.664435049093881389e+02,-8.013040938049016404e-01,-4.525702956001850907e+01,9.484992027282714844e+00,-1.185624003410339355e+00,-3.442134261131286621e-01,2.620000000000000000e+02
-2.257556932966958811e+02,-1.472624789674400745e+02,-2.964601568357238648e+01,1.279417486148718126e+02,-2.108272703439315592e+02,-2.662243060280184181e+02,3.372424287173998891e+00,-4.101888418172893580e+01,9.484992027282714844e+00,-1.185624003410339355e+00,-3.442134261131286621e-01,2.630000000000000000e+02
-2.273689726629669394e+02,-1.475074416793220280e+02,-2.910587147788100992e+01,1.328948598808797215e+02,-2.083241040905863883e+02,-2.626450743328809949e+02,6.907555447319737141e+00,-3.262889213419907719e+01,9.484992027282714844e+00,-1.185624003410339355e+00,-3.442134261131286621e-01,2.640000000000000000e+02
-2.289769786774568274e+02,-1.483384414470724550e+02,-2.867626389562974509e+01,1.373738145420693400e+02,-2.052210172588029309e+02,-2.573438960754060645e+02,8.474946731772433850e+00,-2.312912818374206836e+01,9.484992027282714844e+00,-1.185624003410339355e+00,-3.442134261131286621e-01,2.650000000000000000e+02
-2.292206473984645072e+02,-1.493707046908017446e+02,-2.773183137905448348e+01,1.406300822426057948e+02,-2.022494707408225167e+02,-2.524708352776135598e+02,8.330845906720924177e+00,-1.512632920056830699e+01,9.484992027282714844e+00,-1.185624003410339355e+00,-3.442134261131286621e-01,2.660000000000000000e+02
-2.277492131742308175e+02,-1.503307268313611758e+02,-2.587223070752588683e+01,1.425662865055830935e+02,-1.992522822924076991e+02,-2.494532149820133782e+02,7.893647133081231004e+00,-9.619602024435607746e+00,9.484992027282714844e+00,-1.185624003410339355e+00,-3.442134261131286621e-01,2.670000000000000000e+02
-2.255478797384253085e+02,-1.509383623305136553e+02,-2.340261576666171095e+01,1.435596543090073283e+02,-1.960177128642014850e+02,-2.484792925120327709e+02,8.405017034708635038e+00,-6.274081748663775215e+00,9.484992027282714844e+00,-1.185624003410339355e+00,-3.442134261131286621e-01,2.680000000000000000e+02
-2.241516849440951091e+02,-1.508034488784505811e+02,-2.131600781079896478e+01,1.441020465339329348e+02,-1.931497204356833208e+02,-2.489666949721092806e+02,9.871391876706638868e+00,-4.535682286419387310e+00,9.484992027282714844e+00,-1.185624003410339355e+00,-3.442134261131286621e-01,2.690000000000000000e+02
-2.244624824379130814e+02,-1.496927380126718390e+02,-2.067048385015186795e+01,1.444726300397253453e+02,-1.919680771524376723e+02,-2.503793206504906266e+02,1.116277948000151810e+01,-4.388382372689875410e+00,9.484992027282714844e+00,-1.185624003410339355e+00,-3.442134261131286621e-01,2.700000000000000000e+02
-2.262216015482221110e+02,-1.479725510975708858e+02,-2.181663639817043077e+01,1.446271886589831865e+02,-1.934563785987277242e+02,-2.525610754846868531e+02,1.104816101969709052e+01,-6.149657802941192131e+00,9.484992027282714844e+00,-1.185624003410339355e+00,-3.442134261131286621e-01,2.710000000000000000e+02
-2.285255488599752880e+02,-1.466655049066487209e+02,-2.414718966134523725e+01,1.443363394298114599e+02,-1.973149967414294679e+02,-2.554172556299338339e+02,9.142068634237148217e+00,-9.761664312551829426e+00,9.484992027282714844e+00,-1.185624003410339355e+00,-3.442134261131286621e-01,2.720000000000000000e+02
-2.307281186451911026e+02,-1.468361187129322616e+02,-2.657670226382288092e+01,1.434744381907669322e+02,-2.020902504359380600e+02,-2.585143039782287815e+02,6.008288178902148502e+00,-1.444211450885177328e+01,9.484992027282714844e+00,-1.185624003410339355e+00,-3.442134261131286621e-01,2.730000000000000000e+02
-2.327774376741501783e+02,-1.487003324703010776e+02,-2.830197397492884193e+01,1.422593776462927053e+02,-2.062777253189831299e+02,-2.611926412958073342e+02,2.593907075514380267e+00,-1.904781782960662895e+01,9.484992027282714844e+00,-1.185624003410339355e+00,-3.442134261131286621e-01,2.740000000000000000e+02
-2.347545079970391271e+02,-1.512454484043956882e+02,-2.919481060140924455e+01,1.412409689983210228e+02,-2.093447529624404524e+02,-2.631141575375231696e+02,-2.982967827283573570e-01,-2.272008119247448121e+01,9.484992027282714844e+00,-1.185624003410339355e+00,-3.442134261131286621e-01,2.750000000000000000e+02
-2.363028945622154424e+02,-1.528115130194597668e+02,-2.958823956446417469e+01,1.409878166154787777e+02,-2.117465235963712757e+02,-2.646154481539697372e+02,-2.092236662384493684e+00,-2.517501069961076610e+01,9.484992027282714844e+00,-1.185624003410339355e+00,-3.442134261131286621e-01,2.760000000000000000e+02
-2.367491555338961007e+02,-1.522550647250993734e+02,-2.982157361952386054e+01,1.416662865670464271e+02,-2.140686020249006560e+02,-2.664092781260187621e+02,-2.337364854533916514e+00,-2.647321439318648117e+01,9.484992027282714844e+00,-1.185624003410339355e+00,-3.442134261131286621e-01,2.770000000000000000e+02
-2.358760434991302191e+02,-1.497955249622149267e+02,-3.002456871998060706e+01,1.428358170072381199e+02,-2.162653662355754705e+02,-2.688820368540666550e+02,-8.721387509904161561e-01,-2.667027147797114139e+01,9.484992027282714844e+00,-1.185624003410339355e+00,-3.442134261131286621e-01,2.780000000000000000e+02
-2.344367982059427504e+02,-1.468637149633592571e+02,-3.018259035048458827e+01,1.436943104387089534e+02,-2.177149427973104139e+02,-2.716776091274668943e+02,1.844943935450601202e+00,-2.574760359529489051e+01,9.484992027282714844e+00,-1.185624003410339355e+00,-3.442134261131286621e-01,2.790000000000000000e+02
-2.336454519965017198e+02,-1.450709821813743474e+02,-3.016291652863696982e+01,1.436709007116332941e+02,-2.178527999087079934e+02,-2.739489110568142678e+02,4.819524291900052049e+00,-2.377498509009535610e+01,9.484992027282714844e+00,-1.185624003410339355e+00,-3.442134261131286621e-01,2.800000000000000000e+02
-2.339939286013935771e+02,-1.451170387875351935e+02,-2.958123633428726862e+01,1.429148315686998103e+02,-2.165997696511620916e+02,-2.750006622803463188e+02,7.248429163219952898e+00,-2.098655087011843534e+01,9.484992027282714844e+00,-1.185624003410339355e+00,-3.442134261131286621e-01,2.810000000000000000e+02
-2.346115150911947467e+02,-1.464422459010174862e+02,-2.782266543730270314e+01,1.422526065581223520e+02,-2.142056263045892592e+02,-2.747196021305516069e+02,9.256389945378032280e+00,-1.762643240154375235e+01,9.484992027282714844e+00,-1.185624003410339355e+00,-3.442134261131286621e-01,2.820000000000000000e+02
-2.339849575731773257e+02,-1.477997061996892398e+02,-2.454140491475186536e+01,1.426002980377024869e+02,-2.109102494870817281e+02,-2.734812740040150629e+02,1.171051374678063439e+01,-1.380193242775635554e+01,9.484992027282714844e+00,-1.185624003410339355e+00,-3.442134261131286621e-01,2.830000000000000000e+02
-2.314698288498093461e+02,-1.482002045936126251e+02,-2.035234349973848111e+01,1.442814352970613072e+02,-2.069965387914397752e+02,-2.717461317325148684e+02,1.503018110537004759e+01,-9.628364632432749204e+00,9.484992027282714844e+00,-1.185624003410339355e+00,-3.442134261131286621e-01,2.840000000000000000e+02
-2.281019451068023045e+02,-1.474785783767830480e+02,-1.691702174113288493e+01,1.468023770151407916e+02,-2.032117136730098537e+02,-2.697763379826004666e+02,1.811646094486332004e+01,-5.572873307253757957e+00,9.484992027282714844e+00,-1.070886254310607910e+00,-2.677215635776519775e-01,2.850000000000000000e+02
-2.257848865953449149e+02,-1.461476052538343993e+02,-1.596635513243688820e+01,1.492383189857605430e+02,-2.008981652109267770e+02,-2.676855031227281643e+02,1.872476264152237491e+01,-2.559427178737905706e+00,9.484992027282714844e+00,-1.070886254310607910e+00,-2.677215635776519775e-01,2.860000000000000000e+02
-2.255585954371993012e+02,-1.448194506215737647e+02,-1.790487897642015014e+01,1.508394666927231356e+02,-2.013659912890630039e+02,-2.656742273526471081e+02,1.530758309309612741e+01,-1.551631791926752157e+00,9.484992027282714844e+00,-1.070886254310607910e+00,-2.677215635776519775e-01,2.870000000000000000e+02
-2.266757355642239418e+02,-1.437669585439380171e+02,-2.133054804103664992e+01,1.513424118126404210e+02,-2.048806693990676422e+02,-2.641544812652230121e+02,8.755389692813423608e+00,-2.871091891648461569e+00,9.484992027282714844e+00,-1.070886254310607910e+00,-2.677215635776519775e-01,2.880000000000000000e+02
-2.274988595429958878e+02,-1.429636600089883132e+02,-2.414320540455901209e+01,1.508343360651570038e+02,-2.101910299730556062e+02,-2.636153318020192273e+02,2.250099219644198456e+00,-5.849062002556138395e+00,9.484992027282714844e+00,-1.070886254310607910e+00,-2.677215635776519775e-01,2.890000000000000000e+02
-2.274187146040237621e+02,-1.424319254526150189e+02,-2.536705644830476558e+01,1.494590714516984917e+02,-2.151308835907859702e+02,-2.643113282702764764e+02,-9.388871435935470799e-01,-9.138406854014192504e+00,9.484992027282714844e+00,-1.070886254310607910e+00,-2.677215635776519775e-01,2.900000000000000000e+02
-2.278604259402650314e+02,-1.424453842136330195e+02,-2.595132795363485911e+01,1.473371848943781970e+02,-2.178436995637720202e+02,-2.660014761753013772e+02,7.165319681212167779e-02,-1.142506289497100624e+01,9.484992027282714844e+00,-1.070886254310607910e+00,-2.677215635776519775e-01,2.910000000000000000e+02
-2.311957030871932375e+02,-1.433120435163340289e+02,-2.767489080294285486e+01,1.447450028423056665e+02,-2.176319357358869411e+02,-2.679506317166783447e+02,3.199336284964147126e+00,-1.195460085283468743e+01,9.484992027282714844e+00,-1.070886254310607910e+00,-2.677215635776519775e-01,2.920000000000000000e+02
-2.383553060204660596e+02,-1.449285523357308421e+02,-3.111202579854898431e+01,1.422706252504251552e+02,-2.148448390286553149e+02,-2.692272616254992954e+02,5.233117740152920305e+00,-1.053165153311715585e+01,9.484992027282714844e+00,-1.070886254310607910e+00,-2.677215635776519775e-01,2.930000000000000000e+02
-2.472872421438378296e+02,-1.465910549880868530e+02,-3.463175701440707144e+01,1.406764236370038361e+02,-2.101613846431143884e+02,-2.691419339139013118e+02,4.445513554805188505e+00,-7.215040927625750555e+00,9.484992027282714844e+00,-1.070886254310607910e+00,-2.677215635776519775e-01,2.940000000000000000e+02
-2.538056922131335114e+02,-1.473737466431767871e+02,-3.548602154312141010e+01,1.405070809491824093e+02,-2.041069320360561505e+02,-2.675656909645313135e+02,1.726986502097588527e+00,-2.196739847252842992e+00,9.484992027282714844e+00,-1.070886254310607910e+00,-2.677215635776519775e-01,2.950000000000000000e+02
-2.543266516675636240e+02,-1.468587326036245031e+02,-3.207064805160746346e+01,1.417347479317461421e+02,-1.972410508122252395e+02,-2.649489999890076888e+02,-5.752823419668402494e-01,3.951226993871614468e+00,9.484992027282714844e+00,-1.070886254310607910e+00,-2.677215635776519775e-01,2.960000000000000000e+02
-2.483537933235312494e+02,-1.456140603694784659e+02,-2.534376095581501431e+01,1.436868936129417307e+02,-1.906453976489231081e+02,-2.620759533700286283e+02,-8.661066746830101692e-01,9.989408221211988348e+00,9.484992027282714844e+00,-1.070886254310607910e+00,-2.677215635776519775e-01,2.970000000000000000e+02
-2.387748167155974670e+02,-1.449482272777546541e+02,-1.818969884800003456e+01,1.452769593597522544e+02,-1.859626354559610490e+02,-2.597408823833885663e+02,4.548933851152696661e-01,1.419433681858947693e+01,9.484992027282714844e+00,-1.070886254310607910e+00,-2.677215635776519775e-01,2.980000000000000000e+02
-2.298241066234035088e+02,-1.460238254496127865e+02,-1.337475952778504507e+01,1.454217969926135083e+02,-1.846805220649875992e+02,-2.585128238367542508e+02,1.641284596495097503e+00,1.515248988906989780e+01,9.484992027282714844e+00,-1.070886254310607910e+00,-2.677215635776519775e-01,2.990000000000000000e+02
-2.243985439955378069e+02,-1.489592189855630977e+02,-1.186952205217642131e+01,1.435243719097277335e+02,-1.871394666991068334e+02,-2.586131300281185759e+02,1.296172066031203940e+00,1.269892918829475548e+01,9.484992027282714844e+00,-1.070886254310607910e+00,-2.677215635776519775e-01,3.000000000000000000e+02
-2.227418387469962227e+02,-1.526003772721822997e+02,-1.274013521599601972e+01,1.398945808236919675e+02,-1.920976706870271755e+02,-2.598330929364822168e+02,-4.908621477774204322e-01,8.283974699918417173e+00,9.484992027282714844e+00,-1.070886254310607910e+00,-2.677215635776519775e-01,3.010000000000000000e+02
-2.232130882942850576e+02,-1.551442006506824782e+02,-1.430481137989374929e+01,1.358719189190701400e+02,-1.972661012598110801e+02,-2.614891239639513287e+02,-2.402571315635100291e+00,4.393035414716109699e+00,9.484992027282714844e+00,-1.070886254310607910e+00,-2.677215635776519775e-01,3.020000000000000000e+02
-2.241789840741747639e+02,-1.552012481399573289e+02,-1.535688039147680684e+01,1.333708262201012076e+02,-2.004680380097952366e+02,-2.625659981436214139e+02,-3.060895493169823567e+00,3.291461919270773251e+00,9.484992027282714844e+00,-1.070886254310607910e+00,-2.677215635776519775e-01,3.030000000000000000e+02
-2.253451623784019375e+02,-1.525952683007712949e+02,-1.558673377758395873e+01,1.338780211263654110e+02,-2.006126506579206534e+02,-2.621287466768169452e+02,-1.956977650076851205e+00,5.870453098953930748e+00,9.484992027282714844e+00,-1.070886254310607910e+00,-2.677215635776519775e-01,3.040000000000000000e+02
-2.275544377403460885e+02,-1.484056216717848429e+02,-1.526845616062917088e+01,1.374692976884593918e+02,-1.978969729099777624e+02,-2.598288366762794794e+02,5.238943478741475701e-01,1.132939423629227349e+01,9.484992027282714844e+00,-1.070886254310607910e+00,-2.677215635776519775e-01,3.050000000000000000e+02
-2.314895617617640937e+02,-1.442932755483802794e+02,-1.481183232288572071e+01,1.426066499464157005e+02,-1.933195713921331844e+02,-2.561569825436868086e+02,3.694119237184736448e+00,1.783548185794847996e+01,9.484992027282714844e+00,-1.070886254310607910e+00,-2.677215635776519775e-01,3.060000000000000000e+02
-2.365586907728190909e+02,-1.415925581229042791e+02,-1.454620670831604912e+01,1.470075451029670148e+02,-1.880390134301583203e+02,-2.522074540570826002e+02,7.053680434342368244e+00,2.362647671615764011e+01,9.484992027282714844e+00,-1.070886254310607910e+00,-2.677215635776519775e-01,3.070000000000000000e+02
-2.409420511980735000e+02,-1.407171191798408927e+02,-1.463505441128438633e+01,1.490314506313634411e+02,-1.830177741374584457e+02,-2.490793080578683885e+02,1.029487582446597571e+01,2.777431237188488922e+01,9.484992027282714844e+00,-1.070886254310607910e+00,-2.677215635776519775e-01,3.080000000000000000e+02
-2.427007248215318214e+02,-1.411435254331083797e+02,-1.495463004139367058e+01,1.485518120525630366e+02,-1.789852226280762579e+02,-2.473299690893304614e+02,1.303150615936351642e+01,3.016234834854685687e+01,9.484992027282714844e+00,-1.070886254310607910e+00,-2.677215635776519775e-01,3.090000000000000000e+02
-2.409923379685285454e+02,-1.418603364340701773e+02,-1.505113816413836503e+01,1.466754187435831227e+02,-1.764737068502431612e+02,-2.468428270474971669e+02,1.468731390510799883e+01,3.090580110494556720e+01,9.484992027282714844e+00,-1.070886254310607910e+00,-2.677215635776519775e-01,3.100000000000000000e+02
-2.364650517387651689e+02,-1.419408979115536340e+02,-1.439558760564159456e+01,1.446531000550933186e+02,-1.757570593397075527e+02,-2.471196086729214585e+02,1.471935790224449647e+01,2.989349604581138919e+01,9.484992027282714844e+00,-1.070886254310607910e+00,-2.677215635776519775e-01,3.110000000000000000e+02
-2.306665145357122810e+02,-1.409222930332505257e+02,-1.285718837942113169e+01,1.429871797611408510e+02,-1.767456501475120376e+02,-2.476856921127175610e+02,1.298965501765053432e+01,2.695905709364672020e+01,9.484992027282714844e+00,-1.147378087043762207e+00,-3.442134261131286621e-01,3.120000000000000000e+02
-2.250697956622916536e+02,-1.388531042655547481e+02,-1.093755510122082342e+01,1.414833485023683579e+02,-1.789556625698662629e+02,-2.482588688141615876e+02,1.000841495554686844e+01,2.253145164800150724e+01,9.484992027282714844e+00,-1.147378087043762207e+00,-3.442134261131286621e-01,3.130000000000000000e+02
-2.204721516932372651e+02,-1.361021061514545636e+02,-9.430145592430221768e+00,1.400350193753936310e+02,-1.815766939011811019e+02,-2.486116489068300552e+02,6.900876646464780606e+00,1.804684200587871601e+01,9.484992027282714844e+00,-1.147378087043762207e+00,-3.442134261131286621e-01,3.140000000000000000e+02
-2.170418043860782973e+02,-1.331245816760258549e+02,-8.718111181533117815e+00,1.392246222077355924e+02,-1.835861321430594444e+02,-2.483539646591468681e+02,5.100187015669007451e+00,1.552805295437963196e+01,9.484992027282714844e+00,-1.147378087043762207e+00,-3.442134261131286621e-01,3.150000000000000000e+02
-2.146920928940139675e+02,-1.303003614815352194e+02,-8.355470834295488203e+00,1.400438820874263683e+02,-1.839476000953869743e+02,-2.469476003320893369e+02,5.823604256377279853e+00,1.645362596021516310e+01,9.484992027282714844e+00,-1.147378087043762207e+00,-3.442134261131286621e-01,3.160000000000000000e+02
-2.133211652811709769e+02,-1.278719772574730769e+02,-7.411940623424357000e+00,1.429459865522779864e+02,-1.819985018418612981e+02,-2.440539032049896377e+02,9.455679904397129576e+00,2.072808938746322838e+01,9.484992027282714844e+00,-1.147378087043762207e+00,-3.442134261131286621e-01,3.170000000000000000e+02
-2.127645337956641924e+02,-1.259546323932497671e+02,-5.340229080874337342e+00,1.471533400691138240e+02,-1.779129757383904007e+02,-2.399587324911169617e+02,1.513752684669589144e+01,2.659944100456448268e+01,9.484992027282714844e+00,-1.147378087043762207e+00,-3.442134261131286621e-01,3.180000000000000000e+02
-2.126915053776967852e+02,-1.245792902539487841e+02,-2.599840065392299948e+00,1.509379654534697011e+02,-1.728501412458726918e+02,-2.356738700541491198e+02,2.091615799704561596e+01,3.164537745238578736e+01,9.484992027282714844e+00,-1.147378087043762207e+00,-3.442134261131286621e-01,3.190000000000000000e+02
-2.126896852248007690e+02,-1.237429647818382819e+02,-4.524781998643447878e-01,1.527063712200349528e+02,-1.684316264469294993e+02,-2.325020740546600564e+02,2.457444282660674162e+01,3.412155508908358570e+01,9.484992027282714844e+00,-1.147378087043762207e+00,-3.442134261131286621e-01,3.200000000000000000e+02
-2.124941820558070731e+02,-1.234432053048855096e+02,-4.741417269951853086e-02,1.519883625136668570e+02,-1.657359235518475771e+02,-2.312807150909920892e+02,2.477860627719155673e+01,3.373997917269741720e+01,9.484992027282714844e+00,-1.147378087043762207e+00,-3.442134261131286621e-01,3.210000000000000000e+02
-2.120827252814965505e+02,-1.236606448096954409e+02,-1.512114894565343093e+00,1.495456124930992701e+02,-1.645711303156955410e+02,-2.318438606217509914e+02,2.182627229265904134e+01,3.147712432814364547e+01,9.484992027282714844e+00,-1.147378087043762207e+00,-3.442134261131286621e-01,3.220000000000000000e+02
-2.114866300489857167e+02,-1.242851925226993899e+02,-3.754450633630426637e+00,1.466387497105142756e+02,-1.637269375171846377e+02,-2.331274947991689714e+02,1.746141227809118845e+01,2.875240270937683817e+01,9.484992027282714844e+00,-1.147378087043762207e+00,-3.442134261131286621e-01,3.230000000000000000e+02
-2.105227282609648682e+02,-1.250502046461158443e+02,-5.132099410460796207e+00,1.441737673838449609e+02,-1.621094350277336389e+02,-2.338704990680995479e+02,1.384872667813885982e+01,2.663132388658448235e+01,9.484992027282714844e+00,-1.147378087043762207e+00,-3.442134261131286621e-01,3.240000000000000000e+02
-2.087975682889169775e+02,-1.255555552129864054e+02,-4.512068311660868858e+00,1.423943203429851110e+02,-1.597970687919970487e+02,-2.333908394285913346e+02,1.239203387204520368e+01,2.547555460356397816e+01,9.484992027282714844e+00,-1.147378087043762207e+00,-3.442134261131286621e-01,3.250000000000000000e+02
-2.060953325119095325e+02,-1.254172564302558612e+02,-2.006760413199799586e+00,1.411481331242449642e+02,-1.580527309856568081e+02,-2.318832629953594733e+02,1.312916852500597997e+01,2.502166571654720428e+01,9.484992027282714844e+00,-1.147378087043762207e+00,-3.442134261131286621e-01,3.260000000000000000e+02
-2.028289594572480610e+02,-1.244652835400522690e+02,1.085884921765227773e+00,1.402429010259763800e+02,-1.582527081629832537e+02,-2.300971716421184965e+02,1.497966024631728033e+01,2.467894348947436356e+01,9.484992027282714844e+00,-1.147378087043762207e+00,-3.442134261131286621e-01,3.270000000000000000e+02
-2.000545077283225055e+02,-1.228198925151015146e+02,3.091459506662886270e+00,1.395198686209246262e+02,-1.606631849766979485e+02,-2.287189577606889088e+02,1.656026004662737705e+01,2.392088243492673882e+01,9.484992027282714844e+00,-1.147378087043762207e+00,-3.442134261131286621e-01,3.280000000000000000e+02
-1.988915112346923024e+02,-1.207570086060063659e+02,2.972339138265169822e+00,1.387533993567571997e+02,-1.641351111848847495e+02,-2.279333926907424939e+02,1.699455474593491999e+01,2.265376102726111185e+01,9.484992027282714844e+00,-1.147378087043762207e+00,-3.442134261131286621e-01,3.290000000000000000e+02
-1.997434323901984499e+02,-1.184723400560216078e+02,8.632828438410342642e-01,1.377129726815460344e+02,-1.669471318404436033e+02,-2.274136928756396401e+02,1.624857208987737067e+01,2.133272341798692651e+01,9.484992027282714844e+00,-1.147378087043762207e+00,-3.442134261131286621e-01,3.300000000000000000e+02
-2.019656488264466816e+02,-1.159916355687220175e+02,-2.241682459119829218e+00,1.364273264441178526e+02,-1.680558549830491302e+02,-2.266629111528101248e+02,1.485914246999004718e+01,2.059488672783538732e+01,9.484992027282714844e+00,-1.147378087043762207e+00,-3.442134261131286621e-01,3.310000000000000000e+02
-2.042765025883844601e+02,-1.133581216343716278e+02,-5.370026620718704180e+00,1.352912560274719453e+02,-1.677634956411409348e+02,-2.254322950539309431e+02,1.331563787774825869e+01,2.056274383695415509e+01,9.484992027282714844e+00,-1.147378087043762207e+00,-3.442134261131286621e-01,3.320000000000000000e+02
-2.055854077430335565e+02,-1.109644043665050503e+02,-8.263696619964093770e+00,1.347116604216910218e+02,-1.673507607374642703e+02,-2.239392143456818758e+02,1.158835861280408608e+01,2.044474098508533189e+01,9.484992027282714844e+00,-1.147378087043762207e+00,-3.442134261131286621e-01,3.330000000000000000e+02
-2.055667988394604890e+02,-1.096625712677946467e+02,-1.125898901584764644e+01,1.345541638363572474e+02,-1.680164024368432365e+02,-2.227373573344993929e+02,9.214483683091430066e+00,1.903908434000788930e+01,9.484992027282714844e+00,-1.147378087043762207e+00,-3.442134261131286621e-01,3.340000000000000000e+02
-2.045797081507012081e+02,-1.103889920474249493e+02,-1.445901779034954870e+01,1.340388575260349171e+02,-1.698936373721111295e+02,-2.222926442756935330e+02,5.937497431928704827e+00,1.597048028856272595e+01,9.484992027282714844e+00,-1.147378087043762207e+00,-3.442134261131286621e-01,3.350000000000000000e+02
-2.031322783817663549e+02,-1.134531926211202517e+02,-1.703181560253187854e+01,1.323921486950582675e+02,-1.717927620508088467e+02,-2.225348238390462257e+02,2.364920237167098094e+00,1.259792504998904406e+01,9.484992027282714844e+00,-1.147378087043762207e+00,-3.442134261131286621e-01,3.360000000000000000e+02
-2.014569890895227218e+02,-1.180091703319632188e+02,-1.746102958911444603e+01,1.297663740241225696e+02,-1.718528240560272025e+02,-2.227475740105294335e+02,-3.977345802957188425e-02,1.151121921037679385e+01,9.484992027282714844e+00,-1.147378087043762207e+00,-3.442134261131286621e-01,3.370000000000000000e+02
-1.995419416541125202e+02,-1.222096879740207669e+02,-1.470148638390537599e+01,1.275003921235827420e+02,-1.687255467116407317e+02,-2.219671741617260068e+02,1.819176584554043075e-01,1.467627680897965092e+01,9.484992027282714844e+00,-1.147378087043762207e+00,-3.442134261131286621e-01,3.380000000000000000e+02
-1.974609117940067335e+02,-1.240896997133856985e+02,-9.271159376250011519e+00,1.272963673807701070e+02,-1.625569082759643607e+02,-2.196482119321185564e+02,3.360423755636702481e+00,2.166999376225430751e+01,9.484992027282714844e+00,-1.147378087043762207e+00,-3.442134261131286621e-01,3.390000000000000000e+02
-1.955696820189573373e+02,-1.226537140080363315e+02,-3.244608972051651108e+00,1.299058997012984946e+02,-1.550676881278507153e+02,-2.160664427229144167e+02,8.256809416294345283e+00,2.962928973458315340e+01,9.484992027282714844e+00,-1.147378087043762207e+00,-3.442134261131286621e-01,3.400000000000000000e+02
-1.943312679648926178e+02,-1.184357452127584338e+02,9.608904262480564284e-01,1.344515372972273326e+02,-1.485791168394448505e+02,-2.120958232123657581e+02,1.276096962128531231e+01,3.515853181319482701e+01,9.484992027282714844e+00,-1.147378087043762207e+00,-3.442134261131286621e-01,3.410000000000000000e+02
-1.939556492309716305e+02,-1.131638772505898487e+02,2.042767910729480718e+00,1.389812871338142486e+02,-1.446069188510863341e+02,-2.085553925026329125e+02,1.522842549759729991e+01,3.668913643485029752e+01,9.484992027282714844e+00,-1.147378087043762207e+00,-3.442134261131286621e-01,3.420000000000000000e+02
-1.942262679287267702e+02,-1.087835951808024220e+02,3.810918096555724333e-01,1.417613108544953775e+02,-1.430379705858731541e+02,-2.057174419367966038e+02,1.541495590828321838e+01,3.533224960322525021e+01,9.523238182067871094e+00,-1.109132170677185059e+00,-3.442134261131286621e-01,3.430000000000000000e+02
-1.946692828546113105e+02,-1.064922317927479298e+02,-2.569372644445934384e+00,1.422203949954232485e+02,-1.424989227250840713e+02,-2.033951563237219489e+02,1.435352233015578349e+01,3.360752261111383632e+01,9.523238182067871094e+00,-1.109132170677185059e+00,-3.442134261131286621e-01,3.440000000000000000e+02
-1.948657995727068055e+02,-1.063359595343482624e+02,-5.344718264701896260e+00,1.408765776122036186e+02,-1.415532408923128287e+02,-2.014322924090183733e+02,1.343036689818359264e+01,3.331659550688084437e+01,9.523238182067871094e+00,-1.109132170677185059e+00,-3.442134261131286621e-01,3.450000000000000000e+02
-1.945977070599792569e+02,-1.074499122263216577e+02,-7.062571942901172406e+00,1.385623703911610392e+02,-1.396754220713534096e+02,-2.000035326706092746e+02,1.349798825251718881e+01,3.446527117255311623e+01,9.523238182067871094e+00,-1.109132170677185059e+00,-3.442134261131286621e-01,3.460000000000000000e+02
-1.937553505821392719e+02,-1.086301212910385630e+02,-7.310223203030091099e+00,1.358167958833553257e+02,-1.372371721724530289e+02,-1.993657352125439957e+02,1.461925344254996162e+01,3.597013586120226591e+01,9.523238182067871094e+00,-1.109132170677185059e+00,-3.442134261131286621e-01,3.470000000000000000e+02
-1.922189967676069955e+02,-1.088701435494343741e+02,-5.846399523270520149e+00,1.329354041462838723e+02,-1.346892414363483113e+02,-1.993294914956604771e+02,1.636898232523117258e+01,3.715440259398098988e+01,9.523238182067871094e+00,-1.109132170677185059e+00,-3.442134261131286621e-01,3.480000000000000000e+02
-1.899300058663878872e+02,-1.076819692719673185e+02,-2.655355130022940102e+00,1.303830350147325134e+02,-1.318771453998701872e+02,-1.990861055583209236e+02,1.821326376298839023e+01,3.843098943565757963e+01,9.523238182067871094e+00,-1.109132170677185059e+00,-3.442134261131286621e-01,3.490000000000000000e+02
-1.871092795937620394e+02,-1.052072193573867480e+02,1.712867069045159951e+00,1.289010678008710329e+02,-1.282341442850481599e+02,-1.977077413835490916e+02,1.966118241244976161e+01,4.057542720898265998e+01,9.523238182067871094e+00,-1.109132170677185059e+00,-3.442134261131286621e-01,3.500000000000000000e+02
-1.843525457958398874e+02,-1.021364100047611601e+02,6.034404047848170194e+00,1.290561828971674458e+02,-1.236534211022940326e+02,-1.949410253164419373e+02,2.028478228249014137e+01,4.350413834443133965e+01,9.523238182067871094e+00,-1.109132170677185059e+00,-3.442134261131286621e-01,3.510000000000000000e+02
-1.823990343549122599e+02,-9.941520370720490973e+01,8.868049606557406150e+00,1.306530681131389429e+02,-1.190979937400238668e+02,-1.915516620389125819e+02,1.982486445903964523e+01,4.594207875250822326e+01,9.523238182067871094e+00,-1.109132170677185059e+00,-3.442134261131286621e-01,3.520000000000000000e+02
-1.816781607649209036e+02,-9.781070140795327461e+01,9.286855211690294709e+00,1.326413267969660410e+02,-1.162112054930948943e+02,-1.888375858156950926e+02,1.835745348954810652e+01,4.635746675319137466e+01,9.523238182067871094e+00,-1.109132170677185059e+00,-3.442134261131286621e-01,3.530000000000000000e+02
-1.819927498970673696e+02,-9.756046915099705075e+01,7.281867451730022367e+00,1.336849687513783920e+02,-1.161588163613346296e+02,-1.876947294557953683e+02,1.627617365407195393e+01,4.422249432582975714e+01,9.523238182067871094e+00,-1.109132170677185059e+00,-3.442134261131286621e-01,3.540000000000000000e+02
-1.826370696423355184e+02,-9.832488816487716576e+01,3.574573405037426710e+00,1.329467198293968977e+02,-1.187110123463039599e+02,-1.880213861437773630e+02,1.399343168298196360e+01,4.038157678222296454e+01,9.523238182067871094e+00,-1.109132170677185059e+00,-3.442134261131286621e-01,3.550000000000000000e+02
-1.829008488816430145e+02,-9.946092714493488529e+01,-8.671759365847719891e-01,1.304703566610851340e+02,-1.223867413710106575e+02,-1.889380069124158581e+02,1.160685806204855908e+01,3.625656018706126815e+01,9.523238182067871094e+00,-1.109132170677185059e+00,-3.442134261131286621e-01,3.560000000000000000e+02
-1.825550462893656913e+02,-1.003703421367517876e+02,-5.128806998003710760e+00,1.269781268212777832e+02,-1.255063931652584870e+02,-1.895647382166278021e+02,8.911892267508392251e+00,3.277258462700706332e+01,9.523238182067871094e+00,-1.109132170677185059e+00,-3.442134261131286621e-01,3.570000000000000000e+02
-1.819368612438702257e+02,-1.006469791335230184e+02,-8.354979938798351213e+00,1.234082477396816557e+02,-1.271927864205686092e+02,-1.896175324530340731e+02,5.824524612800814793e+00,3.004083536636085228e+01,9.523238182067871094e+00,-1.109132170677185059e+00,-3.442134261131286621e-01,3.580000000000000000e+02
-1.815778689274934550e+02,-9.999005790284672912e+01,-9.751826075401368144e+00,1.206053587257681556e+02,-1.274832044948448129e+02,-1.893162113732394118e+02,2.823546046128512899e+00,2.793237660700788183e+01,9.523238182067871094e+00,-1.109132170677185059e+00,-3.442134261131286621e-01,3.590000000000000000e+02
-1.816755455020220325e+02,-9.812944587168249200e+01,-8.835253379918867722e+00,1.192336802374825311e+02,-1.266199941400384432e+02,-1.887824509534136723e+02,9.359404048791475361e-01,2.675866952750857308e+01,9.523238182067871094e+00,-1.109132170677185059e+00,-3.442134261131286621e-01,3.600000000000000000e+02
-1.818428067207007643e+02,-9.498492166164123773e+01,-5.774515854193850828e+00,1.196827616874154501e+02,-1.243854497237289252e+02,-1.875919192938413289e+02,1.179588963088463061e+00,2.726553347240678704e+01,9.523238182067871094e+00,-1.109132170677185059e+00,-3.442134261131286621e-01,3.610000000000000000e+02
-1.813501978022600269e+02,-9.096750002564499482e+01,-1.449162305574191123e+00,1.218273521400610662e+02,-1.202531542165756946e+02,-1.850016180031079784e+02,3.854281792172969290e+00,2.992944478528329455e+01,9.523238182067871094e+00,-1.109132170677185059e+00,-3.442134261131286621e-01,3.620000000000000000e+02
-1.796588700102797702e+02,-8.706321930711465029e+01,2.962765451191671673e+00,1.248744687972900920e+02,-1.142050429244354746e+02,-1.806812508943546618e+02,8.237322331528048380e+00,3.432007560695228676e+01,9.523238182067871094e+00,-1.109132170677185059e+00,-3.442134261131286621e-01,3.630000000000000000e+02
-1.768199822357448738e+02,-8.444771105513063958e+01,6.578455112558003748e+00,1.276218131598377568e+02,-1.073017035207174104e+02,-1.752390534394521637e+02,1.291343703703068968e+01,3.921120628901462624e+01,9.408499717712402344e+00,-1.109132170677185059e+00,-3.442134261131286621e-01,3.640000000000000000e+02
-1.734490617665114769e+02,-8.380725031128076807e+01,9.091408614213833062e+00,1.291009939178402419e+02,-1.013009247126763057e+02,-1.699774092871748508e+02,1.646386651107036414e+01,4.332965825169731033e+01,9.408499717712402344e+00,-1.109132170677185059e+00,-3.442134261131286621e-01,3.650000000000000000e+02
-1.703398170887624019e+02,-8.487336589344704407e+01,1.057064466133215319e+01,1.291271797656909257e+02,-9.757854044102214175e+01,-1.660269042820341383e+02,1.803530600141084506e+01,4.603377962748822938e+01,9.408499717712402344e+00,-1.109132170677185059e+00,-3.442134261131286621e-01,3.660000000000000000e+02
-1.680654376517245510e+02,-8.656192122641164133e+01,1.107416767530276047e+01,1.282397883985722729e+02,-9.633954527295372827e+01,-1.636363767749153340e+02,1.751618860791904808e+01,4.736388344625538593e+01,9.408499717712402344e+00,-1.109132170677185059e+00,-3.442134261131286621e-01,3.670000000000000000e+02
-1.668435161730747041e+02,-8.762649979529669508e+01,1.050629143042328906e+01,1.270825995325690201e+02,-9.681231715960393558e+01,-1.622407446235947646e+02,1.540066747083392329e+01,4.760966312705227210e+01,9.408499717712402344e+00,-1.109132170677185059e+00,-3.442134261131286621e-01,3.680000000000000000e+02
-1.666605892043962740e+02,-8.733175516150959083e+01,8.831071329211681586e+00,1.258398918235466226e+02,-9.812280044356839426e+01,-1.611744185137781642e+02,1.256352555914963887e+01,4.699300180223144707e+01,9.408499717712402344e+00,-1.109132170677185059e+00,-3.442134261131286621e-01,3.690000000000000000e+02
-1.674117716606065187e+02,-8.570066057858366548e+01,6.353222801818446897e+00,1.242788783797450378e+02,-9.989657076753519505e+01,-1.602890164929394814e+02,1.004206046835497546e+01,4.579320524809827475e+01,9.408499717712402344e+00,-1.109132170677185059e+00,-3.442134261131286621e-01,3.700000000000000000e+02
-1.688747425405367721e+02,-8.328011033310690436e+01,3.708638209574928624e+00,1.223011562179619887e+02,-1.020419410278655050e+02,-1.598822596898337451e+02,8.741168652725264110e+00,4.461687536962972445e+01,9.408499717712402344e+00,-1.109132170677185059e+00,-3.442134261131286621e-01,3.710000000000000000e+02
-1.705841688534676450e+02,-8.072257704543926593e+01,1.544046623487702163e+00,1.203475584973316472e+02,-1.041429383302170208e+02,-1.600974221302546994e+02,9.034208413371743518e+00,4.426332627655028773e+01,9.408499717712402344e+00,-1.109132170677185059e+00,-3.442134261131286621e-01,3.720000000000000000e+02
-1.718300319950183166e+02,-7.851827720326764393e+01,2.001858770545368316e-01,1.191563493484618448e+02,-1.053355847052073386e+02,-1.604998223516624876e+02,1.048365309789141975e+01,4.509549051283806875e+01,9.408499717712402344e+00,-1.109132170677185059e+00,-3.442134261131286621e-01,3.730000000000000000e+02
-1.719081071068771962e+02,-7.695239176615518772e+01,-3.096628103014609223e-01,1.190912700165872593e+02,-1.049477268399723471e+02,-1.603209862989579051e+02,1.200566582987767106e+01,4.649944672190167694e+01,9.408499717712402344e+00,-1.109132170677185059e+00,-3.442134261131286621e-01,3.740000000000000000e+02
-1.704807722683444808e+02,-7.614611353652594516e+01,-7.946163632504976704e-02,1.197436034092163482e+02,-1.032295946665281008e+02,-1.591346533650851143e+02,1.252530698326631864e+01,4.709844508882997616e+01,9.408499717712402344e+00,-1.109132170677185059e+00,-3.442134261131286621e-01,3.750000000000000000e+02
-1.677809205809344348e+02,-7.606080056571181558e+01,8.276698644353928103e-01,1.202324911241180416e+02,-1.013115316631392488e+02,-1.572849248536640516e+02,1.169345187631233784e+01,4.572001636250297452e+01,9.408499717712402344e+00,-1.109132170677185059e+00,-3.442134261131286621e-01,3.760000000000000000e+02
-1.644944929369257807e+02,-7.647713432300793102e+01,2.239044591706715437e+00,1.198930829472196820e+02,-1.003276746175083645e+02,-1.556453860060632906e+02,1.005909554234494863e+01,4.231869418689234408e+01,9.408499717712402344e+00,-1.109132170677185059e+00,-3.442134261131286621e-01,3.770000000000000000e+02
-1.614187043141728282e+02,-7.705872816527948999e+01,3.611891008104976208e+00,1.186493105801819183e+02,-1.005697574637742946e+02,-1.549731298774952393e+02,8.490290188096196289e+00,3.796797451912857468e+01,9.408499717712402344e+00,-1.109132170677185059e+00,-3.442134261131286621e-01,3.780000000000000000e+02
-1.591396671510924534e+02,-7.752118204171665639e+01,4.048104259170941077e+00,1.167538710230360266e+02,-1.015113062832404012e+02,-1.554778328828729173e+02,7.330673763805862109e+00,3.389308585894013959e+01,9.408499717712402344e+00,-1.109132170677185059e+00,-3.442134261131286621e-01,3.790000000000000000e+02
-1.578936420468894539e+02,-7.776150903637926604e+01,2.785354257263634281e+00,1.143096344604550723e+02,-1.025722015885442033e+02,-1.569010261741386785e+02,6.106918867941203644e+00,3.048401523481788900e+01,9.408499717712402344e+00,-1.109132170677185059e+00,-3.442134261131286621e-01,3.800000000000000000e+02
-1.576031497846952334e+02,-7.780060952387657380e+01,-1.318454869399374729e-01,1.112123591993554328e+02,-1.036884080117320082e+02,-1.588434046632610261e+02,4.132920755550458125e+00,2.728967834656486957e+01,9.408499717712402344e+00,-1.109132170677185059e+00,-3.442134261131286621e-01,3.810000000000000000e+02
-1.579664432352797121e+02,-7.757044549611828188e+01,-3.599954540913586243e+00,1.076182756406565204e+02,-1.050278514374667793e+02,-1.609104313426414592e+02,1.472226847041838482e+00,2.401452594714214683e+01,9.408499717712402344e+00,-1.109132170677185059e+00,-3.442134261131286621e-01,3.820000000000000000e+02
-1.585233985457080053e+02,-7.677156507414929365e+01,-5.988305895785970279e+00,1.043498607598330636e+02,-1.062456266610856801e+02,-1.625894995508210741e+02,-7.099667369443523057e-01,2.144518545326491221e+01,9.408499717712402344e+00,-1.109132170677185059e+00,-3.442134261131286621e-01,3.830000000000000000e+02
-1.587256897004237999e+02,-7.501617787644840973e+01,-6.191483406141742307e+00,1.026083815247379789e+02,-1.063053549094249774e+02,-1.631928337269800977e+02,-8.900054330924831447e-01,2.118412825374343811e+01,9.408499717712402344e+00,-1.109132170677185059e+00,-3.442134261131286621e-01,3.840000000000000000e+02
-1.580548322783797630e+02,-7.221396461992708282e+01,-4.424262263630225789e+00,1.030788928565866627e+02,-1.043220575091136197e+02,-1.621541848891756672e+02,1.525745890986627273e+00,2.422334272063403660e+01,9.408499717712402344e+00,-1.109132170677185059e+00,-3.442134261131286621e-01,3.850000000000000000e+02
-1.561958007761775207e+02,-6.887951796221250333e+01,-2.100271767343656393e+00,1.052087749607765090e+02,-1.006795735202788364e+02,-1.595300584031033395e+02,5.517843526101614771e+00,2.964682832239213894e+01,9.408499717712402344e+00,-1.109132170677185059e+00,-3.442134261131286621e-01,3.860000000000000000e+02
-1.531981384830901334e+02,-6.602848193661452569e+01,-8.220015643109945813e-01,1.073946053991826375e+02,-9.715909540692382507e+01,-1.562154349259235460e+02,9.060541945303157263e+00,3.484418412791478659e+01,9.408499717712402344e+00,-1.109132170677185059e+00,-3.442134261131286621e-01,3.870000000000000000e+02
-1.495094242132383897e+02,-6.461733538833368584e+01,-1.203772948487312533e+00,1.080482270584873277e+02,-9.564047179078897898e+01,-1.535089210478499808e+02,1.059076914784918699e+01,3.733045278272766154e+01,9.408499717712402344e+00,-1.109132170677185059e+00,-3.442134261131286621e-01,3.880000000000000000e+02
-1.458230893577353982e+02,-6.488136215575559618e+01,-2.418151761153694679e+00,1.067219962218578075e+02,-9.640783291443563030e+01,-1.522392992434065491e+02,1.012353762049883699e+01,3.672437564660958742e+01,9.523238182067871094e+00,-1.185624003410339355e+00,-3.442134261131286621e-01,3.890000000000000000e+02
-1.427905984498790986e+02,-6.607829423227076404e+01,-2.823431955222986289e+00,1.044045669267950416e+02,-9.765116292725861058e+01,-1.521171141488330250e+02,9.101070889316133616e+00,3.513696134363294732e+01,9.523238182067871094e+00,-1.185624003410339355e+00,-3.442134261131286621e-01,3.900000000000000000e+02
-1.407567631876781888e+02,-6.690016222222675424e+01,-1.202392442981590648e+00,1.027893554818624580e+02,-9.677391144904709108e+01,-1.518831654507339408e+02,9.155590652730552392e+00,3.553370541634421897e+01,9.523238182067871094e+00,-1.185624003410339355e+00,-3.442134261131286621e-01,3.910000000000000000e+02
-1.396720687739630193e+02,-6.630172996945884734e+01,2.331142117911667810e+00,1.030990134891694652e+02,-9.247170782890225382e+01,-1.502189861383303651e+02,1.085295889198641817e+01,3.938819465595133806e+01,9.523238182067871094e+00,-1.185624003410339355e+00,-3.442134261131286621e-01,3.920000000000000000e+02
-1.392065138383122758e+02,-6.416296238441577771e+01,6.438134046173217939e+00,1.053014505280307276e+02,-8.578158427565267630e+01,-1.467583980083400093e+02,1.341920023351667624e+01,4.554719152336883781e+01,9.523238182067871094e+00,-1.185624003410339355e+00,-3.442134261131286621e-01,3.930000000000000000e+02
-1.389487539029923937e+02,-6.131619187745241106e+01,9.534221610651911760e+00,1.081761025304001578e+02,-7.921982816270519834e+01,-1.424334307005165101e+02,1.554333991949920346e+01,5.116712944637197324e+01,9.523238182067871094e+00,-1.185624003410339355e+00,-3.442134261131286621e-01,3.940000000000000000e+02
-1.385461520028102314e+02,-5.893922713544361613e+01,1.084696141682820780e+01,1.100807120852809931e+02,-7.482843124014630121e+01,-1.388694222104868459e+02,1.646179376784880333e+01,5.384068253191549047e+01,9.523238182067871094e+00,-1.185624003410339355e+00,-3.442134261131286621e-01,3.950000000000000000e+02
-1.377314149069582072e+02,-5.778025574705793588e+01,1.075183598819762665e+01,1.098811295167806747e+02,-7.285516822179442897e+01,-1.372744943646603133e+02,1.642119874483114472e+01,5.316025630442436523e+01,9.523238182067871094e+00,-1.185624003410339355e+00,-3.442134261131286621e-01,3.960000000000000000e+02
-1.363055534973859722e+02,-5.775764430195272325e+01,1.024650254417338147e+01,1.075192018420029854e+02,-7.207816746807930031e+01,-1.376440121135415211e+02,1.628500098035192423e+01,5.062552314569916234e+01,9.523238182067871094e+00,-1.185624003410339355e+00,-3.442134261131286621e-01,3.970000000000000000e+02
-1.341847345197791128e+02,-5.814985429446323906e+01,1.012282768116210718e+01,1.039648922447358927e+02,-7.120615776002046005e+01,-1.388404982442925757e+02,1.678008980757931567e+01,4.824244799796542793e+01,9.523238182067871094e+00,-1.185624003410339355e+00,-3.442134261131286621e-01,3.980000000000000000e+02
-1.315156970610048575e+02,-5.815094378375010820e+01,1.055309512970779906e+01,1.006427731961898644e+02,-6.990931409265522234e+01,-1.394354285812137277e+02,1.803983801612957905e+01,4.710131062879622732e+01,9.523238182067871094e+00,-1.185624003410339355e+00,-3.442134261131286621e-01,3.990000000000000000e+02
-1.287255231082635873e+02,-5.735733845716822543e+01,1.130989335515710081e+01,9.868003340180985106e+01,-6.862904388347396889e+01,-1.386457773570500649e+02,1.967204341038177517e+01,4.697102619734073414e+01,9.523238182067871094e+00,-1.185624003410339355e+00,-3.442134261131286621e-01,4.000000000000000000e+02
-1.263858366656140788e+02,-5.589815036957679695e+01,1.220773626752702512e+01,9.837923523180052143e+01,-6.766446197295408638e+01,-1.367066821535522649e+02,2.107838440256864487e+01,4.691836555881764070e+01,9.523238182067871094e+00,-1.185624003410339355e+00,-3.442134261131286621e-01,4.010000000000000000e+02
-1.249288584623513998e+02,-5.422639879885082337e+01,1.323113046371736345e+01,9.917765733636315417e+01,-6.670277532357658856e+01,-1.345325791092086547e+02,2.168395548356329527e+01,4.618612603158135244e+01,9.523238182067871094e+00,-1.185624003410339355e+00,-3.442134261131286621e-01,4.020000000000000000e+02
-1.243981845006733238e+02,-5.279449953401240236e+01,1.427311651742547838e+01,1.000759495146699010e+02,-6.528965692566953294e+01,-1.330275687993207612e+02,2.104196329431715640e+01,4.463593564085863363e+01,9.523238182067871094e+00,-1.185624003410339355e+00,-3.442134261131286621e-01,4.030000000000000000e+02
-1.244135618943998907e+02,-5.181144955783247497e+01,1.490199076819385482e+01,1.002515414051672451e+02,-6.358536503628192804e+01,-1.325492740582076294e+02,1.899902033723492423e+01,4.263184023936400990e+01,9.523238182067871094e+00,-1.185624003410339355e+00,-3.442134261131286621e-01,4.040000000000000000e+02
-1.243773631234666937e+02,-5.118413334342903909e+01,1.455596996420945288e+01,9.946922591226302757e+01,-6.241234559201393495e+01,-1.328094350483261223e+02,1.593736364607934775e+01,4.068373796508763007e+01,9.523238182067871094e+00,-1.185624003410339355e+00,-3.442134261131286621e-01,4.050000000000000000e+02
-1.237962814053303191e+02,-5.064570081551732983e+01,1.305618309624856010e+01,9.806568770722651607e+01,-6.244926363793274504e+01,-1.331599213120066452e+02,1.279010105884754012e+01,3.917019707394524630e+01,9.523238182067871094e+00,-1.185624003410339355e+00,-3.442134261131286621e-01,4.060000000000000000e+02
-1.225497918331213896e+02,-4.999333788956232638e+01,1.089066292225788857e+01,9.658384051759321665e+01,-6.348428152878159381e+01,-1.330321101823965364e+02,1.056665301195062057e+01,3.820256165252385472e+01,9.523238182067871094e+00,-1.185624003410339355e+00,-3.442134261131286621e-01,4.070000000000000000e+02
-1.209445195930024965e+02,-4.928951810925900645e+01,8.911996987834754691e+00,9.536851599378996980e+01,-6.462012975867946807e+01,-1.322712210459003472e+02,9.624000759181399189e+00,3.758323222565968535e+01,9.523238182067871094e+00,-1.185624003410339355e+00,-3.442134261131286621e-01,4.080000000000000000e+02
-1.195039427869990050e+02,-4.885234082435408709e+01,7.693795998409541426e+00,9.441941083436904592e+01,-6.524898721083309283e+01,-1.311889227495485102e+02,9.326155492760335619e+00,3.689084937712163992e+01,9.523238182067871094e+00,-1.185624003410339355e+00,-3.442134261131286621e-01,4.090000000000000000e+02
-1.185957611589440148e+02,-4.899382746527203381e+01,7.165110942619094203e+00,9.355636966468046012e+01,-6.570489926762274990e+01,-1.303162721367593804e+02,8.531706357265193219e+00,3.574915799668747241e+01,9.523238182067871094e+00,-1.185624003410339355e+00,-3.442134261131286621e-01,4.100000000000000000e+02
-1.181206452019798689e+02,-4.968630949755288384e+01,6.886958035054021821e+00,9.269797871588525595e+01,-6.678577805532995626e+01,-1.300035458480374473e+02,6.613669741926514689e+00,3.419678433429817233e+01,9.523238182067871094e+00,-1.185624003410339355e+00,-3.442134261131286621e-01,4.110000000000000000e+02
-1.175126133220610427e+02,-5.045510302071329534e+01,6.683181749424875306e+00,9.199775369830558702e+01,-6.857442497709962481e+01,-1.301364652782026496e+02,4.128303886854155280e+00,3.288575009343958300e+01,9.523238182067871094e+00,-1.185624003410339355e+00,-3.442134261131286621e-01,4.120000000000000000e+02
-1.161340429421402405e+02,-5.065114589246786636e+01,6.963884096759784370e+00,9.173580255558317731e+01,-6.982973343144522005e+01,-1.301752486918048817e+02,2.480652470712811919e+00,3.283568760167372602e+01,9.523238182067871094e+00,-1.185624003410339355e+00,-3.442134261131286621e-01,4.130000000000000000e+02
-1.138354167454083381e+02,-4.991839035209409303e+01,8.397085691900656457e+00,9.208185175968947078e+01,-6.872247835595635479e+01,-1.294874013380808719e+02,2.834115040765027516e+00,3.479925017345931337e+01,9.523238182067871094e+00,-1.185624003410339355e+00,-3.442134261131286621e-01,4.140000000000000000e+02
-1.112135859593176974e+02,-4.846483720660216932e+01,1.125635604965327730e+01,9.294285050949065408e+01,-6.434317155281314626e+01,-1.277096562218634972e+02,5.209619407458376372e+00,3.866412975765342708e+01,9.523238182067871094e+00,-1.185624003410339355e+00,-3.442134261131286621e-01,4.150000000000000000e+02
-1.092642670263453510e+02,-4.691225329601684280e+01,1.507565618499165794e+01,9.399190957966766291e+01,-5.762492471151927020e+01,-1.248919930253396160e+02,8.524023142753321736e+00,4.336372352046055312e+01,9.446745872497558594e+00,-1.223870038986206055e+00,-2.677215635776519775e-01,4.160000000000000000e+02
-1.086029896158356678e+02,-4.587246366338331427e+01,1.893889051443557037e+01,9.481941213517666256e+01,-5.083102648816384317e+01,-1.213934197270009463e+02,1.145373681828277768e+01,4.744004977629583664e+01,9.446745872497558594e+00,-1.223870038986206055e+00,-2.677215635776519775e-01,4.170000000000000000e+02
-1.088506404458544239e+02,-4.560041678666630105e+01,2.213603384041471145e+01,9.510457178290698721e+01,-4.603178506024687522e+01,-1.176853286372497678e+02,1.332163406288145779e+01,4.991368346155559266e+01,9.446745872497558594e+00,-1.223870038986206055e+00,-2.677215635776519775e-01,4.180000000000000000e+02
-1.087573940305878750e+02,-4.595021107027559992e+01,2.460529394183367913e+01,9.473100815197631164e+01,-4.381920139239809942e+01,-1.142130251184157714e+02,1.430963137273465691e+01,5.084513659480126080e+01,9.446745872497558594e+00,-1.223870038986206055e+00,-2.677215635776519775e-01,4.190000000000000000e+02
-1.070699702742224417e+02,-4.654809377108858826e+01,2.681699151124485070e+01,9.383006923777793418e+01,-4.317349783587815182e+01,-1.113081612229061648e+02,1.499194476848015256e+01,5.117772866665018228e+01,9.446745872497558594e+00,-1.223870038986206055e+00,-2.677215635776519775e-01,4.200000000000000000e+02
-1.035115457097836043e+02,-4.697470315569353261e+01,2.924112769029420633e+01,9.272586508397262151e+01,-4.241861964247982542e+01,-1.091000943937128795e+02,1.572382495481042497e+01,5.194308048889524798e+01,9.446745872497558594e+00,-1.223870038986206055e+00,-2.677215635776519775e-01,4.210000000000000000e+02
-9.909397134795608508e+01,-4.688338647446380492e+01,3.185992250554704697e+01,9.176092205840677707e+01,-4.044404120617582521e+01,-1.074688959006412006e+02,1.638952543272034745e+01,5.339794765109218133e+01,9.446745872497558594e+00,-1.223870038986206055e+00,-2.677215635776519775e-01,4.220000000000000000e+02
-9.547039527923197966e+01,-4.613001448943396099e+01,3.411613398602958114e+01,9.107538219232810661e+01,-3.733729214543018315e+01,-1.061391299264651025e+02,1.659946913889598363e+01,5.477610553133399662e+01,9.446745872497558594e+00,-1.223870038986206055e+00,-2.677215635776519775e-01,4.230000000000000000e+02
-9.379847737974569100e+01,-4.490479737770510837e+01,3.533749660895000488e+01,9.052025139198849502e+01,-3.411184299897149685e+01,-1.048995464378072029e+02,1.608140573384616800e+01,5.491419118093836005e+01,9.446745872497558594e+00,-1.223870038986206055e+00,-2.677215635776519775e-01,4.240000000000000000e+02
-9.398874951476727801e+01,-4.369515307836400098e+01,3.530059742296725744e+01,8.982027527598847882e+01,-3.185624891184352236e+01,-1.037643718919075582e+02,1.496571702935898429e+01,5.328077425966966985e+01,9.446745872497558594e+00,-1.223870038986206055e+00,-2.677215635776519775e-01,4.250000000000000000e+02
-9.490122213247559557e+01,-4.297125550152350115e+01,3.447012519388022156e+01,8.885424600163696596e+01,-3.097482145778030826e+01,-1.029148926195211970e+02,1.380052098556825513e+01,5.052586256763333949e+01,9.446745872497558594e+00,-1.223870038986206055e+00,-2.677215635776519775e-01,4.260000000000000000e+02
-9.528489259791604127e+01,-4.280646508070276468e+01,3.366870065770217479e+01,8.776121321538084885e+01,-3.108214345733495065e+01,-1.024876680565389506e+02,1.325980482538170691e+01,4.799660138278341037e+01,9.446745872497558594e+00,-1.223870038986206055e+00,-2.677215635776519775e-01,4.270000000000000000e+02
-9.466683837391383349e+01,-4.286265079533359312e+01,3.338993615688787031e+01,8.670792212067499349e+01,-3.157342554218075747e+01,-1.024577601647770280e+02,1.366244032474742198e+01,4.656212229331276831e+01,9.446745872497558594e+00,-1.223870038986206055e+00,-2.677215635776519775e-01,4.280000000000000000e+02
-9.349203690240165088e+01,-4.286570784242212540e+01,3.332528618724654734e+01,8.553243163915522018e+01,-3.229907803053856696e+01,-1.027377983676524309e+02,1.461561208178500237e+01,4.581210872112569632e+01,9.446745872497558594e+00,-1.223870038986206055e+00,-2.677215635776519775e-01,4.290000000000000000e+02
-9.250480508195028051e+01,-4.310711122630982572e+01,3.257460403134700755e+01,8.370681809427424014e+01,-3.365145082719573111e+01,-1.033191918133402396e+02,1.513420384099936200e+01,4.446558817993854973e+01,9.446745872497558594e+00,-1.223870038986206055e+00,-2.677215635776519775e-01,4.300000000000000000e+02
-9.202764049283518943e+01,-4.431249345643846027e+01,3.042417323438166932e+01,8.081593398014911145e+01,-3.593648762464317770e+01,-1.041984474515465990e+02,1.431114822423069199e+01,4.172875280453899904e+01,9.446745872497558594e+00,-1.223870038986206055e+00,-2.677215635776519775e-01,4.310000000000000000e+02
-9.182616198558048382e+01,-4.679687560966476667e+01,2.701902921477039854e+01,7.719277903037209398e+01,-3.868141104993583212e+01,-1.051106149698280205e+02,1.211201180812895473e+01,3.835126755535111442e+01,9.446745872497558594e+00,-1.223870038986206055e+00,-2.677215635776519775e-01,4.320000000000000000e+02
-9.161814879528765232e+01,-4.971006903981560754e+01,2.329063897740979883e+01,7.405148956324410392e+01,-4.072598651001908365e+01,-1.054024096421176182e+02,9.591557825810923532e+00,3.626348371294807293e+01,9.446745872497558594e+00,-1.223870038986206055e+00,-2.677215635776519775e-01,4.330000000000000000e+02
-9.161134957658714484e+01,-5.132433538964687614e+01,2.017981662123975184e+01,7.280326960839329331e+01,-4.118426846851980372e+01,-1.043412839795596483e+02,8.205810873043446918e+00,3.695618861081402429e+01,9.446745872497558594e+00,-1.223870038986206055e+00,-2.677215635776519775e-01,4.340000000000000000e+02
-9.240986817626730954e+01,-5.038505326649669769e+01,1.790764215048579899e+01,7.399725381695270698e+01,-4.035565008273897547e+01,-1.017058649334794609e+02,8.698902530124996701e+00,4.005087506888185089e+01,9.446745872497558594e+00,-1.223870038986206055e+00,-2.677215635776519775e-01,4.350000000000000000e+02
-9.428196237278712033e+01,-4.737351621972948124e+01,1.603681163706619373e+01,7.677219779165761793e+01,-3.952998916386968631e+01,-9.811255971813034193e+01,1.052347967944479024e+01,4.345521225020547718e+01,9.446745872497558594e+00,-1.223870038986206055e+00,-2.677215635776519775e-01,4.360000000000000000e+02
-9.652861241703067208e+01,-4.439628085247863964e+01,1.422731009115750567e+01,7.935510925944663541e+01,-3.971287976034682288e+01,-9.470413927851404878e+01,1.231938264511200032e+01,4.504217238393084699e+01,9.446745872497558594e+00,-1.223870038986206055e+00,-2.677215635776519775e-01,4.370000000000000000e+02
-9.771884755599398886e+01,-4.360339977875946715e+01,1.283451444953902865e+01,8.027879832365215407e+01,-4.050344072052121192e+01,-9.240303951278019667e+01,1.303792011205587187e+01,4.434037482832673049e+01,9.446745872497558594e+00,-1.223870038986206055e+00,-2.677215635776519775e-01,4.380000000000000000e+02
-9.677020584667889125e+01,-4.548081786446800834e+01,1.262171565082417146e+01,7.936725165272036975e+01,-4.038368701727358712e+01,-9.134791395886350074e+01,1.270241852191702492e+01,4.267802357872187713e+01,9.446745872497558594e+00,-1.223870038986206055e+00,-2.677215635776519775e-01,4.390000000000000000e+02
-9.398251133554322223e+01,-4.857999671404127184e+01,1.381834607202631560e+01,7.771623610612596167e+01,-3.830087762986522648e+01,-9.096955173123751592e+01,1.215305715798240271e+01,4.169092581231052463e+01,9.446745872497558594e+00,-1.223870038986206055e+00,-2.677215635776519775e-01,4.400000000000000000e+02
-9.102535349930712982e+01,-5.092880897639452087e+01,1.554221308164073889e+01,7.673431641100705747e+01,-3.501834496547007802e+01,-9.057745906024319993e+01,1.210686567962147819e+01,4.165328979329296999e+01,9.446745872497558594e+00,-1.223870038986206055e+00,-2.677215635776519775e-01,4.410000000000000000e+02
-8.976160877556458217e+01,-5.177607439768144104e+01,1.632332110586048657e+01,7.704846355404833957e+01,-3.279131566147680132e+01,-8.991120135103574285e+01,1.246818620181147708e+01,4.119688765355067517e+01,9.446745872497558594e+00,-1.223870038986206055e+00,-2.677215635776519775e-01,4.420000000000000000e+02
-9.084074529579356749e+01,-5.205234509878573590e+01,1.533449079929596337e+01,7.811462298819424177e+01,-3.351927310369001134e+01,-8.922352371171245977e+01,1.250252488111891580e+01,3.861100813855932756e+01,9.446745872497558594e+00,-1.223870038986206055e+00,-2.677215635776519775e-01,4.430000000000000000e+02
-9.322028813629640354e+01,-5.322288163344705936e+01,1.315971826958207203e+01,7.874461579641592834e+01,-3.705550220147779328e+01,-8.891975689643231817e+01,1.163033966355010307e+01,3.346236631712054077e+01,9.446745872497558594e+00,-1.223870038986206055e+00,-2.677215635776519775e-01,4.440000000000000000e+02
-9.499199941609981579e+01,-5.575294518576379232e+01,1.133809014116468461e+01,7.805791130086072371e+01,-4.125417003356596979e+01,-8.912196221087378945e+01,1.004311772393180036e+01,2.707878235760881580e+01,9.446745872497558594e+00,-1.223870038986206055e+00,-2.677215635776519775e-01,4.450000000000000000e+02
-9.477155442326488810e+01,-5.867281018620360555e+01,1.111986481044959874e+01,7.613247059525110672e+01,-4.369223907730884093e+01,-8.949845296770763525e+01,8.582035570556399762e+00,2.157665382816571764e+01,9.446745872497558594e+00,-1.223870038986206055e+00,-2.677215635776519775e-01,4.460000000000000000e+02
-9.250503469149725788e+01,-6.054219764263916659e+01,1.262441443165243982e+01,7.395161066624859814e+01,-4.344468773135167794e+01,-8.942856607551357229e+01,8.074225258728802146e+00,1.841718032590665644e+01,9.484992027282714844e+00,-1.185624003410339355e+00,-2.294756323099136353e-01,4.470000000000000000e+02
-8.916707954216076359e+01,-6.074755063158249868e+01,1.508844341765393438e+01,7.278039487629575888e+01,-4.136430244848634175e+01,-8.834595400688476730e+01,8.790468585583994354e+00,1.769093927043718395e+01,9.484992027282714844e+00,-1.185624003410339355e+00,-2.294756323099136353e-01,4.480000000000000000e+02
-8.581878855128047690e+01,-5.987029340426056478e+01,1.774366356209156947e+01,7.344393684346823648e+01,-3.886000132355093228e+01,-8.605293609810132693e+01,1.044152046345334384e+01,1.847264137527258754e+01,9.484992027282714844e+00,-1.185624003410339355e+00,-2.294756323099136353e-01,4.490000000000000000e+02
-8.293770754003003276e+01,-5.891886519057584337e+01,2.030296322891626914e+01,7.591839760991297226e+01,-3.655526804910095962e+01,-8.285811508509323176e+01,1.256432391942939830e+01,1.966028135543479038e+01,9.484992027282714844e+00,-1.185624003410339355e+00,-2.294756323099136353e-01,4.500000000000000000e+02
-8.049968595965356144e+01,-5.833333063485019920e+01,2.262026234934842250e+01,7.938239260382397333e+01,-3.411708527671567026e+01,-7.946365371592764859e+01,1.483777304898922011e+01,2.053608002937403398e+01,9.484992027282714844e+00,-1.185624003410339355e+00,-2.294756323099136353e-01,4.510000000000000000e+02
-7.850763286989399603e+01,-5.776338121806065828e+01,2.410906249548793312e+01,8.263063700756310936e+01,-3.121405074645872446e+01,-7.663357316646670370e+01,1.704690909298642509e+01,2.080260070967733554e+01,9.484992027282714844e+00,-1.185624003410339355e+00,-2.294756323099136353e-01,4.520000000000000000e+02
-7.731314248077251250e+01,-5.673007948455415317e+01,2.379139301287500530e+01,8.461197670540514082e+01,-2.842518456767356838e+01,-7.481365586738593265e+01,1.885666515159527989e+01,2.035668866356331819e+01,9.484992027282714844e+00,-1.185624003410339355e+00,-2.294756323099136353e-01,4.530000000000000000e+02
-7.739039447176901376e+01,-5.539949668807503258e+01,2.109210161088117275e+01,8.483985204101963973e+01,-2.709501286012891796e+01,-7.395843185672129039e+01,1.974990838232224633e+01,1.911195209691686614e+01,9.484992027282714844e+00,-1.185624003410339355e+00,-2.294756323099136353e-01,4.540000000000000000e+02
-7.882540616795540700e+01,-5.464494017767947298e+01,1.658209240365022197e+01,8.350621145985837757e+01,-2.828418183416943066e+01,-7.370283445002360168e+01,1.928648339816209045e+01,1.696280806754839432e+01,9.484992027282714844e+00,-1.185624003410339355e+00,-2.294756323099136353e-01,4.550000000000000000e+02
-8.103613509373963097e+01,-5.531804148203627847e+01,1.184749644371345312e+01,8.127926512861472474e+01,-3.184331262082173453e+01,-7.373649265145513709e+01,1.750274174765695534e+01,1.385319761039249897e+01,9.484992027282714844e+00,-1.185624003410339355e+00,-2.294756323099136353e-01,4.560000000000000000e+02
-8.299427505258654492e+01,-5.739796245445381828e+01,8.538282785661067464e+00,7.895285892340916689e+01,-3.642325771097580400e+01,-7.402969556302059573e+01,1.510431836438056052e+01,9.957262356059572994e+00,9.484992027282714844e+00,-1.185624003410339355e+00,-2.294756323099136353e-01,4.570000000000000000e+02
-8.376476375572860888e+01,-5.977028035476701007e+01,7.461522178388804605e+00,7.717755327624149686e+01,-4.028912816006481989e+01,-7.467374459669190401e+01,1.323873125456339039e+01,5.911385902834354056e+00,9.484992027282714844e+00,-1.185624003410339355e+00,-2.294756323099136353e-01,4.580000000000000000e+02
-8.295827546731015900e+01,-6.086245838385480056e+01,8.454580124896892812e+00,7.636687503482130523e+01,-4.219116517053294046e+01,-7.549932654471831484e+01,1.291874558903919024e+01,2.838346235256040018e+00,9.484992027282714844e+00,-1.185624003410339355e+00,-2.294756323099136353e-01,4.590000000000000000e+02
-8.085079605412693127e+01,-5.969373245404904083e+01,1.090017520802348372e+01,7.668443881286134456e+01,-4.175422916626598635e+01,-7.591727439146188772e+01,1.441557123407983454e+01,1.871321779868594604e+00,9.484992027282714844e+00,-1.185624003410339355e+00,-2.294756323099136353e-01,4.600000000000000000e+02
-7.817051821555901370e+01,-5.660727883181289144e+01,1.417120532390322296e+01,7.796687013714677050e+01,-3.942321510042984301e+01,-7.525746351960151515e+01,1.701553107195377379e+01,3.289285847580458721e+00,9.484992027282714844e+00,-1.185624003410339355e+00,-2.294756323099136353e-01,4.610000000000000000e+02
-7.572168275902095047e+01,-5.316754517151821346e+01,1.758034341490179031e+01,7.961131744189628989e+01,-3.625473472967610178e+01,-7.338162968804476805e+01,1.936319770834825249e+01,5.947399264765181215e+00,9.484992027282714844e+00,-1.185624003410339355e+00,-2.294756323099136353e-01,4.620000000000000000e+02
-7.402223352056535077e+01,-5.124582127064945780e+01,2.018210218940384948e+01,8.067213756354726684e+01,-3.358255181017625546e+01,-7.095537373963043137e+01,2.027777203426330743e+01,7.758038839129312692e+00,9.484992027282714844e+00,-1.185624003410339355e+00,-2.294756323099136353e-01,4.630000000000000000e+02
-7.309105769388611407e+01,-5.185525039295293936e+01,2.103449808890763961e+01,8.033359383104766493e+01,-3.241074537246299769e+01,-6.899399071771085801e+01,1.955639982171010161e+01,7.164073649085139550e+00,9.484992027282714844e+00,-1.185624003410339355e+00,-2.294756323099136353e-01,4.640000000000000000e+02
-7.249694002248793367e+01,-5.450409638663404621e+01,1.990985296584835851e+01,7.852759198942430885e+01,-3.270837717120593879e+01,-6.800160560239555707e+01,1.815003694450115290e+01,4.483447924712436361e+00,9.484992027282714844e+00,-1.185624003410339355e+00,-2.294756323099136353e-01,4.650000000000000000e+02
-7.168575806364015079e+01,-5.754567536218678470e+01,1.771911621808976633e+01,7.613230855644815165e+01,-3.323711106407199622e+01,-6.751984027023513590e+01,1.746010593155983770e+01,1.813344636037754753e+00,9.484992027282714844e+00,-1.185624003410339355e+00,-2.294756323099136353e-01,4.660000000000000000e+02
-7.040869071626389086e+01,-5.930677426041279432e+01,1.600146293207876624e+01,7.439178170285845226e+01,-3.237955013605846943e+01,-6.660771168826818212e+01,1.820481020993656784e+01,1.317110977147422091e+00,9.484992027282714844e+00,-1.185624003410339355e+00,-2.294756323099136353e-01,4.670000000000000000e+02
-6.893643378627757556e+01,-5.917678083101327502e+01,1.575419993058812906e+01,7.388540528605767577e+01,-2.953800492609707362e+01,-6.487952121491457547e+01,1.975685310221751934e+01,3.238828115169326338e+00,9.446745872497558594e+00,-1.185624003410339355e+00,-3.442134261131286621e-01,4.680000000000000000e+02
-6.786432823838299555e+01,-5.786222165928552386e+01,1.664291646576566563e+01,7.390893108289401425e+01,-2.592586132832889234e+01,-6.310180161927019071e+01,2.056754982050256331e+01,5.439442119432897016e+00,9.446745872497558594e+00,-1.185624003410339355e+00,-3.442134261131286621e-01,4.690000000000000000e+02
-6.765154014842391916e+01,-5.667517458034194533e+01,1.737356243400950007e+01,7.291416075794086282e+01,-2.385478139691872457e+01,-6.267492140513513732e+01,1.942056705853246967e+01,5.034647286139033895e+00,9.446745872497558594e+00,-1.185624003410339355e+00,-3.442134261131286621e-01,4.700000000000000000e+02
-6.829232882160488316e+01,-5.649469222331845231e+01,1.690808329333583515e+01,6.976941003252886730e+01,-2.492592086681361252e+01,-6.437504067335476066e+01,1.649209828577386361e+01,8.440575678461073039e-01,9.446745872497558594e+00,-1.185624003410339355e+00,-3.442134261131286621e-01,4.710000000000000000e+02
-6.939036195938103901e+01,-5.724042989417580429e+01,1.539355729847250132e+01,6.481649023145519095e+01,-2.866319989270664337e+01,-6.750034028460072477e+01,1.330239919510688651e+01,-5.452822850138659305e+00,9.446745872497558594e+00,-1.185624003410339355e+00,-3.442134261131286621e-01,4.720000000000000000e+02
-7.049752382758720159e+01,-5.816144884207506038e+01,1.398630264137011636e+01,5.980333938077683342e+01,-3.282559166579335397e+01,-7.024204864527860082e+01,1.159921760925863055e+01,-1.048489286841481771e+01,9.446745872497558594e+00,-1.185624003410339355e+00,-3.442134261131286621e-01,4.730000000000000000e+02
-7.134024878234436073e+01,-5.852877163213054246e+01,1.382257420643031764e+01,5.672205096770028376e+01,-3.513740380065019053e+01,-7.098818818593031210e+01,1.212607651013559007e+01,-1.170620300749328635e+01,9.446745872497558594e+00,-1.185624003410339355e+00,-3.442134261131286621e-01,4.740000000000000000e+02
-7.173410640309407427e+01,-5.809346032275004745e+01,1.512098741254976630e+01,5.648722924644471277e+01,-3.490348936073428376e+01,-6.944172803732465127e+01,1.425172317658575594e+01,-9.184557681814226271e+00,9.446745872497558594e+00,-1.185624003410339355e+00,-3.442134261131286621e-01,4.750000000000000000e+02
-7.139025180490091316e+01,-5.704413693949186381e+01,1.714864535380297639e+01,5.844362330407716399e+01,-3.314769552705024580e+01,-6.665024108683371651e+01,1.662117912677354070e+01,-5.294531250440513759e+00,9.446745872497558594e+00,-1.185624003410339355e+00,-3.442134261131286621e-01,4.760000000000000000e+02
-6.999122437587618606e+01,-5.570175317115490543e+01,1.889889437609349443e+01,6.094502364307538755e+01,-3.135923156197975459e+01,-6.408115404723059783e+01,1.814381588404762624e+01,-2.763717819869725645e+00,9.446745872497558594e+00,-1.185624003410339355e+00,-3.442134261131286621e-01,4.770000000000000000e+02
-6.759211306329575564e+01,-5.432798045031211132e+01,1.975469424817310937e+01,6.241790616096000122e+01,-3.017293105892315452e+01,-6.266045481800586003e+01,1.851424170111340572e+01,-2.794032449738892865e+00,9.446745872497558594e+00,-1.185624003410339355e+00,-3.442134261131286621e-01,4.780000000000000000e+02
-6.493200479064830688e+01,-5.313389817989929043e+01,1.965065664588610161e+01,6.212676049808715106e+01,-2.916248111833920120e+01,-6.250456019496050430e+01,1.807967481281673372e+01,-4.634496222267728172e+00,9.446745872497558594e+00,-1.185624003410339355e+00,-3.442134261131286621e-01,4.790000000000000000e+02
-6.317186860099877777e+01,-5.230401331338424598e+01,1.885197559179459859e+01,6.030268689219644784e+01,-2.769059099213694708e+01,-6.327778054560758392e+01,1.746060368270411800e+01,-6.590602009803546935e+00,9.446745872497558594e+00,-1.185624003410339355e+00,-3.442134261131286621e-01,4.800000000000000000e+02
-6.309099845962714426e+01,-5.189660645284612883e+01,1.775593635828460037e+01,5.782518920849452115e+01,-2.575604774708989453e+01,-6.458176973168332324e+01,1.732620123195033557e+01,-7.369284200753440928e+00,9.446745872497558594e+00,-1.185624003410339355e+00,-3.442134261131286621e-01,4.810000000000000000e+02
-6.438987447488756288e+01,-5.173212690762773036e+01,1.686189291149162273e+01,5.576494045266213107e+01,-2.398348750010364938e+01,-6.600523610194329649e+01,1.827891024103297468e+01,-6.718361399359878305e+00,9.446745872497558594e+00,-1.185624003410339355e+00,-3.442134261131286621e-01,4.820000000000000000e+02
-6.578944907026502165e+01,-5.146734219750729267e+01,1.672331955474268739e+01,5.494236165249864712e+01,-2.291797979851133960e+01,-6.700660954461011443e+01,2.060182687876846330e+01,-5.177176691893862426e+00,9.446745872497558594e+00,-1.185624003410339355e+00,-3.442134261131286621e-01,4.830000000000000000e+02
-6.595925552380549561e+01,-5.082103810677870115e+01,1.769247471200526434e+01,5.556888085528709098e+01,-2.250189829205260139e+01,-6.700909548356523260e+01,2.389598250011022174e+01,-3.484725368247865163e+00,9.446745872497558594e+00,-1.185624003410339355e+00,-3.442134261131286621e-01,4.840000000000000000e+02
-6.453483770234399231e+01,-4.971879381093702932e+01,1.959496015447221851e+01,5.711610624652868751e+01,-2.229551349912640035e+01,-6.575827777137391195e+01,2.701264026920563310e+01,-2.208647034476484805e+00,9.446745872497558594e+00,-1.185624003410339355e+00,-3.442134261131286621e-01,4.850000000000000000e+02
-6.235376593304469850e+01,-4.823182349440613592e+01,2.166611060262778210e+01,5.858757794973163868e+01,-2.211755784101677591e+01,-6.359219541533785502e+01,2.858570300072338455e+01,-1.681994892831468746e+00,9.446745872497558594e+00,-1.185624003410339355e+00,-3.442134261131286621e-01,4.860000000000000000e+02
-6.072464446112923042e+01,-4.644718704419352662e+01,2.290653729031893704e+01,5.912936502649920101e+01,-2.232856271998738862e+01,-6.128034376505618752e+01,2.790978129503797334e+01,-2.001421584357018446e+00,9.446745872497558594e+00,-1.185624003410339355e+00,-3.442134261131286621e-01,4.870000000000000000e+02
-6.036744850956847586e+01,-4.448503031547531350e+01,2.265956112203653561e+01,5.859385348459875331e+01,-2.338706662701991945e+01,-5.950688075220659812e+01,2.548977913711996734e+01,-2.944726470445516497e+00,9.446745872497558594e+00,-1.185624003410339355e+00,-3.442134261131286621e-01,4.880000000000000000e+02
-6.089745533674232547e+01,-4.264123031100933758e+01,2.103005236132185019e+01,5.759801875817146311e+01,-2.512349278947408493e+01,-5.843577935726563055e+01,2.276642874787455639e+01,-3.937331703166137231e+00,9.446745872497558594e+00,-1.185624003410339355e+00,-3.442134261131286621e-01,4.890000000000000000e+02
-6.121013732661720042e+01,-4.136549547067085086e+01,1.888807983619699371e+01,5.700214170548605352e+01,-2.652852903246235883e+01,-5.770449522455282931e+01,2.120651151142055824e+01,-4.246457370054486091e+00,9.446745872497558594e+00,-1.185624003410339355e+00,-3.442134261131286621e-01,4.900000000000000000e+02
-6.035158026772131734e+01,-4.090830424064319004e+01,1.747217722843731735e+01,5.722682425677589890e+01,-2.637365720175557726e+01,-5.680570777899629320e+01,2.146033851258459890e+01,-3.363841594139671543e+00,9.446745872497558594e+00,-1.185624003410339355e+00,-3.442134261131286621e-01,4.910000000000000000e+02
-5.812697622293160293e+01,-4.092534654052337828e+01,1.779669908905293596e+01,5.797487253383030748e+01,-2.416980762536741167e+01,-5.550921031945017603e+01,2.315609696645492477e+01,-1.314194559067914270e+00,9.446745872497558594e+00,-1.185624003410339355e+00,-3.442134261131286621e-01,4.920000000000000000e+02
-5.506874285035178218e+01,-4.055909323604544170e+01,2.010620119399698069e+01,5.854672436311648198e+01,-2.062110721206170183e+01,-5.401560476718668724e+01,2.532359314706559417e+01,1.328724613802023669e+00,9.446745872497558594e+00,-1.147378087043762207e+00,-3.059675097465515137e-01,4.930000000000000000e+02
-5.196492574239334772e+01,-3.913741591762413918e+01,2.362957964453721615e+01,5.841699040814626187e+01,-1.717536871724337288e+01,-5.280021439596021082e+01,2.699890636785289644e+01,3.693916068162479860e+00,9.446745872497558594e+00,-1.147378087043762207e+00,-3.059675097465515137e-01,4.940000000000000000e+02
-4.940229056502312233e+01,-3.693495666804358279e+01,2.684364922057443437e+01,5.754647704007254561e+01,-1.507588210876497214e+01,-5.230911886385297294e+01,2.760000483674241423e+01,4.950208499563586884e+00,9.446745872497558594e+00,-1.147378087043762207e+00,-3.059675097465515137e-01,4.950000000000000000e+02
-4.760588782874560820e+01,-3.519605944958095733e+01,2.823847202874731011e+01,5.621500530097318915e+01,-1.471143685668425860e+01,-5.269532988215905789e+01,2.700111662835297466e+01,4.583730379030953372e+00,9.446745872497558594e+00,-1.147378087043762207e+00,-3.059675097465515137e-01,4.960000000000000000e+02
-4.653057081411270701e+01,-3.521271742371550317e+01,2.719766019803546442e+01,5.462927788874344515e+01,-1.572538742723918403e+01,-5.370971741724497406e+01,2.545858510828588805e+01,2.572024152638960004e+00,9.446745872497558594e+00,-1.147378087043762207e+00,-3.059675097465515137e-01,4.970000000000000000e+02
-4.598926336618615096e+01,-3.719344105256413968e+01,2.439223455984620159e+01,5.273933479874494878e+01,-1.761033041220275663e+01,-5.478622340806191460e+01,2.350411660408326497e+01,-5.665508332533590874e-01,9.446745872497558594e+00,-1.147378087043762207e+00,-3.059675097465515137e-01,4.980000000000000000e+02
-4.571522248453607062e+01,-3.998844265841125889e+01,2.132316928908198861e+01,5.042861256893047539e+01,-2.013015621193062543e+01,-5.530150278030259869e+01,2.175482779537105671e+01,-3.928051910905196564e+00,9.446745872497558594e+00,-1.147378087043762207e+00,-3.059675097465515137e-01,4.990000000000000000e+02
-4.542839187403455981e+01,-4.199492083216773608e+01,1.929147732905676094e+01,4.784229177947509015e+01,-2.319676507061899429e+01,-5.490147554123427653e+01,2.062654645592647285e+01,-6.595561115099371818e+00,9.446745872497558594e+00,-1.147378087043762207e+00,-3.059675097465515137e-01,5.000000000000000000e+02
-4.495874362403696978e+01,-4.244185054342415242e+01,1.857255144428563653e+01,4.548348519630167175e+01,-2.646088782115930371e+01,-5.371146630492557961e+01,2.010922510309569589e+01,-8.056022373167934347e+00,9.446745872497558594e+00,-1.147378087043762207e+00,-3.059675097465515137e-01,5.010000000000000000e+02
-4.435350640031151670e+01,-4.185525608213038140e+01,1.845883341657781784e+01,4.394699241555713343e+01,-2.917724485824146541e+01,-5.226190720322620109e+01,1.982841879809211605e+01,-8.361850719547419430e+00,9.446745872497558594e+00,-1.147378087043762207e+00,-3.059675097465515137e-01,5.020000000000000000e+02
-4.382168514503382539e+01,-4.128023780966896084e+01,1.812084073073037871e+01,4.354494838043751770e+01,-3.054418028159057030e+01,-5.111563871829230266e+01,1.943974789877370313e+01,-7.859927925684587535e+00,9.446745872497558594e+00,-1.147378087043762207e+00,-3.059675097465515137e-01,5.030000000000000000e+02
-4.349808908074055580e+01,-4.105662091327826602e+01,1.750745663272641650e+01,4.417071490676516987e+01,-3.018565004420088371e+01,-5.043131396383250831e+01,1.906128696645464515e+01,-6.708018523271903177e+00,9.446745872497558594e+00,-1.147378087043762207e+00,-3.059675097465515137e-01,5.040000000000000000e+02
-4.323075370918172666e+01,-4.038631264665218623e+01,1.744932745808614527e+01,4.549775102037665420e+01,-2.830691591338290891e+01,-4.979560140399280499e+01,1.932625795920557721e+01,-4.658738293407623132e+00,9.446745872497558594e+00,-1.147378087043762207e+00,-3.059675097465515137e-01,5.050000000000000000e+02
-4.263170572511944556e+01,-3.814504009317442978e+01,1.884567240433875668e+01,4.726693852917969707e+01,-2.544055271041543165e+01,-4.851669376713516613e+01,2.089962203999994017e+01,-1.389570275392543408e+00,9.446745872497558594e+00,-1.147378087043762207e+00,-3.059675097465515137e-01,5.060000000000000000e+02
-4.139818955852615545e+01,-3.416767201516859132e+01,2.167277498867042596e+01,4.934621077829478963e+01,-2.214081154995346878e+01,-4.622151956845027598e+01,2.378295600294859469e+01,2.886241978030284372e+00,9.446745872497558594e+00,-1.147378087043762207e+00,-3.059675097465515137e-01,5.070000000000000000e+02
-3.963470783102911810e+01,-2.975296995421376778e+01,2.475870667709796180e+01,5.153277720209280233e+01,-1.893723944679732085e+01,-4.329993848187223193e+01,2.701543134822532011e+01,7.143455104809618206e+00,9.446745872497558594e+00,-1.147378087043762207e+00,-3.059675097465515137e-01,5.080000000000000000e+02
-3.785383465256927593e+01,-2.686998911472710461e+01,2.659699489533659289e+01,5.336621258567583936e+01,-1.644598778441195464e+01,-4.079720439270340648e+01,2.913025373141681484e+01,9.980173470272802660e+00,9.446745872497558594e+00,-1.147378087043762207e+00,-3.059675097465515137e-01,5.090000000000000000e+02
-3.660615836577881055e+01,-2.674290430171640764e+01,2.651171639387894174e+01,5.423655824975776341e+01,-1.528303722037117041e+01,-3.976747552674987674e+01,2.911911171343854221e+01,1.050629193939312245e+01,9.446745872497558594e+00,-1.147378087043762207e+00,-3.059675097465515137e-01,5.100000000000000000e+02
-3.606371793536300174e+01,-2.900612751287007995e+01,2.513519293040644698e+01,5.376981080133600699e+01,-1.571650559499721567e+01,-4.056940652568346195e+01,2.716588002566277282e+01,8.946192046332726022e+00,9.446745872497558594e+00,-1.147378087043762207e+00,-3.059675097465515137e-01,5.110000000000000000e+02
-3.593865362549149722e+01,-3.203835564161636285e+01,2.377268181995441410e+01,5.217253129462187644e+01,-1.742814562930652755e+01,-4.266461209382214292e+01,2.454735767960573867e+01,6.426483596093930828e+00,9.446745872497558594e+00,-1.147378087043762207e+00,-3.059675097465515137e-01,5.120000000000000000e+02
-3.580502874292596971e+01,-3.406731011162310097e+01,2.323693014520313227e+01,5.023282841974469193e+01,-1.974641426711241365e+01,-4.505463267206960154e+01,2.275015771353810123e+01,4.134670567123976070e+00,9.446745872497558594e+00,-1.147378087043762207e+00,-3.059675097465515137e-01,5.130000000000000000e+02
-3.550544079487644922e+01,-3.414828745973591140e+01,2.321758445427394690e+01,4.894388739960959356e+01,-2.220794773852048820e+01,-4.695379801224316907e+01,2.247332723797944709e+01,2.577110752952194161e+00,9.446745872497558594e+00,-1.147378087043762207e+00,-3.059675097465515137e-01,5.140000000000000000e+02
-3.524088660925326622e+01,-3.244931127116842617e+01,2.273726877688977766e+01,4.899386679602775985e+01,-2.484947400564942654e+01,-4.812974692188890913e+01,2.327434334692816265e+01,1.536911739938659593e+00,9.446745872497558594e+00,-1.147378087043762207e+00,-3.059675097465515137e-01,5.150000000000000000e+02
-3.527317590776237921e+01,-2.992256713053666317e+01,2.122514329768955577e+01,5.042565490765809955e+01,-2.785609505534466734e+01,-4.871178701004373579e+01,2.407613387764740764e+01,6.591813737613847479e-01,9.446745872497558594e+00,-1.147378087043762207e+00,-3.059675097465515137e-01,5.160000000000000000e+02
-3.555676569656725405e+01,-2.775676440621873553e+01,1.917982047603481988e+01,5.263901519916908001e+01,-3.090309312935551134e+01,-4.878359487337547762e+01,2.407653904604467243e+01,3.781806269853404956e-02,9.446745872497558594e+00,-1.147378087043762207e+00,-3.059675097465515137e-01,5.170000000000000000e+02
-3.568394628788564660e+01,-2.686990613649140869e+01,1.783170093021271896e+01,5.471297468349348492e+01,-3.292998201908903866e+01,-4.822991055341390165e+01,2.335510239911855024e+01,2.529636889294124558e-01,9.446745872497558594e+00,-1.147378087043762207e+00,-3.059675097465515137e-01,5.180000000000000000e+02
-3.519163127495721710e+01,-2.749726595213678593e+01,1.815819794655317310e+01,5.589058421178378921e+01,-3.271509907572908560e+01,-4.696006228424721485e+01,2.278937065493755654e+01,1.870064579214158584e+00,9.446745872497558594e+00,-1.147378087043762207e+00,-3.059675097465515137e-01,5.190000000000000000e+02
-3.392174533853813045e+01,-2.898947600250812684e+01,2.015757741893958155e+01,5.598592242040285782e+01,-2.980799991361436696e+01,-4.519576451197099232e+01,2.341325063740441692e+01,4.892844403091658023e+00,9.446745872497558594e+00,-1.147378087043762207e+00,-3.824593424797058105e-01,5.200000000000000000e+02
-3.210388845013676473e+01,-3.004551197354066971e+01,2.296764153937056108e+01,5.547233976529332722e+01,-2.498109477557136415e+01,-4.344832021101683495e+01,2.568872255866881460e+01,8.658938725073312526e+00,9.446745872497558594e+00,-1.147378087043762207e+00,-3.824593424797058105e-01,5.210000000000000000e+02
-3.014360095273514162e+01,-2.942356451582691079e+01,2.557445860129519133e+01,5.515723965652432526e+01,-1.979550113475124817e+01,-4.217537195781278569e+01,2.914703801243103953e+01,1.221087791011359514e+01,9.446745872497558594e+00,-1.147378087043762207e+00,-3.824593424797058105e-01,5.220000000000000000e+02
-2.837158678633113595e+01,-2.674908414857964090e+01,2.739118599963330780e+01,5.562730518743865105e+01,-1.566997779366556642e+01,-4.145651249043021380e+01,3.259372788820928690e+01,1.477670986916746187e+01,9.446745872497558594e+00,-1.147378087043762207e+00,-3.824593424797058105e-01,5.230000000000000000e+02
-2.697268955692106829e+01,-2.279650978288555052e+01,2.828207924390426342e+01,5.687583404198539938e+01,-1.321217617690308543e+01,-4.099518522002381360e+01,3.476123755657408765e+01,1.601145230065503711e+01,9.446745872497558594e+00,-1.147378087043762207e+00,-3.824593424797058105e-01,5.240000000000000000e+02
-2.604446949096018216e+01,-1.895030297656649054e+01,2.824463117401501222e+01,5.842292203719352983e+01,-1.221816588606088771e+01,-4.041082448627821577e+01,3.504624378107655502e+01,1.594739125261185109e+01,9.446745872497558594e+00,-1.147378087043762207e+00,-3.824593424797058105e-01,5.250000000000000000e+02
-2.560878357787078130e+01,-1.624061048233124893e+01,2.724538333864802553e+01,5.981945859268580534e+01,-1.212730757452482067e+01,-3.951470532325220120e+01,3.387692345459072385e+01,1.486544238810802199e+01,9.446745872497558594e+00,-1.147378087043762207e+00,-3.824593424797058105e-01,5.260000000000000000e+02
-2.552387130779789004e+01,-1.474677638682169345e+01,2.539481914691714337e+01,6.106301331066242710e+01,-1.243569658512296883e+01,-3.833870928751457541e+01,3.243700898305542069e+01,1.327893231032248877e+01,9.446745872497558594e+00,-1.147378087043762207e+00,-3.824593424797058105e-01,5.270000000000000000e+02
-2.543652312240647007e+01,-1.382418209735988057e+01,2.316717390151552536e+01,6.253662663184513804e+01,-1.277936580068126204e+01,-3.695978217392257648e+01,3.190628475162975519e+01,1.198123869417213427e+01,9.446745872497558594e+00,-1.147378087043762207e+00,-3.824593424797058105e-01,5.280000000000000000e+02
-2.493052298891780083e+01,-1.286595279542780190e+01,2.128690573034054978e+01,6.453358430226853670e+01,-1.280218929702186870e+01,-3.534871089309217496e+01,3.274316192668175063e+01,1.192251670735277003e+01,9.446745872497558594e+00,-1.147378087043762207e+00,-3.824593424797058105e-01,5.290000000000000000e+02
-2.380464698732612305e+01,-1.187410224677023507e+01,2.029020223807765433e+01,6.682038268344058451e+01,-1.209997405851845542e+01,-3.341391629287954856e+01,3.451295494249916374e+01,1.377215871118914947e+01,9.446745872497558594e+00,-1.147378087043762207e+00,-3.824593424797058105e-01,5.300000000000000000e+02
-2.223810704833977070e+01,-1.136658011928102496e+01,2.017214358316687139e+01,6.864217473299686390e+01,-1.039209030820165935e+01,-3.119808626355552406e+01,3.633039894474677567e+01,1.736043094047727209e+01,9.446745872497558594e+00,-1.147378087043762207e+00,-3.824593424797058105e-01,5.310000000000000000e+02
-2.067336013193562394e+01,-1.179693151938954543e+01,2.048411588250019122e+01,6.917036772768187802e+01,-7.792790008588781347e+00,-2.903479843694367446e+01,3.749575747177823359e+01,2.146435288853535894e+01,9.446745872497558594e+00,-1.147378087043762207e+00,-3.824593424797058105e-01,5.320000000000000000e+02
-1.949954908746258297e+01,-1.305020303086530475e+01,2.078817447858546075e+01,6.805476896220170602e+01,-4.906462518258194905e+00,-2.748341898486251011e+01,3.781831651502216118e+01,2.430280885736101482e+01,9.446745872497558594e+00,-1.147378087043762207e+00,-3.824593424797058105e-01,5.330000000000000000e+02
-1.880029050215125608e+01,-1.443255960199712717e+01,2.101930197066394612e+01,6.569905568701778975e+01,-2.582543706244905479e+00,-2.702480613392981468e+01,3.749977529150601185e+01,2.460622436232551991e+01,9.446745872497558594e+00,-1.147378087043762207e+00,-3.824593424797058105e-01,5.340000000000000000e+02
-1.834814488121628528e+01,-1.510718543408074765e+01,2.141321271958804573e+01,6.312079929490755603e+01,-1.423852707441255916e+00,-2.769217152627606993e+01,3.685215543617505318e+01,2.256838350997168163e+01,9.446745872497558594e+00,-1.147378087043762207e+00,-3.824593424797058105e-01,5.350000000000000000e+02
-1.779628409601355088e+01,-1.461230218999935460e+01,2.211719675853146327e+01,6.149078422796264931e+01,-1.393850356426810322e+00,-2.892858538551627134e+01,3.615570082070735225e+01,1.989024051875639998e+01,9.446745872497558594e+00,-1.147378087043762207e+00,-3.824593424797058105e-01,5.360000000000000000e+02
-1.689860693991158769e+01,-1.313130264801020530e+01,2.292127156971491786e+01,6.155906434993994480e+01,-1.865593647800778854e+00,-2.984676285366731463e+01,3.566890224660801323e+01,1.870999292250689905e+01,9.446745872497558594e+00,-1.147378087043762207e+00,-3.824593424797058105e-01,5.370000000000000000e+02
-1.563412714428613981e+01,-1.138727532673783571e+01,2.340119451613645651e+01,6.324856070033274591e+01,-2.115804564999052673e+00,-2.975895789414607862e+01,3.559189657524711947e+01,2.011487374685020768e+01,9.446745872497558594e+00,-1.147378087043762207e+00,-3.824593424797058105e-01,5.380000000000000000e+02
-1.422802908457197191e+01,-1.021854200157576997e+01,2.331771176603342610e+01,6.568591521061534877e+01,-1.873682607041700976e+00,-2.859220480829208100e+01,3.590969344422774157e+01,2.338353153450407262e+01,9.446745872497558594e+00,-1.147378087043762207e+00,-3.824593424797058105e-01,5.390000000000000000e+02
-1.308586412963813927e+01,-1.004111237861616246e+01,2.285353857821246493e+01,6.774158985453686910e+01,-1.439500307022171910e+00,-2.685122210075496696e+01,3.632137286169927393e+01,2.660723947501719522e+01,9.446745872497558594e+00,-1.147378087043762207e+00,-3.824593424797058105e-01,5.400000000000000000e+02
-1.263273551371821668e+01,-1.052611490494382451e+01,2.243521021227297751e+01,6.876924379724732717e+01,-1.274939345888924436e+00,-2.517834456515265629e+01,3.644446452006559412e+01,2.821469764446010231e+01,9.446745872497558594e+00,-1.147378087043762207e+00,-3.824593424797058105e-01,5.410000000000000000e+02
-1.308214627145389386e+01,-1.079120712620351696e+01,2.232217111517911690e+01,6.896236208949994761e+01,-1.471149851269728970e+00,-2.392798913898150204e+01,3.615235483926153393e+01,2.812742809628070972e+01,9.446745872497558594e+00,-1.147378087043762207e+00,-3.824593424797058105e-01,5.420000000000000000e+02
-1.426756433619993913e+01,-1.007589382986589044e+01,2.239186033917030727e+01,6.898049139288377773e+01,-1.634964292254153406e+00,-2.312592687542019121e+01,3.568911226280033588e+01,2.758990872996582766e+01,9.446745872497558594e+00,-1.147378087043762207e+00,-3.824593424797058105e-01,5.430000000000000000e+02
-1.569263740873975621e+01,-8.411138577861493104e+00,2.233376792630406271e+01,6.915838538443858852e+01,-1.298712995951063931e+00,-2.275511267124966253e+01,3.540064785504546307e+01,2.790079303361926577e+01,9.446745872497558594e+00,-1.147378087043762207e+00,-3.824593424797058105e-01,5.440000000000000000e+02
-1.680407287451816956e+01,-6.661023367672896711e+00,2.204655747098149732e+01,6.909587301600186038e+01,-3.911429771487746621e-01,-2.293848357813658367e+01,3.536796812119064271e+01,2.925864063205335697e+01,9.446745872497558594e+00,-1.147378087043762207e+00,-3.824593424797058105e-01,5.450000000000000000e+02
-1.729045435292027832e+01,-5.784980936576175736e+00,2.180997428852060693e+01,6.812978788801046903e+01,7.581085882011393551e-01,-2.372340939456444175e+01,3.537996519091029768e+01,3.079117986831988674e+01,9.446745872497558594e+00,-1.147378087043762207e+00,-3.824593424797058105e-01,5.460000000000000000e+02
-1.715452047627695720e+01,-5.935064877876357059e+00,2.203342663622424880e+01,6.628025687160152302e+01,1.879556845415208954e+00,-2.469650572343743988e+01,3.530736654209613334e+01,3.165964023053493293e+01,9.446745872497558594e+00,-1.147378087043762207e+00,-3.824593424797058105e-01,5.470000000000000000e+02
-1.650686279289766389e+01,-6.258301533489429858e+00,2.284763399591429334e+01,6.466153854564618086e+01,3.150153239150313311e+00,-2.494924389195693948e+01,3.545594708591488597e+01,3.208515574133343762e+01,9.446745872497558594e+00,-1.147378087043762207e+00,-3.824593424797058105e-01,5.480000000000000000e+02
-1.533067357000800257e+01,-5.673470359573911992e+00,2.397075044018492918e+01,6.475762646473413042e+01,5.000687192366967793e+00,-2.361718702603866404e+01,3.642850563555475674e+01,3.324606944492188632e+01,9.446745872497558594e+00,-1.147378087043762207e+00,-3.824593424797058105e-01,5.490000000000000000e+02
-1.349945251443023153e+01,-3.931875453010434285e+00,2.499411006453919981e+01,6.708995903394134075e+01,7.485963966275448911e+00,-2.060168319033618900e+01,3.853870559393362782e+01,3.611716360173522844e+01,9.446745872497558594e+00,-1.147378087043762207e+00,-3.824593424797058105e-01,5.500000000000000000e+02
-1.105480750233800791e+01,-1.906554560609947657e+00,2.577848485930189781e+01,7.054817344339062402e+01,9.915172444594645640e+00,-1.680249228713000775e+01,4.136301011181967624e+01,4.038859545989180333e+01,9.484992027282714844e+00,-1.185624003410339355e+00,-2.294756323099136353e-01,5.510000000000000000e+02
-8.429369670957385097e+00,-7.635468973712704610e-01,2.653677126588809188e+01,7.315209606387725216e+01,1.126066302238723438e+01,-1.358688785224330786e+01,4.394289672547529335e+01,4.453988035431939352e+01,9.484992027282714844e+00,-1.185624003410339355e+00,-2.294756323099136353e-01,5.520000000000000000e+02
-6.297136720389971742e+00,-7.933160482079983922e-01,2.753757466379829566e+01,7.367896920763996604e+01,1.107077189615301904e+01,-1.190204232597898226e+01,4.551009767054347321e+01,4.703859930411272217e+01,9.484992027282714844e+00,-1.185624003410339355e+00,-2.294756323099136353e-01,5.530000000000000000e+02
-5.105361052252192167e+00,-1.057618299311798182e+00,2.877204004982922925e+01,7.270049786825256888e+01,1.001203022801928455e+01,-1.173863807324596564e+01,4.605762160757876700e+01,4.756455282929528039e+01,9.484992027282714844e+00,-1.185624003410339355e+00,-2.294756323099136353e-01,5.540000000000000000e+02
-4.714119580603437498e+00,-2.227830189203814371e-01,2.993991031225050392e+01,7.205602440115580976e+01,9.428760795264679473e+00,-1.231027900779372430e+01,4.622393180917788413e+01,4.716053181819006568e+01,9.484992027282714844e+00,-1.185624003410339355e+00,-2.294756323099136353e-01,5.550000000000000000e+02
-4.526199845568044111e+00,2.218613279106648406e+00,3.072555266795279749e+01,7.320245760465331841e+01,1.020307501736715494e+01,-1.270949375979944307e+01,4.663045373170461971e+01,4.722146859815620701e+01,9.484992027282714844e+00,-1.185624003410339355e+00,-2.294756323099136353e-01,5.560000000000000000e+02
-4.028707865589240100e+00,5.498241014707673457e+00,3.099782048450651928e+01,7.589979227885487489e+01,1.190909375410956272e+01,-1.249656926248280797e+01,4.732073431152093690e+01,4.827152007471158868e+01,9.484992027282714844e+00,-1.185624003410339355e+00,-2.294756323099136353e-01,5.570000000000000000e+02
-3.239529226430022391e+00,8.257191466973381466e+00,3.072126614083026652e+01,7.837245412281845347e+01,1.307558765733119799e+01,-1.185451549795106985e+01,4.779218930547904165e+01,4.958656177348348137e+01,9.484992027282714844e+00,-1.185624003410339355e+00,-2.294756323099136353e-01,5.580000000000000000e+02
-2.601250964884457062e+00,9.625505625070218230e+00,2.977393994156773260e+01,7.873965837944342638e+01,1.239744941147728241e+01,-1.133874212198134046e+01,4.749538566839873965e+01,4.989251705404785753e+01,9.484992027282714844e+00,-1.185624003410339355e+00,-2.294756323099136353e-01,5.590000000000000000e+02
-2.411886540157865966e+00,9.684036433180153836e+00,2.804427889491125825e+01,7.644836855960238609e+01,9.873589413364243228e+00,-1.146713449758681236e+01,4.628768198579564341e+01,4.845883999105353723e+01,9.484992027282714844e+00,-1.185624003410339355e+00,-2.294756323099136353e-01,5.600000000000000000e+02
-2.384812690184844541e+00,9.052476361766821356e+00,2.580746916728458018e+01,7.257145345952449134e+01,6.859002191529725678e+00,-1.240208610370245879e+01,4.448297815980185987e+01,4.566370206525971298e+01,9.484992027282714844e+00,-1.185624003410339355e+00,-2.294756323099136353e-01,5.610000000000000000e+02
-1.848426166139688576e+00,8.238955761125907884e+00,2.389015508727425185e+01,6.890383737333286263e+01,4.947692200412348029e+00,-1.386528044446822605e+01,4.257963798273340217e+01,4.265003943906231143e+01,9.484992027282714844e+00,-1.185624003410339355e+00,-2.294756323099136353e-01,5.620000000000000000e+02
-4.670443122522556223e-01,7.471750960303324973e+00,2.319949012208599015e+01,6.674884495460901235e+01,4.644043137224798556e+00,-1.529356765894408454e+01,4.100342032474691223e+01,4.047721768020164745e+01,9.484992027282714844e+00,-1.185624003410339355e+00,-2.294756323099136353e-01,5.630000000000000000e+02
1.212004448974767001e+00,7.014923656244718586e+00,2.386652289211633615e+01,6.633291059787188715e+01,4.974355330941762077e+00,-1.614740415898631909e+01,4.003091528274308075e+01,3.948891428191382147e+01,9.484992027282714844e+00,-1.185624003410339355e+00,-2.294756323099136353e-01,5.640000000000000000e+02
2.008808134643913945e+00,7.362779932736884803e+00,2.485847838320296432e+01,6.707277149949004524e+01,4.378913551730875042e+00,-1.618421045137074543e+01,3.978503625396115240e+01,3.932607692640522146e+01,9.484992027282714844e+00,-1.185624003410339355e+00,-2.294756323099136353e-01,5.650000000000000000e+02
1.058524124982795911e+00,8.907322350785761955e+00,2.465387795072456356e+01,6.820492460701643722e+01,2.100681194478966063e+00,-1.552173032208156656e+01,4.017248180644492095e+01,3.944805889025337819e+01,9.484992027282714844e+00,-1.185624003410339355e+00,-2.294756323099136353e-01,5.660000000000000000e+02
-1.328069319342830568e+00,1.141283309143182123e+01,2.257953027595067397e+01,6.921717915694898693e+01,-1.126482257586758351e+00,-1.446565430034752353e+01,4.086324032381344296e+01,3.967532720473900554e+01,9.484992027282714844e+00,-1.185624003410339355e+00,-2.294756323099136353e-01,5.670000000000000000e+02
-3.674232869665502221e+00,1.398244298555437126e+01,1.962744418534202850e+01,6.993004268848380889e+01,-3.628798625770286890e+00,-1.326316401327494532e+01,4.149993034536601044e+01,4.033312971033774375e+01,9.484992027282714844e+00,-1.185624003410339355e+00,-2.294756323099136353e-01,5.680000000000000000e+02
-4.285240084189354093e+00,1.571171111845433188e+01,1.789831975988454360e+01,7.041716201295639621e+01,-4.018813314145518234e+00,-1.198828708838846069e+01,4.207789361779214232e+01,4.195528662028664257e+01,9.484992027282714844e+00,-1.185624003410339355e+00,-2.294756323099136353e-01,5.690000000000000000e+02
-2.424357408441210282e+00,1.642053618011232174e+01,1.901679849973152159e+01,7.092562039523545536e+01,-2.035467748781229602e+00,-1.061686820449176594e+01,4.311213243258680450e+01,4.483552060368674574e+01,9.484992027282714844e+00,-1.185624003410339355e+00,-2.294756323099136353e-01,5.700000000000000000e+02
1.160335401860720594e+00,1.669162918099027593e+01,2.284548742005063104e+01,7.176089564615176641e+01,1.560969503170781536e+00,-9.165561149864515755e+00,4.526923055180304800e+01,4.877144380039680982e+01,9.484992027282714844e+00,-1.185624003410339355e+00,-2.294756323099136353e-01,5.710000000000000000e+02
4.722626426460919902e+00,1.716327707910022582e+01,2.759517349577799905e+01,7.308699302636887296e+01,5.706344643502234248e+00,-7.728549667215702357e+00,4.865689018972989288e+01,5.315414136153412983e+01,9.446745872497558594e+00,-1.185624003410339355e+00,-3.442134261131286621e-01,5.720000000000000000e+02
6.617017315540579148e+00,1.783919417525976314e+01,3.118486899193521822e+01,7.476357195762102492e+01,9.597313831931387540e+00,-6.385560863964201417e+00,5.243021149180276552e+01,5.726226382893219125e+01,9.446745872497558594e+00,-1.185624003410339355e+00,-3.442134261131286621e-01,5.730000000000000000e+02
6.224369099534669658e+00,1.816769547783769667e+01,3.263343490647093859e+01,7.641447573369805468e+01,1.271394865384718287e+01,-5.118747410186188063e+00,5.521002583901281469e+01,6.049583835041266866e+01,9.446745872497558594e+00,-1.185624003410339355e+00,-3.442134261131286621e-01,5.740000000000000000e+02
4.162271954344760161e+00,1.779580148558306973e+01,3.237739379736376577e+01,7.772541243028899771e+01,1.459160892397994758e+01,-3.868817114969715476e+00,5.608116646187045262e+01,6.243296518672286766e+01,9.446745872497558594e+00,-1.185624003410339355e+00,-3.442134261131286621e-01,5.750000000000000000e+02
1.777770756012614584e+00,1.713395959172703442e+01,3.148066866701628896e+01,7.868149862028076313e+01,1.482550745780827128e+01,-2.697998539893887937e+00,5.531857524184306385e+01,6.282287851588625927e+01,9.446745872497558594e+00,-1.185624003410339355e+00,-3.442134261131286621e-01,5.760000000000000000e+02
3.373299147860961966e-01,1.704843024540241458e+01,3.067535721873355214e+01,7.947026021651254268e+01,1.340979765691008652e+01,-1.875768968813645188e+00,5.416321515227900818e+01,6.170613149018754484e+01,9.446745872497558594e+00,-1.185624003410339355e+00,-3.442134261131286621e-01,5.770000000000000000e+02
4.184126629152160604e-01,1.795699660022000899e+01,3.012228267915270408e+01,8.015548805860817083e+01,1.103487068034519325e+01,-1.734720230870152591e+00,5.383504353781245300e+01,5.965134054490772542e+01,9.446745872497558594e+00,-1.185624003410339355e+00,-3.442134261131286621e-01,5.780000000000000000e+02
1.785944442533946130e+00,1.931214952345180791e+01,2.989392875403063954e+01,8.052469281899539055e+01,8.938889266770274844e+00,-2.349488348580052843e+00,5.467153516557300463e+01,5.783459361347559025e+01,9.446745872497558594e+00,-1.185624003410339355e+00,-3.442134261131286621e-01,5.790000000000000000e+02
3.700671301005058922e+00,2.011223205014175619e+01,3.042279562690237071e+01,8.036868327049887739e+01,8.335378967996803112e+00,-3.294042360197636299e+00,5.612259731798621942e+01,5.766678020446124719e+01,9.446745872497558594e+00,-1.185624003410339355e+00,-3.442134261131286621e-01,5.800000000000000000e+02
5.375279575309832580e+00,2.000123960646305932e+01,3.226639396254540770e+01,7.992489516500791069e+01,9.793578528777288739e+00,-3.761075297770730685e+00,5.746338484837178839e+01,6.000844561624398921e+01,9.446745872497558594e+00,-1.185624003410339355e+00,-3.442134261131286621e-01,5.810000000000000000e+02
6.293021169352869038e+00,1.982248729252387420e+01,3.534661959069489967e+01,7.992229018039506627e+01,1.293932922821113607e+01,-3.073871588338079164e+00,5.841523091461931472e+01,6.446454500552499667e+01,9.446745872497558594e+00,-1.185624003410339355e+00,-3.442134261131286621e-01,5.820000000000000000e+02
6.267890652961796150e+00,2.094627752933956799e+01,3.849405326787746162e+01,8.101103380056520109e+01,1.659708041777048493e+01,-1.253216643806808861e+00,5.908122270808962639e+01,6.935924712262203684e+01,9.446745872497558594e+00,-1.185624003410339355e+00,-3.442134261131286621e-01,5.830000000000000000e+02
5.349139094225392910e+00,2.389826260882182396e+01,3.994418151739955647e+01,8.303401147737531574e+01,1.927990086980935303e+01,8.417912280747259501e-01,5.942198215058670030e+01,7.257386208462776267e+01,9.446745872497558594e+00,-1.185624003410339355e+00,-3.442134261131286621e-01,5.840000000000000000e+02
3.776429954043123871e+00,2.757545066487364238e+01,3.857925311799772317e+01,8.489609220805141376e+01,1.986269278694817331e+01,2.022507462395878974e+00,5.901049199356202735e+01,7.276580715875752503e+01,9.446745872497558594e+00,-1.185624003410339355e+00,-3.442134261131286621e-01,5.850000000000000000e+02
2.040046399546554312e+00,2.987056213103642222e+01,3.496516820305987494e+01,8.530402105421671877e+01,1.820150443050442846e+01,1.620636992618528893e+00,5.745500758867274271e+01,7.015667595180639182e+01,9.446745872497558594e+00,-1.185624003410339355e+00,-3.442134261131286621e-01,5.860000000000000000e+02
8.909390260923828464e-01,2.925390945664548781e+01,3.126864961405590293e+01,8.381604748328390997e+01,1.535996014890406514e+01,2.242619538810686208e-02,5.505906358176798676e+01,6.636421277694898890e+01,9.446745872497558594e+00,-1.185624003410339355e+00,-3.442134261131286621e-01,5.870000000000000000e+02
1.100041560173849575e+00,2.599475909642205806e+01,2.997395413930644281e+01,8.128343454500281950e+01,1.315785656047228258e+01,-1.573688930995558621e+00,5.292495463626255514e+01,6.342317465376254404e+01,9.446745872497558594e+00,-1.185624003410339355e+00,-3.442134261131286621e-01,5.880000000000000000e+02
2.987817682067543501e+00,2.201572184382894193e+01,3.225477170999511145e+01,7.927477498933149036e+01,1.314405229154363042e+01,-2.016412517645221669e+00,5.222062343004654394e+01,6.267742568089670385e+01,9.446745872497558594e+00,-1.185624003410339355e+00,-3.442134261131286621e-01,5.890000000000000000e+02
6.062916323146055220e+00,1.954025991574235377e+01,3.717073292311033583e+01,7.896557645301072625e+01,1.561113216228477540e+01,-1.000454154083854519e+00,5.321413447387021733e+01,6.422383121085658786e+01,9.446745872497558594e+00,-1.185624003410339355e+00,-3.442134261131286621e-01,5.900000000000000000e+02
9.140393494617455872e+00,1.965614703028404620e+01,4.228734819887540652e+01,8.041408741407212801e+01,1.938440348122094292e+01,8.225939301555627026e-01,5.500198617997375550e+01,6.712819635288906284e+01,9.446745872497558594e+00,-1.185624003410339355e+00,-3.442134261131286621e-01,5.910000000000000000e+02
