F3,F4,C3,C4,P3,P4,Cz,Pz,Accel_x,Accel_y,Accel_z,Sample
-5.366018740460276604e-11,-5.366018740460276604e-11,-3.637978807091712952e-11,-6.184563972055912018e-11,-5.911715561524033546e-11,-7.094058673828840256e-11,-3.183231456205248833e-11,-3.319655661471188068e-11,9.446745872497558594e+00,-1.185624003410339355e+00,-3.824593424797058105e-01,2.260000000000000000e+02
-4.357574338760969113e+01,-4.702271832606038515e+01,-2.294340624271626439e+01,-1.641531654647587857e+01,-4.505280777525149460e+01,-2.199295504664587497e+01,-2.825347463427260664e+01,-1.641479850201130830e+01,9.446745872497558594e+00,-1.185624003410339355e+00,-3.824593424797058105e-01,2.270000000000000000e+02
-8.986695623081595841e+01,-9.472440290471695334e+01,-4.526311945252291480e+01,-3.147087125519828987e+01,-8.857268598110113089e+01,-4.492276331875837059e+01,-5.391935171805016580e+01,-3.501272007678744558e+01,9.446745872497558594e+00,-1.185624003410339355e+00,-3.824593424797058105e-01,2.280000000000000000e+02
-1.391653859444359114e+02,-1.422314526089639912e+02,-6.721105186994554970e+01,-4.455523999015531444e+01,-1.305564657206659831e+02,-6.869879415232571773e+01,-7.665576971735754341e+01,-5.673053990800417523e+01,9.523238182067871094e+00,-1.147378087043762207e+00,-3.442134261131286621e-01,2.290000000000000000e+02
-1.891462952436686464e+02,-1.874353601248312771e+02,-8.975922594454004866e+01,-5.603459582228788349e+01,-1.725233027742142440e+02,-9.227512213905720273e+01,-9.851641486094649736e+01,-8.103806843925440262e+01,9.523238182067871094e+00,-1.147378087043762207e+00,-3.442134261131286621e-01,2.300000000000000000e+02
-2.369629391906864839e+02,-2.289808398855684572e+02,-1.134903638527812291e+02,-6.681612136857620499e+01,-2.159516143576502145e+02,-1.146699155791047815e+02,-1.219350037004705882e+02,-1.066942533720848587e+02,9.523238182067871094e+00,-1.147378087043762207e+00,-3.442134261131286621e-01,2.310000000000000000e+02
-2.815524097273973894e+02,-2.678319873660229860e+02,-1.376736265051213195e+02,-7.761165790053200908e+01,-2.606763224598116722e+02,-1.357533162252184411e+02,-1.475082717389541358e+02,-1.325142424492887585e+02,9.523238182067871094e+00,-1.147378087043762207e+00,-3.442134261131286621e-01,2.320000000000000000e+02
-3.240898967114790139e+02,-3.067039700498226011e+02,-1.605396676281388864e+02,-8.846909167086596426e+01,-3.047795686492218010e+02,-1.559708594586827530e+02,-1.735899597582802016e+02,-1.575140933423831484e+02,9.523238182067871094e+00,-1.147378087043762207e+00,-3.442134261131286621e-01,2.330000000000000000e+02
-3.664927544673910234e+02,-3.478428323830585214e+02,-1.806121206659463496e+02,-9.892103351129298972e+01,-3.460596961721394109e+02,-1.754710205736300850e+02,-1.978835235911783457e+02,-1.807717002831918762e+02,9.523238182067871094e+00,-1.147378087043762207e+00,-3.442134261131286621e-01,2.340000000000000000e+02
-4.096797903309652611e+02,-3.913113367328396635e+02,-1.979306132953279302e+02,-1.085899751783836109e+02,-3.837021725205922849e+02,-1.937552435163124755e+02,-2.193821718395765856e+02,-2.016944164825013104e+02,9.523238182067871094e+00,-1.147378087043762207e+00,-3.442134261131286621e-01,2.350000000000000000e+02
-4.531809019112342867e+02,-4.353311780003714375e+02,-2.141032387939039836e+02,-1.176858274122241710e+02,-4.186943070527240707e+02,-2.102635120501909114e+02,-2.389325080959506522e+02,-2.206538720445196304e+02,9.523238182067871094e+00,-1.147378087043762207e+00,-3.442134261131286621e-01,2.360000000000000000e+02
-4.960640753330881125e+02,-4.780650246799896195e+02,-2.311689275832895873e+02,-1.269434529299996939e+02,-4.527773620579473572e+02,-2.251756895674589032e+02,-2.581922074243802854e+02,-2.390792439040801582e+02,9.523238182067871094e+00,-1.147378087043762207e+00,-3.442134261131286621e-01,2.370000000000000000e+02
-5.378852461388232769e+02,-5.189335545575536344e+02,-2.502039227954082889e+02,-1.370392274514433666e+02,-4.870235731904749628e+02,-2.394611369397953240e+02,-2.781998324525520729e+02,-2.584725928155589827e+02,9.523238182067871094e+00,-1.147378087043762207e+00,-3.442134261131286621e-01,2.380000000000000000e+02
-5.786822166217516497e+02,-5.583300103088267861e+02,-2.707122648689764901e+02,-1.480062843484538462e+02,-5.212932108682525723e+02,-2.541166087987057836e+02,-2.988361933302439866e+02,-2.790738200976020380e+02,9.523238182067871094e+00,-1.147378087043762207e+00,-3.442134261131286621e-01,2.390000000000000000e+02
-6.183388778079797703e+02,-5.964330411968912813e+02,-2.911179251475850833e+02,-1.591804221384627454e+02,-5.548496339230032390e+02,-2.694408429923787480e+02,-3.193637946367180120e+02,-2.995617983642368927e+02,9.523238182067871094e+00,-1.147378087043762207e+00,-3.442134261131286621e-01,2.400000000000000000e+02
-6.563340126031389445e+02,-6.326650299836219347e+02,-3.098538932952583309e+02,-1.697213004556206215e+02,-5.873332147024384540e+02,-2.850693141194478812e+02,-3.392251824883196605e+02,-3.182912123972500922e+02,9.523238182067871094e+00,-1.147378087043762207e+00,-3.442134261131286621e-01,2.410000000000000000e+02
-6.922530147647767080e+02,-6.663680137834744528e+02,-3.262432403322927712e+02,-1.792388341955529540e+02,-6.191375884387853148e+02,-3.005921806845544779e+02,-3.583098526348549058e+02,-3.349212563276573746e+02,9.523238182067871094e+00,-1.147378087043762207e+00,-3.442134261131286621e-01,2.420000000000000000e+02
-7.264198594088893515e+02,-6.978051407714360721e+02,-3.406739734134703212e+02,-1.879683781448593436e+02,-6.509455573533614370e+02,-3.159813163017352053e+02,-3.766831742544882218e+02,-3.507927256118437072e+02,9.523238182067871094e+00,-1.147378087043762207e+00,-3.442134261131286621e-01,2.430000000000000000e+02
-7.597899368689222683e+02,-7.282666708073825248e+02,-3.541229113316026087e+02,-1.963944754936082973e+02,-6.829918061085563750e+02,-3.314160663316015416e+02,-3.943066025398084093e+02,-3.676353799012676973e+02,9.523238182067871094e+00,-1.147378087043762207e+00,-3.442134261131286621e-01,2.440000000000000000e+02
-7.931048364424123065e+02,-7.591370865778235384e+02,-3.674690298667678690e+02,-2.047484694043023410e+02,-7.147811013387690764e+02,-3.468425511225432274e+02,-4.111114806776304249e+02,-3.859140352205963609e+02,9.523238182067871094e+00,-1.147378087043762207e+00,-3.442134261131286621e-01,2.450000000000000000e+02
-8.262011199912744814e+02,-7.909424210726165256e+02,-3.810736558930807405e+02,-2.128823653395611473e+02,-7.454577902489272674e+02,-3.618545345848779107e+02,-4.272504959190209775e+02,-4.044918611982366201e+02,9.523238182067871094e+00,-1.147378087043762207e+00,-3.442134261131286621e-01,2.460000000000000000e+02
-8.582316596457317246e+02,-8.232901802300593772e+02,-3.948313822172121945e+02,-2.206039981323965549e+02,-7.744538783327361671e+02,-3.760301185715397878e+02,-4.430954225822415538e+02,-4.218468246950974390e+02,9.523238182067871094e+00,-1.147378087043762207e+00,-3.442134261131286621e-01,2.470000000000000000e+02
-8.886003030181736904e+02,-8.555360897015739283e+02,-4.085259319746965048e+02,-2.280422939697537004e+02,-8.018170393177688311e+02,-3.892807363330502994e+02,-4.589061044240788760e+02,-4.374889600304718442e+02,9.523238182067871094e+00,-1.147378087043762207e+00,-3.442134261131286621e-01,2.480000000000000000e+02
-9.176389363160255925e+02,-8.872593533012272928e+02,-4.221300694745636974e+02,-2.355652943255099672e+02,-8.280247009628874366e+02,-4.018135965776637022e+02,-4.745217842213728545e+02,-4.521399961859965515e+02,9.523238182067871094e+00,-1.147378087043762207e+00,-3.442134261131286621e-01,2.490000000000000000e+02
-9.463410987583088172e+02,-9.180697541960767012e+02,-4.357943461344507341e+02,-2.432771120386078110e+02,-8.535429974369881165e+02,-4.138053721444830444e+02,-4.894513357738592276e+02,-4.666583583068822918e+02,9.523238182067871094e+00,-1.147378087043762207e+00,-3.442134261131286621e-01,2.500000000000000000e+02
-9.754472461484242558e+02,-9.472490340952031147e+02,-4.495864766909394348e+02,-2.506385399381315437e+02,-8.785325371491617261e+02,-4.251980797259129758e+02,-5.033259159148087747e+02,-4.810092006155964555e+02,9.523238182067871094e+00,-1.147378087043762207e+00,-3.442134261131286621e-01,2.510000000000000000e+02
-1.004774733708004987e+03,-9.739840629316363447e+02,-4.632778555889740346e+02,-2.567282885701879422e+02,-9.028873372088278302e+02,-4.358604326319073152e+02,-5.162562699022832930e+02,-4.943641832510656968e+02,9.523238182067871094e+00,-1.147378087043762207e+00,-3.442134261131286621e-01,2.520000000000000000e+02
-1.033390722225187801e+03,-9.981787556740432592e+02,-4.763757019617351034e+02,-2.610280633081956694e+02,-9.264639089232146034e+02,-4.458895911730887747e+02,-5.286993011167246550e+02,-5.061053719979940979e+02,9.523238182067871094e+00,-1.147378087043762207e+00,-3.442134261131286621e-01,2.530000000000000000e+02
-1.060361608970373709e+03,-1.020957421303594401e+03,-4.883496945829697324e+02,-2.640318213226655644e+02,-9.492416900024127244e+02,-4.556686034198846755e+02,-5.409493460143416996e+02,-5.165652549013743737e+02,9.523238182067871094e+00,-1.147378087043762207e+00,-3.824593424797058105e-01,2.540000000000000000e+02
-1.085346956212013538e+03,-1.044097701725262596e+03,-4.988836948489420138e+02,-2.670541110859394394e+02,-9.713127026151805694e+02,-4.655747611397273431e+02,-5.528009418060369171e+02,-5.267656821290311200e+02,9.523238182067871094e+00,-1.147378087043762207e+00,-3.824593424797058105e-01,2.550000000000000000e+02
-1.108605384957760180e+03,-1.068724424790735156e+03,-5.080308592747760486e+02,-2.713180584740284758e+02,-9.927953838254152288e+02,-4.756290063036449283e+02,-5.638051170162561903e+02,-5.375433590655989065e+02,9.523238182067871094e+00,-1.147378087043762207e+00,-3.824593424797058105e-01,2.560000000000000000e+02
-1.130601203927036295e+03,-1.094440545043113161e+03,-5.162340773366204303e+02,-2.771110918930071421e+02,-1.013772913979422810e+03,-4.854722855876079848e+02,-5.739277961603529548e+02,-5.489712318350930218e+02,9.523238182067871094e+00,-1.147378087043762207e+00,-3.824593424797058105e-01,2.570000000000000000e+02
-1.151713729497656004e+03,-1.119747469446413106e+03,-5.241996113057684852e+02,-2.837248302818725278e+02,-1.034239307323933645e+03,-4.947140813474707102e+02,-5.838985131827457735e+02,-5.605108340098877306e+02,9.523238182067871094e+00,-1.147378087043762207e+00,-3.824593424797058105e-01,2.580000000000000000e+02
-1.172265575094428641e+03,-1.143364297220757635e+03,-5.326185087148296589e+02,-2.901577333770610494e+02,-1.054039931977762080e+03,-5.033265646939216822e+02,-5.947664140007946116e+02,-5.715467452417433378e+02,9.523238182067871094e+00,-1.147378087043762207e+00,-3.824593424797058105e-01,2.590000000000000000e+02
-1.192661163976171792e+03,-1.165210627205127821e+03,-5.418197194244071397e+02,-2.958627060509716102e+02,-1.072883094440400782e+03,-5.116788834284488985e+02,-6.069510986647769641e+02,-5.817441926097990290e+02,9.523238182067871094e+00,-1.147378087043762207e+00,-3.824593424797058105e-01,2.600000000000000000e+02
-1.213333178027268332e+03,-1.186202177461512747e+03,-5.515962088667579337e+02,-3.008710052386459211e+02,-1.090559391567624971e+03,-5.201381718311004079e+02,-6.196679994486971736e+02,-5.911083704765662787e+02,9.523238182067871094e+00,-1.147378087043762207e+00,-3.824593424797058105e-01,2.610000000000000000e+02
-1.234464782005072266e+03,-1.207157622354761315e+03,-5.614057551313594558e+02,-3.053447960746179888e+02,-1.107312048894078998e+03,-5.286361498612441210e+02,-6.313862772242932806e+02,-5.999692276266680437e+02,9.523238182067871094e+00,-1.147378087043762207e+00,-3.824593424797058105e-01,2.620000000000000000e+02
-1.255769798222739610e+03,-1.227938177687668031e+03,-5.708390152772294641e+02,-3.091750101221168734e+02,-1.124019344298427313e+03,-5.366664368426627334e+02,-6.410387204914163704e+02,-6.089794430572294459e+02,9.523238182067871094e+00,-1.147378087043762207e+00,-3.824593424797058105e-01,2.630000000000000000e+02
-1.276585331344245787e+03,-1.247627140793790659e+03,-5.799348914585762031e+02,-3.121145984076656532e+02,-1.141833031114242203e+03,-5.437813805156110902e+02,-6.489495619297176745e+02,-6.189079367588669811e+02,9.523238182067871094e+00,-1.147378087043762207e+00,-3.824593424797058105e-01,2.640000000000000000e+02
-1.296231177712054887e+03,-1.265541454187713043e+03,-5.890183334489884146e+02,-3.142814079510208103e+02,-1.161363634670121428e+03,-5.501244465796717122e+02,-6.566418446324923934e+02,-6.301410428446874903e+02,9.523238182067871094e+00,-1.147378087043762207e+00,-3.824593424797058105e-01,2.650000000000000000e+02
-1.314381877598537358e+03,-1.282120042198663896e+03,-5.982125966573812548e+02,-3.164185876580768308e+02,-1.182035855938164786e+03,-5.564264524191239616e+02,-6.656488604122500874e+02,-6.422550750513519233e+02,9.523238182067871094e+00,-1.147378087043762207e+00,-3.824593424797058105e-01,2.660000000000000000e+02
-1.331212155550653733e+03,-1.298831167832526717e+03,-6.071684822921165505e+02,-3.195619220188600593e+02,-1.202262682549620422e+03,-5.634118274264355932e+02,-6.763385160806005842e+02,-6.541389329779035506e+02,9.523238182067871094e+00,-1.147378087043762207e+00,-3.824593424797058105e-01,2.670000000000000000e+02
-1.347294666734092061e+03,-1.317105239506457110e+03,-6.153627957257040180e+02,-3.243470772063128607e+02,-1.220420865163811413e+03,-5.711533471107650257e+02,-6.877285832885609125e+02,-6.646843717289305005e+02,9.523238182067871094e+00,-1.147378087043762207e+00,-3.824593424797058105e-01,2.680000000000000000e+02
-1.363361679754996658e+03,-1.337120905019959082e+03,-6.227047339245632429e+02,-3.305436303386959480e+02,-1.235870736848725301e+03,-5.789993090704792849e+02,-6.983544388522095687e+02,-6.734367274634444129e+02,9.523238182067871094e+00,-1.147378087043762207e+00,-3.824593424797058105e-01,2.690000000000000000e+02
-1.380036396337520273e+03,-1.357433220639995398e+03,-6.297931090106703778e+02,-3.371745037525242878e+02,-1.249170448334550201e+03,-5.861475416121338640e+02,-7.073502842254483767e+02,-6.806016597290874870e+02,9.523238182067871094e+00,-1.147378087043762207e+00,-3.824593424797058105e-01,2.700000000000000000e+02
-1.397593416045776621e+03,-1.375846016815343773e+03,-6.374580110358710954e+02,-3.430540254330171592e+02,-1.261371454552024261e+03,-5.922759425874401131e+02,-7.148470983824377072e+02,-6.865503212168794107e+02,9.523238182067871094e+00,-1.147378087043762207e+00,-3.824593424797058105e-01,2.710000000000000000e+02
-1.415776992040563755e+03,-1.390954824530487258e+03,-6.459870737929882125e+02,-3.473615615812987016e+02,-1.273165045168183042e+03,-5.976445486647144207e+02,-7.215397354682809237e+02,-6.915033864773399728e+02,9.523238182067871094e+00,-1.147378087043762207e+00,-3.824593424797058105e-01,2.720000000000000000e+02
-1.433767107126426254e+03,-1.403207588962527097e+03,-6.548080876165513473e+02,-3.499709689226938281e+02,-1.284706158057562334e+03,-6.026719628091832419e+02,-7.280278937588827830e+02,-6.957833629165174898e+02,9.523238182067871094e+00,-1.147378087043762207e+00,-3.824593424797058105e-01,2.730000000000000000e+02
-1.450418755126910128e+03,-1.414661238030395907e+03,-6.629454744686522645e+02,-3.514445102289391798e+02,-1.296139897880258559e+03,-6.075175249922476723e+02,-7.346070216296925537e+02,-7.002546145401786362e+02,9.523238182067871094e+00,-1.147378087043762207e+00,-3.824593424797058105e-01,2.740000000000000000e+02
-1.464770406039163390e+03,-1.427574277761729036e+03,-6.698007049819143504e+02,-3.526997627590035336e+02,-1.308057500196144701e+03,-6.121117607078604124e+02,-7.415501707435373646e+02,-7.061805007679038226e+02,9.523238182067871094e+00,-1.147378087043762207e+00,-3.824593424797058105e-01,2.750000000000000000e+02
-1.476587838608642187e+03,-1.442887541963059448e+03,-6.754984753962394279e+02,-3.544369810346779559e+02,-1.321182741549895127e+03,-6.164658392761994037e+02,-7.493167964377080352e+02,-7.143206351828480365e+02,9.523238182067871094e+00,-1.147378087043762207e+00,-3.824593424797058105e-01,2.760000000000000000e+02
-1.486581716566337036e+03,-1.459723740000857561e+03,-6.805480199572991751e+02,-3.566081264717913655e+02,-1.335506864948837119e+03,-6.207592374845053200e+02,-7.582560001607444065e+02,-7.240454661796006803e+02,9.523238182067871094e+00,-1.147378087043762207e+00,-3.824593424797058105e-01,2.770000000000000000e+02
-1.496070190742171917e+03,-1.476180497442041087e+03,-6.852778637405449444e+02,-3.583414071141150998e+02,-1.349843477907274973e+03,-6.250312662450442076e+02,-7.680251884539720777e+02,-7.334709349555805602e+02,9.523238182067871094e+00,-1.147378087043762207e+00,-3.824593424797058105e-01,2.780000000000000000e+02
-1.506241669142763385e+03,-1.490674017660951904e+03,-6.896587335630008511e+02,-3.585014657457140856e+02,-1.362493167389743576e+03,-6.288565698397114829e+02,-7.774076246379327131e+02,-7.407521968487749291e+02,9.523238182067871094e+00,-1.147378087043762207e+00,-3.824593424797058105e-01,2.790000000000000000e+02
-1.517484369413951526e+03,-1.502769230009642115e+03,-6.936165178193271004e+02,-3.565408998474504187e+02,-1.372585727628708355e+03,-6.314829384249906070e+02,-7.849399313934238762e+02,-7.455346464838326028e+02,9.523238182067871094e+00,-1.147378087043762207e+00,-3.824593424797058105e-01,2.800000000000000000e+02
-1.529237782255941966e+03,-1.513028986093966978e+03,-6.973620715180024945e+02,-3.529577796211460736e+02,-1.380879104583484150e+03,-6.324083119778670152e+02,-7.899718378500635936e+02,-7.493168394503838954e+02,9.484992027282714844e+00,-1.185624003410339355e+00,-3.442134261131286621e-01,2.810000000000000000e+02
-1.540478023194287971e+03,-1.522280973509316027e+03,-7.012918280790502195e+02,-3.489551129777273673e+02,-1.389190591626340165e+03,-6.318684337351314753e+02,-7.932428998873676846e+02,-7.543834907410303003e+02,9.484992027282714844e+00,-1.185624003410339355e+00,-3.442134261131286621e-01,2.820000000000000000e+02
-1.550482286933661726e+03,-1.531033849700431801e+03,-7.055722155236408071e+02,-3.456081449633261400e+02,-1.398894736617612807e+03,-6.307835578530102794e+02,-7.963869720874913583e+02,-7.621893081064374655e+02,9.484992027282714844e+00,-1.185624003410339355e+00,-3.442134261131286621e-01,2.830000000000000000e+02
-1.559305212645528400e+03,-1.539411265238926717e+03,-7.099148590727813826e+02,-3.432711263631922520e+02,-1.409805629427836493e+03,-6.302326496183795825e+02,-8.007093443695864607e+02,-7.724729148901169538e+02,9.484992027282714844e+00,-1.185624003410339355e+00,-3.442134261131286621e-01,2.840000000000000000e+02
-1.567625568859039959e+03,-1.547400065881701266e+03,-7.138337535036268946e+02,-3.416606311456657750e+02,-1.420398101466656044e+03,-6.309079099517603026e+02,-8.062629824272091810e+02,-7.836287899123731222e+02,9.484992027282714844e+00,-1.185624003410339355e+00,-3.442134261131286621e-01,2.850000000000000000e+02
-1.576122320728009527e+03,-1.555014383890632871e+03,-7.171242285884088687e+02,-3.403546837215744745e+02,-1.429103031136063464e+03,-6.328970432655942204e+02,-8.120001074115768915e+02,-7.938127200655926572e+02,9.484992027282714844e+00,-1.185624003410339355e+00,-3.442134261131286621e-01,2.860000000000000000e+02
-1.584910082301019884e+03,-1.562267362800961564e+03,-7.200501998229146920e+02,-3.391200879569205426e+02,-1.435491005482690070e+03,-6.357740489800162322e+02,-8.167780552903107036e+02,-8.018379086767531589e+02,9.484992027282714844e+00,-1.185624003410339355e+00,-3.442134261131286621e-01,2.870000000000000000e+02
-1.593516041629865413e+03,-1.569124176074384650e+03,-7.230523701520446593e+02,-3.378330517344857071e+02,-1.440390516651703365e+03,-6.388148380971588267e+02,-8.202559737416695498e+02,-8.073686201286993764e+02,9.484992027282714844e+00,-1.185624003410339355e+00,-3.442134261131286621e-01,2.880000000000000000e+02
-1.601398587676274929e+03,-1.575565796066593521e+03,-7.263084080161747806e+02,-3.362755233511029473e+02,-1.445028413413626822e+03,-6.412499584061524729e+02,-8.229125801515497187e+02,-8.106308874191167888e+02,9.484992027282714844e+00,-1.185624003410339355e+00,-3.442134261131286621e-01,2.890000000000000000e+02
-1.608507109525853821e+03,-1.581658723490378179e+03,-7.296149452463403122e+02,-3.342052401102773729e+02,-1.450091883728627636e+03,-6.425680171667627292e+02,-8.253372253670258942e+02,-8.121448977683305657e+02,9.484992027282714844e+00,-1.185624003410339355e+00,-3.442134261131286621e-01,2.900000000000000000e+02
-1.615309028230216427e+03,-1.587475284236991683e+03,-7.326653014521031082e+02,-3.316777913566666030e+02,-1.455494260629863675e+03,-6.427665480949272023e+02,-8.276464327253604552e+02,-8.126865149616284043e+02,9.484992027282714844e+00,-1.185624003410339355e+00,-3.442134261131286621e-01,2.910000000000000000e+02
-1.622205357291940800e+03,-1.592926633562992720e+03,-7.353650424631309761e+02,-3.292085564049843924e+02,-1.460840920944135860e+03,-6.423198413371835613e+02,-8.296575788398157556e+02,-8.132745068515266667e+02,9.484992027282714844e+00,-1.185624003410339355e+00,-3.442134261131286621e-01,2.920000000000000000e+02
-1.628892697388182114e+03,-1.597762724697276326e+03,-7.378447754066078232e+02,-3.274934834737036908e+02,-1.465984260994539227e+03,-6.418072043353658955e+02,-8.315524416704580517e+02,-8.149203358984251508e+02,9.484992027282714844e+00,-1.185624003410339355e+00,-3.442134261131286621e-01,2.930000000000000000e+02
-1.634396457389413627e+03,-1.601836945357056265e+03,-7.402368133009824760e+02,-3.268824740646182363e+02,-1.471134167640765554e+03,-6.414654346162319598e+02,-8.341634768274781209e+02,-8.181984190253598399e+02,9.484992027282714844e+00,-1.185624003410339355e+00,-3.442134261131286621e-01,2.940000000000000000e+02
-1.637923469963720208e+03,-1.605379472944287727e+03,-7.425534623164110144e+02,-3.270946380372993190e+02,-1.476538279944848455e+03,-6.410634199197290854e+02,-8.383789896938734501e+02,-8.229630937886773836e+02,9.484992027282714844e+00,-1.185624003410339355e+00,-3.442134261131286621e-01,2.950000000000000000e+02
-1.639817902357241110e+03,-1.608904738676552370e+03,-7.448229283496841617e+02,-3.274111804486719848e+02,-1.482133385500434770e+03,-6.402148891305996585e+02,-8.441342632164743236e+02,-8.284650268429263633e+02,9.484992027282714844e+00,-1.185624003410339355e+00,-3.442134261131286621e-01,2.960000000000000000e+02
-1.641611070668472166e+03,-1.612722797332842674e+03,-7.472550498280781994e+02,-3.271127972203628360e+02,-1.487492175222132801e+03,-6.388285359064564091e+02,-8.500194617611421108e+02,-8.337776837594027484e+02,9.484992027282714844e+00,-1.185624003410339355e+00,-3.442134261131286621e-01,2.970000000000000000e+02
-1.644900061081939839e+03,-1.616504039546282456e+03,-7.501218580721390481e+02,-3.257703889039280511e+02,-1.492051466317700260e+03,-6.372879849948894844e+02,-8.540225412756121841e+02,-8.382029519026881417e+02,9.484992027282714844e+00,-1.185624003410339355e+00,-3.442134261131286621e-01,2.980000000000000000e+02
-1.649953624191478639e+03,-1.619418234170786491e+03,-7.533711994859037304e+02,-3.232257145906933147e+02,-1.495375278914051478e+03,-6.362299715781459781e+02,-8.548765356815722498e+02,-8.414272831589864836e+02,9.484992027282714844e+00,-1.185624003410339355e+00,-3.442134261131286621e-01,2.990000000000000000e+02
-1.655356392135957321e+03,-1.620837685761028069e+03,-7.563965670199418128e+02,-3.194503798713258220e+02,-1.497289797055567533e+03,-6.361407261294076534e+02,-8.529030541712069180e+02,-8.434716481148760749e+02,9.484992027282714844e+00,-1.185624003410339355e+00,-3.442134261131286621e-01,3.000000000000000000e+02
-1.659127142456451111e+03,-1.620981515541244789e+03,-7.583332185823335294e+02,-3.145288652149770314e+02,-1.497909622561202468e+03,-6.370603872555087719e+02,-8.497065448944922537e+02,-8.446016388299497066e+02,9.484992027282714844e+00,-1.185624003410339355e+00,-3.442134261131286621e-01,3.010000000000000000e+02
-1.660349984718081714e+03,-1.620837967089282756e+03,-7.587199634002788571e+02,-3.087935117409622308e+02,-1.497621880545202885e+03,-6.385270588613774407e+02,-8.470965084325623593e+02,-8.452819262024107729e+02,9.484992027282714844e+00,-1.185624003410339355e+00,-3.442134261131286621e-01,3.020000000000000000e+02
-1.659817649866560032e+03,-1.621376841166669237e+03,-7.579106681111243233e+02,-3.029207609480852170e+02,-1.497011236969651463e+03,-6.397506272767896007e+02,-8.461587168712688936e+02,-8.460967111512848078e+02,9.484992027282714844e+00,-1.185624003410339355e+00,-3.442134261131286621e-01,3.030000000000000000e+02
-1.659124514129102408e+03,-1.622774669308740613e+03,-7.567935049500463265e+02,-2.977935804078892943e+02,-1.496672212028635386e+03,-6.399588976251376380e+02,-8.470605691941605073e+02,-8.475661734245850312e+02,9.484992027282714844e+00,-1.185624003410339355e+00,-3.442134261131286621e-01,3.040000000000000000e+02
-1.659170708274184108e+03,-1.624389521136158237e+03,-7.560479385126857323e+02,-2.941340074254619594e+02,-1.496963755603013169e+03,-6.388028929956093407e+02,-8.494292364900159100e+02,-8.499315534778336314e+02,9.484992027282714844e+00,-1.185624003410339355e+00,-3.442134261131286621e-01,3.050000000000000000e+02
-1.659578981363570620e+03,-1.625495598743119672e+03,-7.556517489227030637e+02,-2.921084229964747010e+02,-1.497852072860553108e+03,-6.365877475872526929e+02,-8.527548580350475049e+02,-8.530370990230466077e+02,9.484992027282714844e+00,-1.185624003410339355e+00,-3.442134261131286621e-01,3.060000000000000000e+02
-1.659506209214696582e+03,-1.626031981960559278e+03,-7.550979374288410781e+02,-2.911707301585431651e+02,-1.498959385253923301e+03,-6.340916327352097142e+02,-8.565143682715161049e+02,-8.563712611120110978e+02,9.484992027282714844e+00,-1.185624003410339355e+00,-3.442134261131286621e-01,3.070000000000000000e+02
-1.658853788535840749e+03,-1.626600809897600357e+03,-7.540744336929637939e+02,-2.903058597161837042e+02,-1.499780700027692546e+03,-6.320002497910817283e+02,-8.601571511111903874e+02,-8.591888210740394243e+02,9.484992027282714844e+00,-1.185624003410339355e+00,-3.442134261131286621e-01,3.080000000000000000e+02
-1.658494258587004651e+03,-1.627721777373335726e+03,-7.528824511661132419e+02,-2.885754319609172853e+02,-1.499929810133345654e+03,-6.303535648193312682e+02,-8.632073055227668874e+02,-8.606813783097252326e+02,9.484992027282714844e+00,-1.185624003410339355e+00,-3.442134261131286621e-01,3.090000000000000000e+02
-1.659258874835893039e+03,-1.629131084227972678e+03,-7.521517102806076309e+02,-2.856438187366848069e+02,-1.499305510062799613e+03,-6.285023223043616554e+02,-8.654483100815247099e+02,-8.602703545089880208e+02,9.484992027282714844e+00,-1.185624003410339355e+00,-3.442134261131286621e-01,3.100000000000000000e+02
-1.660829434715273464e+03,-1.629875760575210961e+03,-7.521619382465038370e+02,-2.819315981921747607e+02,-1.498141883889162500e+03,-6.256825832737588371e+02,-8.669276221111920222e+02,-8.580062378416699858e+02,9.484992027282714844e+00,-1.185624003410339355e+00,-3.442134261131286621e-01,3.110000000000000000e+02
-1.661807630087503412e+03,-1.629133099322961243e+03,-7.524943018893120552e+02,-2.782888081635858271e+02,-1.496941921797246096e+03,-6.217415687572049592e+02,-8.676949562118614949e+02,-8.548232652692335023e+02,9.370253562927246094e+00,-1.223870038986206055e+00,-4.971971809864044189e-01,3.120000000000000000e+02
-1.660972271335914002e+03,-1.626944158467790203e+03,-7.523859701334474721e+02,-2.754471570619969043e+02,-1.496274013033945948e+03,-6.173632201179035519e+02,-8.675578755295487099e+02,-8.522703739639389369e+02,9.370253562927246094e+00,-1.223870038986206055e+00,-4.971971809864044189e-01,3.130000000000000000e+02
-1.658444427660329893e+03,-1.624144930327242491e+03,-7.514296731817579484e+02,-2.736513195718653151e+02,-1.496451025591090229e+03,-6.135682392202070332e+02,-8.662067819714211510e+02,-8.516509279129492143e+02,9.370253562927246094e+00,-1.223870038986206055e+00,-4.971971809864044189e-01,3.140000000000000000e+02
-1.655572523033413972e+03,-1.621600558460037064e+03,-7.499217830909626628e+02,-2.726732789206853340e+02,-1.497250346069373791e+03,-6.109326887157203601e+02,-8.637036764927746617e+02,-8.530927193801167050e+02,9.370253562927246094e+00,-1.223870038986206055e+00,-4.971971809864044189e-01,3.150000000000000000e+02
-1.653671918260995881e+03,-1.619510067066350075e+03,-7.485392744419950759e+02,-2.720699864062037250e+02,-1.497919972680869932e+03,-6.092175689390949174e+02,-8.608524872956722902e+02,-8.553301233203444554e+02,9.370253562927246094e+00,-1.223870038986206055e+00,-4.971971809864044189e-01,3.160000000000000000e+02
-1.652881591668582587e+03,-1.617410753394354970e+03,-7.476896151148059744e+02,-2.713989458907722110e+02,-1.497564306718880289e+03,-6.077161316076577577e+02,-8.589519885614834038e+02,-8.565175719916496746e+02,9.370253562927246094e+00,-1.223870038986206055e+00,-4.971971809864044189e-01,3.170000000000000000e+02
-1.652197742836235648e+03,-1.614763494163576979e+03,-7.471521513918287383e+02,-2.702957080824326113e+02,-1.495679603076566991e+03,-6.059829148621025752e+02,-8.589512195552047160e+02,-8.555080718391623122e+02,9.370253562927246094e+00,-1.223870038986206055e+00,-4.971971809864044189e-01,3.180000000000000000e+02
-1.650511207092569293e+03,-1.611467948985257408e+03,-7.462893272673393312e+02,-2.685323708417681701e+02,-1.492420687351893321e+03,-6.042478020331773223e+02,-8.606259779740610156e+02,-8.525496770311706314e+02,9.370253562927246094e+00,-1.223870038986206055e+00,-4.971971809864044189e-01,3.190000000000000000e+02
-1.647539621060093623e+03,-1.607828670844693079e+03,-7.445774385739827039e+02,-2.661389884363898091e+02,-1.488388341252145437e+03,-6.031198801007883503e+02,-8.624995621797713738e+02,-8.488265313750536052e+02,9.370253562927246094e+00,-1.223870038986206055e+00,-4.971971809864044189e-01,3.200000000000000000e+02
-1.643819099994710996e+03,-1.604116910642600033e+03,-7.419676400527630449e+02,-2.634571087433932917e+02,-1.484157185840658030e+03,-6.028557266121169960e+02,-8.626891818364739493e+02,-8.452956120159537932e+02,9.370253562927246094e+00,-1.223870038986206055e+00,-4.971971809864044189e-01,3.210000000000000000e+02
-1.639950404963637311e+03,-1.600276116494955659e+03,-7.388389618460225847e+02,-2.609464868200955152e+02,-1.479987021183313118e+03,-6.028947000137836767e+02,-8.601052591228062738e+02,-8.418963589328069475e+02,9.370253562927246094e+00,-1.223870038986206055e+00,-4.971971809864044189e-01,3.220000000000000000e+02
-1.635983812908762729e+03,-1.596063602705355379e+03,-7.357078759049114751e+02,-2.588196553846335064e+02,-1.475956074450974484e+03,-6.021466602391063816e+02,-8.551467297322035392e+02,-8.378139671513686153e+02,9.370253562927246094e+00,-1.223870038986206055e+00,-4.971971809864044189e-01,3.230000000000000000e+02
-1.631539628261245980e+03,-1.591410130636695612e+03,-7.329562455794192601e+02,-2.568504514308667694e+02,-1.472257331524250731e+03,-5.998273724215886205e+02,-8.493837834881408071e+02,-8.324418856457925813e+02,9.370253562927246094e+00,-1.223870038986206055e+00,-4.971971809864044189e-01,3.240000000000000000e+02
-1.626411635507581650e+03,-1.586554103346798229e+03,-7.306961073556603878e+02,-2.546025954140297927e+02,-1.469218365699602600e+03,-5.961106452281477459e+02,-8.444738319438154122e+02,-8.260798157903848278e+02,9.370253562927246094e+00,-1.223870038986206055e+00,-4.971971809864044189e-01,3.250000000000000000e+02
-1.620939389319477186e+03,-1.581787080750197447e+03,-7.287533393242142665e+02,-2.518835106604813063e+02,-1.466957460928979572e+03,-5.919917329563038493e+02,-8.411496371500993519e+02,-8.197293073811101749e+02,9.370253562927246094e+00,-1.223870038986206055e+00,-4.971971809864044189e-01,3.260000000000000000e+02
-1.615757240616797390e+03,-1.577115219346264894e+03,-7.267563085484441672e+02,-2.489494223867911842e+02,-1.465054351550179035e+03,-5.884788093711687225e+02,-8.389991877039055908e+02,-8.142667395704794444e+02,9.370253562927246094e+00,-1.223870038986206055e+00,-4.971971809864044189e-01,3.270000000000000000e+02
-1.611194954265830802e+03,-1.572243321641747116e+03,-7.243286528711828396e+02,-2.462116510974262837e+02,-1.462668071949925434e+03,-5.858356148276657223e+02,-8.370840068697889365e+02,-8.098342590093175204e+02,9.370253562927246094e+00,-1.223870038986206055e+00,-4.971971809864044189e-01,3.280000000000000000e+02
-1.606936692857385424e+03,-1.566946502994227785e+03,-7.213200443637271064e+02,-2.437535473323323458e+02,-1.459091346664380126e+03,-5.835057140263497786e+02,-8.348097033693420599e+02,-8.060018760669532867e+02,9.370253562927246094e+00,-1.223870038986206055e+00,-4.971971809864044189e-01,3.290000000000000000e+02
-1.602251366646717543e+03,-1.561467785541348348e+03,-7.179104589707519608e+02,-2.412231873554112553e+02,-1.454244884685730995e+03,-5.806898422697580600e+02,-8.323165425319747328e+02,-8.024560265261616223e+02,9.370253562927246094e+00,-1.223870038986206055e+00,-4.971971809864044189e-01,3.300000000000000000e+02
-1.596566068285673282e+03,-1.556495243268141166e+03,-7.144718705519993591e+02,-2.382839408849838492e+02,-1.448641977803407372e+03,-5.769723979490427155e+02,-8.301695894747471129e+02,-7.994558940440432480e+02,9.370253562927246094e+00,-1.223870038986206055e+00,-4.971971809864044189e-01,3.310000000000000000e+02
-1.589884040450450357e+03,-1.552629215221387540e+03,-7.112937015255984079e+02,-2.351680231339414604e+02,-1.442895007861533941e+03,-5.724584378242204821e+02,-8.287625435673403445e+02,-7.975821529617819579e+02,9.370253562927246094e+00,-1.223870038986206055e+00,-4.971971809864044189e-01,3.320000000000000000e+02
-1.582734237788638893e+03,-1.549745596250117842e+03,-7.084169132999195426e+02,-2.326763496452661002e+02,-1.437293366018457618e+03,-5.674681705791253989e+02,-8.280215465767200840e+02,-7.970376285339955302e+02,9.446745872497558594e+00,-1.185624003410339355e+00,-3.824593424797058105e-01,3.330000000000000000e+02
-1.575758264181504501e+03,-1.546829415981158718e+03,-7.057006350928299980e+02,-2.314905410416329232e+02,-1.431834389888340866e+03,-5.622342534360574291e+02,-8.276066966441302384e+02,-7.972240560114780692e+02,9.446745872497558594e+00,-1.185624003410339355e+00,-3.824593424797058105e-01,3.340000000000000000e+02
-1.569303396524377831e+03,-1.542506212532965492e+03,-7.030059404482112768e+02,-2.314006435497890379e+02,-1.426557249723629411e+03,-5.568921735327198803e+02,-8.272639636339263234e+02,-7.970498846303747769e+02,9.446745872497558594e+00,-1.185624003410339355e+00,-3.824593424797058105e-01,3.350000000000000000e+02
-1.563328855165752884e+03,-1.535928208685070331e+03,-7.002880886082691632e+02,-2.312440537867764760e+02,-1.421713177102220243e+03,-5.516199933533176818e+02,-8.268770164134391507e+02,-7.957069571443630593e+02,9.446745872497558594e+00,-1.185624003410339355e+00,-3.824593424797058105e-01,3.360000000000000000e+02
-1.557629371013162654e+03,-1.527337144706658592e+03,-6.975521555682544204e+02,-2.297369351066788568e+02,-1.417545592342203236e+03,-5.466211189631007983e+02,-8.261708755620185229e+02,-7.931864812006143666e+02,9.446745872497558594e+00,-1.185624003410339355e+00,-3.824593424797058105e-01,3.370000000000000000e+02
-1.552105079391313438e+03,-1.517855106797565441e+03,-6.948254462601473733e+02,-2.265186542059623207e+02,-1.413939363806292022e+03,-5.419235625179766203e+02,-8.244966869013057931e+02,-7.900459383867978431e+02,9.446745872497558594e+00,-1.185624003410339355e+00,-3.824593424797058105e-01,3.380000000000000000e+02
-1.546818699759903438e+03,-1.508695696153162771e+03,-6.922405627778272219e+02,-2.224567267763839027e+02,-1.410372092032420824e+03,-5.372633190353565169e+02,-8.211309866518765830e+02,-7.866916713461735071e+02,9.446745872497558594e+00,-1.185624003410339355e+00,-3.824593424797058105e-01,3.390000000000000000e+02
-1.541812327061524002e+03,-1.500462193762780771e+03,-6.900687928519220122e+02,-2.188859629140079051e+02,-1.406248262014812099e+03,-5.322519110234356958e+02,-8.159763413385841204e+02,-7.829162656803259779e+02,9.446745872497558594e+00,-1.185624003410339355e+00,-3.824593424797058105e-01,3.400000000000000000e+02
-1.536882783344110294e+03,-1.493069386346054216e+03,-6.884861520698336790e+02,-2.164256265985629852e+02,-1.401261873916656668e+03,-5.266948717390396268e+02,-8.099996764740507160e+02,-7.781703346279948619e+02,9.446745872497558594e+00,-1.185624003410339355e+00,-3.824593424797058105e-01,3.410000000000000000e+02
-1.531563682851538260e+03,-1.486222279192559881e+03,-6.871760463579846601e+02,-2.144306714544250099e+02,-1.395440545705353543e+03,-5.207577669668769431e+02,-8.048390604333297915e+02,-7.722915309797733698e+02,9.446745872497558594e+00,-1.185624003410339355e+00,-3.824593424797058105e-01,3.420000000000000000e+02
-1.525377765111974668e+03,-1.479872597932253711e+03,-6.852175311893563503e+02,-2.115950753213442113e+02,-1.388933323628366907e+03,-5.148721680385790478e+02,-8.017167046966113730e+02,-7.659251709357106392e+02,9.446745872497558594e+00,-1.185624003410339355e+00,-3.824593424797058105e-01,3.430000000000000000e+02
-1.518182061806597858e+03,-1.474175478928509165e+03,-6.816038267959590939e+02,-2.071841335742668662e+02,-1.381891833380497246e+03,-5.095248057495759895e+02,-8.004958032412846478e+02,-7.601722453868544562e+02,9.446745872497558594e+00,-1.185624003410339355e+00,-3.824593424797058105e-01,3.440000000000000000e+02
-1.510345334010822171e+03,-1.469063565671017159e+03,-6.761324621898131682e+02,-2.017955914170922824e+02,-1.374601425478250803e+03,-5.050802370015671841e+02,-7.997334713129299644e+02,-7.557763281340207868e+02,9.446745872497558594e+00,-1.185624003410339355e+00,-3.824593424797058105e-01,3.450000000000000000e+02
-1.502604382658783152e+03,-1.463976501708443266e+03,-6.698552536174223633e+02,-1.969585430885830419e+02,-1.367599522552590997e+03,-5.016212493128236929e+02,-7.977594209065196083e+02,-7.526272627590171851e+02,9.446745872497558594e+00,-1.185624003410339355e+00,-3.824593424797058105e-01,3.460000000000000000e+02
-1.495651830003665964e+03,-1.458117404412814039e+03,-6.645075824543819181e+02,-1.939354316784206276e+02,-1.361436022204037045e+03,-4.987890064959419760e+02,-7.939187817198253470e+02,-7.500169802660909681e+02,9.446745872497558594e+00,-1.185624003410339355e+00,-3.824593424797058105e-01,3.470000000000000000e+02
-1.489697206585201457e+03,-1.451016256659962210e+03,-6.612396335638483151e+02,-1.927896799318471039e+02,-1.356147019772278782e+03,-4.958091947713962782e+02,-7.889590912458069170e+02,-7.473090151227554543e+02,9.446745872497558594e+00,-1.185624003410339355e+00,-3.824593424797058105e-01,3.480000000000000000e+02
-1.484302230680134016e+03,-1.442861040342553451e+03,-6.596956207694718159e+02,-1.924765860631184751e+02,-1.350965123852933175e+03,-4.919020326928682607e+02,-7.842666897051469732e+02,-7.443098603633204675e+02,9.446745872497558594e+00,-1.185624003410339355e+00,-3.824593424797058105e-01,3.490000000000000000e+02
-1.478636502355252333e+03,-1.434322732751890726e+03,-6.582633840075611715e+02,-1.917749332861005769e+02,-1.344695117942931120e+03,-4.869132534905786542e+02,-7.806366125702234058e+02,-7.410277120945961542e+02,9.446745872497558594e+00,-1.185624003410339355e+00,-3.824593424797058105e-01,3.500000000000000000e+02
-1.472014380087455038e+03,-1.426113364334745938e+03,-6.552961898036539878e+02,-1.901627070572046705e+02,-1.336549428524204131e+03,-4.815832545325788487e+02,-7.776170748103240840e+02,-7.372248143189780194e+02,9.446745872497558594e+00,-1.185624003410339355e+00,-3.824593424797058105e-01,3.510000000000000000e+02
-1.464335592324915069e+03,-1.418700536888252600e+03,-6.502441867768487782e+02,-1.879087400317333731e+02,-1.326743918709024001e+03,-4.770061340792963165e+02,-7.739537246301654250e+02,-7.324047257951348229e+02,9.446745872497558594e+00,-1.185624003410339355e+00,-3.824593424797058105e-01,3.520000000000000000e+02
-1.456072567703608684e+03,-1.412295369799815262e+03,-6.437886796393186160e+02,-1.854893604477899771e+02,-1.316332112715566609e+03,-4.736153921935485869e+02,-7.687372592865167462e+02,-7.263509071984357206e+02,9.446745872497558594e+00,-1.185624003410339355e+00,-3.824593424797058105e-01,3.530000000000000000e+02
-1.447805153987379526e+03,-1.406867033918699008e+03,-6.370350447818304929e+02,-1.830270641536660605e+02,-1.306418673845206285e+03,-4.706455702484777248e+02,-7.622671279453336410e+02,-7.196245296853696800e+02,9.446745872497558594e+00,-1.185624003410339355e+00,-3.824593424797058105e-01,3.540000000000000000e+02
-1.439683417391315288e+03,-1.401986785908020011e+03,-6.306348469781974018e+02,-1.802764380602966412e+02,-1.297452836827274041e+03,-4.667078562110257280e+02,-7.559145171937213945e+02,-7.133828325042114784e+02,9.446745872497558594e+00,-1.185624003410339355e+00,-3.824593424797058105e-01,3.550000000000000000e+02
-1.431293081790382303e+03,-1.396699922046854226e+03,-6.245953020616036611e+02,-1.770382414953071475e+02,-1.289149002085024676e+03,-4.610420764039954520e+02,-7.511131238761837494e+02,-7.085529555190864812e+02,9.446745872497558594e+00,-1.185624003410339355e+00,-3.824593424797058105e-01,3.560000000000000000e+02
-1.422050647865298515e+03,-1.389792958619993897e+03,-6.187362985421807480e+02,-1.734593670262881915e+02,-1.280955922718148713e+03,-4.542462940650625569e+02,-7.483139168911761772e+02,-7.051065582716310018e+02,9.446745872497558594e+00,-1.185624003410339355e+00,-3.824593424797058105e-01,3.570000000000000000e+02
-1.411765891689393811e+03,-1.380499791459234302e+03,-6.131455210948346348e+02,-1.699135160050022932e+02,-1.272563546609794457e+03,-4.477605822971290763e+02,-7.467453788387604163e+02,-7.021549968214046658e+02,9.408499717712402344e+00,-1.262115836143493652e+00,-5.354431271553039551e-01,3.580000000000000000e+02
-1.400867612518146871e+03,-1.369156254435521532e+03,-6.081435931129473147e+02,-1.666595902780557026e+02,-1.264036996845874455e+03,-4.425977433956563800e+02,-7.451131017883257073e+02,-6.987980873884378070e+02,9.408499717712402344e+00,-1.262115836143493652e+00,-5.354431271553039551e-01,3.590000000000000000e+02
-1.390128452063294844e+03,-1.357207461127516126e+03,-6.039155214793388495e+02,-1.636939823820625861e+02,-1.255602828175267859e+03,-4.385490303937763201e+02,-7.425959448001556211e+02,-6.949192332469142457e+02,9.408499717712402344e+00,-1.262115836143493652e+00,-5.354431271553039551e-01,3.600000000000000000e+02
-1.380200568514471570e+03,-1.346459625290304530e+03,-6.003098707862425272e+02,-1.609308117064695125e+02,-1.247373379774941441e+03,-4.345838450513927000e+02,-7.392799979856921482e+02,-6.911614697420520770e+02,9.408499717712402344e+00,-1.262115836143493652e+00,-5.354431271553039551e-01,3.610000000000000000e+02
-1.371382391361105874e+03,-1.338077124307253371e+03,-5.970264758576169015e+02,-1.584402025319132008e+02,-1.239250480515318031e+03,-4.299486009269865008e+02,-7.357227850841720738e+02,-6.881368454179046239e+02,9.408499717712402344e+00,-1.262115836143493652e+00,-5.354431271553039551e-01,3.620000000000000000e+02
-1.363708938618485718e+03,-1.332004524207494114e+03,-5.939283696704542308e+02,-1.564353102606514767e+02,-1.231021562520774069e+03,-4.248433976408250601e+02,-7.321620279196970387e+02,-6.856797092217625504e+02,9.408499717712402344e+00,-1.262115836143493652e+00,-5.354431271553039551e-01,3.630000000000000000e+02
-1.357100507798065792e+03,-1.327124919867444305e+03,-5.910920048462701288e+02,-1.550014868672728880e+02,-1.222546355986611388e+03,-4.200746615486989413e+02,-7.282149550103297315e+02,-6.829151487549499961e+02,9.408499717712402344e+00,-1.262115836143493652e+00,-5.354431271553039551e-01,3.640000000000000000e+02
-1.351323292959167247e+03,-1.321944600919804316e+03,-5.885748855830184993e+02,-1.538708948996149957e+02,-1.213960978703698856e+03,-4.161495310348259409e+02,-7.234312621186874139e+02,-6.790993527950779480e+02,9.408499717712402344e+00,-1.262115836143493652e+00,-5.354431271553039551e-01,3.650000000000000000e+02
-1.345866140178812657e+03,-1.315363342075174160e+03,-5.862461489409882915e+02,-1.525139541274222665e+02,-1.205810707595955819e+03,-4.127619966243594263e+02,-7.181210171850552797e+02,-6.744227980186718696e+02,9.408499717712402344e+00,-1.262115836143493652e+00,-5.354431271553039551e-01,3.660000000000000000e+02
-1.340050946894389199e+03,-1.307180189214309394e+03,-5.839257889190367905e+02,-1.504942693777270506e+02,-1.198952337910838878e+03,-4.091053649590212444e+02,-7.134815987355805191e+02,-6.699735294519912259e+02,9.408499717712402344e+00,-1.262115836143493652e+00,-5.354431271553039551e-01,3.670000000000000000e+02
-1.333445124034207083e+03,-1.298133043013792985e+03,-5.816427614260658174e+02,-1.477977836708871564e+02,-1.194095900948780127e+03,-4.046077404975198988e+02,-7.106805072597359185e+02,-6.668248873340203318e+02,9.408499717712402344e+00,-1.262115836143493652e+00,-5.354431271553039551e-01,3.680000000000000000e+02
-1.326210026906684561e+03,-1.289446280614473835e+03,-5.796277741156086449e+02,-1.448806656034280422e+02,-1.191169701912823712e+03,-3.993461842390229322e+02,-7.096437142631832558e+02,-6.650265494945172122e+02,9.408499717712402344e+00,-1.262115836143493652e+00,-5.354431271553039551e-01,3.690000000000000000e+02
-1.318947073910224390e+03,-1.282060751016487529e+03,-5.779409851898715260e+02,-1.424200393284581878e+02,-1.188996902113100759e+03,-3.938376229270506883e+02,-7.087589796266528310e+02,-6.633787847398382382e+02,9.408499717712402344e+00,-1.262115836143493652e+00,-5.354431271553039551e-01,3.700000000000000000e+02
-1.312061018669732675e+03,-1.275981343865357303e+03,-5.761205581637807427e+02,-1.409576088578317012e+02,-1.185703916571236505e+03,-3.885390574600046421e+02,-7.059763739971514269e+02,-6.601911839269232587e+02,9.408499717712402344e+00,-1.262115836143493652e+00,-5.354431271553039551e-01,3.710000000000000000e+02
-1.305225821630750943e+03,-1.270237232025321646e+03,-5.733270527444049094e+02,-1.406385545823086431e+02,-1.179739722275918666e+03,-3.835677946157670704e+02,-7.004519286741788164e+02,-6.544066825367082174e+02,9.408499717712402344e+00,-1.262115836143493652e+00,-5.354431271553039551e-01,3.720000000000000000e+02
-1.297548588279622891e+03,-1.263568069628342073e+03,-5.689574142578347846e+02,-1.411575672492763260e+02,-1.170783511991819296e+03,-3.788241389354943749e+02,-6.932625034344957839e+02,-6.462100020569511116e+02,9.408499717712402344e+00,-1.262115836143493652e+00,-5.354431271553039551e-01,3.730000000000000000e+02
-1.288392180587291477e+03,-1.255344719208902461e+03,-5.631925337180327915e+02,-1.418974661815957461e+02,-1.159811393636592584e+03,-3.742552588699754779e+02,-6.864997434683505162e+02,-6.367504526051754965e+02,9.408499717712402344e+00,-1.262115836143493652e+00,-5.354431271553039551e-01,3.740000000000000000e+02
-1.278115798485644063e+03,-1.245953958360520346e+03,-5.569409998318790258e+02,-1.421694927957955770e+02,-1.148265561180567602e+03,-3.699220618171989372e+02,-6.815409562061954603e+02,-6.273393474409376722e+02,9.408499717712402344e+00,-1.262115836143493652e+00,-5.354431271553039551e-01,3.750000000000000000e+02
-1.267978842628991515e+03,-1.236307119726883684e+03,-5.512010515557127519e+02,-1.414634054272880803e+02,-1.137046362860851559e+03,-3.658290011905696701e+02,-6.780739102595828172e+02,-6.188044652065173068e+02,9.408499717712402344e+00,-1.262115836143493652e+00,-5.354431271553039551e-01,3.760000000000000000e+02
-1.259181081201289089e+03,-1.226937059642025361e+03,-5.464065342345488716e+02,-1.396016587400004028e+02,-1.126177149324722450e+03,-3.617544294816580077e+02,-6.747057479506618165e+02,-6.113912237229041011e+02,9.408499717712402344e+00,-1.262115836143493652e+00,-5.354431271553039551e-01,3.770000000000000000e+02
-1.251835212843273439e+03,-1.217551550362977878e+03,-5.422926645171669406e+02,-1.367511687835340126e+02,-1.115340280966585397e+03,-3.573361026869397392e+02,-6.704359023839756446e+02,-6.050783210309714377e+02,9.408499717712402344e+00,-1.262115836143493652e+00,-5.354431271553039551e-01,3.780000000000000000e+02
-1.244786394648728901e+03,-1.207485652294660213e+03,-5.382603787273262697e+02,-1.333270963106781437e+02,-1.104642752073159727e+03,-3.523745443141547184e+02,-6.655215254216906260e+02,-5.998985374978507252e+02,9.408499717712402344e+00,-1.262115836143493652e+00,-5.354431271553039551e-01,3.790000000000000000e+02
-1.236450582227053474e+03,-1.196585362512471875e+03,-5.337993575845757732e+02,-1.298472777630468045e+02,-1.094778298081978619e+03,-3.470596428028884475e+02,-6.609715371223705915e+02,-5.959794611610775519e+02,9.408499717712402344e+00,-1.262115836143493652e+00,-5.354431271553039551e-01,3.800000000000000000e+02
-1.225953663931771189e+03,-1.185600782619834717e+03,-5.286153912887288016e+02,-1.267915089571292810e+02,-1.086387992712817777e+03,-3.418832660127786767e+02,-6.573251603949618129e+02,-5.933236879697008135e+02,9.408499717712402344e+00,-1.262115836143493652e+00,-5.354431271553039551e-01,3.810000000000000000e+02
-1.213649026577230188e+03,-1.175623208262083836e+03,-5.225439074414756533e+02,-1.244711756326241812e+02,-1.079257250131498495e+03,-3.372923279612928127e+02,-6.540212437322841197e+02,-5.915496448419036142e+02,9.408499717712402344e+00,-1.262115836143493652e+00,-5.354431271553039551e-01,3.820000000000000000e+02
-1.200690703369965604e+03,-1.167061273869969227e+03,-5.155698379860607474e+02,-1.229026093947122718e+02,-1.072193485299702616e+03,-3.334103328736678122e+02,-6.499751621429425086e+02,-5.898338054896254334e+02,9.408499717712402344e+00,-1.262115836143493652e+00,-5.354431271553039551e-01,3.830000000000000000e+02
-1.188177773118039113e+03,-1.159161537810849950e+03,-5.080530353689221101e+02,-1.217269289638966256e+02,-1.063814621672143176e+03,-3.300574719014616676e+02,-6.446910674653468050e+02,-5.871656687352652852e+02,9.408499717712402344e+00,-1.262115836143493652e+00,-5.354431271553039551e-01,3.840000000000000000e+02
-1.176644976289092483e+03,-1.150571108563573944e+03,-5.008679658950192106e+02,-1.202811203522289816e+02,-1.053625807689963267e+03,-3.269788246964690188e+02,-6.387252514532128771e+02,-5.828204937258683458e+02,9.408499717712402344e+00,-1.262115836143493652e+00,-4.207052886486053467e-01,3.850000000000000000e+02
-1.166186662125303201e+03,-1.140452242631616627e+03,-4.951013286027706499e+02,-1.178952843235849741e+02,-1.042444730697629211e+03,-3.240015547065549981e+02,-6.330816011000179060e+02,-5.767759522785428317e+02,9.408499717712402344e+00,-1.262115836143493652e+00,-4.207052886486053467e-01,3.860000000000000000e+02
-1.156830353466233419e+03,-1.129158042390949049e+03,-4.913662681573755435e+02,-1.143369949736102171e+02,-1.031779245976940501e+03,-3.209719667008057513e+02,-6.282374453102765983e+02,-5.697609560791431704e+02,9.408499717712402344e+00,-1.262115836143493652e+00,-4.207052886486053467e-01,3.870000000000000000e+02
-1.148613419283994517e+03,-1.117899746446209974e+03,-4.892609608259267588e+02,-1.101292022845577776e+02,-1.022660667566946358e+03,-3.176291654983101580e+02,-6.238086235816449516e+02,-5.628200376975626114e+02,9.408499717712402344e+00,-1.262115836143493652e+00,-4.207052886486053467e-01,3.880000000000000000e+02
-1.141278990573053306e+03,-1.107785449159345035e+03,-4.874930254163781456e+02,-1.064220854301065629e+02,-1.014880769827259428e+03,-3.136607912543013299e+02,-6.191485272396409982e+02,-5.566674784721006972e+02,9.408499717712402344e+00,-1.262115836143493652e+00,-4.207052886486053467e-01,3.890000000000000000e+02
-1.134045717694796394e+03,-1.099127083903143784e+03,-4.846523920522729441e+02,-1.043670310144175346e+02,-1.007237826223529737e+03,-3.089599078900901077e+02,-6.141824713762694046e+02,-5.513386982856274017e+02,9.408499717712402344e+00,-1.262115836143493652e+00,-4.207052886486053467e-01,3.900000000000000000e+02
-1.125907359309318281e+03,-1.091524840937213867e+03,-4.800579970550083999e+02,-1.043462903818312952e+02,-9.985561644152742247e+02,-3.037984167473650814e+02,-6.095490605505972326e+02,-5.464214393012409801e+02,9.408499717712402344e+00,-1.262115836143493652e+00,-4.207052886486053467e-01,3.910000000000000000e+02
-1.116353079566431688e+03,-1.084429636834256598e+03,-4.740367484212024465e+02,-1.056330017237864922e+02,-9.886221216163719419e+02,-2.986516107756970086e+02,-6.058743743405009354e+02,-5.416054428255760058e+02,9.408499717712402344e+00,-1.262115836143493652e+00,-4.207052886486053467e-01,3.920000000000000000e+02
-1.105863194831429610e+03,-1.077490274824880998e+03,-4.674831559752230987e+02,-1.068047361001595164e+02,-9.783026271839557921e+02,-2.937815061009373494e+02,-6.029068067430723659e+02,-5.369569638291250158e+02,9.408499717712402344e+00,-1.262115836143493652e+00,-4.207052886486053467e-01,3.930000000000000000e+02
-1.095642156503740125e+03,-1.070390736703687026e+03,-4.611360756367132581e+02,-1.066414981530983823e+02,-9.687817733543622580e+02,-2.889859246721507589e+02,-5.994178698085570431e+02,-5.326131339062134202e+02,9.408499717712402344e+00,-1.262115836143493652e+00,-4.207052886486053467e-01,3.940000000000000000e+02
-1.086723361387912519e+03,-1.062537130120334041e+03,-4.551761816846158126e+02,-1.048221172778012260e+02,-9.605494110351880863e+02,-2.837972099708367750e+02,-5.940568602231217028e+02,-5.282255489387742955e+02,9.408499717712402344e+00,-1.262115836143493652e+00,-4.207052886486053467e-01,3.950000000000000000e+02
-1.079169145882981411e+03,-1.053144293912348076e+03,-4.493731173381249846e+02,-1.018943956153434556e+02,-9.529489219052059070e+02,-2.779708645489554328e+02,-5.864690062375168509e+02,-5.228508517481704985e+02,9.408499717712402344e+00,-1.262115836143493652e+00,-4.207052886486053467e-01,3.960000000000000000e+02
-1.072014366558786605e+03,-1.041830328450817433e+03,-4.435087489742556954e+02,-9.862609376428190444e+01,-9.446351394553562386e+02,-2.718037931577800919e+02,-5.777329580381742744e+02,-5.155899814873665719e+02,9.408499717712402344e+00,-1.262115836143493652e+00,-4.207052886486053467e-01,3.970000000000000000e+02
-1.063959683953412878e+03,-1.029201322652362705e+03,-4.376099120620128815e+02,-9.536616730145578913e+01,-9.345664061117593064e+02,-2.659845660072678584e+02,-5.697140159099440098e+02,-5.064682115513738836e+02,9.408499717712402344e+00,-1.262115836143493652e+00,-4.207052886486053467e-01,3.980000000000000000e+02
-1.054239544335936898e+03,-1.016805998053823259e+03,-4.318311584478503846e+02,-9.195789642547833864e+01,-9.227626668921172950e+02,-2.611157977069951812e+02,-5.638225196752359807e+02,-4.967089175123761606e+02,9.408499717712402344e+00,-1.262115836143493652e+00,-4.207052886486053467e-01,3.990000000000000000e+02
-1.043029866981505165e+03,-1.006345132967809604e+03,-4.262397461535529146e+02,-8.818341129819918933e+01,-9.103048242349486827e+02,-2.573345811440490252e+02,-5.601486462076056796e+02,-4.880678587701543165e+02,9.408499717712402344e+00,-1.262115836143493652e+00,-4.207052886486053467e-01,4.000000000000000000e+02
-1.031231493254526413e+03,-9.986422466194765093e+02,-4.208260558559204583e+02,-8.422113888471812970e+01,-8.986368918961893542e+02,-2.543228643332131469e+02,-5.576113026564635220e+02,-4.817469198422645604e+02,9.408499717712402344e+00,-1.262115836143493652e+00,-4.207052886486053467e-01,4.010000000000000000e+02
-1.019928330054737216e+03,-9.930738943649757857e+02,-4.157456767342600870e+02,-8.064753476772739305e+01,-8.887300675738838436e+02,-2.516346702928658488e+02,-5.549102130984181258e+02,-4.777882104225554940e+02,9.408499717712402344e+00,-1.262115836143493652e+00,-4.207052886486053467e-01,4.020000000000000000e+02
-1.009913184450197150e+03,-9.878431805753891695e+02,-4.114557724996145680e+02,-7.801296796631868347e+01,-8.806971467344699249e+02,-2.490243846460821260e+02,-5.514656030824032769e+02,-4.753763777777186306e+02,9.408499717712402344e+00,-1.262115836143493652e+00,-4.207052886486053467e-01,4.030000000000000000e+02
-1.001474930098794630e+03,-9.809656874345282631e+02,-4.084573362737146454e+02,-7.641351584038420697e+01,-8.740212897046469607e+02,-2.465146186881688664e+02,-5.476199686663887860e+02,-4.736672024765318838e+02,9.408499717712402344e+00,-1.262115836143493652e+00,-4.207052886486053467e-01,4.040000000000000000e+02
-9.944094434297035150e+02,-9.714213620735881705e+02,-4.067831763018673428e+02,-7.542188809536492045e+01,-8.680956933573947936e+02,-2.442081097489967760e+02,-5.440490902294197895e+02,-4.723628101839620967e+02,9.408499717712402344e+00,-1.262115836143493652e+00,-4.207052886486053467e-01,4.050000000000000000e+02
-9.881408061316419662e+02,-9.598177569527019841e+02,-4.057440870249618001e+02,-7.439836776751872094e+01,-8.626069501187275819e+02,-2.420730633052885423e+02,-5.410119017215820350e+02,-4.716151251774424509e+02,9.408499717712402344e+00,-1.262115836143493652e+00,-4.207052886486053467e-01,4.060000000000000000e+02
-9.819170751918859423e+02,-9.481072281093026959e+02,-4.043000822070935101e+02,-7.290393101062863934e+01,-8.575374022472169599e+02,-2.399285603399375759e+02,-5.381511779452603150e+02,-4.714990312546420910e+02,9.408499717712402344e+00,-1.262115836143493652e+00,-4.207052886486053467e-01,4.070000000000000000e+02
-9.750802947922650219e+02,-9.384314376218314919e+02,-4.018182381820263345e+02,-7.093761491429540911e+01,-8.528727120815415219e+02,-2.376710644671884438e+02,-5.349575825490007901e+02,-4.716131244002433505e+02,9.408499717712402344e+00,-1.262115836143493652e+00,-4.207052886486053467e-01,4.080000000000000000e+02
-9.673457481234995612e+02,-9.317811907900884307e+02,-3.985431034519422155e+02,-6.888219365943541561e+01,-8.483112548136580244e+02,-2.355195348994020605e+02,-5.313586350161383507e+02,-4.711580439720544291e+02,9.408499717712402344e+00,-1.262115836143493652e+00,-4.207052886486053467e-01,4.090000000000000000e+02
-9.589452676080586571e+02,-9.274081382292520175e+02,-3.953167986185458176e+02,-6.722183564312490489e+01,-8.432379429996872204e+02,-2.339783137995896141e+02,-5.278070514197265766e+02,-4.693875270472005923e+02,9.408499717712402344e+00,-1.262115836143493652e+00,-4.207052886486053467e-01,4.100000000000000000e+02
-9.505047223760104771e+02,-9.234724734801970953e+02,-3.927913924565380057e+02,-6.621015046446109409e+01,-8.370091105543783669e+02,-2.334509195246464515e+02,-5.247716282225308078e+02,-4.660566624819380195e+02,9.408499717712402344e+00,-1.262115836143493652e+00,-4.207052886486053467e-01,4.110000000000000000e+02
-9.426722063467864245e+02,-9.184530899507949471e+02,-3.908752273531033552e+02,-6.571210329275345430e+01,-8.293660126624604345e+02,-2.337897769690957830e+02,-5.221531097485637929e+02,-4.615605173266635575e+02,9.408499717712402344e+00,-1.262115836143493652e+00,-4.207052886486053467e-01,4.120000000000000000e+02
-9.357012211030992148e+02,-9.121636648520377548e+02,-3.889148402489261116e+02,-6.535531031661821544e+01,-8.206848638741330433e+02,-2.342222981534696373e+02,-5.192272576445570849e+02,-4.566987482835149876e+02,9.408499717712402344e+00,-1.262115836143493652e+00,-4.207052886486053467e-01,4.130000000000000000e+02
-9.292851361980422098e+02,-9.055585683073209111e+02,-3.863650202007827374e+02,-6.487351155567284877e+01,-8.118442468965190528e+02,-2.338137996193581785e+02,-5.152128061734315452e+02,-4.522475763958113930e+02,9.408499717712402344e+00,-1.262115836143493652e+00,-4.207052886486053467e-01,4.140000000000000000e+02
-9.228079341711013512e+02,-8.996108488927829967e+02,-3.832318765748875649e+02,-6.432940246428370301e+01,-8.037439878642580879e+02,-2.321272323319612951e+02,-5.100080151369511441e+02,-4.486080306669869060e+02,9.408499717712402344e+00,-1.262115836143493652e+00,-4.207052886486053467e-01,4.150000000000000000e+02
-9.158671239391132985e+02,-8.943786626198586873e+02,-3.798802347690245824e+02,-6.398027568547877308e+01,-7.967914314030949754e+02,-2.295232750583545567e+02,-5.044806419304129577e+02,-4.457276606266336785e+02,9.408499717712402344e+00,-1.223870038986206055e+00,-3.824593424797058105e-01,4.160000000000000000e+02
-9.086726877648088703e+02,-8.891165301458568138e+02,-3.765282701600056043e+02,-6.390890037348253827e+01,-7.907391595866411080e+02,-2.268535696968529010e+02,-5.000570569137746588e+02,-4.432919851445667518e+02,9.408499717712402344e+00,-1.223870038986206055e+00,-3.824593424797058105e-01,4.170000000000000000e+02
-9.019425668966041485e+02,-8.831785271886915325e+02,-3.730713069212031314e+02,-6.382535277578017485e+01,-7.849941821132235873e+02,-2.248548927643187199e+02,-4.978708951057374179e+02,-4.409835416684290976e+02,9.408499717712402344e+00,-1.223870038986206055e+00,-3.824593424797058105e-01,4.180000000000000000e+02
-8.963108991219244217e+02,-8.766877699405872590e+02,-3.694402945085942065e+02,-6.326928035574110254e+01,-7.791311282073245366e+02,-2.237723145313270834e+02,-4.980163885828806087e+02,-4.386070439331197122e+02,9.408499717712402344e+00,-1.223870038986206055e+00,-3.824593424797058105e-01,4.190000000000000000e+02
-8.917145011620930291e+02,-8.702820884941340864e+02,-3.660309857132795059e+02,-6.199674659436823276e+01,-7.731704529995599842e+02,-2.234236414450847406e+02,-4.993853790745877177e+02,-4.360628232795670556e+02,9.408499717712402344e+00,-1.223870038986206055e+00,-3.824593424797058105e-01,4.200000000000000000e+02
-8.872870492575127628e+02,-8.642732943157323007e+02,-3.635942514071525693e+02,-6.010631743045087205e+01,-7.674251409784399129e+02,-2.234608063849755126e+02,-5.002293491765774434e+02,-4.333270124304153796e+02,9.408499717712402344e+00,-1.223870038986206055e+00,-3.824593424797058105e-01,4.210000000000000000e+02
-8.819078256813684220e+02,-8.581898589926181558e+02,-3.625819728983938148e+02,-5.777489961281617070e+01,-7.621432916683784242e+02,-2.234962226906445721e+02,-4.991884265469614093e+02,-4.305458153080464854e+02,9.408499717712402344e+00,-1.223870038986206055e+00,-3.824593424797058105e-01,4.220000000000000000e+02
-8.750045814800705557e+02,-8.512155003068210135e+02,-3.625998021138132117e+02,-5.496853923875642067e+01,-7.573279854939321467e+02,-2.230776494929818909e+02,-4.961539094851787013e+02,-4.281001339968761386e+02,9.408499717712402344e+00,-1.223870038986206055e+00,-3.824593424797058105e-01,4.230000000000000000e+02
-8.669670777051233017e+02,-8.430570209497457199e+02,-3.625651805082200099e+02,-5.155556604836510814e+01,-7.528378814847958438e+02,-2.217572292072045457e+02,-4.922976192332266692e+02,-4.263982257596132968e+02,9.408499717712402344e+00,-1.223870038986206055e+00,-3.824593424797058105e-01,4.240000000000000000e+02
-8.588440623480516933e+02,-8.343345060093520260e+02,-3.614613336873667322e+02,-4.775790680107365915e+01,-7.485162642665061412e+02,-2.193576040041048145e+02,-4.891085219873286860e+02,-4.254054184092906326e+02,9.408499717712402344e+00,-1.223870038986206055e+00,-3.824593424797058105e-01,4.250000000000000000e+02
-8.515803713475831955e+02,-8.261341964646214819e+02,-3.589517528937344650e+02,-4.436626188641730550e+01,-7.440680619319671223e+02,-2.161762663308918491e+02,-4.870763135541826614e+02,-4.242870523968754242e+02,9.408499717712402344e+00,-1.223870038986206055e+00,-3.824593424797058105e-01,4.260000000000000000e+02
-8.453826314556954458e+02,-8.192117684889426528e+02,-3.552928961413961133e+02,-4.230096795241206564e+01,-7.387934697416858398e+02,-2.128154533873594119e+02,-4.851088199741261633e+02,-4.216396595864871415e+02,9.408499717712402344e+00,-1.223870038986206055e+00,-3.824593424797058105e-01,4.270000000000000000e+02
-8.396469068405967846e+02,-8.135880910666817272e+02,-3.507760249678337914e+02,-4.183283701657455822e+01,-7.316484286681250069e+02,-2.097165757116490568e+02,-4.813272858281575282e+02,-4.163599380276252759e+02,9.408499717712402344e+00,-1.223870038986206055e+00,-3.824593424797058105e-01,4.280000000000000000e+02
-8.334455681268102580e+02,-8.087500079860196820e+02,-3.454284366819586012e+02,-4.223023552714039397e+01,-7.218930913950975992e+02,-2.068239420702520874e+02,-4.747261530682051216e+02,-4.085585706261135783e+02,9.408499717712402344e+00,-1.223870038986206055e+00,-3.824593424797058105e-01,4.290000000000000000e+02
-8.261677505911418393e+02,-8.040435165160342876e+02,-3.393257645570656678e+02,-4.224082473227781520e+01,-7.099334719265514195e+02,-2.037177105072487393e+02,-4.662822343608868323e+02,-3.997318740178691314e+02,9.408499717712402344e+00,-1.223870038986206055e+00,-3.824593424797058105e-01,4.300000000000000000e+02
-8.178542468580203604e+02,-7.988211904018537552e+02,-3.330896490644779533e+02,-4.098486939535223428e+01,-6.975414956653482932e+02,-2.000819627844357456e+02,-4.584341469168678032e+02,-3.919345247164503689e+02,9.408499717712402344e+00,-1.223870038986206055e+00,-3.824593424797058105e-01,4.310000000000000000e+02
-8.090490534244652281e+02,-7.923832804607882281e+02,-3.278181336888726491e+02,-3.841236865949849744e+01,-6.870016021545279727e+02,-1.960200321330576116e+02,-4.532255594606519935e+02,-3.865170099853887677e+02,9.408499717712402344e+00,-1.223870038986206055e+00,-3.824593424797058105e-01,4.320000000000000000e+02
-8.003402542473254471e+02,-7.840853469068210870e+02,-3.242823909425233069e+02,-3.497780956681526732e+01,-6.796806374466682428e+02,-1.919237992079370088e+02,-4.506664503675667675e+02,-3.833642738974833719e+02,9.408499717712402344e+00,-1.223870038986206055e+00,-3.824593424797058105e-01,4.330000000000000000e+02
-7.919729622186594042e+02,-7.737498321101140846e+02,-3.221096625539703382e+02,-3.101099777951685610e+01,-6.751371945241257890e+02,-1.880748819146701862e+02,-4.487669861250424219e+02,-3.811723109541353551e+02,9.408499717712402344e+00,-1.223870038986206055e+00,-3.824593424797058105e-01,4.340000000000000000e+02
-7.838323329440861471e+02,-7.620280202928588551e+02,-3.198634371537368679e+02,-2.650348896545165189e+01,-6.715253290072091659e+02,-1.843920868779359807e+02,-4.452166607804570049e+02,-3.784396817980295964e+02,9.408499717712402344e+00,-1.223870038986206055e+00,-3.824593424797058105e-01,4.350000000000000000e+02
-7.757589982510576192e+02,-7.502503635152656898e+02,-3.161190356130052805e+02,-2.146637712286428723e+01,-6.669435386710465536e+02,-1.805314786344661115e+02,-4.392098219451258956e+02,-3.743414224473799550e+02,9.408499717712402344e+00,-1.223870038986206055e+00,-3.824593424797058105e-01,4.360000000000000000e+02
-7.678579661890448733e+02,-7.397315891062598894e+02,-3.106257647338115930e+02,-1.632540983084481923e+01,-6.605942489260874027e+02,-1.761923864151012822e+02,-4.318384187910637593e+02,-3.689107134855967161e+02,9.408499717712402344e+00,-1.185624003410339355e+00,-3.824593424797058105e-01,4.370000000000000000e+02
-7.604518187633855177e+02,-7.310339496379781394e+02,-3.044697893462353022e+02,-1.179224537103164039e+01,-6.528693980515195108e+02,-1.713532168696519875e+02,-4.248510739802886746e+02,-3.626315880678753274e+02,9.408499717712402344e+00,-1.185624003410339355e+00,-3.824593424797058105e-01,4.380000000000000000e+02
-7.536779071248220134e+02,-7.237816058615533166e+02,-2.990461136136159439e+02,-8.287310876760784595e+00,-6.445202252770627638e+02,-1.662996829717476430e+02,-4.190613713981811088e+02,-3.560016306776783495e+02,9.408499717712402344e+00,-1.185624003410339355e+00,-3.824593424797058105e-01,4.390000000000000000e+02
-7.471294971772335884e+02,-7.171197733489241273e+02,-2.947851606947263008e+02,-5.557295381938274659e+00,-6.358675138741705268e+02,-1.614922051666153493e+02,-4.138899223207306477e+02,-3.494416499460533032e+02,9.408499717712402344e+00,-1.185624003410339355e+00,-3.824593424797058105e-01,4.400000000000000000e+02
-7.399658037227782188e+02,-7.103622982519871130e+02,-2.908168693674224414e+02,-2.950293527371286473e+00,-6.267994405519580141e+02,-1.573613639188342859e+02,-4.083190047021359987e+02,-3.434100101377275678e+02,9.408499717712402344e+00,-1.185624003410339355e+00,-3.824593424797058105e-01,4.410000000000000000e+02
-7.314916645972002698e+02,-7.033084788239052614e+02,-2.858571243021956434e+02,-1.068515872329953709e-01,-6.173634027965990754e+02,-1.541052115451911959e+02,-4.021779525611104873e+02,-3.383251498693477970e+02,9.408499717712402344e+00,-1.185624003410339355e+00,-3.824593424797058105e-01,4.420000000000000000e+02
-7.217144075047142451e+02,-6.960868078875334959e+02,-2.794655607031495492e+02,2.638933674340933067e+00,-6.081433052420461536e+02,-1.515889282696634837e+02,-3.964310540961776042e+02,-3.342060500520999540e+02,9.408499717712402344e+00,-1.185624003410339355e+00,-3.824593424797058105e-01,4.430000000000000000e+02
-7.113675896102718070e+02,-6.888266322890767697e+02,-2.725206908918521549e+02,4.603630960333703115e+00,-5.999164753421828209e+02,-1.494355910695694547e+02,-3.922208019284528291e+02,-3.304449893898695336e+02,9.408499717712402344e+00,-1.185624003410339355e+00,-3.824593424797058105e-01,4.440000000000000000e+02
-7.013765148983916333e+02,-6.814977293722829472e+02,-2.665270138374805811e+02,5.548426474831103405e+00,-5.929449230632458239e+02,-1.472753586939516026e+02,-3.896616357942034483e+02,-3.261648476802465666e+02,9.408499717712402344e+00,-1.185624003410339355e+00,-3.824593424797058105e-01,4.450000000000000000e+02
-6.922571830098906958e+02,-6.739873751693712620e+02,-2.624458443236960647e+02,6.145923531955759245e+00,-5.867179645172086566e+02,-1.449533766221838960e+02,-3.875922406175529886e+02,-3.210393817914111878e+02,9.408499717712402344e+00,-1.185624003410339355e+00,-3.824593424797058105e-01,4.460000000000000000e+02
-6.839635050118820345e+02,-6.662622799614591713e+02,-2.600908926122540379e+02,7.617021901776752202e+00,-5.804773908284951176e+02,-1.425130026702699979e+02,-3.845510538338794504e+02,-3.158291448051536463e+02,9.408499717712402344e+00,-1.185624003410339355e+00,-3.824593424797058105e-01,4.470000000000000000e+02
-6.762215149435010062e+02,-6.584525015731123858e+02,-2.584979339982705824e+02,1.078476886892121911e+01,-5.739812271026012240e+02,-1.400162756221889140e+02,-3.800702851853809534e+02,-3.119504442043387371e+02,9.408499717712402344e+00,-1.185624003410339355e+00,-3.824593424797058105e-01,4.480000000000000000e+02
-6.689274259851297302e+02,-6.508630233415815383e+02,-2.567671457684948564e+02,1.534985845687106121e+01,-5.676507507188625823e+02,-1.374527303099894198e+02,-3.751186830162589558e+02,-3.102677384043840902e+02,9.408499717712402344e+00,-1.185624003410339355e+00,-3.824593424797058105e-01,4.490000000000000000e+02
-6.621987961899926631e+02,-6.439548191708993272e+02,-2.545640073377480803e+02,2.005109073500580052e+01,-5.619129361408677141e+02,-1.348692742510647804e+02,-3.712941606733563731e+02,-3.101546987184237878e+02,9.408499717712402344e+00,-1.185624003410339355e+00,-3.824593424797058105e-01,4.500000000000000000e+02
-6.561000747357156797e+02,-6.382248334523928861e+02,-2.519704066563581364e+02,2.361950843137447009e+01,-5.564783650639174084e+02,-1.325416976606811659e+02,-3.694906512780594312e+02,-3.097801686101984160e+02,9.408499717712402344e+00,-1.185624003410339355e+00,-3.824593424797058105e-01,4.510000000000000000e+02
-6.504222658467947440e+02,-6.338933245446769433e+02,-2.490899581703138210e+02,2.573740701737324343e+01,-5.504419252578477426e+02,-1.308874089031833137e+02,-3.691932807719235825e+02,-3.075238018887494036e+02,9.408499717712402344e+00,-1.185624003410339355e+00,-3.824593424797058105e-01,4.520000000000000000e+02
-6.447946083295071276e+02,-6.305313640854219557e+02,-2.459588963165319910e+02,2.718754157046214459e+01,-5.432491640189095961e+02,-1.300820426859309009e+02,-3.689691821406663621e+02,-3.033185326390391765e+02,9.408499717712402344e+00,-1.185624003410339355e+00,-3.824593424797058105e-01,4.530000000000000000e+02
-6.390322263379907781e+02,-6.270038536707861567e+02,-2.428063607286442220e+02,2.907720176244765753e+01,-5.355658116240483650e+02,-1.297301482669627148e+02,-3.676906591789452250e+02,-2.987002139613036888e+02,9.408499717712402344e+00,-1.185624003410339355e+00,-3.824593424797058105e-01,4.540000000000000000e+02
-6.333437792987260764e+02,-6.220140182322368219e+02,-2.401999026651869826e+02,3.183803859238787481e+01,-5.290384945527189302e+02,-1.289832480529712484e+02,-3.654402854411227963e+02,-2.954957224887525626e+02,9.408499717712402344e+00,-1.185624003410339355e+00,-3.824593424797058105e-01,4.550000000000000000e+02
-6.281608807785250974e+02,-6.150133685124044405e+02,-2.387027919942147491e+02,3.489750312785599817e+01,-5.249875313213206027e+02,-1.270878987938594946e+02,-3.633415085541353164e+02,-2.943183734305152939e+02,9.408499717712402344e+00,-1.185624003410339355e+00,-3.824593424797058105e-01,4.560000000000000000e+02
-6.237244196072099385e+02,-6.067363746263013127e+02,-2.382623025398258960e+02,3.729499946167334201e+01,-5.231887083498204447e+02,-1.239121443456215275e+02,-3.624801851372294550e+02,-2.941847279876712946e+02,9.408499717712402344e+00,-1.185624003410339355e+00,-3.824593424797058105e-01,4.570000000000000000e+02
-6.197754801494645562e+02,-5.987691056711641977e+02,-2.379773627776762623e+02,3.864408596421935727e+01,-5.219164959155082215e+02,-1.200072466619030820e+02,-3.628393010440836406e+02,-2.935070228517815849e+02,9.408499717712402344e+00,-1.185624003410339355e+00,-3.824593424797058105e-01,4.580000000000000000e+02
-6.156148984956273580e+02,-5.923766487384536958e+02,-2.366025970020114073e+02,3.953641560851747272e+01,-5.192378617549411501e+02,-1.161858469942826559e+02,-3.631626662954608946e+02,-2.914544242734091313e+02,9.408499717712402344e+00,-1.185624003410339355e+00,-3.824593424797058105e-01,4.590000000000000000e+02
-6.105057548976724320e+02,-5.875477413275220897e+02,-2.334171505912934208e+02,4.102693239082555010e+01,-5.143586019675203715e+02,-1.130134926169712344e+02,-3.618791480220420453e+02,-2.884181906133026132e+02,9.408499717712402344e+00,-1.185624003410339355e+00,-3.824593424797058105e-01,4.600000000000000000e+02
-6.041455700005778908e+02,-5.831343132727629381e+02,-2.286750647258843401e+02,4.371353406329944846e+01,-5.078189509284575252e+02,-1.106012278301623155e+02,-3.582979950761625787e+02,-2.852565552652413317e+02,9.408499717712402344e+00,-1.185624003410339355e+00,-3.824593424797058105e-01,4.610000000000000000e+02
-5.969078960748283862e+02,-5.779820987293394410e+02,-2.232257105555706858e+02,4.726208200005066828e+01,-5.004913365599359167e+02,-1.087468503238424091e+02,-3.530354327127913621e+02,-2.821529257366050842e+02,9.446745872497558594e+00,-1.185624003410339355e+00,-3.059675097465515137e-01,4.620000000000000000e+02
-5.896863812065098500e+02,-5.719942517369795496e+02,-2.177123768455942354e+02,5.077773275067647774e+01,-4.925120636963720244e+02,-1.071638816784216033e+02,-3.473323891590544008e+02,-2.782230742029748853e+02,9.446745872497558594e+00,-1.185624003410339355e+00,-3.059675097465515137e-01,4.630000000000000000e+02
-5.834075229762343042e+02,-5.661181445252209414e+02,-2.121630344611437522e+02,5.362727312622655518e+01,-4.832683643986665629e+02,-1.055547393162423759e+02,-3.419266481076560922e+02,-2.722687532386171370e+02,9.446745872497558594e+00,-1.185624003410339355e+00,-3.059675097465515137e-01,4.640000000000000000e+02
-5.784762718484598736e+02,-5.612654672747448785e+02,-2.063382655403086119e+02,5.595839997856000991e+01,-4.723964946941923699e+02,-1.035443476488317174e+02,-3.365315015365806630e+02,-2.639776418871931583e+02,9.446745872497558594e+00,-1.185624003410339355e+00,-3.059675097465515137e-01,4.650000000000000000e+02
-5.744859394487939426e+02,-5.572245833076299277e+02,-2.003650656569025159e+02,5.851819574561659465e+01,-4.606828126841110134e+02,-1.006839384354088907e+02,-3.303779373693332673e+02,-2.544786362329530220e+02,9.446745872497558594e+00,-1.185624003410339355e+00,-3.059675097465515137e-01,4.660000000000000000e+02
-5.703823720903778849e+02,-5.526671242061993325e+02,-1.948849519209154550e+02,6.200822319710050579e+01,-4.498563593177432267e+02,-9.667008768026425969e+01,-3.232477999876768990e+02,-2.457605070336621793e+02,9.446745872497558594e+00,-1.185624003410339355e+00,-3.059675097465515137e-01,4.670000000000000000e+02
-5.650084529573985037e+02,-5.462927382947923434e+02,-1.904940143524645464e+02,6.654675625008712814e+01,-4.414049738470716875e+02,-9.166536040642677108e+01,-3.159263087620558963e+02,-2.394325388304202988e+02,9.446745872497558594e+00,-1.185624003410339355e+00,-3.059675097465515137e-01,4.680000000000000000e+02
-5.577263523088690818e+02,-5.380572689960138177e+02,-1.870727360030075488e+02,7.162501970774155780e+01,-4.355261740694636501e+02,-8.641348491062126413e+01,-3.096114873574078956e+02,-2.358151711996970334e+02,9.446745872497558594e+00,-1.185624003410339355e+00,-3.059675097465515137e-01,4.690000000000000000e+02
-5.487783903963577359e+02,-5.293413219243961976e+02,-1.837861067908484074e+02,7.649865386036299242e+01,-4.311609757958226510e+02,-8.192754176652942988e+01,-3.049131687836095352e+02,-2.339942859021759887e+02,9.446745872497558594e+00,-1.185624003410339355e+00,-3.059675097465515137e-01,4.700000000000000000e+02
-5.392081226225411683e+02,-5.218937457792671921e+02,-1.798478377105047912e+02,8.066236759680214163e+01,-4.269999818716553364e+02,-7.886195447424142912e+01,-3.014524725887490604e+02,-2.326533211158430277e+02,9.446745872497558594e+00,-1.185624003410339355e+00,-3.059675097465515137e-01,4.710000000000000000e+02
-5.303968428394236980e+02,-5.164821967715220126e+02,-1.753189122211181257e+02,8.409583481821937312e+01,-4.224670689935296650e+02,-7.700769764470533119e+01,-2.984076870311173479e+02,-2.309184064646619845e+02,9.446745872497558594e+00,-1.185624003410339355e+00,-3.059675097465515137e-01,4.720000000000000000e+02
-5.234254393458181767e+02,-5.124022449246795077e+02,-1.711296459585280445e+02,8.718178230394823913e+01,-4.178263025862863742e+02,-7.536513355734587094e+01,-2.953583364681417152e+02,-2.285792051452306168e+02,9.446745872497558594e+00,-1.185624003410339355e+00,-3.059675097465515137e-01,4.730000000000000000e+02
-5.185771336932548365e+02,-5.082133769281922469e+02,-1.682852591074122302e+02,9.041633123495694235e+01,-4.134859693838070598e+02,-7.282008350057139978e+01,-2.925104655078471296e+02,-2.256984404335742056e+02,9.446745872497558594e+00,-1.185624003410339355e+00,-3.059675097465515137e-01,4.740000000000000000e+02
-5.152398583908084220e+02,-5.030063360947497131e+02,-1.670093364610188473e+02,9.413292926660869853e+01,-4.093025495235754079e+02,-6.893476773492830034e+01,-2.901337732178315036e+02,-2.221523759785600305e+02,9.446745872497558594e+00,-1.185624003410339355e+00,-3.059675097465515137e-01,4.750000000000000000e+02
-5.122732776499021838e+02,-4.971130378738546369e+02,-1.665837482313299915e+02,9.840351303378565717e+01,-4.045595668990313243e+02,-6.422296876971404345e+01,-2.879412125674089111e+02,-2.176065559339567699e+02,9.446745872497558594e+00,-1.185624003410339355e+00,-3.059675097465515137e-01,4.760000000000000000e+02
-5.086423865555223074e+02,-4.917249226145622742e+02,-1.659339679837064523e+02,1.031288271762414297e+02,-3.985695029519565651e+02,-5.969487461818607699e+01,-2.851891761383183166e+02,-2.119300503835870586e+02,9.446745872497558594e+00,-1.185624003410339355e+00,-3.059675097465515137e-01,4.770000000000000000e+02
-5.039118524856860404e+02,-4.878149807086267629e+02,-1.643209088328753751e+02,1.081674778671485910e+02,-3.912921158653621205e+02,-5.609674580472028538e+01,-2.814366834515406026e+02,-2.055841168240169736e+02,9.446745872497558594e+00,-1.185624003410339355e+00,-3.059675097465515137e-01,4.780000000000000000e+02
-4.982895714189455703e+02,-4.853042471599387682e+02,-1.615569458133825265e+02,1.133364022200676118e+02,-3.834337371236445051e+02,-5.348899170160893846e+01,-2.771179678324724591e+02,-1.995455182277012227e+02,9.446745872497558594e+00,-1.185624003410339355e+00,-3.059675097465515137e-01,4.790000000000000000e+02
-4.922384229160156792e+02,-4.831416960415599533e+02,-1.577988792005066898e+02,1.182611940210967987e+02,-3.760291999857931842e+02,-5.144582551123767189e+01,-2.732703239290960937e+02,-1.948010784947402954e+02,9.446745872497558594e+00,-1.185624003410339355e+00,-3.059675097465515137e-01,4.800000000000000000e+02
-4.860114139360821355e+02,-4.801666621397653216e+02,-1.533543375935148561e+02,1.222774569118287218e+02,-3.698962790605762621e+02,-4.955453106486538672e+01,-2.706724174770765785e+02,-1.918306077780839587e+02,9.446745872497558594e+00,-1.185624003410339355e+00,-3.059675097465515137e-01,4.810000000000000000e+02
-4.795124477244787613e+02,-4.759817845718462195e+02,-1.487278643214772273e+02,1.246273772767103765e+02,-3.653268117558236554e+02,-4.769169654310644546e+01,-2.692646389301362433e+02,-1.904844627277989275e+02,9.446745872497558594e+00,-1.185624003410339355e+00,-3.059675097465515137e-01,4.820000000000000000e+02
-4.725661247250418455e+02,-4.711102530100934018e+02,-1.446790246555242447e+02,1.249345171618606400e+02,-3.621340149399616166e+02,-4.591509992698547649e+01,-2.683808127104257437e+02,-1.902980114083192120e+02,9.446745872497558594e+00,-1.185624003410339355e+00,-3.059675097465515137e-01,4.830000000000000000e+02
-4.653153686714558717e+02,-4.663688491111211079e+02,-1.419401762303284613e+02,1.236378424919553254e+02,-3.599366344792194923e+02,-4.422991113404350472e+01,-2.674284392712631870e+02,-1.909261067432266827e+02,9.446745872497558594e+00,-1.185624003410339355e+00,-3.059675097465515137e-01,4.840000000000000000e+02
-4.583698524254607491e+02,-4.620681039060407329e+02,-1.406856964260434779e+02,1.219880238628529696e+02,-3.584467555451969929e+02,-4.255102487404610656e+01,-2.662478532095619812e+02,-1.923191054103458555e+02,9.446745872497558594e+00,-1.185624003410339355e+00,-3.059675097465515137e-01,4.850000000000000000e+02
-4.525406341067393896e+02,-4.577632744130214633e+02,-1.402800288433013520e+02,1.214670207168460365e+02,-3.575680092548395805e+02,-4.086252934799586001e+01,-2.648789891332553452e+02,-1.945447013301036350e+02,9.446745872497558594e+00,-1.185624003410339355e+00,-3.059675097465515137e-01,4.860000000000000000e+02
-4.483418199556633681e+02,-4.527601760153734176e+02,-1.396782915680437327e+02,1.229328397449094155e+02,-3.572307637601804799e+02,-3.930727264354391082e+01,-2.632061301777921472e+02,-1.974614826973561321e+02,9.446745872497558594e+00,-1.185624003410339355e+00,-3.059675097465515137e-01,4.870000000000000000e+02
-4.456311949454700425e+02,-4.468917768487985995e+02,-1.382151803796255081e+02,1.260634719933746055e+02,-3.570922200358827467e+02,-3.804425411333977536e+01,-2.610204892441038282e+02,-2.005337350110330590e+02,9.446745872497558594e+00,-1.185624003410339355e+00,-3.059675097465515137e-01,4.880000000000000000e+02
-4.436468883634352096e+02,-4.408530564454490559e+02,-1.360757011786386101e+02,1.295453236781245323e+02,-3.564209425212370661e+02,-3.701692081785040500e+01,-2.584084046485279487e+02,-2.029552092502484584e+02,9.484992027282714844e+00,-1.223870038986206055e+00,-3.442134261131286621e-01,4.890000000000000000e+02
-4.414050284674547129e+02,-4.357895775581187081e+02,-1.340067811897131378e+02,1.319515194286398128e+02,-3.544115575914511282e+02,-3.589811236500872837e+01,-2.558905316737098019e+02,-2.040191751355880569e+02,9.484992027282714844e+00,-1.223870038986206055e+00,-3.442134261131286621e-01,4.900000000000000000e+02
-4.381887496000601914e+02,-4.324954709490771165e+02,-1.325484887617296863e+02,1.327318334292865529e+02,-3.507951767248246142e+02,-3.428116477795947503e+01,-2.540005131924044690e+02,-2.035014549427588690e+02,9.484992027282714844e+00,-1.223870038986206055e+00,-3.442134261131286621e-01,4.910000000000000000e+02
-4.338177954242914893e+02,-4.308750491262397873e+02,-1.314969554980764315e+02,1.325851523366291076e+02,-3.462182438420286417e+02,-3.192279294991521965e+01,-2.527205548636361527e+02,-2.017948242421714440e+02,9.484992027282714844e+00,-1.223870038986206055e+00,-3.442134261131286621e-01,4.920000000000000000e+02
-4.285614302604867589e+02,-4.300275545610877543e+02,-1.300501648304405080e+02,1.328951981137997791e+02,-3.419289289184955578e+02,-2.882907975810167045e+01,-2.514407994860761164e+02,-1.996850103567185215e+02,9.484992027282714844e+00,-1.223870038986206055e+00,-3.442134261131286621e-01,4.930000000000000000e+02
-4.228355892552995101e+02,-4.287994645451722135e+02,-1.274608950601045763e+02,1.346401242606484630e+02,-3.388866754340697298e+02,-2.517358550782000748e+01,-2.495521436437720695e+02,-1.979095735822411370e+02,9.484992027282714844e+00,-1.223870038986206055e+00,-3.442134261131286621e-01,4.940000000000000000e+02
-4.169633535280947854e+02,-4.263542797273312317e+02,-1.236258120345257794e+02,1.376414363850030895e+02,-3.370232221529449816e+02,-2.119491020028044659e+01,-2.470432156992633281e+02,-1.967917067670200595e+02,9.484992027282714844e+00,-1.223870038986206055e+00,-3.442134261131286621e-01,4.950000000000000000e+02
-4.111926450409241625e+02,-4.224258598585432765e+02,-1.191908483534069774e+02,1.407799409417980314e+02,-3.353502618133531996e+02,-1.717320949890154225e+01,-2.444130527858969799e+02,-1.961731668316294872e+02,9.484992027282714844e+00,-1.223870038986206055e+00,-3.442134261131286621e-01,4.960000000000000000e+02
-4.058911179393983275e+02,-4.172401502258364872e+02,-1.151842623305514053e+02,1.429964315600905138e+02,-3.328532884324544057e+02,-1.344058241792254194e+01,-2.419727143232795470e+02,-1.956091280465864202e+02,9.484992027282714844e+00,-1.223870038986206055e+00,-3.442134261131286621e-01,4.970000000000000000e+02
-4.016094606952386812e+02,-4.112963080128005231e+02,-1.124683854080392393e+02,1.441807756596585932e+02,-3.293352180499178985e+02,-1.033226619431729887e+01,-2.393254367934302991e+02,-1.946041124391399535e+02,9.484992027282714844e+00,-1.223870038986206055e+00,-3.442134261131286621e-01,4.980000000000000000e+02
-3.987927059793175886e+02,-4.051829873863734974e+02,-1.112985825435171137e+02,1.451531462446448586e+02,-3.253919694581934436e+02,-8.044375069895295383e+00,-2.356556491129815640e+02,-1.927316560731344453e+02,9.484992027282714844e+00,-1.223870038986206055e+00,-3.442134261131286621e-01,4.990000000000000000e+02
-3.972911555314615271e+02,-3.994738346446156356e+02,-1.111614873549415279e+02,1.467840403964919460e+02,-3.215620670024665060e+02,-6.472641599447342742e+00,-2.305641851368191055e+02,-1.896989385758349727e+02,9.484992027282714844e+00,-1.223870038986206055e+00,-3.442134261131286621e-01,5.000000000000000000e+02
-3.961293833081394951e+02,-3.946554879468799300e+02,-1.109704613977976351e+02,1.490986070278524949e+02,-3.175614230565900016e+02,-5.146494617171583741e+00,-2.245933461091825620e+02,-1.854841217189145937e+02,9.484992027282714844e+00,-1.223870038986206055e+00,-3.442134261131286621e-01,5.010000000000000000e+02
-3.938705456813681849e+02,-3.910242720772124585e+02,-1.095670133943673932e+02,1.512321613513283864e+02,-3.124770362963120078e+02,-3.349137850657825766e+00,-2.189131721248368194e+02,-1.805324830966158629e+02,9.484992027282714844e+00,-1.223870038986206055e+00,-3.442134261131286621e-01,5.020000000000000000e+02
-3.894350524386428560e+02,-3.885590735964434543e+02,-1.062977240255441416e+02,1.522520277236710626e+02,-3.058071111607890771e+02,-4.653142911606664711e-01,-2.145184478356297291e+02,-1.757795682338645520e+02,9.484992027282714844e+00,-1.223870038986206055e+00,-3.442134261131286621e-01,5.030000000000000000e+02
-3.827943215368435403e+02,-3.868641324486103485e+02,-1.013204753473062283e+02,1.520065115847904735e+02,-2.983118988607387791e+02,3.586519028781822271e+00,-2.117190260756155453e+02,-1.723113003622020187e+02,9.484992027282714844e+00,-1.223870038986206055e+00,-3.442134261131286621e-01,5.040000000000000000e+02
-3.749976676311891879e+02,-3.852747432784538546e+02,-9.544290848183607068e+01,1.511552805839648954e+02,-2.917643931525519179e+02,8.127996291635895432e+00,-2.102705926396670293e+02,-1.708080631070778850e+02,9.484992027282714844e+00,-1.223870038986206055e+00,-3.442134261131286621e-01,5.050000000000000000e+02
-3.675319316682833914e+02,-3.831402446241849020e+02,-8.963610811873871853e+01,1.503934310118476105e+02,-2.877151689311594964e+02,1.197522668272949886e+01,-2.097552372808173118e+02,-1.711423400933448704e+02,9.484992027282714844e+00,-1.223870038986206055e+00,-3.442134261131286621e-01,5.060000000000000000e+02
-3.615217792661144358e+02,-3.801542919868300601e+02,-8.459900482767358199e+01,1.497324608668986343e+02,-2.863369739324057264e+02,1.414165488613082289e+01,-2.096633315051548152e+02,-1.724103092440724367e+02,9.484992027282714844e+00,-1.223870038986206055e+00,-3.442134261131286621e-01,5.070000000000000000e+02
-3.573215867143312039e+02,-3.765075020126043341e+02,-8.063976330837567730e+01,1.486204419527419986e+02,-2.863586505988335489e+02,1.451884312857720261e+01,-2.092151124586443132e+02,-1.733844843531529705e+02,9.484992027282714844e+00,-1.223870038986206055e+00,-3.442134261131286621e-01,5.080000000000000000e+02
-3.546461012549863199e+02,-3.727222465887568887e+02,-7.780390092717033212e+01,1.468071357720541812e+02,-2.861032361673579203e+02,1.398226964127883321e+01,-2.074760729344068864e+02,-1.731084173818243244e+02,9.484992027282714844e+00,-1.223870038986206055e+00,-3.442134261131286621e-01,5.090000000000000000e+02
-3.529321375185471652e+02,-3.692681014252141267e+02,-7.599214059075890759e+01,1.450396522298373725e+02,-2.846929351120535898e+02,1.377087826996157105e+01,-2.040644637368504846e+02,-1.713343043231255365e+02,9.484992027282714844e+00,-1.223870038986206055e+00,-3.442134261131286621e-01,5.100000000000000000e+02
-3.515610554242690569e+02,-3.662436570401354174e+02,-7.496038445950327400e+01,1.447593667436196938e+02,-2.824524711973579087e+02,1.460215039641039425e+01,-1.999019176115482423e+02,-1.686529189512182256e+02,9.484992027282714844e+00,-1.223870038986206055e+00,-3.442134261131286621e-01,5.110000000000000000e+02
-3.498940733844680153e+02,-3.633737379938889944e+02,-7.433456129102000887e+01,1.469308608443539299e+02,-2.803569330650324218e+02,1.622757149759593176e+01,-1.970386647297847276e+02,-1.662565322558595540e+02,9.484992027282714844e+00,-1.223870038986206055e+00,-3.442134261131286621e-01,5.120000000000000000e+02
-3.473574062826604631e+02,-3.602990795202101140e+02,-7.377902659995049817e+01,1.510370959825447699e+02,-2.791596839477167578e+02,1.776408079546536101e+01,-1.972617471788399826e+02,-1.653361489653634067e+02,9.484992027282714844e+00,-1.223870038986206055e+00,-3.442134261131286621e-01,5.130000000000000000e+02
-3.437364791223258180e+02,-3.569022524755974359e+02,-7.319753276813122511e+01,1.552131165782683979e+02,-2.789130319280124581e+02,1.848880212788492372e+01,-2.004589710580339101e+02,-1.663239689394347920e+02,9.484992027282714844e+00,-1.223870038986206055e+00,-3.442134261131286621e-01,5.140000000000000000e+02
-3.394927213369699075e+02,-3.534000205546196298e+02,-7.270964225232251010e+01,1.575030638655921393e+02,-2.790691095270514097e+02,1.843897720466441115e+01,-2.042414888072942745e+02,-1.684230580749991759e+02,9.484992027282714844e+00,-1.223870038986206055e+00,-3.442134261131286621e-01,5.150000000000000000e+02
-3.356937911653851643e+02,-3.501436400093355132e+02,-7.235368225164597789e+01,1.572146015482314851e+02,-2.788627992311135131e+02,1.838006918790665623e+01,-2.054066667200460188e+02,-1.698774557394680187e+02,9.484992027282714844e+00,-1.223870038986206055e+00,-3.442134261131286621e-01,5.160000000000000000e+02
-3.333787427538961765e+02,-3.472980267402779191e+02,-7.181777533807371583e+01,1.552470530999001994e+02,-2.776635377228662946e+02,1.922889304259024357e+01,-2.022239951752487741e+02,-1.690082519215186494e+02,9.484992027282714844e+00,-1.223870038986206055e+00,-3.442134261131286621e-01,5.170000000000000000e+02
-3.327222766544925889e+02,-3.446442970800143257e+02,-7.054430527583235744e+01,1.531814142203836582e+02,-2.752328782119768675e+02,2.137986818737545036e+01,-1.957059421698093047e+02,-1.654042439372370268e+02,9.484992027282714844e+00,-1.223870038986206055e+00,-3.442134261131286621e-01,5.180000000000000000e+02
-3.327037454508279097e+02,-3.416490246622220184e+02,-6.819271171382956709e+01,1.520054361711397632e+02,-2.719368925083529120e+02,2.439795024445515992e+01,-1.888049743323733765e+02,-1.603794693906772864e+02,9.484992027282714844e+00,-1.223870038986206055e+00,-3.442134261131286621e-01,5.190000000000000000e+02
-3.316875741536800888e+02,-3.377741138588052081e+02,-6.503186243283766999e+01,1.515925643420184770e+02,-2.687968917379146205e+02,2.724655731533334801e+01,-1.842044916593207518e+02,-1.562726334242865960e+02,9.484992027282714844e+00,-1.185624003410339355e+00,-3.442134261131286621e-01,5.200000000000000000e+02
-3.285777971752584108e+02,-3.328470137585172779e+02,-6.184238969272701070e+01,1.512696788504740653e+02,-2.671422906044365391e+02,2.888400498599321509e+01,-1.825174896383083478e+02,-1.550219273295822404e+02,9.484992027282714844e+00,-1.185624003410339355e+00,-3.442134261131286621e-01,5.210000000000000000e+02
-3.236704533056386026e+02,-3.272691482913951404e+02,-5.938615809704822368e+01,1.507729043616741365e+02,-2.678459656625548178e+02,2.885690144050613526e+01,-1.822502179595170446e+02,-1.569823048832571430e+02,9.484992027282714844e+00,-1.185624003410339355e+00,-3.442134261131286621e-01,5.220000000000000000e+02
-3.185026737374801087e+02,-3.218969047796817904e+02,-5.794143261099134179e+01,1.505923891610341343e+02,-2.706054418241101303e+02,2.750967741970634961e+01,-1.813181000169147410e+02,-1.607529380466355633e+02,9.484992027282714844e+00,-1.185624003410339355e+00,-3.442134261131286621e-01,5.230000000000000000e+02
-3.148044825116521679e+02,-3.176244922577079706e+02,-5.731424792737720963e+01,1.513967886610087135e+02,-2.739108635753696035e+02,2.570136916206683964e+01,-1.787075269979304721e+02,-1.640647016384008339e+02,9.484992027282714844e+00,-1.185624003410339355e+00,-3.442134261131286621e-01,5.240000000000000000e+02
-3.133788955408406309e+02,-3.149269330466370320e+02,-5.720515879511845014e+01,1.531657990727426295e+02,-2.758977796131566720e+02,2.426539536372911243e+01,-1.749863100469233359e+02,-1.650873970292138893e+02,9.484992027282714844e+00,-1.185624003410339355e+00,-3.442134261131286621e-01,5.250000000000000000e+02
-3.137303387485794701e+02,-3.136742947785448905e+02,-5.745618956262842403e+01,1.549266838538301272e+02,-2.755335376754264871e+02,2.361375227877897487e+01,-1.715178260911911821e+02,-1.633414718836280599e+02,9.484992027282714844e+00,-1.185624003410339355e+00,-3.442134261131286621e-01,5.260000000000000000e+02
-3.145805480854724010e+02,-3.133352413700413308e+02,-5.789029808693430823e+01,1.553895940240158779e+02,-2.732280000013415702e+02,2.372003070588925766e+01,-1.692759836665350122e+02,-1.597422458570385970e+02,9.484992027282714844e+00,-1.185624003410339355e+00,-3.442134261131286621e-01,5.270000000000000000e+02
-3.147056198310312993e+02,-3.133630476216460465e+02,-5.798574795758531764e+01,1.539106062811833908e+02,-2.703717170399299903e+02,2.434565185177098101e+01,-1.682747370892586787e+02,-1.558541244692869441e+02,9.484992027282714844e+00,-1.185624003410339355e+00,-3.442134261131286621e-01,5.280000000000000000e+02
-3.134390857951502767e+02,-3.134120006907664902e+02,-5.689226597218794268e+01,1.509553198681869617e+02,-2.681933431548022781e+02,2.522423574436015770e+01,-1.678884203426675867e+02,-1.528874754860603389e+02,9.484992027282714844e+00,-1.185624003410339355e+00,-3.442134261131286621e-01,5.290000000000000000e+02
-3.106733904241807522e+02,-3.132391524964355085e+02,-5.396022812910177890e+01,1.477521430166466416e+02,-2.668961218272688711e+02,2.609771095108499139e+01,-1.675528698220623482e+02,-1.510728536890226223e+02,9.484992027282714844e+00,-1.185624003410339355e+00,-3.442134261131286621e-01,5.300000000000000000e+02
-3.066689517672616603e+02,-3.124935061191854402e+02,-4.938159823496812351e+01,1.455282644861399604e+02,-2.657663665385675813e+02,2.676405555247856682e+01,-1.671698139951163284e+02,-1.497803842903454097e+02,9.484992027282714844e+00,-1.185624003410339355e+00,-3.442134261131286621e-01,5.310000000000000000e+02
-3.019886598619018514e+02,-3.107328767135909402e+02,-4.433192120447711204e+01,1.449255062297829681e+02,-2.640669241734299248e+02,2.728135052832203655e+01,-1.669443394079225982e+02,-1.482415970079960061e+02,9.484992027282714844e+00,-1.185624003410339355e+00,-3.442134261131286621e-01,5.320000000000000000e+02
-2.975028610039003070e+02,-3.077547693482019895e+02,-4.038790684969603717e+01,1.458700830220386706e+02,-2.618363376907282145e+02,2.814196904553682543e+01,-1.669220611454093159e+02,-1.462712027004752144e+02,9.484992027282714844e+00,-1.185624003410339355e+00,-3.442134261131286621e-01,5.330000000000000000e+02
-2.941859110404930107e+02,-3.039283634135144894e+02,-3.861187227030404756e+01,1.477856924207198972e+02,-2.598379025373847071e+02,3.008393320262530324e+01,-1.667075878489536080e+02,-1.443869443821845380e+02,9.484992027282714844e+00,-1.185624003410339355e+00,-3.442134261131286621e-01,5.340000000000000000e+02
-2.926297126479189501e+02,-3.001140394735084556e+02,-3.897647206999181435e+01,1.499164122419360865e+02,-2.587401746242671834e+02,3.349249117703675438e+01,-1.656555082045433664e+02,-1.432562218980060607e+02,9.484992027282714844e+00,-1.185624003410339355e+00,-3.442134261131286621e-01,5.350000000000000000e+02
-2.926014844065380203e+02,-2.970926334464097636e+02,-4.050541102936313109e+01,1.516541690836011185e+02,-2.583362720433638060e+02,3.787230824026573828e+01,-1.634000659459479721e+02,-1.430058278169608457e+02,9.484992027282714844e+00,-1.185624003410339355e+00,-3.442134261131286621e-01,5.360000000000000000e+02
-2.930822990454207684e+02,-2.949285495142103173e+02,-4.194624414234112919e+01,1.528088129030329583e+02,-2.575726852661800876e+02,4.198557424477257882e+01,-1.602883065491287198e+02,-1.430595018261842597e+02,9.484992027282714844e+00,-1.185624003410339355e+00,-3.442134261131286621e-01,5.370000000000000000e+02
-2.928462692624002557e+02,-2.928413002693696399e+02,-4.248034770681806549e+01,1.536698766206554865e+02,-2.554175309632109929e+02,4.469075319909643440e+01,-1.572914902016013912e+02,-1.426625890600116691e+02,9.484992027282714844e+00,-1.185624003410339355e+00,-3.442134261131286621e-01,5.380000000000000000e+02
-2.911740664959547757e+02,-2.897916371705355232e+02,-4.207731946281546698e+01,1.547448823541226375e+02,-2.518130345430176931e+02,4.580553936610431265e+01,-1.553531220575441694e+02,-1.415884185925651764e+02,9.484992027282714844e+00,-1.185624003410339355e+00,-3.442134261131286621e-01,5.390000000000000000e+02
-2.882003554417833584e+02,-2.853676035539733675e+02,-4.140539255188241441e+01,1.562979267292676013e+02,-2.478707548862485055e+02,4.619085381642889843e+01,-1.546067492472257072e+02,-1.403342158555356036e+02,9.484992027282714844e+00,-1.185624003410339355e+00,-3.442134261131286621e-01,5.400000000000000000e+02
-2.847062670231425727e+02,-2.802445728244665588e+02,-4.141401676738223614e+01,1.580718079673706598e+02,-2.451203595451934234e+02,4.693789433267011191e+01,-1.541050530302291008e+02,-1.396022080743073275e+02,9.446745872497558594e+00,-1.262115836143493652e+00,-3.442134261131286621e-01,5.410000000000000000e+02
-2.815821229338471312e+02,-2.758045802127539901e+02,-4.275407788108122986e+01,1.594864315306804201e+02,-2.444069485391441958e+02,4.839386480125904200e+01,-1.523820332661430257e+02,-1.395627948938526970e+02,9.446745872497558594e+00,-1.262115836143493652e+00,-3.442134261131286621e-01,5.420000000000000000e+02
-2.793303332737509663e+02,-2.731660077174924481e+02,-4.525126667493350396e+01,1.601610420799452186e+02,-2.452950062919271659e+02,4.991729310512164375e+01,-1.485039654141382925e+02,-1.395981538007490599e+02,9.446745872497558594e+00,-1.262115836143493652e+00,-3.442134261131286621e-01,5.430000000000000000e+02
-2.778488181852740126e+02,-2.723643381617766863e+02,-4.775411028414509929e+01,1.602653708339494187e+02,-2.464058010325870782e+02,5.057052261034914409e+01,-1.428130838179081366e+02,-1.387849659511157370e+02,9.446745872497558594e+00,-1.262115836143493652e+00,-3.442134261131286621e-01,5.440000000000000000e+02
-2.765449387167391251e+02,-2.723209305174964356e+02,-4.862796768358293775e+01,1.603400588048025384e+02,-2.463751812992568375e+02,5.008750449975013908e+01,-1.367621208881678285e+02,-1.366835446820991820e+02,9.446745872497558594e+00,-1.262115836143493652e+00,-3.442134261131286621e-01,5.450000000000000000e+02
-2.747094165933658587e+02,-2.715903008762738864e+02,-4.678356908667365133e+01,1.607534709049550656e+02,-2.446864023824318792e+02,4.922455252093095623e+01,-1.319456439439090900e+02,-1.337101604924446292e+02,9.446745872497558594e+00,-1.262115836143493652e+00,-3.442134261131286621e-01,5.460000000000000000e+02
-2.719836549564688539e+02,-2.692848135903477669e+02,-4.260329877581852998e+01,1.613351890849571646e+02,-2.418277638649142318e+02,4.919842518659606867e+01,-1.290902566442518946e+02,-1.307873782548836061e+02,9.446745872497558594e+00,-1.262115836143493652e+00,-3.442134261131286621e-01,5.470000000000000000e+02
-2.686639322127293781e+02,-2.655052028755671927e+02,-3.797463828750051107e+01,1.615386167809729159e+02,-2.387585387185699801e+02,5.072369146570963494e+01,-1.277526645196312529e+02,-1.286133741234825720e+02,9.446745872497558594e+00,-1.262115836143493652e+00,-3.442134261131286621e-01,5.480000000000000000e+02
-2.655950827126571312e+02,-2.610811238645119374e+02,-3.519143999490461283e+01,1.609813431728143769e+02,-2.361543471305949424e+02,5.348400676809251308e+01,-1.268635102401131007e+02,-1.271785857538252458e+02,9.446745872497558594e+00,-1.262115836143493652e+00,-3.442134261131286621e-01,5.490000000000000000e+02
-2.636394974029735749e+02,-2.569715469566908723e+02,-3.540348600741526752e+01,1.598538624054353932e+02,-2.340040105858097377e+02,5.644698020669056859e+01,-1.255775869999752103e+02,-1.258783104586950685e+02,9.446745872497558594e+00,-1.262115836143493652e+00,-3.442134261131286621e-01,5.500000000000000000e+02
-2.630426579259283244e+02,-2.538133371403600904e+02,-3.779933070703646081e+01,1.588244216131006397e+02,-2.318133315145159941e+02,5.869226386197078682e+01,-1.237316667095310549e+02,-1.240317186761194534e+02,9.446745872497558594e+00,-1.262115836143493652e+00,-3.442134261131286621e-01,5.510000000000000000e+02
-2.631809406850434243e+02,-2.518226797179931964e+02,-4.022792956037483236e+01,1.585429376109896111e+02,-2.291953229508008008e+02,6.003688507123479212e+01,-1.216511615219542364e+02,-1.213421501008861014e+02,9.446745872497558594e+00,-1.262115836143493652e+00,-3.442134261131286621e-01,5.520000000000000000e+02
-2.629298350234457757e+02,-2.508853501141556990e+02,-4.080752052368461591e+01,1.591739838941557537e+02,-2.263305231638851183e+02,6.096867403665237362e+01,-1.196540446439494190e+02,-1.179957991826058787e+02,9.446745872497558594e+00,-1.262115836143493652e+00,-3.442134261131286621e-01,5.530000000000000000e+02
-2.614030036156755159e+02,-2.506207542639558596e+02,-3.920300996939840843e+01,1.603377128925312718e+02,-2.238915920550425653e+02,6.204655274715150881e+01,-1.177837774086046920e+02,-1.144724464829205317e+02,9.446745872497558594e+00,-1.262115836143493652e+00,-3.442134261131286621e-01,5.540000000000000000e+02
-2.585160381395871809e+02,-2.504242696054934640e+02,-3.656988789169463416e+01,1.614635138269313757e+02,-2.224823205615984989e+02,6.335449600564970751e+01,-1.159557446557237199e+02,-1.113229329258938378e+02,9.446745872497558594e+00,-1.262115836143493652e+00,-3.442134261131286621e-01,5.550000000000000000e+02
-2.549775516260206132e+02,-2.496391911130831431e+02,-3.436006760109648894e+01,1.622346923285222147e+02,-2.220720125088919303e+02,6.447889821332319116e+01,-1.142496612688646564e+02,-1.090375469977543617e+02,9.446745872497558594e+00,-1.262115836143493652e+00,-3.442134261131286621e-01,5.560000000000000000e+02
-2.517805040743596692e+02,-2.478763889320853195e+02,-3.315242612210568041e+01,1.627689605073774146e+02,-2.219236990603194499e+02,6.496146126595704118e+01,-1.129473150176072522e+02,-1.079172245781101083e+02,9.446745872497558594e+00,-1.262115836143493652e+00,-3.442134261131286621e-01,5.570000000000000000e+02
-2.496262817103597627e+02,-2.452557120016117551e+02,-3.253209837796384818e+01,1.634249205390751740e+02,-2.211185731964706065e+02,6.474568788254146057e+01,-1.122268209485973784e+02,-1.078872388820927881e+02,9.446745872497558594e+00,-1.262115836143493652e+00,-3.442134261131286621e-01,5.580000000000000000e+02
-2.486632147358941438e+02,-2.423128921752750102e+02,-3.195044047011651855e+01,1.644458748300185107e+02,-2.192514661943569081e+02,6.421147315985217574e+01,-1.118371821471528165e+02,-1.084101146346238238e+02,9.446745872497558594e+00,-1.262115836143493652e+00,-3.442134261131286621e-01,5.590000000000000000e+02
-2.485850288889478179e+02,-2.396045657902886887e+02,-3.153816073629423045e+01,1.657501184581160487e+02,-2.166964289909783474e+02,6.383127681821497390e+01,-1.111395118179152632e+02,-1.087205677001111326e+02,9.446745872497558594e+00,-1.262115836143493652e+00,-3.442134261131286621e-01,5.600000000000000000e+02
-2.488598348386185535e+02,-2.373357851680166277e+02,-3.197797866434029856e+01,1.670289847319945693e+02,-2.142323003344554309e+02,6.381970070973147813e+01,-1.095834873939384124e+02,-1.083415866928107789e+02,9.446745872497558594e+00,-1.262115836143493652e+00,-3.442134261131286621e-01,5.610000000000000000e+02
-2.488967486117489898e+02,-2.353178552207182292e+02,-3.357799508304015035e+01,1.680353195067455090e+02,-2.123707038712309441e+02,6.407740256796751055e+01,-1.072405942344539653e+02,-1.074583407020836603e+02,9.446745872497558594e+00,-1.262115836143493652e+00,-3.442134261131286621e-01,5.620000000000000000e+02
-2.481679221233544013e+02,-2.332478942171210292e+02,-3.556378881963428285e+01,1.687707234813096875e+02,-2.109614722724145395e+02,6.437984161647545989e+01,-1.048711352099599026e+02,-1.067296439363235550e+02,9.446745872497558594e+00,-1.262115836143493652e+00,-3.442134261131286621e-01,5.630000000000000000e+02
-2.463981850096770359e+02,-2.310144962981303252e+02,-3.643239251262821199e+01,1.694104363489150273e+02,-2.093951784289420175e+02,6.455857362854658277e+01,-1.033619255435851301e+02,-1.066264917295266059e+02,9.446745872497558594e+00,-1.262115836143493652e+00,-3.442134261131286621e-01,5.640000000000000000e+02
-2.437787199149115622e+02,-2.287578357960601352e+02,-3.515723321327550366e+01,1.700748893238815072e+02,-2.071700221724186122e+02,6.452947700840741163e+01,-1.029518199858102889e+02,-1.069003791694558458e+02,9.446745872497558594e+00,-1.262115836143493652e+00,-3.442134261131286621e-01,5.650000000000000000e+02
-2.409819470699503654e+02,-2.266903762632855432e+02,-3.217111397070584644e+01,1.706843220911596291e+02,-2.043269936964861699e+02,6.424398931086034281e+01,-1.029446085072086134e+02,-1.067741840164335372e+02,9.484992027282714844e+00,-1.300361871719360352e+00,-3.442134261131286621e-01,5.660000000000000000e+02
-2.388117480450064249e+02,-2.248983935501437372e+02,-2.919965712426164828e+01,1.710177141999356536e+02,-2.014457441432296037e+02,6.370014717346202815e+01,-1.022395141704182606e+02,-1.057649752300249020e+02,9.484992027282714844e+00,-1.300361871719360352e+00,-3.442134261131286621e-01,5.670000000000000000e+02
-2.376522267521622780e+02,-2.233082777457611883e+02,-2.801260911356439465e+01,1.708708852097170166e+02,-1.992679418536299636e+02,6.298535054926469456e+01,-1.003205639628167773e+02,-1.043474548553576824e+02,9.484992027282714844e+00,-1.300361871719360352e+00,-3.442134261131286621e-01,5.680000000000000000e+02
-2.371666792083797191e+02,-2.218067682781202166e+02,-2.909356854264842696e+01,1.701464443392796966e+02,-1.982389344968178193e+02,6.223917234584223479e+01,-9.786014220000106434e+01,-1.037106970852164523e+02,9.484992027282714844e+00,-1.300361871719360352e+00,-3.442134261131286621e-01,5.690000000000000000e+02
-2.365585262989134208e+02,-2.203676723480075452e+02,-3.128220623676224932e+01,1.688503639248683612e+02,-1.982307190111387172e+02,6.152782540623229579e+01,-9.633240606857816601e+01,-1.046996303773776162e+02,9.484992027282714844e+00,-1.300361871719360352e+00,-3.442134261131286621e-01,5.700000000000000000e+02
-2.352202284647264605e+02,-2.190851367829727678e+02,-3.264783194268602529e+01,1.671005349033202947e+02,-1.985670262298062880e+02,6.076601683791523101e+01,-9.687964556485712819e+01,-1.068796125423641570e+02,9.484992027282714844e+00,-1.300361871719360352e+00,-3.442134261131286621e-01,5.710000000000000000e+02
-2.332207255367138714e+02,-2.181079513212753227e+02,-3.191142461094932514e+01,1.651845707431075425e+02,-1.983398683160430664e+02,5.978642451047926443e+01,-9.934235536083906482e+01,-1.086464750538270891e+02,9.484992027282714844e+00,-1.300361871719360352e+00,-3.442134261131286621e-01,5.720000000000000000e+02
-2.311852189351429843e+02,-2.175076714476654161e+02,-2.939420963801330799e+01,1.635430433655164961e+02,-1.969336420667459606e+02,5.845332370679534506e+01,-1.022659366480147582e+02,-1.083868889019331618e+02,9.484992027282714844e+00,-1.300361871719360352e+00,-3.442134261131286621e-01,5.730000000000000000e+02
-2.296959880625345249e+02,-2.171517868489991088e+02,-2.687169782018281694e+01,1.625666251173443015e+02,-1.945046269408176158e+02,5.665887550925253890e+01,-1.039027635736656521e+02,-1.057338769031321135e+02,9.484992027282714844e+00,-1.300361871719360352e+00,-3.442134261131286621e-01,5.740000000000000000e+02
-2.287958920696637506e+02,-2.166853946269184235e+02,-2.644400198678522429e+01,1.623085422362601093e+02,-1.920566515022856038e+02,5.421393537148105679e+01,-1.034007471212444216e+02,-1.018563477711204541e+02,9.484992027282714844e+00,-1.300361871719360352e+00,-3.442134261131286621e-01,5.750000000000000000e+02
-2.280521044343440735e+02,-2.156898049220453686e+02,-2.915023962801205926e+01,1.623923024696196080e+02,-1.909152482004101330e+02,5.084874746834975667e+01,-1.012537140236672712e+02,-9.856375682674843119e+01,9.484992027282714844e+00,-1.300361871719360352e+00,-3.442134261131286621e-01,5.760000000000000000e+02
-2.270785280105883430e+02,-2.139697718414299743e+02,-3.419356543840331142e+01,1.622759981859380787e+02,-1.918286284091209382e+02,4.644779203391590272e+01,-9.873219320640782826e+01,-9.701802560446867574e+01,9.484992027282714844e+00,-1.300361871719360352e+00,-3.442134261131286621e-01,5.770000000000000000e+02
-2.259494052231202659e+02,-2.117749156966383453e+02,-3.929774331102453289e+01,1.616652079279592726e+02,-1.943393115197650332e+02,4.131670866570493672e+01,-9.685309306372437277e+01,-9.709296785380047368e+01,9.484992027282714844e+00,-1.300361871719360352e+00,-3.442134261131286621e-01,5.780000000000000000e+02
-2.250736696579606360e+02,-2.097439735596944956e+02,-4.202929695960119716e+01,1.606794114305230323e+02,-1.969941825790720031e+02,3.615867009595604031e+01,-9.574499958101296215e+01,-9.778269683364942466e+01,9.484992027282714844e+00,-1.300361871719360352e+00,-3.442134261131286621e-01,5.790000000000000000e+02
-2.246792252207778802e+02,-2.085501871355372714e+02,-4.126541368102334673e+01,1.596083847351401346e+02,-1.983108798386747367e+02,3.168309582633082755e+01,-9.479856166927311278e+01,-9.813987548288696416e+01,9.484992027282714844e+00,-1.300361871719360352e+00,-3.442134261131286621e-01,5.800000000000000000e+02
-2.244563163002021611e+02,-2.084689046852745378e+02,-3.782923187297274126e+01,1.585329368102902663e+02,-1.977525461508994340e+02,2.817126264685066417e+01,-9.331391916183747526e+01,-9.788087969695516222e+01,9.484992027282714844e+00,-1.300361871719360352e+00,-3.442134261131286621e-01,5.810000000000000000e+02
-2.237370794908438256e+02,-2.091759110907642025e+02,-3.384657050127862021e+01,1.572387042854752508e+02,-1.959097667328496755e+02,2.540609779233636800e+01,-9.106314358132658526e+01,-9.725027802103159047e+01,9.484992027282714844e+00,-1.300361871719360352e+00,-3.442134261131286621e-01,5.820000000000000000e+02
-2.220454705941629072e+02,-2.099191732516737829e+02,-3.129963575320289237e+01,1.555332738740544301e+02,-1.937795425057211105e+02,2.299435470561365946e+01,-8.840197592295407958e+01,-9.646274224987337220e+01,9.484992027282714844e+00,-1.300361871719360352e+00,-3.442134261131286621e-01,5.830000000000000000e+02
-2.195171978075522929e+02,-2.099482424863108463e+02,-3.088224272277147975e+01,1.536143757118225039e+02,-1.918599434082079824e+02,2.072212188549747225e+01,-8.600572378114156891e+01,-9.539057660828166263e+01,9.484992027282714844e+00,-1.300361871719360352e+00,-3.442134261131286621e-01,5.840000000000000000e+02
-2.168549280905190244e+02,-2.089443072976500844e+02,-3.198282631874644721e+01,1.520537699962696934e+02,-1.899151176105515333e+02,1.861619677833368769e+01,-8.452662060546026623e+01,-9.379956546192624955e+01,9.484992027282714844e+00,-1.300361871719360352e+00,-3.442134261131286621e-01,5.850000000000000000e+02
-2.149271797564288136e+02,-2.072171191319957870e+02,-3.365293211333846557e+01,1.513527587695316470e+02,-1.875928251755467500e+02,1.675285012447056943e+01,-8.437212080245626566e+01,-9.183629118115823076e+01,9.484992027282714844e+00,-1.300361871719360352e+00,-3.442134261131286621e-01,5.860000000000000000e+02
-2.143744321011217835e+02,-2.055885436961343657e+02,-3.556896025340574852e+01,1.514816679917530564e+02,-1.852130349597446184e+02,1.511500797521512141e+01,-8.562034071469861374e+01,-9.019310136369676911e+01,9.484992027282714844e+00,-1.300361871719360352e+00,-3.442134261131286621e-01,5.870000000000000000e+02
-2.154274139839417330e+02,-2.049921395571545872e+02,-3.805899101557588438e+01,1.518664780826184142e+02,-1.838515447708377906e+02,1.366408177277116920e+01,-8.800428520520472375e+01,-8.968881581959067262e+01,9.484992027282714844e+00,-1.300361871719360352e+00,-3.442134261131286621e-01,5.880000000000000000e+02
-2.178846183351306536e+02,-2.059339702962133742e+02,-4.123230496724318073e+01,1.518600343039579457e+02,-1.845248619387330109e+02,1.246344447212686646e+01,-9.094478448028348794e+01,-9.061133763518409978e+01,9.484992027282714844e+00,-1.300361871719360352e+00,-3.442134261131286621e-01,5.890000000000000000e+02
-2.211217834654271428e+02,-2.080892872348631499e+02,-4.418926586093766673e+01,1.512593670492715319e+02,-1.871932025904570764e+02,1.162764745483218576e+01,-9.367820062903774669e+01,-9.242847830575919943e+01,9.484992027282714844e+00,-1.300361871719360352e+00,-3.442134261131286621e-01,5.900000000000000000e+02
-2.241538106333828182e+02,-2.103544999342520896e+02,-4.529144595253637817e+01,1.503963902131472423e+02,-1.905514241042019421e+02,1.113275981483093346e+01,-9.549669834408086899e+01,-9.416663079230420408e+01,9.484992027282714844e+00,-1.300361871719360352e+00,-3.442134261131286621e-01,5.910000000000000000e+02
-2.258888402110387688e+02,-2.114674996660432953e+02,-4.344061356991369394e+01,1.497448594497764134e+02,-1.928994950118649285e+02,1.075204247619694797e+01,-9.600215106185351033e+01,-9.513551491616817657e+01,9.484992027282714844e+00,-1.300361871719360352e+00,-3.442134261131286621e-01,5.920000000000000000e+02
-2.255834318094948685e+02,-2.108710441243820242e+02,-3.922616820194343745e+01,1.494358742175463703e+02,-1.933888941395471193e+02,1.025274650985375047e+01,-9.524174831373602501e+01,-9.533711438091995660e+01,9.484992027282714844e+00,-1.300361871719360352e+00,-4.589512646198272705e-01,5.930000000000000000e+02
-2.232645029690011143e+02,-2.091704738868702407e+02,-3.478587463806434243e+01,1.491527175338815141e+02,-1.925802534306767484e+02,9.662572603825537954e+00,-9.365408248276253289e+01,-9.521478604971525783e+01,9.484992027282714844e+00,-1.300361871719360352e+00,-4.589512646198272705e-01,5.940000000000000000e+02
-2.197940157838474988e+02,-2.077190019442568882e+02,-3.235312948067075922e+01,1.484806105106181349e+02,-1.918530163767718477e+02,9.294178929412737489e+00,-9.184557053858952713e+01,-9.502419980380727793e+01,9.484992027282714844e+00,-1.300361871719360352e+00,-4.589512646198272705e-01,5.950000000000000000e+02
-2.164585758934845217e+02,-2.075378226697939681e+02,-3.269878675126528833e+01,1.473458160399495682e+02,-1.922176469502737746e+02,9.466696289222454652e+00,-9.031612174305701046e+01,-9.446144887253649358e+01,9.484992027282714844e+00,-1.300361871719360352e+00,-4.589512646198272705e-01,5.960000000000000000e+02
-2.143066430800463422e+02,-2.084205264972133591e+02,-3.480930632107629208e+01,1.460882915589463664e+02,-1.935693055045594519e+02,1.019692682717868593e+01,-8.928189640911659808e+01,-9.294512744010535243e+01,9.484992027282714844e+00,-1.300361871719360352e+00,-4.589512646198272705e-01,5.970000000000000000e+02
-2.136523979847133887e+02,-2.090372484965537296e+02,-3.701634733361970575e+01,1.450636100234478363e+02,-1.949649524917695089e+02,1.116320925466425251e+01,-8.870561971783536137e+01,-9.028518325915501919e+01,9.484992027282714844e+00,-1.300361871719360352e+00,-4.589512646198272705e-01,5.980000000000000000e+02
-2.140510969249626214e+02,-2.080507068441002048e+02,-3.848056386508142168e+01,1.441620770527442801e+02,-1.955592037139140302e+02,1.195732522632897599e+01,-8.851088599476679519e+01,-8.707791786404595769e+01,9.484992027282714844e+00,-1.300361871719360352e+00,-4.589512646198272705e-01,5.990000000000000000e+02
-2.147111566225175920e+02,-2.053125410555148846e+02,-3.967637986403860850e+01,1.427585203536582412e+02,-1.952811226147532579e+02,1.234860704550374066e+01,-8.877718478410679381e+01,-8.439962876899335242e+01,9.484992027282714844e+00,-1.300361871719360352e+00,-4.589512646198272705e-01,6.000000000000000000e+02
-2.150097543253414187e+02,-2.020496582955220219e+02,-4.155196477059507743e+01,1.402285173181335267e+02,-1.946631430936176912e+02,1.232597061754495371e+01,-8.969494032020338636e+01,-8.299669312144760625e+01,9.484992027282714844e+00,-1.300361871719360352e+00,-4.589512646198272705e-01,6.010000000000000000e+02
-2.147495664785856206e+02,-1.998053588463099004e+02,-4.430894048449044931e+01,1.366159242403118697e+02,-1.940837403187833843e+02,1.195956534270953853e+01,-9.125667803716714843e+01,-8.265327082450312446e+01,9.484992027282714844e+00,-1.300361871719360352e+00,-4.589512646198272705e-01,6.020000000000000000e+02
-2.140220163608901203e+02,-1.990537245788109431e+02,-4.703330351635304396e+01,1.328323063654825091e+02,-1.932568167605677445e+02,1.128807585479808040e+01,-9.295376543224483612e+01,-8.231379063153144671e+01,9.484992027282714844e+00,-1.300361871719360352e+00,-4.589512646198272705e-01,6.030000000000000000e+02
-2.128603674746882461e+02,-1.987865626362327021e+02,-4.848522155782484333e+01,1.301521681374797481e+02,-1.915248462793497310e+02,1.035518988897092640e+01,-9.385554450078052469e+01,-8.094019515795480402e+01,9.484992027282714844e+00,-1.300361871719360352e+00,-4.589512646198272705e-01,6.040000000000000000e+02
-2.110401664233504562e+02,-1.975086349215707742e+02,-4.819076943105392274e+01,1.293874095604769536e+02,-1.886879630828880181e+02,9.292471126333111897e+00,-9.318523592442943482e+01,-7.845280588324931159e+01,9.484992027282714844e+00,-1.300361871719360352e+00,-4.589512646198272705e-01,6.050000000000000000e+02
-2.082439216506863886e+02,-1.947255506837027497e+02,-4.676220986677617475e+01,1.304129934944139677e+02,-1.855277355843027181e+02,8.271276745901559480e+00,-9.099830352369826869e+01,-7.596708384364137601e+01,9.484992027282714844e+00,-1.300361871719360352e+00,-4.589512646198272705e-01,6.060000000000000000e+02
-2.044732520818906778e+02,-1.914959850759114488e+02,-4.523316410784536856e+01,1.323936278921064513e+02,-1.834193985859601526e+02,7.310720094632415567e+00,-8.835819933239690727e+01,-7.507146115107207152e+01,9.484992027282714844e+00,-1.300361871719360352e+00,-4.589512646198272705e-01,6.070000000000000000e+02
-2.003443283833184978e+02,-1.894655666083999677e+02,-4.418173837196081877e+01,1.344237738361989614e+02,-1.832695696621231036e+02,6.133348568160727154e+00,-8.674529552240710473e+01,-7.664049575592434849e+01,9.484992027282714844e+00,-1.300361871719360352e+00,-4.589512646198272705e-01,6.080000000000000000e+02
-1.969555609939961869e+02,-1.892859192763717147e+02,-4.352274551798836910e+01,1.359969596198643558e+02,-1.846697032751253573e+02,4.290303778740053531e+00,-8.708317353602251387e+01,-8.009495534637972014e+01,9.484992027282714844e+00,-1.300361871719360352e+00,-4.589512646198272705e-01,6.090000000000000000e+02
-1.953537891382547969e+02,-1.899574840099958237e+02,-4.305569797358111828e+01,1.369952715973849990e+02,-1.860120511984823679e+02,1.551865850953618065e+00,-8.915099265840763110e+01,-8.371012335686100414e+01,9.484992027282714844e+00,-1.300361871719360352e+00,-4.589512646198272705e-01,6.100000000000000000e+02
-1.959516740156359447e+02,-1.897641585658348049e+02,-4.303037141756431083e+01,1.374044379619226675e+02,-1.855195300285777193e+02,-1.728085344031569548e+00,-9.185767334819684038e+01,-8.575297386626880325e+01,9.484992027282714844e+00,-1.300361871719360352e+00,-4.589512646198272705e-01,6.110000000000000000e+02
-1.982894649029658467e+02,-1.879287817912954779e+02,-4.403924115546760731e+01,1.371556507059212890e+02,-1.823881920922758582e+02,-4.636031065136194229e+00,-9.411717664367824909e+01,-8.558971533926342090e+01,9.484992027282714844e+00,-1.300361871719360352e+00,-4.589512646198272705e-01,6.120000000000000000e+02
