F3,F4,C3,C4,P3,P4,Cz,Pz,Accel_x,Accel_y,Accel_z,Sample
-8.185452315956354141e-12,-3.547029336914420128e-11,-2.182787284255027771e-11,-5.093170329928398132e-11,-3.547029336914420128e-11,-7.457856554538011551e-11,-3.547029336914420128e-11,-2.728484105318784714e-11,9.446745872497558594e+00,-1.147378087043762207e+00,-2.294756323099136353e-01,2.260000000000000000e+02
-9.948866308187461982e+00,-1.270381039353742381e+01,-5.436370529661871842e+00,-1.499925571968560689e+00,-1.021369871206024982e+01,-1.116838677562554949e+01,-5.434668631664862914e+00,-8.768140281430532923e+00,9.446745872497558594e+00,-1.147378087043762207e+00,-2.294756323099136353e-01,2.270000000000000000e+02
-1.986196997974457190e+01,-2.527160072621245490e+01,-1.054232905134631437e+01,-1.900173853620799491e+00,-1.981507290961781109e+01,-1.641041785485504079e+01,-1.094983274642072502e+01,-1.564424335521107423e+01,9.446745872497558594e+00,-1.147378087043762207e+00,-2.294756323099136353e-01,2.280000000000000000e+02
-2.984459261512802186e+01,-3.719382533522821177e+01,-1.509569729326176457e+01,-4.819072646714630537e-01,-2.853658244275629841e+01,-1.433007764888134261e+01,-1.562299483148126455e+01,-1.990421959354534920e+01,9.446745872497558594e+00,-1.147378087043762207e+00,-2.294756323099136353e-01,2.290000000000000000e+02
-4.011186924254252517e+01,-4.776199020833064424e+01,-1.901840300688127172e+01,2.911960254175937735e+00,-3.651013119471463142e+01,-8.318895278225681977e+00,-1.770883313876947796e+01,-2.216470557741104130e+01,9.446745872497558594e+00,-1.147378087043762207e+00,-2.294756323099136353e-01,2.300000000000000000e+02
-5.076259794906945899e+01,-5.665739018339718314e+01,-2.232519963397862739e+01,7.948545557166653452e+00,-4.397442879327991250e+01,-2.685411820806621108e+00,-1.597255978305838653e+01,-2.352915389938152657e+01,9.446745872497558594e+00,-1.147378087043762207e+00,-2.294756323099136353e-01,2.310000000000000000e+02
-6.153610113277409255e+01,-6.427160979734890134e+01,-2.503020698185900983e+01,1.405096073960885406e+01,-5.088219231021412270e+01,1.189239040566462791e+00,-1.097095272657224996e+01,-2.461959684152770933e+01,9.446745872497558594e+00,-1.147378087043762207e+00,-2.294756323099136353e-01,2.320000000000000000e+02
-7.179134952263120795e+01,-7.133778885488754895e+01,-2.708897658064324787e+01,2.065005425230992842e+01,-5.678345720756351511e+01,5.052696603102958761e+00,-5.062101621821057051e+00,-2.538991293892468093e+01,9.446745872497558594e+00,-1.147378087043762207e+00,-2.294756323099136353e-01,2.330000000000000000e+02
-8.079512375784361211e+01,-7.823016003324573830e+01,-2.841043550050108024e+01,2.732087536974177056e+01,-6.113988807842542883e+01,1.087965246397652663e+01,-1.042956261329891277e+00,-2.572291607429269789e+01,9.446745872497558594e+00,-1.147378087043762207e+00,-2.294756323099136353e-01,2.340000000000000000e+02
-8.815793924233730650e+01,-8.468367236695212341e+01,-2.891255361102957977e+01,3.379403891770016344e+01,-6.383437604879054561e+01,1.845521324649598682e+01,-4.582683279295451939e-01,-2.598289048109745636e+01,9.446745872497558594e+00,-1.147378087043762207e+00,-2.294756323099136353e-01,2.350000000000000000e+02
-9.410432115412004350e+01,-9.021439680368530389e+01,-2.858570704820067476e+01,3.991515259276638972e+01,-6.542414986804942600e+01,2.587726588152872864e+01,-2.775182673768540553e+00,-2.682511291966784484e+01,9.446745872497558594e+00,-1.147378087043762207e+00,-2.294756323099136353e-01,2.360000000000000000e+02
-9.936185067615770095e+01,-9.476260086391903315e+01,-2.754069073048503924e+01,4.565389021084865817e+01,-6.684938210274958692e+01,3.186465734814555617e+01,-5.833078264051437145e+00,-2.844491028877382632e+01,9.446745872497558594e+00,-1.147378087043762207e+00,-2.294756323099136353e-01,2.370000000000000000e+02
-1.047327631535363253e+02,-9.887925126760092098e+01,-2.601450178500726906e+01,5.119699198581020028e+01,-6.877512224981546751e+01,3.698821375817533408e+01,-7.102324532856982842e+00,-3.010138817030110658e+01,9.446745872497558594e+00,-1.147378087043762207e+00,-2.294756323099136353e-01,2.380000000000000000e+02
-1.106498738111304192e+02,-1.033037837529054741e+02,-2.431511521833999723e+01,5.700906476894942898e+01,-7.112684322314453311e+01,4.261843859688269731e+01,-4.987022043716933695e+00,-3.050595088129375654e+01,9.446745872497558594e+00,-1.185624003410339355e+00,-2.677215635776519775e-01,2.390000000000000000e+02
-1.170144248524848081e+02,-1.084072660609235754e+02,-2.271363476073565835e+01,6.368890933807961119e+01,-7.323685193203255039e+01,4.917131224059994565e+01,4.227582311959849903e-01,-2.877911373784490934e+01,9.446745872497558594e+00,-1.185624003410339355e+00,-2.677215635776519775e-01,2.400000000000000000e+02
-1.233792367272590127e+02,-1.140161138480652880e+02,-2.131876853766243585e+01,7.158537277933373844e+01,-7.448788934560889174e+01,5.579576996077958029e+01,7.411319881753115624e+00,-2.512774008569022044e+01,9.446745872497558594e+00,-1.185624003410339355e+00,-2.677215635776519775e-01,2.410000000000000000e+02
-1.292810575813728065e+02,-1.196395182910109725e+02,-2.002164111969887017e+01,8.040425917124048283e+01,-7.489993820956533455e+01,6.166394088266315521e+01,1.346273240923528647e+01,-2.072458027521452095e+01,9.446745872497558594e+00,-1.185624003410339355e+00,-2.677215635776519775e-01,2.420000000000000000e+02
-1.344688923261992386e+02,-1.247591866687225775e+02,-1.859451800972510682e+01,8.917548637305571901e+01,-7.516397564102317119e+01,6.708490277874989260e+01,1.650555344348413200e+01,-1.703915968311912366e+01,9.446745872497558594e+00,-1.185624003410339355e+00,-2.677215635776519775e-01,2.430000000000000000e+02
-1.389391152319403773e+02,-1.289684716170859247e+02,-1.693284881822637544e+01,9.672222418817273137e+01,-7.615543496104328369e+01,7.303575082548013597e+01,1.593471314918770076e+01,-1.527426149087295926e+01,9.446745872497558594e+00,-1.185624003410339355e+00,-2.677215635776519775e-01,2.440000000000000000e+02
-1.428723523364242283e+02,-1.320827226282422089e+02,-1.527706931820830505e+01,1.023528887733409647e+02,-7.840182767843634792e+01,7.973654098823317327e+01,1.281105982223016326e+01,-1.617032558843584411e+01,9.446745872497558594e+00,-1.185624003410339355e+00,-2.677215635776519775e-01,2.450000000000000000e+02
-1.465888827873932314e+02,-1.343461675314033528e+02,-1.419340831841873296e+01,1.062670398418713376e+02,-8.192079187016042852e+01,8.605971317536932474e+01,9.134486977845881484e+00,-1.988888646494524437e+01,9.446745872497558594e+00,-1.185624003410339355e+00,-2.677215635776519775e-01,2.460000000000000000e+02
-1.505264742426152225e+02,-1.365405132131313621e+02,-1.424740631764052523e+01,1.093807347745105290e+02,-8.640642962702258956e+01,9.056790051311509160e+01,6.706609245364234084e+00,-2.572010508898938497e+01,9.446745872497558594e+00,-1.185624003410339355e+00,-2.677215635776519775e-01,2.470000000000000000e+02
-1.551321887198964760e+02,-1.396593137632175967e+02,-1.557210333592774987e+01,1.127598797727905549e+02,-9.142702305110560701e+01,9.307824992626956373e+01,6.325815856909684953e+00,-3.190859153672909088e+01,9.446745872497558594e+00,-1.185624003410339355e+00,-2.677215635776519775e-01,2.480000000000000000e+02
-1.606216542696229226e+02,-1.441692834031769053e+02,-1.767300505532330135e+01,1.171231851415141136e+02,-9.643781810906511964e+01,9.504249480373982806e+01,7.693139130995405139e+00,-3.616240004464998492e+01,9.446745872497558594e+00,-1.185624003410339355e+00,-2.677215635776519775e-01,2.490000000000000000e+02
-1.667567888747780671e+02,-1.494447118444245461e+02,-1.966751931056569447e+01,1.226733283226958520e+02,-1.007646265660941935e+02,9.831300810963875847e+01,9.836372885675700672e+00,-3.688331812840124257e+01,9.446745872497558594e+00,-1.185624003410339355e+00,-2.677215635776519775e-01,2.500000000000000000e+02
-1.728925712140339783e+02,-1.540388059194870038e+02,-2.082166055914967728e+01,1.291544369443936375e+02,-1.038177015109677086e+02,1.035417574927905662e+02,1.162746608639190526e+01,-3.425547601710786694e+01,9.446745872497558594e+00,-1.185624003410339355e+00,-2.677215635776519775e-01,2.510000000000000000e+02
-1.783811933765391586e+02,-1.567725127578491993e+02,-2.101000905255978068e+01,1.359472245742272207e+02,-1.054990559087691508e+02,1.097789410441382643e+02,1.217879803549203643e+01,-3.014727859237655139e+01,9.446745872497558594e+00,-1.185624003410339355e+00,-2.677215635776519775e-01,2.520000000000000000e+02
-1.830760532982435507e+02,-1.577843858529231511e+02,-2.076727312919547330e+01,1.422004357893383713e+02,-1.064177119321711871e+02,1.155737061211548280e+02,1.117017865899197204e+01,-2.672606035618218812e+01,9.446745872497558594e+00,-1.185624003410339355e+00,-2.677215635776519775e-01,2.530000000000000000e+02
-1.874684612504611323e+02,-1.585685539608284671e+02,-2.090068155004428263e+01,1.471473865779998960e+02,-1.075760744999579401e+02,1.204237959041638533e+02,9.115217251945068710e+00,-2.491855838817127733e+01,9.446745872497558594e+00,-1.185624003410339355e+00,-2.677215635776519775e-01,2.540000000000000000e+02
-1.922282493536395123e+02,-1.608465437681315962e+02,-2.194770091986629268e+01,1.505625490448273922e+02,-1.096711216213930129e+02,1.251721495964629867e+02,7.322779805595018843e+00,-2.407398998085591302e+01,9.446745872497558594e+00,-1.185624003410339355e+00,-2.677215635776519775e-01,2.550000000000000000e+02
-1.974730956721600705e+02,-1.651837050799858844e+02,-2.386571992915014562e+01,1.529765384054780952e+02,-1.126167437771919140e+02,1.310261350059845427e+02,7.277136032835187507e+00,-2.311529239720539408e+01,9.446745872497558594e+00,-1.185624003410339355e+00,-2.677215635776519775e-01,2.560000000000000000e+02
-2.024713427904862328e+02,-1.705493762471696755e+02,-2.616310021643994332e+01,1.553031330192125097e+02,-1.157601258575650718e+02,1.381743486301238590e+02,9.597468610264513700e+00,-2.205214293695917149e+01,9.446745872497558594e+00,-1.185624003410339355e+00,-2.677215635776519775e-01,2.570000000000000000e+02
-2.062064083601862876e+02,-1.752079496631608890e+02,-2.833362676689057480e+01,1.580916819878557362e+02,-1.185947884315696683e+02,1.453282875985050850e+02,1.330857173009189864e+01,-2.233496889658317741e+01,9.446745872497558594e+00,-1.185624003410339355e+00,-2.677215635776519775e-01,2.580000000000000000e+02
-2.084420733497786387e+02,-1.781597092698257256e+02,-3.022198538717202609e+01,1.611131967446708586e+02,-1.212504488388740356e+02,1.506648667116851357e+02,1.617912086743717737e+01,-2.559905616078867752e+01,9.446745872497558594e+00,-1.185624003410339355e+00,-2.677215635776519775e-01,2.590000000000000000e+02
-2.103278582027123775e+02,-1.799003990712499217e+02,-3.202002986790103023e+01,1.637634031254574438e+02,-1.242490242524327186e+02,1.533503349536986207e+02,1.612597689893573261e+01,-3.188982321418279753e+01,9.446745872497558594e+00,-1.185624003410339355e+00,-3.059675097465515137e-01,2.600000000000000000e+02
-2.138108513794527425e+02,-1.818992194970237506e+02,-3.388761851727804242e+01,1.659424679474741424e+02,-1.277636768718989515e+02,1.542967542664655411e+02,1.274100900905932576e+01,-3.902694740354809255e+01,9.446745872497558594e+00,-1.185624003410339355e+00,-3.059675097465515137e-01,2.610000000000000000e+02
-2.201503418784941459e+02,-1.853352628924517376e+02,-3.556518555859975095e+01,1.684718582147206689e+02,-1.311590021200349838e+02,1.554749275525136909e+02,7.711460098883435421e+00,-4.381813661644810054e+01,9.446745872497558594e+00,-1.185624003410339355e+00,-3.059675097465515137e-01,2.620000000000000000e+02
-2.287363620505966537e+02,-1.902153710040070109e+02,-3.640940720070511816e+01,1.724673397654496512e+02,-1.333742507570291309e+02,1.583708904091881777e+02,3.673663398780718126e+00,-4.423436953433611052e+01,9.446745872497558594e+00,-1.185624003410339355e+00,-3.059675097465515137e-01,2.630000000000000000e+02
-2.372980556779671133e+02,-1.955681345846069235e+02,-3.592954008875540239e+01,1.781303170128958300e+02,-1.338955553273522128e+02,1.629077708808035823e+02,2.292367451406789769e+00,-4.083773716790801700e+01,9.446745872497558594e+00,-1.185624003410339355e+00,-3.059675097465515137e-01,2.640000000000000000e+02
-2.434518327683836105e+02,-2.004043759610217421e+02,-3.439875672850394039e+01,1.841410999567187901e+02,-1.334285655997300637e+02,1.676932533145482012e+02,3.074124488598044991e+00,-3.634719017604447799e+01,9.446745872497558594e+00,-1.185624003410339355e+00,-3.059675097465515137e-01,2.650000000000000000e+02
-2.463489188542698685e+02,-2.045105205632194156e+02,-3.293070249132779281e+01,1.884004315202600992e+02,-1.335784837650408008e+02,1.712603985621635729e+02,3.909480848060866265e+00,-3.371005135839413924e+01,9.446745872497558594e+00,-1.185624003410339355e+00,-3.059675097465515137e-01,2.660000000000000000e+02
-2.470713784078739081e+02,-2.083985732031505904e+02,-3.279866507904853279e+01,1.896224009361931166e+02,-1.357193588446880312e+02,1.731433115604841078e+02,2.910157328941295418e+00,-3.420099909618875245e+01,9.446745872497558594e+00,-1.185624003410339355e+00,-3.059675097465515137e-01,2.670000000000000000e+02
-2.475520613543985746e+02,-2.125702765697542418e+02,-3.447624204926205493e+01,1.884258582322627262e+02,-1.399881311715480479e+02,1.739226293479350716e+02,-3.114007934527762700e-03,-3.694982483276953644e+01,9.446745872497558594e+00,-1.185624003410339355e+00,-3.059675097465515137e-01,2.680000000000000000e+02
-2.490764385796287570e+02,-2.168680860853601189e+02,-3.724395544626577248e+01,1.869184171681326916e+02,-1.452580183898689938e+02,1.744104891420802232e+02,-3.084696078835804656e+00,-4.007234225031561436e+01,9.446745872497558594e+00,-1.185624003410339355e+00,-3.059675097465515137e-01,2.690000000000000000e+02
-2.516736325182305336e+02,-2.205395622693858968e+02,-3.978019799083631369e+01,1.870720910266909414e+02,-1.500738612131422087e+02,1.748839761882518360e+02,-4.303426258847593999e+00,-4.228694576688531015e+01,9.446745872497558594e+00,-1.185624003410339355e+00,-3.059675097465515137e-01,2.700000000000000000e+02
-2.547595799884938970e+02,-2.229283713516324497e+02,-4.128489008398582882e+01,1.892756238435295018e+02,-1.536932474781301607e+02,1.750788600850510193e+02,-3.075376639072601392e+00,-4.361661871005844660e+01,9.446745872497558594e+00,-1.185624003410339355e+00,-3.059675097465515137e-01,2.710000000000000000e+02
-2.581712911511931452e+02,-2.241254487158571465e+02,-4.215156134022481638e+01,1.922754796467397682e+02,-1.563381985707646891e+02,1.748006230073406186e+02,-7.091596756995386386e-01,-4.471807162939921909e+01,9.446745872497558594e+00,-1.185624003410339355e+00,-3.059675097465515137e-01,2.720000000000000000e+02
-2.624488702106737037e+02,-2.249673085829126649e+02,-4.354569997141152271e+01,1.944816666172855548e+02,-1.585545459151876457e+02,1.744311159978151409e+02,7.458191503237685538e-01,-4.567135005471845943e+01,9.446745872497558594e+00,-1.185624003410339355e+00,-3.059675097465515137e-01,2.730000000000000000e+02
-2.681165178279075008e+02,-2.263695657207836121e+02,-4.626503299024170701e+01,1.954376447118420401e+02,-1.604257568944944978e+02,1.748314621189774698e+02,1.273817336468709982e-01,-4.554613280725425284e+01,9.446745872497558594e+00,-1.185624003410339355e+00,-3.059675097465515137e-01,2.740000000000000000e+02
-2.747790464383197104e+02,-2.285795968190204803e+02,-4.993194817421317566e+01,1.961525560480686181e+02,-1.614855803876212121e+02,1.767666890590107869e+02,-2.209772401688951504e+00,-4.328263464084466250e+01,9.446745872497558594e+00,-1.185624003410339355e+00,-3.059675097465515137e-01,2.750000000000000000e+02
-2.810539619668875275e+02,-2.310069690240707132e+02,-5.325460097686709560e+01,1.980471692078544947e+02,-1.614026814440599082e+02,1.803565197370362512e+02,-5.151146420763780043e+00,-3.905228860033048477e+01,9.446745872497558594e+00,-1.185624003410339355e+00,-3.059675097465515137e-01,2.760000000000000000e+02
-2.855188152146074572e+02,-2.328028234128801159e+02,-5.509663281840767013e+01,2.015085550216772390e+02,-1.606644204396793612e+02,1.849405820428128209e+02,-8.016342553576123464e+00,-3.469957550284016179e+01,9.446745872497558594e+00,-1.185624003410339355e+00,-3.059675097465515137e-01,2.770000000000000000e+02
-2.878058461971641009e+02,-2.337180610304749280e+02,-5.534637178390221379e+01,2.053760134931899302e+02,-1.604370265793922954e+02,1.893676762059058092e+02,-1.095445485884647496e+01,-3.267620740351594577e+01,9.446745872497558594e+00,-1.185624003410339355e+00,-3.059675097465515137e-01,2.780000000000000000e+02
-2.888078687731881473e+02,-2.345192486773657947e+02,-5.482889034681011253e+01,2.078027986061579213e+02,-1.616295019003941889e+02,1.924915047631257039e+02,-1.428650579959276001e+01,-3.430848168062129844e+01,9.446745872497558594e+00,-1.185624003410339355e+00,-3.059675097465515137e-01,2.790000000000000000e+02
-2.898105023491184511e+02,-2.365771316190011930e+02,-5.443857457775129660e+01,2.076922051684441612e+02,-1.640502626284901453e+02,1.936229010172819471e+02,-1.767973519758106704e+01,-3.891669704471632940e+01,9.446745872497558594e+00,-1.185624003410339355e+00,-3.059675097465515137e-01,2.800000000000000000e+02
-2.913874092500514053e+02,-2.408917546540124022e+02,-5.436084199062634070e+01,2.054417980447997252e+02,-1.665247027672344302e+02,1.927457015052905263e+02,-2.015678461231664187e+01,-4.453628807594668615e+01,9.446745872497558594e+00,-1.185624003410339355e+00,-3.059675097465515137e-01,2.810000000000000000e+02
-2.930737147574477603e+02,-2.472639066649203414e+02,-5.407703107113366059e+01,2.024430900405386637e+02,-1.679448413367103967e+02,1.904166926353054805e+02,-2.096866271469207277e+01,-4.951727054296929964e+01,9.446745872497558594e+00,-1.185624003410339355e+00,-3.059675097465515137e-01,2.820000000000000000e+02
-2.940565568494303079e+02,-2.542241782488181343e+02,-5.304792028337260490e+01,1.999506989627170697e+02,-1.682760894014272708e+02,1.874342403474829553e+02,-2.038946435957268477e+01,-5.353547466885879658e+01,9.446745872497558594e+00,-1.185624003410339355e+00,-3.059675097465515137e-01,2.830000000000000000e+02
-2.941612074015702092e+02,-2.597842009434034480e+02,-5.134782442349705889e+01,1.984136545006722372e+02,-1.685790663917782695e+02,1.845145098099419556e+02,-1.956656497255517024e+01,-5.725286640119520598e+01,9.446745872497558594e+00,-1.185624003410339355e+00,-3.059675097465515137e-01,2.840000000000000000e+02
-2.941795298711895157e+02,-2.625051322506717497e+02,-4.969623324736539871e+01,1.977271683865728846e+02,-1.700974719662194730e+02,1.821567518247247790e+02,-1.960180934933305252e+01,-6.121846883391640404e+01,9.484992027282714844e+00,-1.223870038986206055e+00,-2.677215635776519775e-01,2.850000000000000000e+02
-2.952641707927059542e+02,-2.621991078294890940e+02,-4.896015667657138692e+01,1.978828016215743446e+02,-1.733351543127041623e+02,1.806868643321358832e+02,-2.079553409004665809e+01,-6.519405954655076130e+01,9.484992027282714844e+00,-1.223870038986206055e+00,-2.677215635776519775e-01,2.860000000000000000e+02
-2.979911295067886385e+02,-2.599019196346084755e+02,-4.962396911548103162e+01,1.991928506473568632e+02,-1.779226222762408725e+02,1.803139391617678484e+02,-2.269911953996097509e+01,-6.843059989747825966e+01,9.484992027282714844e+00,-1.223870038986206055e+00,-2.677215635776519775e-01,2.870000000000000000e+02
-3.019512291287260268e+02,-2.572606127072299387e+02,-5.161971590779558028e+01,2.018815720911961762e+02,-1.831635426058801386e+02,1.811009218521621733e+02,-2.469900660012490334e+01,-7.033787599359447995e+01,9.484992027282714844e+00,-1.223870038986206055e+00,-2.677215635776519775e-01,2.880000000000000000e+02
-3.061762809241407126e+02,-2.557658209163258789e+02,-5.448521386008496847e+01,2.056329578087343180e+02,-1.884817633905546472e+02,1.829426734420453613e+02,-2.638555002117811910e+01,-7.069284143707841395e+01,9.484992027282714844e+00,-1.223870038986206055e+00,-2.677215635776519775e-01,2.890000000000000000e+02
-3.099202777155294939e+02,-2.561944221805828192e+02,-5.758142644303188717e+01,2.097190238375296758e+02,-1.932728719668263011e+02,1.856646284750784162e+02,-2.742195681936948404e+01,-6.927765030777419497e+01,9.484992027282714844e+00,-1.223870038986206055e+00,-2.677215635776519775e-01,2.900000000000000000e+02
-3.130638685270417341e+02,-2.584152029284092009e+02,-6.022706621349607303e+01,2.136082713399250679e+02,-1.965416478966835712e+02,1.891589607341654755e+02,-2.737771900306108819e+01,-6.568102453656285888e+01,9.484992027282714844e+00,-1.223870038986206055e+00,-2.677215635776519775e-01,2.910000000000000000e+02
-3.158771106125800543e+02,-2.615585234599079740e+02,-6.183275188869356498e+01,2.173327062801627108e+02,-1.971005023024880529e+02,1.933350981153901103e+02,-2.604344587958087232e+01,-5.985371889353064034e+01,9.484992027282714844e+00,-1.223870038986206055e+00,-2.677215635776519775e-01,2.920000000000000000e+02
-3.185033870524285931e+02,-2.644795735118618154e+02,-6.212889300450297014e+01,2.211337089039489001e+02,-1.944954534386249634e+02,1.978332180441977926e+02,-2.399479439974618344e+01,-5.297467805280325592e+01,9.484992027282714844e+00,-1.223870038986206055e+00,-2.677215635776519775e-01,2.930000000000000000e+02
-3.207155885742033661e+02,-2.663624014913282281e+02,-6.136674631203322861e+01,2.247694395393295963e+02,-1.898429585083792972e+02,2.018156681349880728e+02,-2.260859197818990651e+01,-4.751346560007817743e+01,9.484992027282714844e+00,-1.223870038986206055e+00,-2.677215635776519775e-01,2.940000000000000000e+02
-3.221374466227413222e+02,-2.671772970325997107e+02,-6.024254536847922736e+01,2.273195206838718150e+02,-1.855775018221926302e+02,2.042114374594614219e+02,-2.315977221963873944e+01,-4.597523283339938871e+01,9.484992027282714844e+00,-1.223870038986206055e+00,-2.677215635776519775e-01,2.950000000000000000e+02
-3.226435337562950281e+02,-2.676802154464481305e+02,-5.949212235496827361e+01,2.278233718451642744e+02,-1.840498363557788934e+02,2.043541155999246257e+02,-2.569724710416812741e+01,-4.918542243491907584e+01,9.484992027282714844e+00,-1.223870038986206055e+00,-2.677215635776519775e-01,2.960000000000000000e+02
-3.225228375883302760e+02,-2.688858357733361686e+02,-5.944674304697866773e+01,2.261712588688765209e+02,-1.860409816412571899e+02,2.024894234031169162e+02,-2.886333180963731593e+01,-5.565666342670743916e+01,9.484992027282714844e+00,-1.223870038986206055e+00,-2.677215635776519775e-01,2.970000000000000000e+02
-3.222818050780975909e+02,-2.713431227386414548e+02,-5.993154051426006390e+01,2.233134320619037680e+02,-1.904102253245791871e+02,1.996319111916313886e+02,-3.101758503122573529e+01,-6.271901109184489087e+01,9.484992027282714844e+00,-1.223870038986206055e+00,-2.677215635776519775e-01,2.980000000000000000e+02
-3.223150448039348248e+02,-2.747420926006412287e+02,-6.057804753157711275e+01,2.205328754047582152e+02,-1.951069132877519223e+02,1.968333827313567781e+02,-3.168035186834526939e+01,-6.843466981614483302e+01,9.484992027282714844e+00,-1.223870038986206055e+00,-2.677215635776519775e-01,2.990000000000000000e+02
-3.227370611061267596e+02,-2.781560843964766718e+02,-6.123811020005223327e+01,2.184728676844188158e+02,-1.985949348161861963e+02,1.944925098781466204e+02,-3.187368300204514071e+01,-7.258142395675633907e+01,9.484992027282714844e+00,-1.223870038986206055e+00,-2.677215635776519775e-01,3.000000000000000000e+02
-3.234535605698686709e+02,-2.807198430109923493e+02,-6.210222555297980307e+01,2.168264805565363531e+02,-2.005363530225879458e+02,1.922884383825185068e+02,-3.301902333391910815e+01,-7.596998597841871970e+01,9.484992027282714844e+00,-1.223870038986206055e+00,-2.677215635776519775e-01,3.010000000000000000e+02
-3.243424072432169964e+02,-2.822102268445066784e+02,-6.344134699628148155e+01,2.149062313529871062e+02,-2.014348705692784165e+02,1.897278953738625660e+02,-3.551128236538897909e+01,-7.901812896930687202e+01,9.484992027282714844e+00,-1.223870038986206055e+00,-2.677215635776519775e-01,3.020000000000000000e+02
-3.253965833816080249e+02,-2.830901385323539330e+02,-6.529764237946471894e+01,2.124471255382366053e+02,-2.019034013145595736e+02,1.867424238127077842e+02,-3.842058190095860937e+01,-8.115072171420200675e+01,9.484992027282714844e+00,-1.223870038986206055e+00,-2.677215635776519775e-01,3.030000000000000000e+02
-3.267585853663980515e+02,-2.840340810418081219e+02,-6.746340870655001254e+01,2.098904942393605779e+02,-2.023044345812120355e+02,1.838334240679441791e+02,-4.055241845765681319e+01,-8.154822624083726623e+01,9.484992027282714844e+00,-1.223870038986206055e+00,-2.677215635776519775e-01,3.040000000000000000e+02
-3.286431325384818933e+02,-2.853652488810187151e+02,-6.975100867580511022e+01,2.080048626512093506e+02,-2.028681720598738707e+02,1.817545958141713527e+02,-4.167026117966975107e+01,-8.027747607135597718e+01,9.484992027282714844e+00,-1.223870038986206055e+00,-2.677215635776519775e-01,3.050000000000000000e+02
-3.311621669277712385e+02,-2.868500872473414915e+02,-7.221572577018162065e+01,2.073048735496217887e+02,-2.038492634113708846e+02,1.810711753742693872e+02,-4.259313046737588593e+01,-7.851697699759517945e+01,9.484992027282714844e+00,-1.223870038986206055e+00,-2.677215635776519775e-01,3.060000000000000000e+02
-3.341214476317776985e+02,-2.879696578713109716e+02,-7.503050214101358506e+01,2.078050392165393987e+02,-2.053775263339807111e+02,1.819212342902171713e+02,-4.416215453404424807e+01,-7.764631142308053313e+01,9.484992027282714844e+00,-1.223870038986206055e+00,-2.677215635776519775e-01,3.070000000000000000e+02
-3.369645827049899367e+02,-2.884006658989998186e+02,-7.811469925661128855e+01,2.091765684804929606e+02,-2.071916571032797378e+02,1.840191223170033936e+02,-4.628122479216199281e+01,-7.820545137821102344e+01,9.484992027282714844e+00,-1.223870038986206055e+00,-2.677215635776519775e-01,3.080000000000000000e+02
-3.390162622485514703e+02,-2.883035104300668081e+02,-8.093720589745748839e+01,2.109959731726660266e+02,-2.086859863110083779e+02,1.867885324774131277e+02,-4.808284666770259719e+01,-7.977389863558494199e+01,9.484992027282714844e+00,-1.223870038986206055e+00,-2.677215635776519775e-01,3.090000000000000000e+02
-3.399435341568884610e+02,-2.882074278515392507e+02,-8.278728421802361481e+01,2.128491580163897652e+02,-2.093576032084960161e+02,1.895593429313462366e+02,-4.896414667637907314e+01,-8.170111378087034382e+01,9.484992027282714844e+00,-1.223870038986206055e+00,-2.677215635776519775e-01,3.100000000000000000e+02
-3.400675875962979262e+02,-2.886288256066086433e+02,-8.332908196752487129e+01,2.143412182798390404e+02,-2.092283043896273398e+02,1.918041553986313374e+02,-4.924871604353506882e+01,-8.371356891003972578e+01,9.484992027282714844e+00,-1.223870038986206055e+00,-2.677215635776519775e-01,3.110000000000000000e+02
-3.401685193003685299e+02,-2.897733158194193948e+02,-8.292962407487095788e+01,2.151479552647715536e+02,-2.087873499189411177e+02,1.933216769819614456e+02,-4.971162668560873499e+01,-8.575395438037696749e+01,9.484992027282714844e+00,-1.070886254310607910e+00,-2.294756323099136353e-01,3.120000000000000000e+02
-3.408522520431613430e+02,-2.915488283637233735e+02,-8.241366884620401834e+01,2.151052000870438405e+02,-2.085076258012383619e+02,1.942227597156741012e+02,-5.056163543217860479e+01,-8.744346966291891476e+01,9.484992027282714844e+00,-1.070886254310607910e+00,-2.294756323099136353e-01,3.130000000000000000e+02
-3.420096007286820736e+02,-2.938088773383475996e+02,-8.241866852100963570e+01,2.142090991058678355e+02,-2.084297832028501034e+02,1.947064237755348586e+02,-5.111314662007248444e+01,-8.802499145523000834e+01,9.484992027282714844e+00,-1.070886254310607910e+00,-2.294756323099136353e-01,3.140000000000000000e+02
-3.428951195853728677e+02,-2.965275427868347151e+02,-8.289570944012166365e+01,2.125280088052761585e+02,-2.081998710255638230e+02,1.948342871905306311e+02,-5.059172776075376987e+01,-8.697512899510036277e+01,9.484992027282714844e+00,-1.070886254310607910e+00,-2.294756323099136353e-01,3.150000000000000000e+02
-3.428305209599313912e+02,-2.996749186922942272e+02,-8.318383269748574094e+01,2.102088591975866620e+02,-2.074428962679996857e+02,1.945548655900020094e+02,-4.916043109869798400e+01,-8.455036982246878097e+01,9.484992027282714844e+00,-1.070886254310607910e+00,-2.294756323099136353e-01,3.160000000000000000e+02
-3.419165004197092230e+02,-3.029087708082654444e+02,-8.260115520845488390e+01,2.076580333158992744e+02,-2.060579134094301139e+02,1.939702376553179874e+02,-4.794533014061545373e+01,-8.157330517310043660e+01,9.484992027282714844e+00,-1.070886254310607910e+00,-2.294756323099136353e-01,3.170000000000000000e+02
-3.410458256279392799e+02,-3.054705625934859654e+02,-8.106106058753414345e+01,2.056581930680365531e+02,-2.042271313839013374e+02,1.935169717186799971e+02,-4.795051699388159250e+01,-7.873419918381978277e+01,9.484992027282714844e+00,-1.070886254310607910e+00,-2.294756323099136353e-01,3.180000000000000000e+02
-3.411383708753050428e+02,-3.065488389352578906e+02,-7.923191574977192886e+01,2.050734111179563115e+02,-2.023308539860687461e+02,1.937422539797464651e+02,-4.904957818609489095e+01,-7.634398029383299900e+01,9.484992027282714844e+00,-1.070886254310607910e+00,-2.294756323099136353e-01,3.190000000000000000e+02
-3.422690462653222880e+02,-3.058844292657861388e+02,-7.814090648868443623e+01,2.061655400057823044e+02,-2.010013972148250332e+02,1.947531630128523830e+02,-5.020252573140714958e+01,-7.491853129136950429e+01,9.484992027282714844e+00,-1.070886254310607910e+00,-2.294756323099136353e-01,3.200000000000000000e+02
-3.435099978380440007e+02,-3.040597926835735052e+02,-7.852299071244385686e+01,2.080866216950248599e+02,-2.011816741746777097e+02,1.958346660156103098e+02,-5.069534453968742582e+01,-7.577510320017972845e+01,9.484992027282714844e+00,-1.070886254310607910e+00,-2.294756323099136353e-01,3.210000000000000000e+02
-3.436821500815252648e+02,-3.021289287074376944e+02,-8.036328987070078256e+01,2.091960928423427504e+02,-2.038102442064432012e+02,1.957034957714092798e+02,-5.103808348839561404e+01,-8.049667368549671664e+01,9.484992027282714844e+00,-1.070886254310607910e+00,-2.294756323099136353e-01,3.220000000000000000e+02
-3.423816971254044006e+02,-3.008513633803980838e+02,-8.291894088533433660e+01,2.081777166931726697e+02,-2.090721340732159774e+02,1.933494654042390266e+02,-5.247713544219232062e+01,-8.928394605416781360e+01,9.484992027282714844e+00,-1.070886254310607910e+00,-2.294756323099136353e-01,3.230000000000000000e+02
-3.403901270705994762e+02,-3.002094146108490804e+02,-8.520705758882172631e+01,2.050986030297174239e+02,-2.157684611202936367e+02,1.888555199153342983e+02,-5.556504169582365193e+01,-9.969898942286380361e+01,9.484992027282714844e+00,-1.070886254310607910e+00,-2.294756323099136353e-01,3.240000000000000000e+02
-3.391176104306945831e+02,-2.996330257240608717e+02,-8.662596391464091994e+01,2.014673512682049932e+02,-2.215442619319803725e+02,1.835333726506980838e+02,-5.928520048954919730e+01,-1.073527594427226290e+02,9.484992027282714844e+00,-1.070886254310607910e+00,-2.294756323099136353e-01,3.250000000000000000e+02
-3.395613924725825541e+02,-2.986781206780311777e+02,-8.728795623342716681e+01,1.991749373328409547e+02,-2.240950373831536808e+02,1.792239102029632249e+02,-6.170409446584983471e+01,-1.084614668419403074e+02,9.484992027282714844e+00,-1.070886254310607910e+00,-2.294756323099136353e-01,3.260000000000000000e+02
-3.416250495519812489e+02,-2.974739282387921548e+02,-8.782618117532103952e+01,1.991994294407320467e+02,-2.225626684790905188e+02,1.772642476535929745e+02,-6.157529014981798809e+01,-1.024102902537970294e+02,9.484992027282714844e+00,-1.070886254310607910e+00,-2.294756323099136353e-01,3.270000000000000000e+02
-3.442601145076708917e+02,-2.965206738799961386e+02,-8.880969571673995233e+01,2.011270288830014579e+02,-2.180511867459449604e+02,1.778436439695860827e+02,-5.938767580624198672e+01,-9.229973520026362621e+01,9.484992027282714844e+00,-1.070886254310607910e+00,-2.294756323099136353e-01,3.280000000000000000e+02
-3.461988577765218338e+02,-2.961090511366397777e+02,-9.022013462013239860e+01,2.037488762995128582e+02,-2.128651596241757602e+02,1.801042821039295632e+02,-5.693241055703060738e+01,-8.307123499407799727e+01,9.484992027282714844e+00,-1.070886254310607910e+00,-2.294756323099136353e-01,3.290000000000000000e+02
-3.466546739785740670e+02,-2.959993372021057780e+02,-9.143687590285003353e+01,2.060191907789439938e+02,-2.091020394768855795e+02,1.827706087068638681e+02,-5.589640319607735819e+01,-7.866931297998496575e+01,9.484992027282714844e+00,-1.070886254310607910e+00,-2.294756323099136353e-01,3.300000000000000000e+02
-3.455663590285251985e+02,-2.956863056769933564e+02,-9.177146632605217746e+01,2.075056970126493070e+02,-2.076557285589291837e+02,1.848008361005893221e+02,-5.679653833860209033e+01,-8.018032757720681047e+01,9.484992027282714844e+00,-1.070886254310607910e+00,-2.294756323099136353e-01,3.310000000000000000e+02
-3.434176389845372910e+02,-2.949404114323739918e+02,-9.108755167181504930e+01,2.081815333388292402e+02,-2.081761078482426797e+02,1.857232434921252207e+02,-5.901653823850210756e+01,-8.583373368904261724e+01,9.484992027282714844e+00,-1.070886254310607910e+00,-2.294756323099136353e-01,3.320000000000000000e+02
-3.409164074052801539e+02,-2.940511862081041841e+02,-8.993818531521662862e+01,2.080848038618930786e+02,-2.097027472128750105e+02,1.856407093856535084e+02,-6.159124180454227826e+01,-9.241284917617156225e+01,9.484992027282714844e+00,-1.070886254310607910e+00,-2.294756323099136353e-01,3.330000000000000000e+02
-3.387247883532158994e+02,-2.935495604821560391e+02,-8.910006199876545452e+01,2.072847121736465397e+02,-2.113236902459554472e+02,1.850303445730171461e+02,-6.387332967794975502e+01,-9.705005646893602034e+01,9.484992027282714844e+00,-1.070886254310607910e+00,-2.294756323099136353e-01,3.340000000000000000e+02
-3.372571231332718753e+02,-2.937488620917469575e+02,-8.894352309085184061e+01,2.060125142273711845e+02,-2.124899534296419574e+02,1.844107300930577367e+02,-6.563717205566513258e+01,-9.855050735729946609e+01,9.484992027282714844e+00,-1.070886254310607910e+00,-2.294756323099136353e-01,3.350000000000000000e+02
-3.365548722308635661e+02,-2.945834461623308016e+02,-8.923245226427934540e+01,2.045476776800028347e+02,-2.130359269169496201e+02,1.839738406559499708e+02,-6.686757530098077495e+01,-9.773551088152481725e+01,9.484992027282714844e+00,-1.070886254310607910e+00,-2.294756323099136353e-01,3.360000000000000000e+02
-3.363518504958157109e+02,-2.958420977893307509e+02,-8.951166299389979031e+01,2.028613909006157883e+02,-2.130614702154588826e+02,1.834310826790278952e+02,-6.764663320366628341e+01,-9.661124819425680244e+01,9.484992027282714844e+00,-1.070886254310607910e+00,-2.294756323099136353e-01,3.370000000000000000e+02
-3.363842974190469022e+02,-2.974314446239619087e+02,-8.964778206781056724e+01,2.005624816999809354e+02,-2.127062017152412636e+02,1.823274159224085906e+02,-6.817324004519934988e+01,-9.668097157022333477e+01,9.484992027282714844e+00,-1.070886254310607910e+00,-2.294756323099136353e-01,3.380000000000000000e+02
-3.367305045874891221e+02,-2.993044012803727583e+02,-8.993653563345662860e+01,1.975121599292490373e+02,-2.118576920576711018e+02,1.807180902419086124e+02,-6.865614664359134167e+01,-9.746114262904382031e+01,9.484992027282714844e+00,-1.070886254310607910e+00,-2.294756323099136353e-01,3.390000000000000000e+02
-3.377925510958731365e+02,-3.011253974551365786e+02,-9.066281324329065683e+01,1.945990107757310170e+02,-2.100658507059217754e+02,1.795932002790239039e+02,-6.904108804462282478e+01,-9.655433320334719838e+01,9.484992027282714844e+00,-1.070886254310607910e+00,-2.294756323099136353e-01,3.400000000000000000e+02
-3.397950363323835745e+02,-3.021134232081800519e+02,-9.160912052992671306e+01,1.936539226030088230e+02,-2.069368026681912056e+02,1.804213199080122649e+02,-6.890104810302420901e+01,-9.164442270344869712e+01,9.484992027282714844e+00,-1.070886254310607910e+00,-2.294756323099136353e-01,3.410000000000000000e+02
-3.421957430107651135e+02,-3.013768486309940045e+02,-9.208313996258362977e+01,1.961486793032680680e+02,-2.028326048924603242e+02,1.839306143286398765e+02,-6.777022543304923374e+01,-8.301684186572811086e+01,9.484992027282714844e+00,-1.070886254310607910e+00,-2.294756323099136353e-01,3.420000000000000000e+02
-3.436731242886372684e+02,-2.985495150268368434e+02,-9.151468827950884588e+01,2.016369775219881149e+02,-1.991974106710715660e+02,1.891158272595769176e+02,-6.572438823492007032e+01,-7.431240088228832974e+01,9.484992027282714844e+00,-1.147378087043762207e+00,-2.677215635776519775e-01,3.430000000000000000e+02
-3.429312604815110603e+02,-2.941824104309761196e+02,-9.005576200119810437e+01,2.074861130550972348e+02,-1.979250977395938662e+02,1.935243553164432342e+02,-6.363726206885723968e+01,-7.040506768730784870e+01,9.484992027282714844e+00,-1.147378087043762207e+00,-2.677215635776519775e-01,3.440000000000000000e+02
-3.397407522699791684e+02,-2.895314268392123722e+02,-8.855354939102767275e+01,2.104576511417453730e+02,-2.000052020693673285e+02,1.948307621108988315e+02,-6.275607855762632425e+01,-7.381515480437724364e+01,9.484992027282714844e+00,-1.147378087043762207e+00,-2.677215635776519775e-01,3.450000000000000000e+02
-3.352627596128713776e+02,-2.858988759124983972e+02,-8.786598861174275044e+01,2.089776767595326419e+02,-2.045288018334763365e+02,1.924735332139262027e+02,-6.388800424171949999e+01,-8.262443385734945878e+01,9.484992027282714844e+00,-1.147378087043762207e+00,-2.677215635776519775e-01,3.460000000000000000e+02
-3.312573485211763682e+02,-2.840559994276160296e+02,-8.814007825483787428e+01,2.041776098674390596e+02,-2.090260044871316722e+02,1.879768175782471644e+02,-6.688384122310185376e+01,-9.179863867171758329e+01,9.484992027282714844e+00,-1.147378087043762207e+00,-2.677215635776519775e-01,3.470000000000000000e+02
-3.288093174814378017e+02,-2.841277671188897784e+02,-8.873371280595819144e+01,1.988221374971506066e+02,-2.110376495378238815e+02,1.837201918591222238e+02,-7.081900526959657327e+01,-9.690112346055769876e+01,9.484992027282714844e+00,-1.147378087043762207e+00,-2.677215635776519775e-01,3.480000000000000000e+02
-3.276891290181422391e+02,-2.858406842792157931e+02,-8.885707389350068297e+01,1.951264176844094891e+02,-2.097191283677606179e+02,1.812744900465434057e+02,-7.461959190891957405e+01,-9.709800861833355157e+01,9.484992027282714844e+00,-1.147378087043762207e+00,-2.677215635776519775e-01,3.490000000000000000e+02
-3.268640593028549119e+02,-2.887347422460780990e+02,-8.832012579081856529e+01,1.933582819105602084e+02,-2.062194273596390985e+02,1.806667124889397655e+02,-7.754050393365650962e+01,-9.505303066590465733e+01,9.484992027282714844e+00,-1.147378087043762207e+00,-2.677215635776519775e-01,3.500000000000000000e+02
-3.255872750293945046e+02,-2.921210593546123846e+02,-8.767181993499343662e+01,1.922589639009934217e+02,-2.026236777180573654e+02,1.809060576135693736e+02,-7.920808305857758569e+01,-9.414170636289838967e+01,9.484992027282714844e+00,-1.147378087043762207e+00,-2.677215635776519775e-01,3.510000000000000000e+02
-3.239948628337390346e+02,-2.949985815958694957e+02,-8.760642716862389534e+01,1.906102685755713537e+02,-2.004082016789961926e+02,1.809723184430231413e+02,-7.946165875393955957e+01,-9.566987157505440109e+01,9.484992027282714844e+00,-1.147378087043762207e+00,-2.677215635776519775e-01,3.520000000000000000e+02
-3.227041843458674748e+02,-2.963009062873014727e+02,-8.821473999074839867e+01,1.883855761351703677e+02,-1.996317351269929077e+02,1.803148463277329938e+02,-7.835326743985604026e+01,-9.842160591379916923e+01,9.484992027282714844e+00,-1.147378087043762207e+00,-2.677215635776519775e-01,3.530000000000000000e+02
-3.219514112236554411e+02,-2.955181782191286857e+02,-8.881404477185276392e+01,1.865549462343722098e+02,-1.993023874085928355e+02,1.787213185928344501e+02,-7.634338164548375971e+01,-1.004446806278442068e+02,9.484992027282714844e+00,-1.147378087043762207e+00,-2.677215635776519775e-01,3.540000000000000000e+02
-3.212324369483228566e+02,-2.932318188325552910e+02,-8.855233889302360240e+01,1.859600065950914995e+02,-1.983852013557702776e+02,1.761170481473468499e+02,-7.436828390729283456e+01,-1.009860374308236715e+02,9.484992027282714844e+00,-1.147378087043762207e+00,-2.677215635776519775e-01,3.550000000000000000e+02
-3.198199045103190201e+02,-2.909810137562095633e+02,-8.724651468065485460e+01,1.864335900465960094e+02,-1.965606890320830189e+02,1.727120502201626095e+02,-7.348810205643883364e+01,-1.007394796839187165e+02,9.484992027282714844e+00,-1.147378087043762207e+00,-2.677215635776519775e-01,3.560000000000000000e+02
-3.175888900574680065e+02,-2.903720932016075267e+02,-8.567030153441032780e+01,1.869332633679259743e+02,-1.942746042205712911e+02,1.692558444187955047e+02,-7.425651153396051996e+01,-1.005500298366700918e+02,9.484992027282714844e+00,-1.147378087043762207e+00,-2.677215635776519775e-01,3.570000000000000000e+02
-3.152688697873618366e+02,-2.920241699009513923e+02,-8.501521591295863800e+01,1.864309099471338413e+02,-1.922581443202068385e+02,1.668586963479679071e+02,-7.633616709965588143e+01,-1.002568180233211024e+02,9.484992027282714844e+00,-1.147378087043762207e+00,-2.677215635776519775e-01,3.580000000000000000e+02
-3.138462915829962867e+02,-2.951738319484520616e+02,-8.597371573506825371e+01,1.847148034007227579e+02,-1.910118425747613173e+02,1.663151024686337678e+02,-7.873110034032833937e+01,-9.896694262629057448e+01,9.484992027282714844e+00,-1.147378087043762207e+00,-2.677215635776519775e-01,3.590000000000000000e+02
-3.137058348618564878e+02,-2.982502114381766205e+02,-8.821609635970992258e+01,1.824758029690835883e+02,-1.905910272920777970e+02,1.674947601935914463e+02,-8.047214972099027364e+01,-9.633786706664409394e+01,9.484992027282714844e+00,-1.147378087043762207e+00,-2.677215635776519775e-01,3.600000000000000000e+02
-3.143124558237310566e+02,-2.999349863154753848e+02,-9.066988309450891848e+01,1.807143041761407858e+02,-1.907230398287075559e+02,1.693908030023526408e+02,-8.119842975395442863e+01,-9.337116202573508872e+01,9.484992027282714844e+00,-1.147378087043762207e+00,-2.677215635776519775e-01,3.610000000000000000e+02
-3.146745133449924197e+02,-2.998832417335104310e+02,-9.231674194879349216e+01,1.800011305106434065e+02,-1.910918429136247596e+02,1.707988654446751298e+02,-8.121141986351585729e+01,-9.180855029249403287e+01,9.484992027282714844e+00,-1.147378087043762207e+00,-2.677215635776519775e-01,3.620000000000000000e+02
-3.140998033223726225e+02,-2.986524552575822327e+02,-9.284447585778866596e+01,1.801089460850027990e+02,-1.915802577040773258e+02,1.710267322542499642e+02,-8.104786096041323162e+01,-9.272518421368749841e+01,9.484992027282714844e+00,-1.147378087043762207e+00,-2.677215635776519775e-01,3.630000000000000000e+02
-3.125813746188389359e+02,-2.971032777446565660e+02,-9.268441858361245522e+01,1.801954349569257374e+02,-1.923073088288607551e+02,1.700982963930550795e+02,-8.099079632535278961e+01,-9.572378138529188618e+01,9.370253562927246094e+00,-1.147378087043762207e+00,-3.059675097465515137e-01,3.640000000000000000e+02
-3.105907690509985741e+02,-2.958845944324931452e+02,-9.253391948001740275e+01,1.793419368203180966e+02,-1.934392967240734151e+02,1.684496030333386898e+02,-8.092065431299158718e+01,-9.945119947392015547e+01,9.370253562927246094e+00,-1.147378087043762207e+00,-3.059675097465515137e-01,3.650000000000000000e+02
-3.085933116404683005e+02,-2.953521949440029175e+02,-9.282795018944364074e+01,1.770822280156921806e+02,-1.949220565234001015e+02,1.665264327117974972e+02,-8.054910027151049690e+01,-1.028213754815396896e+02,9.370253562927246094e+00,-1.147378087043762207e+00,-3.059675097465515137e-01,3.660000000000000000e+02
-3.067462856285455928e+02,-2.957592375889212235e+02,-9.352183903395916786e+01,1.736273030868485421e+02,-1.963539826553381999e+02,1.646026550581411811e+02,-7.975673897524882250e+01,-1.057472379067507973e+02,9.370253562927246094e+00,-1.147378087043762207e+00,-3.059675097465515137e-01,3.670000000000000000e+02
-3.049518033798879060e+02,-2.973266891532207410e+02,-9.420993089316880287e+01,1.696770899379866933e+02,-1.971624624995367867e+02,1.627881921966043137e+02,-7.875981673688977480e+01,-1.088357733147192903e+02,9.370253562927246094e+00,-1.147378087043762207e+00,-3.059675097465515137e-01,3.680000000000000000e+02
-3.030963170613365492e+02,-3.000311734745251897e+02,-9.441170816307783298e+01,1.659740214114676746e+02,-1.970033976141255607e+02,1.610500397855266783e+02,-7.805325977335144216e+01,-1.125548471083957338e+02,9.370253562927246094e+00,-1.147378087043762207e+00,-3.059675097465515137e-01,3.690000000000000000e+02
-3.012302423204191655e+02,-3.033413731620273666e+02,-9.384908107737419414e+01,1.629035131713449118e+02,-1.960584880251005870e+02,1.592138167870557481e+02,-7.820774480740294621e+01,-1.167403483396674346e+02,9.370253562927246094e+00,-1.147378087043762207e+00,-3.059675097465515137e-01,3.700000000000000000e+02
-2.995821266888106038e+02,-3.062514392538689663e+02,-9.263257556411974747e+01,1.604091420582199135e+02,-1.949537550410118456e+02,1.570714186214834172e+02,-7.960712457626948435e+01,-1.207939532297766618e+02,9.370253562927246094e+00,-1.147378087043762207e+00,-3.059675097465515137e-01,3.710000000000000000e+02
-2.984406529546454294e+02,-3.076990584505713286e+02,-9.127941324522589639e+01,1.582641150541651314e+02,-1.943150380652000422e+02,1.546415726586540131e+02,-8.217830951448718224e+01,-1.241988868521258382e+02,9.370253562927246094e+00,-1.147378087043762207e+00,-3.059675097465515137e-01,3.720000000000000000e+02
-2.979724299802293217e+02,-3.071156072794913143e+02,-9.046483292444133895e+01,1.564524773662176358e+02,-1.943000178967215561e+02,1.523744251003708996e+02,-8.523129579220812957e+01,-1.268104443074488472e+02,9.370253562927246094e+00,-1.147378087043762207e+00,-3.059675097465515137e-01,3.730000000000000000e+02
-2.980536652945427250e+02,-3.047392452321548717e+02,-9.057986509516456408e+01,1.553073635149737584e+02,-1.944997043254256823e+02,1.510186329742257385e+02,-8.760288759183504226e+01,-1.287909114689852004e+02,9.370253562927246094e+00,-1.147378087043762207e+00,-3.059675097465515137e-01,3.740000000000000000e+02
-2.982243884100371361e+02,-3.014896473269776607e+02,-9.139642680383599327e+01,1.552513017065657550e+02,-1.943063786020985617e+02,1.511391019849957047e+02,-8.818576168224808498e+01,-1.304314150337565934e+02,9.370253562927246094e+00,-1.147378087043762207e+00,-3.059675097465515137e-01,3.750000000000000000e+02
-2.978638036609265782e+02,-2.984918384075713220e+02,-9.217280480488796002e+01,1.563428806575041108e+02,-1.934520208900333955e+02,1.526440163385505002e+02,-8.660206382293245042e+01,-1.320557606704569480e+02,9.370253562927246094e+00,-1.147378087043762207e+00,-3.059675097465515137e-01,3.760000000000000000e+02
-2.965546257925998361e+02,-2.965151909348111303e+02,-9.221073734196636451e+01,1.580697386461308724e+02,-1.922492712184493939e+02,1.547734452586635143e+02,-8.351704554059767815e+01,-1.339405777389744117e+02,9.370253562927246094e+00,-1.147378087043762207e+00,-3.059675097465515137e-01,3.770000000000000000e+02
-2.944028746912927090e+02,-2.956145771645532250e+02,-9.144629117930412576e+01,1.596361857336903540e+02,-1.913309317616742646e+02,1.566297587556548478e+02,-8.028068866674368564e+01,-1.361699343089946979e+02,9.370253562927246094e+00,-1.147378087043762207e+00,-3.059675097465515137e-01,3.780000000000000000e+02
-2.920294748389397910e+02,-2.951783154179099711e+02,-9.053537770867080781e+01,1.605220075288491444e+02,-1.911415148669266273e+02,1.578044367729719397e+02,-7.810970601486155829e+01,-1.385549703685483109e+02,9.370253562927246094e+00,-1.147378087043762207e+00,-3.059675097465515137e-01,3.790000000000000000e+02
-2.901581573132878020e+02,-2.943799835226302548e+02,-9.030072951033480422e+01,1.607881952270265629e+02,-1.916342682666495421e+02,1.584999147262792576e+02,-7.741543979409834719e+01,-1.408161298494105722e+02,9.370253562927246094e+00,-1.147378087043762207e+00,-3.059675097465515137e-01,3.800000000000000000e+02
-2.890759590863058293e+02,-2.927714552339775764e+02,-9.100399398154286246e+01,1.607920706863601481e+02,-1.924180606129207263e+02,1.589933222385284353e+02,-7.777176424442313873e+01,-1.429513062904220533e+02,9.370253562927246094e+00,-1.147378087043762207e+00,-3.059675097465515137e-01,3.810000000000000000e+02
-2.883998204928609539e+02,-2.906183175867308819e+02,-9.209430264786703901e+01,1.605814692719202412e+02,-1.931568120770593850e+02,1.589678773542573254e+02,-7.845707206774704900e+01,-1.453908215966057469e+02,9.370253562927246094e+00,-1.147378087043762207e+00,-3.059675097465515137e-01,3.820000000000000000e+02
-2.873737036985287432e+02,-2.886952533623286854e+02,-9.267012733717945139e+01,1.596399156244590358e+02,-1.938010824673560819e+02,1.574844989913085556e+02,-7.902582457137577876e+01,-1.486163891405633422e+02,9.370253562927246094e+00,-1.147378087043762207e+00,-3.059675097465515137e-01,3.830000000000000000e+02
-2.854854782230358978e+02,-2.876627938156200344e+02,-9.223848646717806332e+01,1.573663012985944079e+02,-1.944267528615214360e+02,1.538124916751166893e+02,-7.944942928026875961e+01,-1.524816038817355093e+02,9.370253562927246094e+00,-1.147378087043762207e+00,-3.059675097465515137e-01,3.840000000000000000e+02
-2.828988881288746597e+02,-2.875260612298279739e+02,-9.108938446916909015e+01,1.538853894193152883e+02,-1.948989632233244720e+02,1.484275258046573072e+02,-7.986446535484401466e+01,-1.559205389799898285e+02,9.370253562927246094e+00,-1.147378087043762207e+00,-3.059675097465515137e-01,3.850000000000000000e+02
-2.803489002699502635e+02,-2.876681913573495422e+02,-8.997622990139961985e+01,1.503112201326371178e+02,-1.947998248676478852e+02,1.431441642285549278e+02,-8.030249668679152819e+01,-1.575058624657883684e+02,9.370253562927246094e+00,-1.147378087043762207e+00,-3.059675097465515137e-01,3.860000000000000000e+02
-2.785974232823125476e+02,-2.874597245360475881e+02,-8.943195553627288064e+01,1.480334918625110276e+02,-1.937602887399652900e+02,1.400408024318758180e+02,-8.065271025499987445e+01,-1.565061184892942947e+02,9.370253562927246094e+00,-1.147378087043762207e+00,-3.059675097465515137e-01,3.870000000000000000e+02
-2.778987245017378882e+02,-2.868843746875672878e+02,-8.934653867445899778e+01,1.476021128683171355e+02,-1.918588642808672375e+02,1.400023804522288629e+02,-8.074445042922320681e+01,-1.534966635069131371e+02,9.370253562927246094e+00,-1.147378087043762207e+00,-3.059675097465515137e-01,3.880000000000000000e+02
-2.778893408174481010e+02,-2.865428420959879077e+02,-8.916251364042318528e+01,1.482749000124315444e+02,-1.896558794995930839e+02,1.421567210631446869e+02,-8.035812933650413470e+01,-1.499480131142810251e+02,9.408499717712402344e+00,-1.185624003410339355e+00,-3.442134261131286621e-01,3.890000000000000000e+02
-2.779231875056170793e+02,-2.869457897412498824e+02,-8.847038313924599606e+01,1.487322336781137437e+02,-1.877877138809640201e+02,1.446999338733976401e+02,-7.920895477229191783e+01,-1.471760212027447778e+02,9.408499717712402344e+00,-1.185624003410339355e+00,-3.442134261131286621e-01,3.900000000000000000e+02
-2.775194374747886741e+02,-2.877375865309759320e+02,-8.744123182889006785e+01,1.483044448335626839e+02,-1.865253409186661884e+02,1.463136033418622901e+02,-7.713856904140038750e+01,-1.456546595796560268e+02,9.408499717712402344e+00,-1.185624003410339355e+00,-3.442134261131286621e-01,3.910000000000000000e+02
-2.765612664624604804e+02,-2.876646388221431607e+02,-8.670342679028840394e+01,1.474935345397684614e+02,-1.857441917988196565e+02,1.468595485166679282e+02,-7.450341829874332689e+01,-1.452983928003151277e+02,9.408499717712402344e+00,-1.185624003410339355e+00,-3.442134261131286621e-01,3.920000000000000000e+02
-2.751614937948334045e+02,-2.854693237403776038e+02,-8.678721170342828373e+01,1.472677342384370149e+02,-1.853094434696763528e+02,1.468470987839336885e+02,-7.234109911603468390e+01,-1.462540248459085888e+02,9.408499717712402344e+00,-1.185624003410339355e+00,-3.442134261131286621e-01,3.930000000000000000e+02
-2.734281711228650238e+02,-2.810131486066879916e+02,-8.763703586090605313e+01,1.478653799005435303e+02,-1.854151939796392980e+02,1.464420673492277274e+02,-7.187498039189381416e+01,-1.491663372762318431e+02,9.408499717712402344e+00,-1.185624003410339355e+00,-3.442134261131286621e-01,3.940000000000000000e+02
-2.713958165634771831e+02,-2.756299309811645344e+02,-8.862912046753081086e+01,1.483732836275510181e+02,-1.864423448419181568e+02,1.451754656454786527e+02,-7.352647508131531140e+01,-1.544346709583915072e+02,9.408499717712402344e+00,-1.185624003410339355e+00,-3.442134261131286621e-01,3.950000000000000000e+02
-2.691732627963772302e+02,-2.713310748323208372e+02,-8.909575302877465219e+01,1.475742646126473119e+02,-1.884438990252460826e+02,1.426433708422141535e+02,-7.628201664993798659e+01,-1.611607200774740249e+02,9.408499717712402344e+00,-1.185624003410339355e+00,-3.442134261131286621e-01,3.960000000000000000e+02
-2.671118915506701796e+02,-2.694664281597827085e+02,-8.890615656426439273e+01,1.452609534860202984e+02,-1.907938869907195567e+02,1.393661740470588484e+02,-7.816960998656168158e+01,-1.669986510526807706e+02,9.408499717712402344e+00,-1.185624003410339355e+00,-3.442134261131286621e-01,3.970000000000000000e+02
-2.657335390617399753e+02,-2.698985305291801069e+02,-8.858256841005936622e+01,1.427095039928940423e+02,-1.924107484886176280e+02,1.367845859169501637e+02,-7.766591916292441056e+01,-1.693663404824719692e+02,9.408499717712402344e+00,-1.185624003410339355e+00,-3.442134261131286621e-01,3.980000000000000000e+02
-2.653704783856201175e+02,-2.712764107604543824e+02,-8.881602130777082493e+01,1.418171574693151342e+02,-1.923938674841183456e+02,1.362962235559698456e+02,-7.490278322281892542e+01,-1.671354445790179852e+02,9.408499717712402344e+00,-1.185624003410339355e+00,-3.442134261131286621e-01,3.990000000000000000e+02
-2.657838026807564802e+02,-2.720556370275460267e+02,-8.978883779515263086e+01,1.436584547738557376e+02,-1.905219436114891778e+02,1.382365091456504160e+02,-7.157945108463263750e+01,-1.613492236807044264e+02,9.408499717712402344e+00,-1.185624003410339355e+00,-3.442134261131286621e-01,4.000000000000000000e+02
-2.661125280918238332e+02,-2.713905524685260389e+02,-9.092697800988457857e+01,1.477008020643379496e+02,-1.872551659506480064e+02,1.417239517364082531e+02,-6.961990963692596779e+01,-1.543904611876628223e+02,9.408499717712402344e+00,-1.185624003410339355e+00,-3.442134261131286621e-01,4.010000000000000000e+02
-2.653017849065849987e+02,-2.693241848486252366e+02,-9.134236478236903167e+01,1.522344616576469889e+02,-1.833709676944899911e+02,1.453847037361424555e+02,-6.976607145576531366e+01,-1.484387424220226421e+02,9.408499717712402344e+00,-1.185624003410339355e+00,-3.442134261131286621e-01,4.020000000000000000e+02
-2.627754766182472395e+02,-2.663788926895301756e+02,-9.062183783130467418e+01,1.554828542564091549e+02,-1.796389053577006507e+02,1.481703313854118278e+02,-7.131865465631040024e+01,-1.445851623830933477e+02,9.408499717712402344e+00,-1.185624003410339355e+00,-3.442134261131286621e-01,4.030000000000000000e+02
-2.588616239964094348e+02,-2.630609690849341860e+02,-8.927530636181313639e+01,1.564282095963735628e+02,-1.767382143236222873e+02,1.495850245686037852e+02,-7.311899269932473544e+01,-1.431225665356719219e+02,9.408499717712402344e+00,-1.185624003410339355e+00,-3.442134261131286621e-01,4.040000000000000000e+02
-2.545969987996350028e+02,-2.596607906589847516e+02,-8.839612184651900861e+01,1.548875873878432685e+02,-1.752327508976468380e+02,1.493768645424793249e+02,-7.470574697788333651e+01,-1.442427205221370059e+02,9.408499717712402344e+00,-1.185624003410339355e+00,-3.442134261131286621e-01,4.050000000000000000e+02
-2.510039151872322236e+02,-2.563542920947857056e+02,-8.874231800868483333e+01,1.511522068111084991e+02,-1.753653800871602471e+02,1.472548376483464381e+02,-7.652636302505220556e+01,-1.480766005018213036e+02,9.408499717712402344e+00,-1.185624003410339355e+00,-3.442134261131286621e-01,4.060000000000000000e+02
-2.483992415911609442e+02,-2.533877580381395092e+02,-8.999246808166844858e+01,1.457324631880928791e+02,-1.767860680472776949e+02,1.430149823082647345e+02,-7.913116112029047144e+01,-1.540075599270257953e+02,9.408499717712402344e+00,-1.185624003410339355e+00,-3.442134261131286621e-01,4.070000000000000000e+02
-2.463013367237911098e+02,-2.511482447459422929e+02,-9.084285758940450251e+01,1.393873599313842533e+02,-1.785760893100132307e+02,1.369118690050968326e+02,-8.229037375225789219e+01,-1.602351800264868871e+02,9.408499717712402344e+00,-1.185624003410339355e+00,-3.442134261131286621e-01,4.080000000000000000e+02
-2.440228016032942833e+02,-2.500414469900956647e+02,-8.993424575627568629e+01,1.331695705638103391e+02,-1.797268358514741067e+02,1.298530607054544816e+02,-8.497792446823291357e+01,-1.644681029914277133e+02,9.408499717712402344e+00,-1.185624003410339355e+00,-3.442134261131286621e-01,4.090000000000000000e+02
-2.414211297527815532e+02,-2.501950601998094044e+02,-8.692606383349948374e+01,1.281902893328137907e+02,-1.797689468712892449e+02,1.232066846031598288e+02,-8.622892410211170500e+01,-1.653941053366679625e+02,9.408499717712402344e+00,-1.185624003410339355e+00,-3.442134261131286621e-01,4.100000000000000000e+02
-2.391095539182551875e+02,-2.511151831128522645e+02,-8.286562078641873086e+01,1.251818425246710831e+02,-1.789955504537169872e+02,1.183691769331244359e+02,-8.598597500382265935e+01,-1.635657836327761743e+02,9.408499717712402344e+00,-1.185624003410339355e+00,-3.442134261131286621e-01,4.110000000000000000e+02
-2.378951016898083708e+02,-2.515899091029082228e+02,-7.951822896037492683e+01,1.242130944807622654e+02,-1.780450463002630386e+02,1.163418967175316538e+02,-8.510666908148004950e+01,-1.607659272587136456e+02,9.408499717712402344e+00,-1.185624003410339355e+00,-3.442134261131286621e-01,4.120000000000000000e+02
-2.379394386301712530e+02,-2.501372148536945588e+02,-7.813179083777413325e+01,1.247807667105494147e+02,-1.772300306670661030e+02,1.174143109570741217e+02,-8.456239008111924704e+01,-1.583956778924948594e+02,9.408499717712402344e+00,-1.185624003410339355e+00,-3.442134261131286621e-01,4.130000000000000000e+02
-2.384310277848267106e+02,-2.459328695597382648e+02,-7.855830411101806021e+01,1.261597306009293789e+02,-1.762516534833100650e+02,1.209764274255990131e+02,-8.462926090806377033e+01,-1.564213607946296634e+02,9.408499717712402344e+00,-1.185624003410339355e+00,-3.442134261131286621e-01,4.140000000000000000e+02
-2.381113895224727912e+02,-2.395934364787540289e+02,-7.939976691741230752e+01,1.277159757931422064e+02,-1.745481639763261228e+02,1.255776103713769771e+02,-8.480216037895684167e+01,-1.538271477821067492e+02,9.408499717712402344e+00,-1.185624003410339355e+00,-3.442134261131286621e-01,4.150000000000000000e+02
-2.362177720000127010e+02,-2.330639778816496346e+02,-7.906746517075862357e+01,1.290273163231031504e+02,-1.719040513931788610e+02,1.293996320537044085e+02,-8.441382624550328728e+01,-1.499934523673202875e+02,9.484992027282714844e+00,-1.185624003410339355e+00,-2.677215635776519775e-01,4.160000000000000000e+02
-2.330240064874294603e+02,-2.284631339637833207e+02,-7.694509346338986688e+01,1.298792454536160221e+02,-1.687087906872516214e+02,1.310815406001611336e+02,-8.329860201305882583e+01,-1.455582990297475590e+02,9.484992027282714844e+00,-1.185624003410339355e+00,-2.677215635776519775e-01,4.170000000000000000e+02
-2.295275346357252602e+02,-2.266595920424565520e+02,-7.377933854663160673e+01,1.302512265627469787e+02,-1.656623522942304589e+02,1.304382684825259275e+02,-8.189911822504677730e+01,-1.419586197803387222e+02,9.484992027282714844e+00,-1.185624003410339355e+00,-2.677215635776519775e-01,4.180000000000000000e+02
-2.266061137749861700e+02,-2.267316966504683933e+02,-7.102416649858014353e+01,1.302826861312319124e+02,-1.632845645307270388e+02,1.285141153545500856e+02,-8.080907721468429372e+01,-1.402311039691489896e+02,9.484992027282714844e+00,-1.185624003410339355e+00,-2.677215635776519775e-01,4.190000000000000000e+02
-2.244054003394824122e+02,-2.267840507789737785e+02,-6.970615765508864570e+01,1.301468193228029122e+02,-1.617183279296798446e+02,1.268392051228192940e+02,-8.024609514901658258e+01,-1.402899861238240646e+02,9.484992027282714844e+00,-1.185624003410339355e+00,-2.677215635776519775e-01,4.200000000000000000e+02
-2.224512840132001656e+02,-2.254336082603140312e+02,-6.972454755738567655e+01,1.298755286714044814e+02,-1.609089745255541857e+02,1.263949622464465392e+02,-7.993233177830097702e+01,-1.412355249125764658e+02,9.484992027282714844e+00,-1.185624003410339355e+00,-2.677215635776519775e-01,4.210000000000000000e+02
-2.202827371673058678e+02,-2.227163698552110418e+02,-7.009135039629904895e+01,1.293294343956536068e+02,-1.607929775819081897e+02,1.270914223307763677e+02,-7.940340810885845713e+01,-1.421278761564526576e+02,9.484992027282714844e+00,-1.185624003410339355e+00,-2.677215635776519775e-01,4.220000000000000000e+02
-2.179481580107305945e+02,-2.197384695299751911e+02,-6.980932189240320440e+01,1.284107096371635635e+02,-1.611778380618343363e+02,1.281445418900730147e+02,-7.840345480147993840e+01,-1.423655341226858582e+02,9.484992027282714844e+00,-1.185624003410339355e+00,-2.677215635776519775e-01,4.230000000000000000e+02
-2.159161600986883514e+02,-2.175427085014227941e+02,-6.860303701736256698e+01,1.273315561242652620e+02,-1.614758055300681008e+02,1.289669680683355182e+02,-7.703147471724059869e+01,-1.415069597555548171e+02,9.484992027282714844e+00,-1.185624003410339355e+00,-2.677215635776519775e-01,4.240000000000000000e+02
-2.145421751141961977e+02,-2.162830733409571167e+02,-6.694601678153321700e+01,1.265857477316785662e+02,-1.607717848341694662e+02,1.297398689481105976e+02,-7.559194143790273301e+01,-1.391143512226840357e+02,9.484992027282714844e+00,-1.185624003410339355e+00,-2.677215635776519775e-01,4.250000000000000000e+02
-2.136356699528832905e+02,-2.153540257178478896e+02,-6.550120570058993508e+01,1.265214721124793869e+02,-1.584268641178261987e+02,1.311586704089427258e+02,-7.435717913955159020e+01,-1.350931716437557952e+02,9.484992027282714844e+00,-1.185624003410339355e+00,-2.677215635776519775e-01,4.260000000000000000e+02
-2.125522749538272365e+02,-2.141502620689313972e+02,-6.459520304701754867e+01,1.268904304929683349e+02,-1.547789590084746578e+02,1.336498153347461084e+02,-7.345281372921476759e+01,-1.302244494894264335e+02,9.484992027282714844e+00,-1.185624003410339355e+00,-2.677215635776519775e-01,4.270000000000000000e+02
-2.107154370596817898e+02,-2.126154159220639031e+02,-6.418403595680365470e+01,1.268932043033851187e+02,-1.512053655698482544e+02,1.368394344143948729e+02,-7.289838383916526254e+01,-1.261236228754260082e+02,9.484992027282714844e+00,-1.185624003410339355e+00,-2.677215635776519775e-01,4.280000000000000000e+02
-2.080733295420179729e+02,-2.110855440195723531e+02,-6.417080685488508607e+01,1.258281786159773219e+02,-1.492776269714508999e+02,1.397740946790545422e+02,-7.267514827488435003e+01,-1.243534145522335166e+02,9.484992027282714844e+00,-1.185624003410339355e+00,-2.677215635776519775e-01,4.290000000000000000e+02
-2.050862912802233495e+02,-2.096976932715847397e+02,-6.459453376582996498e+01,1.237991801115622366e+02,-1.496312410672485385e+02,1.416275199808728757e+02,-7.273800311648597017e+01,-1.253541037802622213e+02,9.484992027282714844e+00,-1.185624003410339355e+00,-2.677215635776519775e-01,4.300000000000000000e+02
-2.023113289252537470e+02,-2.080446818201908172e+02,-6.545183992413967644e+01,1.217624233636461213e+02,-1.515058643334862154e+02,1.421873973219644540e+02,-7.301228612810200502e+01,-1.281625454783759324e+02,9.484992027282714844e+00,-1.185624003410339355e+00,-2.677215635776519775e-01,4.310000000000000000e+02
-2.000158327452177218e+02,-2.054668913806815453e+02,-6.642082427409536649e+01,1.207715842142579277e+02,-1.533634808262206661e+02,1.417421949170707194e+02,-7.345153194914200867e+01,-1.311836550268708379e+02,9.484992027282714844e+00,-1.185624003410339355e+00,-2.677215635776519775e-01,4.320000000000000000e+02
-1.981707943490823709e+02,-2.017318724022843526e+02,-6.691776208734972897e+01,1.210732833471893173e+02,-1.540015868285563556e+02,1.406648077187237504e+02,-7.411508623185591205e+01,-1.332556496087133837e+02,9.484992027282714844e+00,-1.185624003410339355e+00,-2.677215635776519775e-01,4.330000000000000000e+02
-1.967491859226547604e+02,-1.974593826968805388e+02,-6.653999396262020127e+01,1.219395561599317261e+02,-1.531566510194256807e+02,1.392685366198002157e+02,-7.509665320916838027e+01,-1.340282022349260842e+02,9.484992027282714844e+00,-1.185624003410339355e+00,-2.677215635776519775e-01,4.340000000000000000e+02
-1.959273063846583227e+02,-1.938534957242552537e+02,-6.545422551109663800e+01,1.224377880535021177e+02,-1.511638069124869617e+02,1.380520547069945678e+02,-7.624185836822516649e+01,-1.334762514517217369e+02,9.484992027282714844e+00,-1.185624003410339355e+00,-2.677215635776519775e-01,4.350000000000000000e+02
-1.958982821081510792e+02,-1.918667810000497411e+02,-6.425043327161256457e+01,1.224010236161307148e+02,-1.482187809476931761e+02,1.378524554612517932e+02,-7.686462531065944859e+01,-1.313230683896583741e+02,9.484992027282714844e+00,-1.185624003410339355e+00,-2.677215635776519775e-01,4.360000000000000000e+02
-1.964679622335365821e+02,-1.914291839636437089e+02,-6.334214968793185108e+01,1.226382796961024724e+02,-1.441618663454191847e+02,1.394372474865813274e+02,-7.586561032817485284e+01,-1.272045034732993827e+02,9.484992027282714844e+00,-1.185624003410339355e+00,-2.677215635776519775e-01,4.370000000000000000e+02
-1.969131868674853649e+02,-1.914014584710023428e+02,-6.253309830956459336e+01,1.241377953996288852e+02,-1.390515869643154474e+02,1.427292897956908746e+02,-7.244299643124463728e+01,-1.214874322414957533e+02,9.484992027282714844e+00,-1.185624003410339355e+00,-2.677215635776519775e-01,4.380000000000000000e+02
-1.963786401720465165e+02,-1.903871240805819980e+02,-6.125820194126731622e+01,1.270012841184511672e+02,-1.338417470834638152e+02,1.464544096472695855e+02,-6.702243902620193694e+01,-1.157673859482999887e+02,9.484992027282714844e+00,-1.185624003410339355e+00,-2.677215635776519775e-01,4.390000000000000000e+02
-1.945365041974064297e+02,-1.878378336217037941e+02,-5.929837661934698190e+01,1.301241972875664032e+02,-1.302144009239373190e+02,1.487819741024932227e+02,-6.157428283593117158e+01,-1.122006273614395013e+02,9.484992027282714844e+00,-1.185624003410339355e+00,-2.677215635776519775e-01,4.400000000000000000e+02
-1.918852112557894998e+02,-1.845481529851701907e+02,-5.720793561952518758e+01,1.319512529959379208e+02,-1.294349944111468176e+02,1.485959791072341432e+02,-5.871595281108807285e+01,-1.119556198498462436e+02,9.484992027282714844e+00,-1.185624003410339355e+00,-2.677215635776519775e-01,4.410000000000000000e+02
-1.893422095823082145e+02,-1.820462333745447268e+02,-5.592008037135860832e+01,1.316436315923742768e+02,-1.311642624933954266e+02,1.463491438704882057e+02,-5.995174780401885073e+01,-1.141045586052332510e+02,9.484992027282714844e+00,-1.185624003410339355e+00,-2.677215635776519775e-01,4.420000000000000000e+02
-1.874585044465050032e+02,-1.813092095734407394e+02,-5.582359567047933524e+01,1.296381868130920338e+02,-1.334008220308544423e+02,1.437249710484184106e+02,-6.431285822184804601e+01,-1.160898115774296002e+02,9.484992027282714844e+00,-1.185624003410339355e+00,-2.677215635776519775e-01,4.430000000000000000e+02
-1.859762828210718908e+02,-1.818690746760516959e+02,-5.621916961942451962e+01,1.271701186431546375e+02,-1.337966719006826679e+02,1.423566548731546391e+02,-6.864193698942949595e+01,-1.155801935925301223e+02,9.484992027282714844e+00,-1.185624003410339355e+00,-2.677215635776519775e-01,4.440000000000000000e+02
-1.841456863530818282e+02,-1.821272828310311525e+02,-5.578095136346155414e+01,1.252398129971361413e+02,-1.313441918155922394e+02,1.426405942748638154e+02,-6.962333466552763639e+01,-1.122803159285781476e+02,9.484992027282714844e+00,-1.185624003410339355e+00,-2.677215635776519775e-01,4.450000000000000000e+02
-1.814860998483122785e+02,-1.806725775569263988e+02,-5.367994010346683353e+01,1.239155269643970314e+02,-1.270457886842743847e+02,1.435440179706893105e+02,-6.618781346814830613e+01,-1.082152694086728388e+02,9.484992027282714844e+00,-1.185624003410339355e+00,-2.677215635776519775e-01,4.460000000000000000e+02
-1.782461106755788478e+02,-1.774619326899171483e+02,-5.034488831169414880e+01,1.224850053704603852e+02,-1.230457335907278775e+02,1.434501566316248500e+02,-6.040232218331743752e+01,-1.062844488420262223e+02,9.484992027282714844e+00,-1.185624003410339355e+00,-3.059675097465515137e-01,4.470000000000000000e+02
-1.751349166570628313e+02,-1.738017614792827317e+02,-4.715541858124629471e+01,1.202112026627128216e+02,-1.210349942763327817e+02,1.412982800525905986e+02,-5.604397524456976498e+01,-1.082828538177066093e+02,9.484992027282714844e+00,-1.185624003410339355e+00,-3.059675097465515137e-01,4.480000000000000000e+02
-1.726454519236006035e+02,-1.711553078872709648e+02,-4.536394171576966983e+01,1.170102228299497256e+02,-1.212873197566725594e+02,1.372083433752122801e+02,-5.588668692570240637e+01,-1.138964296794611073e+02,9.484992027282714844e+00,-1.185624003410339355e+00,-3.059675097465515137e-01,4.490000000000000000e+02
-1.706914491102909324e+02,-1.698806523261409893e+02,-4.524306739442590697e+01,1.135697913940521175e+02,-1.229851041259385056e+02,1.322855181593113230e+02,-5.976782553384032326e+01,-1.212126572632050738e+02,9.484992027282714844e+00,-1.185624003410339355e+00,-3.059675097465515137e-01,4.500000000000000000e+02
-1.689216853028815422e+02,-1.690428812749360077e+02,-4.616043345639218387e+01,1.109408977868720285e+02,-1.252817968120123169e+02,1.278944305740033087e+02,-6.486897458389375970e+01,-1.280340630399621205e+02,9.484992027282714844e+00,-1.185624003410339355e+00,-3.059675097465515137e-01,4.510000000000000000e+02
-1.673312716587017803e+02,-1.674225710945124774e+02,-4.734026946770131872e+01,1.099851789909967010e+02,-1.279616029693281689e+02,1.249519121739572256e+02,-6.786831612509263323e+01,-1.328588273517136713e+02,9.484992027282714844e+00,-1.185624003410339355e+00,-3.059675097465515137e-01,4.520000000000000000e+02
-1.664530320541218771e+02,-1.647236765715442743e+02,-4.845114863654271176e+01,1.110091513264696914e+02,-1.311136249183630298e+02,1.236242486051846754e+02,-6.720524390607988607e+01,-1.350145464495924443e+02,9.484992027282714844e+00,-1.185624003410339355e+00,-3.059675097465515137e-01,4.530000000000000000e+02
-1.668382744274722427e+02,-1.618474529688307939e+02,-4.948063987774457928e+01,1.136643152909769015e+02,-1.343357088014383862e+02,1.234902174598487363e+02,-6.378922770010899512e+01,-1.343367122238842057e+02,9.484992027282714844e+00,-1.185624003410339355e+00,-3.059675097465515137e-01,4.540000000000000000e+02
-1.683112670827492821e+02,-1.600162158335240292e+02,-5.022976785269247557e+01,1.170496445294011210e+02,-1.365061593851214639e+02,1.239403285926273384e+02,-5.989434132348969797e+01,-1.310630385702688727e+02,9.484992027282714844e+00,-1.185624003410339355e+00,-3.059675097465515137e-01,4.550000000000000000e+02
-1.697786506380923583e+02,-1.596031597588878412e+02,-5.017814837749165235e+01,1.199728963162879154e+02,-1.365491509443168070e+02,1.244858264761896862e+02,-5.739696429903210628e+01,-1.260864484246926622e+02,9.484992027282714844e+00,-1.185624003410339355e+00,-3.059675097465515137e-01,4.560000000000000000e+02
-1.698936405469437432e+02,-1.597504905537196009e+02,-4.899366135850823412e+01,1.213780161262220645e+02,-1.345192719052329267e+02,1.248106137287486490e+02,-5.677798226911045276e+01,-1.210728968659607290e+02,9.484992027282714844e+00,-1.185624003410339355e+00,-3.059675097465515137e-01,4.570000000000000000e+02
-1.680615624959611978e+02,-1.590812552932457038e+02,-4.713225601965814349e+01,1.208326535878222785e+02,-1.318614821968826618e+02,1.246554323766022208e+02,-5.736821022549270310e+01,-1.179186054672657065e+02,9.484992027282714844e+00,-1.185624003410339355e+00,-3.059675097465515137e-01,4.580000000000000000e+02
-1.649241194553540026e+02,-1.568331222981346400e+02,-4.572930651777687672e+01,1.187876881188476546e+02,-1.303788856275323269e+02,1.237777394723161706e+02,-5.820482645808397137e+01,-1.176715995766271590e+02,9.484992027282714844e+00,-1.185624003410339355e+00,-3.059675097465515137e-01,4.590000000000000000e+02
-1.619091884352894795e+02,-1.534521646539992616e+02,-4.568285137752764058e+01,1.163330025964123706e+02,-1.306820538026079248e+02,1.221023861150979428e+02,-5.858740350372772809e+01,-1.196978304778820075e+02,9.484992027282714844e+00,-1.185624003410339355e+00,-3.059675097465515137e-01,4.600000000000000000e+02
-1.602327726499327127e+02,-1.502247683652308297e+02,-4.674751685013052338e+01,1.145246739163931124e+02,-1.314925427289956588e+02,1.199285591500361079e+02,-5.804801817208044667e+01,-1.218631359111770962e+02,9.484992027282714844e+00,-1.185624003410339355e+00,-3.059675097465515137e-01,4.610000000000000000e+02
-1.601546772761309967e+02,-1.483404337392032630e+02,-4.759938916716600943e+01,1.137485648346328162e+02,-1.305523376557523534e+02,1.179334628956621600e+02,-5.621003452718923654e+01,-1.217904900081896358e+02,9.484992027282714844e+00,-1.185624003410339355e+00,-3.059675097465515137e-01,4.620000000000000000e+02
-1.609742993433801530e+02,-1.481379700932930064e+02,-4.693625769066511566e+01,1.136308412989537828e+02,-1.265036064362004709e+02,1.168723664306344290e+02,-5.303144638318894977e+01,-1.183906256965105968e+02,9.484992027282714844e+00,-1.185624003410339355e+00,-3.059675097465515137e-01,4.630000000000000000e+02
-1.616166337950198795e+02,-1.490049536324479504e+02,-4.462461836534748727e+01,1.135491234235860247e+02,-1.201910473676232414e+02,1.171658059110282011e+02,-4.927832647485138295e+01,-1.125835261691447613e+02,9.484992027282714844e+00,-1.185624003410339355e+00,-3.059675097465515137e-01,4.640000000000000000e+02
-1.612824367688358507e+02,-1.498504202189481020e+02,-4.179945766266496321e+01,1.132609803835475759e+02,-1.142475572059261140e+02,1.186811607387880940e+02,-4.652499316915759664e+01,-1.066651551407862826e+02,9.484992027282714844e+00,-1.185624003410339355e+00,-3.059675097465515137e-01,4.650000000000000000e+02
-1.597569539750163585e+02,-1.497383492894932715e+02,-3.981214746132650362e+01,1.130858056285810562e+02,-1.112221109368081216e+02,1.208563539447786752e+02,-4.624004185578382931e+01,-1.027587007067554623e+02,9.484992027282714844e+00,-1.185624003410339355e+00,-3.059675097465515137e-01,4.660000000000000000e+02
-1.573643647435840194e+02,-1.483075222449760986e+02,-3.903497758225967118e+01,1.135408029316936336e+02,-1.117080368825936603e+02,1.230590895407021890e+02,-4.846599956645491147e+01,-1.014378404629092074e+02,9.484992027282714844e+00,-1.185624003410339355e+00,-3.059675097465515137e-01,4.670000000000000000e+02
-1.547730758577597499e+02,-1.458260003482032516e+02,-3.865030245724506131e+01,1.148816011714989145e+02,-1.139304909189013415e+02,1.249260016347743658e+02,-5.128997999388093376e+01,-1.014709545822706787e+02,9.484992027282714844e+00,-1.185624003410339355e+00,-2.677215635776519775e-01,4.680000000000000000e+02
-1.527550593045289133e+02,-1.429412944712689750e+02,-3.756396336484749554e+01,1.170164102590251787e+02,-1.150770541088859318e+02,1.264916487853497529e+02,-5.187776929059850772e+01,-1.008136317161072384e+02,9.484992027282714844e+00,-1.185624003410339355e+00,-2.677215635776519775e-01,4.690000000000000000e+02
-1.518609406538985240e+02,-1.403017913468877396e+02,-3.548517800718104809e+01,1.197635315691131837e+02,-1.132817643996020252e+02,1.280454283410049356e+02,-4.851119139791012458e+01,-9.807784734479264444e+01,9.484992027282714844e+00,-1.185624003410339355e+00,-2.677215635776519775e-01,4.700000000000000000e+02
-1.520611142835020928e+02,-1.382543935402195530e+02,-3.312462580371857257e+01,1.230100571574525929e+02,-1.087296495629550463e+02,1.297971352839986139e+02,-4.204491770581057608e+01,-9.341238624789548339e+01,9.484992027282714844e+00,-1.185624003410339355e+00,-2.677215635776519775e-01,4.710000000000000000e+02
-1.526184040665079920e+02,-1.367709306333081258e+02,-3.141150380825683897e+01,1.265040994886794579e+02,-1.031717691778956123e+02,1.315683781391066987e+02,-3.548431694695545957e+01,-8.823828112144929037e+01,9.484992027282714844e+00,-1.185624003410339355e+00,-2.677215635776519775e-01,4.720000000000000000e+02
-1.524314775683556036e+02,-1.356104471318628839e+02,-3.061924095082099484e+01,1.295547923335066116e+02,-9.845477259550557392e+01,1.327557928404917220e+02,-3.188071377584333277e+01,-8.417357349868370875e+01,9.484992027282714844e+00,-1.185624003410339355e+00,-2.677215635776519775e-01,4.730000000000000000e+02
-1.507310998677326097e+02,-1.345492591029117193e+02,-3.028759023647762660e+01,1.311718775045674192e+02,-9.535998211367609656e+01,1.326910292632173878e+02,-3.218027463810744848e+01,-8.203319311391555857e+01,9.484992027282714844e+00,-1.185624003410339355e+00,-2.677215635776519775e-01,4.740000000000000000e+02
-1.476335219952986790e+02,-1.334709476394723424e+02,-2.990686585312573698e+01,1.307383891488257177e+02,-9.360934960005374705e+01,1.311964874363729905e+02,-3.474799424235811784e+01,-8.159450211074181425e+01,9.484992027282714844e+00,-1.185624003410339355e+00,-2.677215635776519775e-01,4.750000000000000000e+02
-1.440725615905721497e+02,-1.322807876807605680e+02,-2.953253095619925261e+01,1.286416962102130128e+02,-9.274779580288145553e+01,1.288767571895245965e+02,-3.686473131321076835e+01,-8.210218010909852637e+01,9.484992027282714844e+00,-1.185624003410339355e+00,-2.677215635776519775e-01,4.760000000000000000e+02
-1.411406980882134121e+02,-1.308189007194860096e+02,-2.963509138184281255e+01,1.261842813942744215e+02,-9.286585006009113386e+01,1.268220171813759407e+02,-3.688594513399266361e+01,-8.291285397151727921e+01,9.484992027282714844e+00,-1.185624003410339355e+00,-2.677215635776519775e-01,4.770000000000000000e+02
-1.393870941711054456e+02,-1.289652497497486365e+02,-3.037749172094754613e+01,1.247383216675316362e+02,-9.440869689870760340e+01,1.258862589979066797e+02,-3.528910594115382082e+01,-8.371307205773928217e+01,9.484992027282714844e+00,-1.185624003410339355e+00,-2.677215635776519775e-01,4.780000000000000000e+02
-1.386278709204700590e+02,-1.268935741053758193e+02,-3.116738571355813292e+01,1.248733861633400011e+02,-9.731440842129950397e+01,1.261240291566168708e+02,-3.389916157530387864e+01,-8.426276097109598595e+01,9.484992027282714844e+00,-1.185624003410339355e+00,-2.677215635776519775e-01,4.790000000000000000e+02
-1.383343720618040606e+02,-1.251802007918292929e+02,-3.102999852415450732e+01,1.262148516744227891e+02,-1.004476033571320386e+02,1.268715412178626138e+02,-3.414911083164315642e+01,-8.408096779609786608e+01,9.484992027282714844e+00,-1.185624003410339355e+00,-2.677215635776519775e-01,4.800000000000000000e+02
-1.381434948111921130e+02,-1.245175459779018183e+02,-2.944208243025514093e+01,1.280511939821067244e+02,-1.020187522471294415e+02,1.273927856976615658e+02,-3.590054595647166025e+01,-8.248894937420891438e+01,9.484992027282714844e+00,-1.185624003410339355e+00,-2.677215635776519775e-01,4.810000000000000000e+02
-1.380088729514670831e+02,-1.251588828057556384e+02,-2.677912907948939392e+01,1.299947689937225732e+02,-1.007356991900189769e+02,1.275017669605927040e+02,-3.768963986727931115e+01,-7.904126565484534694e+01,9.484992027282714844e+00,-1.185624003410339355e+00,-2.677215635776519775e-01,4.820000000000000000e+02
-1.379589251989996228e+02,-1.265543550548015901e+02,-2.395883758119271079e+01,1.320412435930065840e+02,-9.671984716178826602e+01,1.276191496068136075e+02,-3.798124048240629236e+01,-7.397630629154195958e+01,9.484992027282714844e+00,-1.185624003410339355e+00,-2.677215635776519775e-01,4.830000000000000000e+02
-1.378338736914236051e+02,-1.275495425974161208e+02,-2.168155286326009445e+01,1.341104022281028847e+02,-9.141422743226439707e+01,1.282691535347066747e+02,-3.627845924537564315e+01,-6.827424118961152999e+01,9.484992027282714844e+00,-1.185624003410339355e+00,-2.677215635776519775e-01,4.840000000000000000e+02
-1.373129984398412944e+02,-1.270628223181249723e+02,-2.002441103955288781e+01,1.357305679606374724e+02,-8.659013804750475174e+01,1.295011355662090864e+02,-3.328094120902687791e+01,-6.324777187272411538e+01,9.484992027282714844e+00,-1.185624003410339355e+00,-2.677215635776519775e-01,4.850000000000000000e+02
-1.361585511591754312e+02,-1.247452411853928425e+02,-1.868560277135748038e+01,1.363021822680489095e+02,-8.328946975459666646e+01,1.307257454712812432e+02,-3.020560793716776971e+01,-5.997295915510449049e+01,9.484992027282714844e+00,-1.185624003410339355e+00,-2.677215635776519775e-01,4.860000000000000000e+02
-1.343601764526194984e+02,-1.211308615092818854e+02,-1.749626994987829676e+01,1.356839346769240819e+02,-8.149428508574669650e+01,1.310655770207658861e+02,-2.798581691235858671e+01,-5.894480085173290718e+01,9.484992027282714844e+00,-1.185624003410339355e+00,-2.677215635776519775e-01,4.870000000000000000e+02
-1.320255611779218725e+02,-1.172109431965268413e+02,-1.662847773870635137e+01,1.344640877873989666e+02,-8.060433944651549609e+01,1.299284159071339673e+02,-2.691148344012708549e+01,-6.008019352019573489e+01,9.484992027282714844e+00,-1.185624003410339355e+00,-2.677215635776519775e-01,4.880000000000000000e+02
-1.292222855612403691e+02,-1.138073135355994054e+02,-1.635505963907144178e+01,1.336084111151574234e+02,-8.013715453751342466e+01,1.274301223049856162e+02,-2.670227023230063423e+01,-6.287235744735721710e+01,9.484992027282714844e+00,-1.185624003410339355e+00,-2.677215635776519775e-01,4.890000000000000000e+02
-1.260331462328824728e+02,-1.111986363351213640e+02,-1.671937022450424593e+01,1.338051117023537699e+02,-8.004385462419031683e+01,1.244356514321384566e+02,-2.672165222797002571e+01,-6.646848682757490678e+01,9.484992027282714844e+00,-1.185624003410339355e+00,-2.677215635776519775e-01,4.900000000000000000e+02
-1.227798102865381225e+02,-1.091805807168545925e+02,-1.748189245300090988e+01,1.350669336550888602e+02,-8.049674907158851056e+01,1.221950386292423900e+02,-2.616626503354927991e+01,-6.968731127454941543e+01,9.484992027282714844e+00,-1.185624003410339355e+00,-2.677215635776519775e-01,4.910000000000000000e+02
-1.200599671527579630e+02,-1.074004846035155651e+02,-1.830033275595019404e+01,1.368423580266969566e+02,-8.145027871515617335e+01,1.217471801301298910e+02,-2.433578826467010003e+01,-7.119553483507820602e+01,9.484992027282714844e+00,-1.185624003410339355e+00,-2.677215635776519775e-01,4.920000000000000000e+02
-1.183969604776689266e+02,-1.056683194135981694e+02,-1.887194399404188516e+01,1.384223954456988395e+02,-8.239689929667792967e+01,1.233959536541410671e+02,-2.107926499448740287e+01,-6.999256907804920047e+01,9.446745872497558594e+00,-1.109132170677185059e+00,-3.442134261131286621e-01,4.930000000000000000e+02
-1.177722343605278184e+02,-1.040302992118554357e+02,-1.894497508066183400e+01,1.393198825376200602e+02,-8.252037993802514393e+01,1.266007886687762038e+02,-1.716013436482330690e+01,-6.596397210665281818e+01,9.446745872497558594e+00,-1.109132170677185059e+00,-3.442134261131286621e-01,4.940000000000000000e+02
-1.175603724477804235e+02,-1.026058063345652727e+02,-1.836854560768301781e+01,1.394806621165848810e+02,-8.113010396224933629e+01,1.303965204566488865e+02,-1.407471261380021588e+01,-6.002776292082523923e+01,9.446745872497558594e+00,-1.109132170677185059e+00,-3.442134261131286621e-01,4.950000000000000000e+02
-1.170353513719511511e+02,-1.013711968925149449e+02,-1.729832314972213680e+01,1.393154965515000185e+02,-7.808932807640621832e+01,1.340529223211956378e+02,-1.318549696838442742e+01,-5.364753197809477570e+01,9.446745872497558594e+00,-1.109132170677185059e+00,-3.442134261131286621e-01,4.960000000000000000e+02
-1.160053424814382197e+02,-1.001152723284643571e+02,-1.632463672034543833e+01,1.395004197378093522e+02,-7.396856060598145177e+01,1.374503356735376656e+02,-1.469456719825484470e+01,-4.805103907764237192e+01,9.446745872497558594e+00,-1.109132170677185059e+00,-3.442134261131286621e-01,4.970000000000000000e+02
-1.149175799395359263e+02,-9.865741513012585528e+01,-1.618167231464747147e+01,1.404966408517227592e+02,-6.981478459495701827e+01,1.408491337165246478e+02,-1.732352407412486173e+01,-4.379761875316171427e+01,9.446745872497558594e+00,-1.109132170677185059e+00,-3.442134261131286621e-01,4.980000000000000000e+02
-1.142755654080738168e+02,-9.715878996041374194e+01,-1.710955887028160305e+01,1.420105447208507030e+02,-6.665181903468624114e+01,1.442775741681480213e+02,-1.912413404434846598e+01,-4.100880133411021689e+01,9.446745872497558594e+00,-1.109132170677185059e+00,-3.442134261131286621e-01,4.990000000000000000e+02
-1.139567672376828114e+02,-9.618328969145227347e+01,-1.845421193207050692e+01,1.428980158278202452e+02,-6.501156655388876970e+01,1.471407834319047652e+02,-1.888177099117274338e+01,-3.986352364214826594e+01,9.446745872497558594e+00,-1.109132170677185059e+00,-3.442134261131286621e-01,5.000000000000000000e+02
-1.132056354203767796e+02,-9.630295953194104186e+01,-1.903205100612751721e+01,1.418601983857989808e+02,-6.475662522909908603e+01,1.484893945342264487e+02,-1.695069347953460692e+01,-4.064642231255595561e+01,9.446745872497558594e+00,-1.109132170677185059e+00,-3.442134261131286621e-01,5.010000000000000000e+02
-1.114150685097015412e+02,-9.748451481598442570e+01,-1.808312064649908280e+01,1.385957194730169704e+02,-6.525845079280531991e+01,1.478052633921620327e+02,-1.477779403475028630e+01,-4.316141075136397376e+01,9.446745872497558594e+00,-1.109132170677185059e+00,-3.442134261131286621e-01,5.020000000000000000e+02
-1.089372203419657126e+02,-9.881290079799555315e+01,-1.596647066417881433e+01,1.344366004306434661e+02,-6.577181912091896265e+01,1.456421276877242690e+02,-1.352743985532697479e+01,-4.616057297394360148e+01,9.446745872497558594e+00,-1.109132170677185059e+00,-3.442134261131286621e-01,5.030000000000000000e+02
-1.070245911605536548e+02,-9.895196635800328977e+01,-1.389442849745438480e+01,1.317099916639177763e+02,-6.576057303862427261e+01,1.435062344491001340e+02,-1.305025792844094212e+01,-4.766059734121267866e+01,9.446745872497558594e+00,-1.109132170677185059e+00,-3.442134261131286621e-01,5.040000000000000000e+02
-1.068104722127208674e+02,-9.710022193079993258e+01,-1.291092115833822618e+01,1.321213395019296968e+02,-6.505111990815487388e+01,1.429421072939867372e+02,-1.214512865628938698e+01,-4.621406847960435016e+01,9.446745872497558594e+00,-1.109132170677185059e+00,-3.442134261131286621e-01,5.050000000000000000e+02
-1.082264603982151812e+02,-9.367030779135177454e+01,-1.307525356167735708e+01,1.354195008339157766e+02,-6.384233881536562194e+01,1.444414881012547767e+02,-9.858088383290635193e+00,-4.214467929833983817e+01,9.446745872497558594e+00,-1.109132170677185059e+00,-3.442134261131286621e-01,5.060000000000000000e+02
-1.099071444855972857e+02,-9.007402086855876178e+01,-1.358725169901279628e+01,1.395137115074128360e+02,-6.260222407999677330e+01,1.470071343058077105e+02,-6.573886945294674433e+00,-3.753996355522301087e+01,9.446745872497558594e+00,-1.109132170677185059e+00,-3.442134261131286621e-01,5.070000000000000000e+02
-1.102475110933452527e+02,-8.774005007074228502e+01,-1.363940937661590169e+01,1.420056268807743436e+02,-6.184395010702939999e+01,1.487599489112265019e+02,-3.852338645850380772e+00,-3.478315976466723214e+01,9.446745872497558594e+00,-1.109132170677185059e+00,-3.442134261131286621e-01,5.080000000000000000e+02
-1.086739825305435829e+02,-8.716967234489101202e+01,-1.307046107716706729e+01,1.418787399187345670e+02,-6.180251792399181454e+01,1.482182839958844909e+02,-3.149365362972247340e+00,-3.474390096698948582e+01,9.446745872497558594e+00,-1.109132170677185059e+00,-3.442134261131286621e-01,5.090000000000000000e+02
-1.059907157972188543e+02,-8.777848482429345722e+01,-1.219844124867969981e+01,1.399881177266147745e+02,-6.218882817269047791e+01,1.453336150718301099e+02,-4.597366649265637761e+00,-3.613483030529648943e+01,9.446745872497558594e+00,-1.109132170677185059e+00,-3.442134261131286621e-01,5.100000000000000000e+02
-1.035607834252729162e+02,-8.855359329048573613e+01,-1.118302081206940102e+01,1.380865344663704946e+02,-6.227264694457073801e+01,1.414968851979224951e+02,-6.953244147890103477e+00,-3.657332531048157875e+01,9.446745872497558594e+00,-1.109132170677185059e+00,-3.442134261131286621e-01,5.110000000000000000e+02
-1.021565762497680794e+02,-8.885865121727084670e+01,-9.752633791063615831e+00,1.373836580344989216e+02,-6.132484227168950497e+01,1.385251155296768957e+02,-8.696552053168829843e+00,-3.441283250163219520e+01,9.446745872497558594e+00,-1.109132170677185059e+00,-3.442134261131286621e-01,5.120000000000000000e+02
-1.015147331395328365e+02,-8.872381440995107482e+01,-7.647669482831105370e+00,1.378522545571533442e+02,-5.912107906004032998e+01,1.374383335973340081e+02,-9.216895892339039165e+00,-2.984017971896150812e+01,9.446745872497558594e+00,-1.109132170677185059e+00,-3.442134261131286621e-01,5.130000000000000000e+02
-1.008495462007343804e+02,-8.854897998782041668e+01,-5.241214297672740940e+00,1.386217601965058179e+02,-5.609894675796704178e+01,1.379700237574996891e+02,-9.044200340013730965e+00,-2.451235143977152120e+01,9.446745872497558594e+00,-1.109132170677185059e+00,-3.442134261131286621e-01,5.140000000000000000e+02
-9.963666588313026296e+01,-8.864962303912585639e+01,-3.508900520243855681e+00,1.388171584694772491e+02,-5.302681069086094112e+01,1.390989005074389979e+02,-9.055611936266416251e+00,-2.028066679715823284e+01,9.446745872497558594e+00,-1.109132170677185059e+00,-3.442134261131286621e-01,5.150000000000000000e+02
-9.787291534237999713e+01,-8.905173488941227333e+01,-3.210956578116565652e+00,1.380350820489088619e+02,-5.048280560480094437e+01,1.400180790688690422e+02,-9.526510335852890421e+00,-1.816253878086621398e+01,9.446745872497558594e+00,-1.109132170677185059e+00,-3.442134261131286621e-01,5.160000000000000000e+02
-9.573939112673360796e+01,-8.953797135003856056e+01,-4.065683772140118890e+00,1.362924749405121929e+02,-4.860342611660519196e+01,1.406567041708005945e+02,-9.919270194071259539e+00,-1.822452318275196603e+01,9.446745872497558594e+00,-1.109132170677185059e+00,-3.442134261131286621e-01,5.170000000000000000e+02
-9.327356007976231922e+01,-8.971209577676700064e+01,-4.831346331284294138e+00,1.338698742058262496e+02,-4.728156065495534222e+01,1.413932403307637742e+02,-9.489743080542893949e+00,-2.008505926257669216e+01,9.446745872497558594e+00,-1.109132170677185059e+00,-3.442134261131286621e-01,5.180000000000000000e+02
-9.052136474817552880e+01,-8.902583228699279516e+01,-4.335265625127703970e+00,1.313520272137120628e+02,-4.653185575250245165e+01,1.424082289660816514e+02,-8.002506293970668594e+00,-2.329430156216142223e+01,9.446745872497558594e+00,-1.109132170677185059e+00,-3.442134261131286621e-01,5.190000000000000000e+02
-8.792401703833206739e+01,-8.695129900208860363e+01,-2.505922554830476656e+00,1.296479466590481024e+02,-4.659416054209236790e+01,1.433948684846736796e+02,-5.845883580721420003e+00,-2.722686033763898195e+01,9.332008361816406250e+00,-1.147378087043762207e+00,-2.294756323099136353e-01,5.200000000000000000e+02
-8.630483764818131931e+01,-8.339650892602833210e+01,-4.012443845374491502e-01,1.296320615761692352e+02,-4.761130803715502680e+01,1.438865546083357003e+02,-3.538772755869558750e+00,-3.078822497485089116e+01,9.332008361816406250e+00,-1.147378087043762207e+00,-2.294756323099136353e-01,5.210000000000000000e+02
-8.625615057903132765e+01,-7.906410095495834867e+01,8.086530019511428691e-01,1.315133416608521202e+02,-4.918959046726808992e+01,1.437944150396187979e+02,-1.224739552379332963e+00,-3.250964740249901297e+01,9.332008361816406250e+00,-1.147378087043762207e+00,-2.294756323099136353e-01,5.220000000000000000e+02
-8.750093043955166650e+01,-7.526666418918102863e+01,9.301369495829021616e-01,1.345374861694069750e+02,-5.033639370964988302e+01,1.435681915493328233e+02,1.307125418929217631e+00,-3.120867184194617039e+01,9.332008361816406250e+00,-1.147378087043762207e+00,-2.294756323099136353e-01,5.230000000000000000e+02
-8.897322335643639235e+01,-7.311651447231838574e+01,8.697484846229599498e-01,1.374639543687503647e+02,-4.995972902453263487e+01,1.438276052815795083e+02,4.145297510670388874e+00,-2.677196929314084173e+01,9.332008361816406250e+00,-1.147378087043762207e+00,-2.294756323099136353e-01,5.240000000000000000e+02
-8.967645630808237911e+01,-7.265489902355670893e+01,1.682078485918054866e+00,1.394983307536072061e+02,-4.762595009967708393e+01,1.448349065762404280e+02,6.863747835994445268e+00,-2.040903240253851436e+01,9.332008361816406250e+00,-1.147378087043762207e+00,-2.294756323099136353e-01,5.250000000000000000e+02
-8.952318908749430193e+01,-7.274068448189291303e+01,3.471069758219073265e+00,1.408109418530161747e+02,-4.398704440967276241e+01,1.462941003099726913e+02,8.655447469835507945e+00,-1.411229891342759402e+01,9.332008361816406250e+00,-1.147378087043762207e+00,-2.294756323099136353e-01,5.260000000000000000e+02
-8.931072033635496155e+01,-7.195373434315774830e+01,5.203140543710105703e+00,1.421172698834629955e+02,-4.048540749308563136e+01,1.476216326558223955e+02,8.907311930568084790e+00,-9.668117877509757818e+00,9.332008361816406250e+00,-1.147378087043762207e+00,-2.294756323099136353e-01,5.270000000000000000e+02
-8.983301518527150620e+01,-6.981536194399495798e+01,5.626685091011722761e+00,1.437448863594354407e+02,-3.846277550053082450e+01,1.484115093982727558e+02,7.712028169221184726e+00,-7.868920000565367445e+00,9.332008361816406250e+00,-1.147378087043762207e+00,-2.294756323099136353e-01,5.280000000000000000e+02
-9.101070294321289111e+01,-6.725147589654852709e+01,4.464822462566644390e+00,1.451373500509298538e+02,-3.828173143603862627e+01,1.487011675881058181e+02,5.877983188852567764e+00,-8.373897015476359229e+00,9.332008361816406250e+00,-1.147378087043762207e+00,-2.294756323099136353e-01,5.290000000000000000e+02
-9.190194477552290664e+01,-6.583144201250843253e+01,2.784811489912272009e+00,1.453065103873468615e+02,-3.911312267004404930e+01,1.488537925632990664e+02,4.462206900392857278e+00,-1.016431979732260515e+01,9.332008361816406250e+00,-1.147378087043762207e+00,-2.294756323099136353e-01,5.300000000000000000e+02
-9.155150204704341377e+01,-6.640637308698978813e+01,2.183262265494249732e+00,1.437850744434081207e+02,-3.958633450974730295e+01,1.491775699881163746e+02,4.204844918750495708e+00,-1.218318549021410035e+01,9.332008361816406250e+00,-1.147378087043762207e+00,-2.294756323099136353e-01,5.310000000000000000e+02
-8.981210047775994099e+01,-6.834723532045700267e+01,3.473375902102134205e+00,1.411357957498898941e+02,-3.884156445323878870e+01,1.495791258365725298e+02,5.213102092519420694e+00,-1.378067187856618148e+01,9.332008361816406250e+00,-1.147378087043762207e+00,-2.294756323099136353e-01,5.320000000000000000e+02
-8.734337099717185993e+01,-7.005045610122215294e+01,5.992157289768329065e+00,1.385533698088770507e+02,-3.718799728711383068e+01,1.495157949506901787e+02,6.983575254627794493e+00,-1.484755178759928640e+01,9.332008361816406250e+00,-1.147378087043762207e+00,-2.294756323099136353e-01,5.330000000000000000e+02
-8.487345891254562957e+01,-7.024800875380879006e+01,8.101464121804838214e+00,1.369692919148646979e+02,-3.586478824397136123e+01,1.483030385719575861e+02,8.639873419272589672e+00,-1.573636300748717076e+01,9.332008361816406250e+00,-1.147378087043762207e+00,-2.294756323099136353e-01,5.340000000000000000e+02
-8.253664499591968706e+01,-6.897124997139553670e+01,8.456917005257764686e+00,1.364644848088300932e+02,-3.609379937924177284e+01,1.455891013222480979e+02,9.254840917378714948e+00,-1.706866534860364482e+01,9.332008361816406250e+00,-1.147378087043762207e+00,-2.294756323099136353e-01,5.350000000000000000e+02
-7.995861305771950356e+01,-6.737296370942476642e+01,6.996784777791162924e+00,1.364177420584783249e+02,-3.813554219890329477e+01,1.416749065888452606e+02,8.221418379009264754e+00,-1.940383658307609949e+01,9.332008361816406250e+00,-1.147378087043762207e+00,-2.294756323099136353e-01,5.360000000000000000e+02
-7.695880760347245086e+01,-6.665300414330749845e+01,4.891493135958626226e+00,1.361401796021164046e+02,-4.102796028680995732e+01,1.374530100021647741e+02,5.621896039762759756e+00,-2.275766299536780934e+01,9.332008361816406250e+00,-1.147378087043762207e+00,-2.294756323099136353e-01,5.370000000000000000e+02
-7.410056385673397017e+01,-6.706289379754889524e+01,3.580593001560828270e+00,1.354503090768339462e+02,-4.313615994475048865e+01,1.340356194932119251e+02,2.416343961682741792e+00,-2.618422011156235385e+01,9.332008361816406250e+00,-1.147378087043762207e+00,-2.294756323099136353e-01,5.380000000000000000e+02
-7.249689926651853966e+01,-6.779570164087181183e+01,3.740692959656826133e+00,1.348474097458765755e+02,-4.306375538288102689e+01,1.323506938231585082e+02,1.982509857521108643e-01,-2.782657346399537346e+01,9.332008361816406250e+00,-1.147378087043762207e+00,-2.294756323099136353e-01,5.390000000000000000e+02
-7.300169143916627945e+01,-6.771656261093312423e+01,5.003459896063304768e+00,1.352926041339214862e+02,-4.031392859295738162e+01,1.329328586806786916e+02,4.678142100883633248e-01,-2.567282678543506336e+01,9.332008361816406250e+00,-1.147378087043762207e+00,-2.294756323099136353e-01,5.400000000000000000e+02
-7.548821115566806839e+01,-6.623104828185978477e+01,6.537209237989372923e+00,1.377480199557576270e+02,-3.539527784821302703e+01,1.358932365669797946e+02,3.758674136768604512e+00,-1.876420856830736739e+01,9.332008361816406250e+00,-1.147378087043762207e+00,-2.294756323099136353e-01,5.410000000000000000e+02
-7.881344969476822371e+01,-6.362416333940382174e+01,7.871626305739937379e+00,1.426169083341865189e+02,-2.947394477967372950e+01,1.409001182945221444e+02,9.195915949394930067e+00,-8.113130979417746858e+00,9.332008361816406250e+00,-1.147378087043762207e+00,-2.294756323099136353e-01,5.420000000000000000e+02
-8.145335824532048719e+01,-6.073342929795489908e+01,9.216219349346829404e+00,1.492784763533036312e+02,-2.387187877892620236e+01,1.471026282730808816e+02,1.486499055411968584e+01,3.410140981702625140e+00,9.332008361816406250e+00,-1.147378087043762207e+00,-2.294756323099136353e-01,5.430000000000000000e+02
-8.227638999339114889e+01,-5.834018016697882558e+01,1.108088953353035322e+01,1.560334086495031443e+02,-1.962609873783139847e+01,1.531609487495497888e+02,1.883283314453092316e+01,1.235739564315781536e+01,9.332008361816406250e+00,-1.147378087043762207e+00,-2.294756323099136353e-01,5.440000000000000000e+02
-8.091322270397313332e+01,-5.674807428151189015e+01,1.367324038695414856e+01,1.607054253799706203e+02,-1.719655156939279550e+01,1.575836606304146699e+02,2.016823993156049255e+01,1.645000497735554745e+01,9.332008361816406250e+00,-1.147378087043762207e+00,-2.294756323099136353e-01,5.450000000000000000e+02
-7.760990760934328136e+01,-5.574797737908829731e+01,1.668035663859018314e+01,1.617324658649140474e+02,-1.637810140877263620e+01,1.593252664700594323e+02,1.929948303466699144e+01,1.568564080185069542e+01,9.332008361816406250e+00,-1.147378087043762207e+00,-2.294756323099136353e-01,5.460000000000000000e+02
-7.286086495847303013e+01,-5.487624920705638942e+01,1.959629202590940622e+01,1.591031820277648876e+02,-1.648095282961639896e+01,1.582986908147613576e+02,1.753116617914656672e+01,1.207348832185289211e+01,9.332008361816406250e+00,-1.147378087043762207e+00,-2.294756323099136353e-01,5.470000000000000000e+02
-6.720673673585588404e+01,-5.373083400840096147e+01,2.218157607053854008e+01,1.544445823949990881e+02,-1.674582748226839612e+01,1.554460823173794779e+02,1.613058393365554366e+01,8.241102526334088907e+00,9.332008361816406250e+00,-1.147378087043762207e+00,-2.294756323099136353e-01,5.480000000000000000e+02
-6.130030822981279925e+01,-5.216150080680199608e+01,2.453778202019475430e+01,1.501223724279207090e+02,-1.677782334772200556e+01,1.523006222291787708e+02,1.565963002806529403e+01,5.935190969837094599e+00,9.332008361816406250e+00,-1.147378087043762207e+00,-2.294756323099136353e-01,5.490000000000000000e+02
-5.600321490433179861e+01,-5.027967227383487625e+01,2.674607960390858352e+01,1.479324899184239257e+02,-1.670612657004312496e+01,1.502894874158810126e+02,1.594115897769916046e+01,5.417192312093902729e+00,9.332008361816406250e+00,-1.147378087043762207e+00,-2.294756323099136353e-01,5.500000000000000000e+02
-5.224650041071345186e+01,-4.834027302492177114e+01,2.850772408784087020e+01,1.482718707236817863e+02,-1.692457744627608918e+01,1.501605660265449842e+02,1.649740359949191770e+01,5.999049254587134783e+00,9.599730491638183594e+00,-1.070886254310607910e+00,-1.912296712398529053e-01,5.510000000000000000e+02
-5.064050249688716576e+01,-4.663401376011552202e+01,2.925543371583808039e+01,1.502845818940504614e+02,-1.758229863521137304e+01,1.517868428337569640e+02,1.697054664245479216e+01,7.050492331716668559e+00,9.599730491638183594e+00,-1.070886254310607910e+00,-1.912296712398529053e-01,5.520000000000000000e+02
-5.109357479726804740e+01,-4.548850341953948373e+01,2.870232989522901335e+01,1.527063463372969636e+02,-1.822779820828327502e+01,1.543654797252747812e+02,1.717618916894480208e+01,8.526341205566495773e+00,9.599730491638183594e+00,-1.070886254310607910e+00,-1.912296712398529053e-01,5.530000000000000000e+02
-5.276055607503894862e+01,-4.530943096707324003e+01,2.730188881687172398e+01,1.546832526688103826e+02,-1.793404772164922178e+01,1.568644580904092436e+02,1.689043597860472801e+01,1.064994556312831264e+01,9.599730491638183594e+00,-1.070886254310607910e+00,-1.912296712398529053e-01,5.540000000000000000e+02
-5.441349042683395965e+01,-4.646014995857058238e+01,2.612998275917561841e+01,1.560158707531682012e+02,-1.589344236568649649e+01,1.584959540526142519e+02,1.576228946277205978e+01,1.323769323226770211e+01,9.599730491638183594e+00,-1.070886254310607910e+00,-1.912296712398529053e-01,5.550000000000000000e+02
-5.503419946790472750e+01,-4.890772441374974733e+01,2.620594876671384554e+01,1.568776715852072812e+02,-1.207329131552160106e+01,1.589987885673835990e+02,1.360168366834204789e+01,1.546761481974499475e+01,9.599730491638183594e+00,-1.070886254310607910e+00,-1.912296712398529053e-01,5.560000000000000000e+02
-5.428330009213459562e+01,-5.190362960843685869e+01,2.778911617968333303e+01,1.574571590083178307e+02,-7.409939929781103274e+00,1.586266890642200451e+02,1.081470911598626117e+01,1.640141305091128743e+01,9.599730491638183594e+00,-1.070886254310607910e+00,-1.912296712398529053e-01,5.570000000000000000e+02
-5.258867613590064138e+01,-5.411304304373425111e+01,3.020851736689564859e+01,1.578790810822138155e+02,-3.330212818341351522e+00,1.579030069445961999e+02,8.476537203102452622e+00,1.577231888769074430e+01,9.599730491638183594e+00,-1.070886254310607910e+00,-1.912296712398529053e-01,5.580000000000000000e+02
-5.083317835687557817e+01,-5.432454289289489680e+01,3.231670497784489271e+01,1.583456134473763086e+02,-9.005649711289152037e-01,1.573218544299215864e+02,7.771887851549763582e+00,1.425595801995405054e+01,9.599730491638183594e+00,-1.070886254310607910e+00,-1.912296712398529053e-01,5.590000000000000000e+02
-4.983434258231591230e+01,-5.230972225037294265e+01,3.319181459880473994e+01,1.591680126503706560e+02,-2.117629413778558956e-01,1.571548389799372671e+02,9.148193683995486936e+00,1.295519232224887674e+01,9.599730491638183594e+00,-1.070886254310607910e+00,-1.912296712398529053e-01,5.600000000000000000e+02
-4.988685326946233545e+01,-4.913026870595967921e+01,3.263002617754045787e+01,1.605281858047310379e+02,-4.465962079520977568e-01,1.574201040448933782e+02,1.190868693455013272e+01,1.258949286911411036e+01,9.599730491638183594e+00,-1.070886254310607910e+00,-1.912296712398529053e-01,5.610000000000000000e+02
-5.059573813881979731e+01,-4.656736390629976086e+01,3.121567385297930741e+01,1.621789062956631824e+02,-5.432752807573706377e-01,1.579696318319802231e+02,1.471052812582183833e+01,1.313562084569002764e+01,9.599730491638183594e+00,-1.070886254310607910e+00,-1.912296712398529053e-01,5.620000000000000000e+02
-5.110395509232330369e+01,-4.606222690727008739e+01,3.000254866495561146e+01,1.634545066599966958e+02,7.752982712463563075e-02,1.586226717204244778e+02,1.661900410944690520e+01,1.418361770639694441e+01,9.599730491638183594e+00,-1.070886254310607910e+00,-1.912296712398529053e-01,5.630000000000000000e+02
-5.060979622195191041e+01,-4.796496033301264106e+01,2.997694005308767373e+01,1.636979663065249042e+02,1.279369456524364068e+00,1.592993948446546710e+02,1.780284268256491487e+01,1.556063686882953334e+01,9.599730491638183594e+00,-1.070886254310607910e+00,-1.912296712398529053e-01,5.640000000000000000e+02
-4.885954400156879274e+01,-5.156412311233543733e+01,3.152347286754229572e+01,1.627666493414708384e+02,2.574715796980854066e+00,1.600814983520322130e+02,1.921352574083903164e+01,1.754641161592371645e+01,9.599730491638183594e+00,-1.070886254310607910e+00,-1.912296712398529053e-01,5.650000000000000000e+02
-4.627876108843156544e+01,-5.568814960551389959e+01,3.415905951140848629e+01,1.611384563122046529e+02,3.672018881546136981e+00,1.611199419700587896e+02,2.148765395913960674e+01,2.044329022307010746e+01,9.599730491638183594e+00,-1.070886254310607910e+00,-1.912296712398529053e-01,5.660000000000000000e+02
-4.364289567977721163e+01,-5.928812346981612791e+01,3.676765491602054681e+01,1.595129295302904211e+02,4.704379918555787299e+00,1.624182642422110803e+02,2.408137013591112918e+01,2.394446185183096532e+01,9.599730491638183594e+00,-1.070886254310607910e+00,-1.912296712398529053e-01,5.670000000000000000e+02
-4.156076834773193696e+01,-6.164967512338535016e+01,3.828202700438941974e+01,1.583078625403359183e+02,5.985328116712480551e+00,1.636722474607995537e+02,2.550515835829901334e+01,2.696305136818227766e+01,9.599730491638183594e+00,-1.070886254310607910e+00,-1.912296712398529053e-01,5.680000000000000000e+02
-4.021577585392515175e+01,-6.237929185125085496e+01,3.836015030854468932e+01,1.575500531899742782e+02,7.583730172002105974e+00,1.643788360373473552e+02,2.454360510337937740e+01,2.816474333517544437e+01,9.599730491638183594e+00,-1.070886254310607910e+00,-1.912296712398529053e-01,5.690000000000000000e+02
-3.956045166661715484e+01,-6.146264844110737613e+01,3.749957771466324630e+01,1.572170245906017954e+02,9.136013017467121244e+00,1.641950992132187821e+02,2.142066959251314984e+01,2.681613776831363793e+01,9.599730491638183594e+00,-1.070886254310607910e+00,-1.912296712398529053e-01,5.700000000000000000e+02
-3.968251461129511881e+01,-5.940187617867741210e+01,3.646745731874943885e+01,1.575778524768029456e+02,1.005188629554868385e+01,1.632453637111902935e+02,1.787019332910313096e+01,2.328847414482879685e+01,9.599730491638183594e+00,-1.070886254310607910e+00,-1.912296712398529053e-01,5.710000000000000000e+02
-4.085363939674789435e+01,-5.715630971474092803e+01,3.557404462530575984e+01,1.590610027676721074e+02,9.918307573645506636e+00,1.620587201968482987e+02,1.601194141586165642e+01,1.884697943460196257e+01,9.408499717712402344e+00,-1.223870038986206055e+00,-2.677215635776519775e-01,5.720000000000000000e+02
-4.309786318790065707e+01,-5.572319563615928928e+01,3.451355150688686990e+01,1.616814876257249125e+02,8.778688113945463556e+00,1.611436527087244031e+02,1.693652120300794195e+01,1.491333143126030336e+01,9.408499717712402344e+00,-1.223870038986206055e+00,-2.677215635776519775e-01,5.730000000000000000e+02
-4.570427243031554099e+01,-5.559569546082275338e+01,3.292260243215423543e+01,1.646191841254185420e+02,7.108149550453163101e+00,1.605915863203990739e+02,2.008764801098914177e+01,1.233683556466894515e+01,9.408499717712402344e+00,-1.223870038986206055e+00,-2.677215635776519775e-01,5.740000000000000000e+02
-4.734275677588630060e+01,-5.653939480745066248e+01,3.103183446319053473e+01,1.665011398211900087e+02,5.548243672990793129e+00,1.600887035781597660e+02,2.381267618097626837e+01,1.113306221798120532e+01,9.408499717712402344e+00,-1.223870038986206055e+00,-2.677215635776519775e-01,5.750000000000000000e+02
-4.693457950487572816e+01,-5.787665547211508965e+01,2.964223615143782808e+01,1.663173693258831918e+02,4.604252887420443585e+00,1.593229780801520974e+02,2.650450476769219676e+01,1.076810002007277944e+01,9.408499717712402344e+00,-1.223870038986206055e+00,-2.677215635776519775e-01,5.760000000000000000e+02
-4.462876454709294194e+01,-5.901248978636795073e+01,2.936069085283088498e+01,1.642510537755279074e+02,4.461143400560104055e+00,1.583770350801823952e+02,2.743279684808112506e+01,1.066647202365311387e+01,9.408499717712402344e+00,-1.223870038986206055e+00,-2.677215635776519775e-01,5.770000000000000000e+02
-4.193677986681177572e+01,-5.976082459438657679e+01,2.988516510577392182e+01,1.616681659572514036e+02,4.957983785030592117e+00,1.577190743854589527e+02,2.680973594496754231e+01,1.052472179270080233e+01,9.408499717712402344e+00,-1.223870038986206055e+00,-2.677215635776519775e-01,5.780000000000000000e+02
-4.070230134257144528e+01,-6.029774380736671446e+01,3.016856699820164067e+01,1.601723527144749823e+02,5.694710648054751800e+00,1.578057140058663208e+02,2.532976654068443167e+01,1.024624429178766150e+01,9.408499717712402344e+00,-1.223870038986206055e+00,-2.677215635776519775e-01,5.790000000000000000e+02
-4.166092605765697954e+01,-6.090742143818897603e+01,2.939499933576189505e+01,1.604280612885522714e+02,6.215822694273811067e+00,1.586729449571139412e+02,2.370468103872008214e+01,9.664617635799004347e+00,9.408499717712402344e+00,-1.223870038986206055e+00,-2.677215635776519775e-01,5.800000000000000000e+02
-4.383742167776472343e+01,-6.176665109967143508e+01,2.780168704928291845e+01,1.617008159627985151e+02,6.193584024433221202e+00,1.598856048847410420e+02,2.247497212944472267e+01,8.402062145172749297e+00,9.408499717712402344e+00,-1.223870038986206055e+00,-2.677215635776519775e-01,5.810000000000000000e+02
-4.536691245537804207e+01,-6.286356513295322657e+01,2.648740149264449428e+01,1.625024868916843843e+02,5.549423063897847896e+00,1.608582887300581206e+02,2.199219485576031730e+01,6.034176237355495687e+00,9.408499717712402344e+00,-1.223870038986206055e+00,-2.677215635776519775e-01,5.820000000000000000e+02
-4.505511233468132559e+01,-6.398778999835485592e+01,2.637397881647848408e+01,1.618205614941252861e+02,4.470127467509882990e+00,1.612385979454702465e+02,2.235609222048879019e+01,2.400565947338691331e+00,9.408499717712402344e+00,-1.223870038986206055e+00,-2.677215635776519775e-01,5.830000000000000000e+02
-4.330059309943499102e+01,-6.476200900140247541e+01,2.737087557727318199e+01,1.599127800351816404e+02,3.322605040626513073e+00,1.610450625129415130e+02,2.330029118759193807e+01,-2.238191975215158891e+00,9.408499717712402344e+00,-1.223870038986206055e+00,-2.677215635776519775e-01,5.840000000000000000e+02
-4.158436467466162867e+01,-6.477758132339113217e+01,2.857254482606913371e+01,1.580262391063297400e+02,2.527000729776773369e+00,1.605282235603554000e+02,2.424613486431007914e+01,-7.310924101140699349e+00,9.408499717712402344e+00,-1.223870038986206055e+00,-2.677215635776519775e-01,5.850000000000000000e+02
-4.106742360567841388e+01,-6.384010126496104931e+01,2.920574758767543244e+01,1.573129012234094262e+02,2.424306836912364815e+00,1.599592655351661961e+02,2.464400372525051353e+01,-1.216058806062756048e+01,9.408499717712402344e+00,-1.223870038986206055e+00,-2.677215635776519775e-01,5.860000000000000000e+02
-4.164509108531092352e+01,-6.216092768657472334e+01,2.927077010478024022e+01,1.578992696106979565e+02,3.150868348768199212e+00,1.595447087919928890e+02,2.440852628234461008e+01,-1.616713326303215581e+01,9.408499717712402344e+00,-1.223870038986206055e+00,-2.677215635776519775e-01,5.870000000000000000e+02
-4.230033034459302144e+01,-6.029875465633449494e+01,2.921851869413330860e+01,1.589205356729726191e+02,4.535692513914909796e+00,1.594868247273225279e+02,2.405619302822742611e+01,-1.877651612464615027e+01,9.408499717712402344e+00,-1.223870038986206055e+00,-2.677215635776519775e-01,5.880000000000000000e+02
-4.227608081854486954e+01,-5.885313155952644593e+01,2.912425959375286766e+01,1.594396924855063844e+02,6.075882719054789050e+00,1.600236032338652876e+02,2.431728641229165078e+01,-1.966148677550881985e+01,9.408499717712402344e+00,-1.223870038986206055e+00,-2.677215635776519775e-01,5.890000000000000000e+02
-4.180183420769753866e+01,-5.816590687442476337e+01,2.839834280535797006e+01,1.593268247268970299e+02,7.085737770765263122e+00,1.612851074051650357e+02,2.549705845116659475e+01,-1.908486362767143873e+01,9.408499717712402344e+00,-1.223870038986206055e+00,-2.677215635776519775e-01,5.900000000000000000e+02
-4.164266482356470078e+01,-5.826711786881969601e+01,2.645961110210555489e+01,1.592388429283564619e+02,7.030631914265541127e+00,1.630290639816885232e+02,2.716571111652410764e+01,-1.811845591534438427e+01,9.408499717712402344e+00,-1.223870038986206055e+00,-2.677215635776519775e-01,5.910000000000000000e+02
-4.202872948369258665e+01,-5.901698258633950900e+01,2.364012794602058420e+01,1.597666530061505910e+02,5.886584028346987907e+00,1.645409817027029931e+02,2.853080652787321014e+01,-1.823092155449921847e+01,9.408499717712402344e+00,-1.223870038986206055e+00,-2.677215635776519775e-01,5.920000000000000000e+02
-4.219445309968614310e+01,-6.018548491712317627e+01,2.124042954294236552e+01,1.607111719895401620e+02,4.266479453570354963e+00,1.649610538226188510e+02,2.925302536767230777e+01,-2.024144379867175303e+01,9.408499717712402344e+00,-1.223870038986206055e+00,-2.677215635776519775e-01,5.930000000000000000e+02
-4.111803035913544591e+01,-6.134974605940260517e+01,2.050223666348392726e+01,1.613441130514838733e+02,3.137491425313783111e+00,1.639446641945687588e+02,2.996350725879528909e+01,-2.341168972296873108e+01,9.408499717712402344e+00,-1.223870038986206055e+00,-2.677215635776519775e-01,5.940000000000000000e+02
-3.874118883466144325e+01,-6.181107439323022845e+01,2.145181984235205164e+01,1.614534330285787291e+02,3.245523656316436245e+00,1.621480549948209955e+02,3.188567112386226654e+01,-2.562618371160169772e+01,9.408499717712402344e+00,-1.223870038986206055e+00,-2.677215635776519775e-01,5.950000000000000000e+02
-3.633999539791329880e+01,-6.082197409755281114e+01,2.281406597870227415e+01,1.620343346531626594e+02,4.657016399049098254e+00,1.610228182340251806e+02,3.575768524577506469e+01,-2.479808142340698396e+01,9.408499717712402344e+00,-1.223870038986206055e+00,-2.677215635776519775e-01,5.960000000000000000e+02
-3.553491096882135025e+01,-5.812556482302716176e+01,2.314626881465846964e+01,1.646795917482813820e+02,6.784673469874178409e+00,1.619041942777294025e+02,4.095603902860420931e+01,-2.050390213333776046e+01,9.446745872497558594e+00,-1.223870038986206055e+00,-3.442134261131286621e-01,5.970000000000000000e+02
-3.680920092743872374e+01,-5.436776011376241513e+01,2.212322093621514796e+01,1.700143262875717483e+02,8.882727193307800917e+00,1.650291188939445419e+02,4.568116967956666485e+01,-1.447627959456985991e+01,9.446745872497558594e+00,-1.223870038986206055e+00,-3.442134261131286621e-01,5.980000000000000000e+02
-3.894836367281641287e+01,-5.090272719595486706e+01,2.075509411854545760e+01,1.766285389046752243e+02,1.057710766070158570e+01,1.692888867100045900e+02,4.818122229117943789e+01,-9.474550335173262283e+00,9.446745872497558594e+00,-1.223870038986206055e+00,-3.442134261131286621e-01,5.990000000000000000e+02
-3.996805990539360209e+01,-4.899516916204265726e+01,2.038193694283472723e+01,1.816828304623195436e+02,1.195089479799571563e+01,1.729421185470127966e+02,4.803247338529763510e+01,-7.463680527163887746e+00,9.446745872497558594e+00,-1.223870038986206055e+00,-3.442134261131286621e-01,6.000000000000000000e+02
-3.869107904144402710e+01,-4.900606876039455528e+01,2.146861715829800232e+01,1.828672384291348862e+02,1.311929218111254158e+01,1.747147489151611808e+02,4.637346200856700307e+01,-8.593389834357367363e+00,9.446745872497558594e+00,-1.223870038986206055e+00,-3.442134261131286621e-01,6.010000000000000000e+02
-3.557427275180452853e+01,-5.023941536151323817e+01,2.332544396246885299e+01,1.800796423322390183e+02,1.376716515038788202e+01,1.744209491219444317e+02,4.489097805267374497e+01,-1.165349199294360005e+01,9.446745872497558594e+00,-1.223870038986206055e+00,-3.442134261131286621e-01,6.020000000000000000e+02
-3.215775065226625884e+01,-5.157821531115769176e+01,2.489124223043836537e+01,1.753622965890135674e+02,1.321017320642204140e+01,1.727284444142496795e+02,4.448358850067597814e+01,-1.530962489990270115e+01,9.446745872497558594e+00,-1.223870038986206055e+00,-3.442134261131286621e-01,6.030000000000000000e+02
-2.978927599294911488e+01,-5.234572289744392037e+01,2.568618057437925017e+01,1.711939585086947773e+02,1.103415551771468017e+01,1.704600183848160668e+02,4.477289058331371052e+01,-1.885831009312460083e+01,9.446745872497558594e+00,-1.223870038986206055e+00,-3.442134261131286621e-01,6.040000000000000000e+02
-2.879623584238652256e+01,-5.265077888026644359e+01,2.599771725031314418e+01,1.686850762037829554e+02,7.735813943218090571e+00,1.681245335312269162e+02,4.478353901565787965e+01,-2.199542626062975614e+01,9.446745872497558594e+00,-1.223870038986206055e+00,-3.442134261131286621e-01,6.050000000000000000e+02
-2.866716750381965539e+01,-5.298808529244706733e+01,2.625780226108690840e+01,1.671999168280963204e+02,4.656089122829143889e+00,1.659763994316963363e+02,4.400609341883318848e+01,-2.424705105603788979e+01,9.446745872497558594e+00,-1.223870038986206055e+00,-3.442134261131286621e-01,6.060000000000000000e+02
-2.879749038379668491e+01,-5.355064894393217401e+01,2.640862545831623720e+01,1.655346209676172293e+02,3.126268527725187596e+00,1.643116426325359498e+02,4.278941753364779288e+01,-2.498027902901776542e+01,9.446745872497558594e+00,-1.223870038986206055e+00,-3.442134261131286621e-01,6.070000000000000000e+02
-2.897786546400675434e+01,-5.393332658494546195e+01,2.596128750745265279e+01,1.633736209385169786e+02,3.509142731014435412e+00,1.635396856825609575e+02,4.178098229051101953e+01,-2.406876257885051018e+01,9.446745872497558594e+00,-1.223870038986206055e+00,-3.442134261131286621e-01,6.080000000000000000e+02
-2.930259090988693060e+01,-5.349199288212548709e+01,2.463578740419325186e+01,1.616397932972686249e+02,4.978906148506212048e+00,1.639248541927881888e+02,4.111572912324481877e+01,-2.236819548705170746e+01,9.446745872497558594e+00,-1.223870038986206055e+00,-3.442134261131286621e-01,6.090000000000000000e+02
-2.982878760492894799e+01,-5.199008504956145771e+01,2.282965496062752209e+01,1.615132313228968997e+02,6.235461683474568417e+00,1.652886720029928256e+02,4.026333951728156535e+01,-2.124618579144225805e+01,9.446745872497558594e+00,-1.223870038986206055e+00,-3.442134261131286621e-01,6.100000000000000000e+02
-3.044877695455579669e+01,-4.990023042199027259e+01,2.135697608193731867e+01,1.631807580603308452e+02,6.501095082941901637e+00,1.670062555738477386e+02,3.867560904672427569e+01,-2.145713807456559152e+01,9.446745872497558594e+00,-1.223870038986206055e+00,-3.442134261131286621e-01,6.110000000000000000e+02
-3.103079719784000190e+01,-4.807723239454207942e+01,2.070454143433016725e+01,1.655391819022515847e+02,5.928366426200227579e+00,1.683210843108390691e+02,3.649257541519909864e+01,-2.248306196149860625e+01,9.446745872497558594e+00,-1.223870038986206055e+00,-3.442134261131286621e-01,6.120000000000000000e+02
-3.153878462198190391e+01,-4.708972355711011915e+01,2.057778488519761595e+01,1.670704227344504034e+02,5.137208561216539238e+00,1.687124371640820755e+02,3.450382126628028345e+01,-2.307541633029541117e+01,9.446745872497558594e+00,-1.223870038986206055e+00,-3.442134261131286621e-01,6.130000000000000000e+02
-3.193987660528364358e+01,-4.678140952226021909e+01,2.022807720673881704e+01,1.670068148901591485e+02,4.434581833313131938e+00,1.680612938785634469e+02,3.337632379722344922e+01,-2.249777985653781798e+01,9.446745872497558594e+00,-1.223870038986206055e+00,-3.442134261131286621e-01,6.140000000000000000e+02
-3.207050490357869421e+01,-4.643406303675146773e+01,1.925863583435784676e+01,1.657067616062231536e+02,3.502045002838713117e+00,1.665636408129139454e+02,3.294694837171482504e+01,-2.122965463433865807e+01,9.446745872497558594e+00,-1.223870038986206055e+00,-3.442134261131286621e-01,6.150000000000000000e+02
