F3,F4,C3,C4,P3,P4,Cz,Pz,Accel_x,Accel_y,Accel_z,Sample
-3.001332515850663185e-11,-4.092726157978177071e-11,-3.728928277269005775e-11,-5.275069270282983780e-11,-2.728484105318784714e-11,-6.184563972055912018e-11,-3.456079866737127304e-11,-4.638422979041934013e-11,9.523238182067871094e+00,-9.179025292396545410e-01,-2.677215635776519775e-01,2.010000000000000000e+02
-1.297150940735718905e+01,-4.880761621878264123e+00,2.031421882121321687e+00,-6.825347718173361500e+00,-1.507435807038109488e+01,-1.577852551585965557e+01,4.190752822757531248e+00,-4.426402299661276629e+00,9.523238182067871094e+00,-9.179025292396545410e-01,-2.677215635776519775e-01,2.020000000000000000e+02
-2.452552945631396142e+01,-1.120389159382466460e+01,4.078376300111813180e+00,-1.101309761060474557e+01,-2.476140406904687552e+01,-2.707138302356906934e+01,6.988476174648894812e+00,-5.790604205427371198e+00,9.523238182067871094e+00,-9.179025292396545410e-01,-2.677215635776519775e-01,2.030000000000000000e+02
-3.413780313762799778e+01,-1.956569774181934918e+01,5.918293319010444975e+00,-1.251352171354665188e+01,-2.833874223985731078e+01,-3.304231348327266460e+01,7.337370483773156593e+00,-3.517541109040394076e+00,9.523238182067871094e+00,-9.179025292396545410e-01,-2.677215635776519775e-01,2.040000000000000000e+02
-4.216293225089521002e+01,-2.940499705286856624e+01,7.176603725260065403e+00,-1.374963244981518073e+01,-2.989887742381688440e+01,-3.673312625456310343e+01,4.983036182393334457e+00,2.619867745706869755e-01,9.523238182067871094e+00,-9.179025292396545410e-01,-2.677215635776519775e-01,2.050000000000000000e+02
-4.909182678133311128e+01,-3.942488309921009204e+01,7.622785638739514980e+00,-1.704045137529647036e+01,-3.416324664505737019e+01,-4.194181871076762036e+01,7.879601448594257818e-01,2.735634359873984067e+00,9.523238182067871094e+00,-9.179025292396545410e-01,-2.677215635776519775e-01,2.060000000000000000e+02
-5.506397998234842817e+01,-4.845319355461379018e+01,7.296217112356316647e+00,-2.239411147478949715e+01,-4.242256333800833090e+01,-5.004604619941892452e+01,-3.553918798221275210e+00,2.552779972316784551e+00,9.523238182067871094e+00,-9.179025292396545410e-01,-2.677215635776519775e-01,2.070000000000000000e+02
-6.021213615692249732e+01,-5.611880548614863073e+01,6.306827948686986929e+00,-2.790805381242989824e+01,-5.244581217079485214e+01,-5.968859030280873412e+01,-6.438285179676313419e+00,2.026583222286717501e-01,9.484992027282714844e+00,-9.179025292396545410e-01,-3.442134261131286621e-01,2.080000000000000000e+02
-6.528220098617111944e+01,-6.285676087704905513e+01,4.621633454520633677e+00,-3.204578552648763434e+01,-6.169511464251445432e+01,-6.898225460918547469e+01,-7.274556550142733613e+00,-3.179722576271160506e+00,9.484992027282714844e+00,-9.179025292396545410e-01,-3.442134261131286621e-01,2.090000000000000000e+02
-7.153747598552854470e+01,-6.932941137318903202e+01,2.211265843697219680e+00,-3.515355237681160361e+01,-6.993599914951118990e+01,-7.746797258310107281e+01,-6.668628458451166807e+00,-6.918432544960523956e+00,9.484992027282714844e+00,-9.179025292396545410e-01,-3.442134261131286621e-01,2.100000000000000000e+02
-7.979511949102379731e+01,-7.584681876329159422e+01,-5.546704711769052665e-01,-3.869279823186479916e+01,-7.864634584342456947e+01,-8.589973485846712720e+01,-5.791007542633451521e+00,-1.074614094460412161e+01,9.484992027282714844e+00,-9.179025292396545410e-01,-3.442134261131286621e-01,2.110000000000000000e+02
-8.956660517380714737e+01,-8.233089635709893628e+01,-2.790999587140504445e+00,-4.335544497156297439e+01,-8.853331123772932187e+01,-9.469056367388566287e+01,-5.575232419418171048e+00,-1.418110019162668323e+01,9.484992027282714844e+00,-9.179025292396545410e-01,-3.442134261131286621e-01,2.120000000000000000e+02
-9.930285771916624071e+01,-8.878271469976334629e+01,-3.556143631631130120e+00,-4.834044931669723155e+01,-9.834290820864862326e+01,-1.031906537439062959e+02,-6.388123927704327798e+00,-1.650270064033156814e+01,9.484992027282714844e+00,-9.179025292396545410e-01,-3.442134261131286621e-01,2.130000000000000000e+02
-1.076086103399402418e+02,-9.564868749203378684e+01,-2.538193102604964224e+00,-5.249763444063137285e+01,-1.062096998455472203e+02,-1.106169580619225599e+02,-8.194464613470699987e+00,-1.748553623158477421e+01,9.484992027282714844e+00,-9.179025292396545410e-01,-3.442134261131286621e-01,2.140000000000000000e+02
-1.142596652178526710e+02,-1.035624327859086407e+02,-3.064789950858539669e-01,-5.581563252815976739e+01,-1.117104124573206718e+02,-1.172970223304209867e+02,-1.075795385612673272e+01,-1.788100954602759884e+01,9.484992027282714844e+00,-9.179025292396545410e-01,-3.442134261131286621e-01,2.150000000000000000e+02
-1.201060326856995744e+02,-1.126296214796038839e+02,2.123338100055661926e+00,-5.944979444600994611e+01,-1.161779919232458269e+02,-1.245434347842774514e+02,-1.358571508232944325e+01,-1.883210490063265752e+01,9.484992027282714844e+00,-9.179025292396545410e-01,-3.442134261131286621e-01,2.160000000000000000e+02
-1.261431404133772958e+02,-1.220230140288531402e+02,3.944895467823698709e+00,-6.432385162755326746e+01,-1.211280910138584659e+02,-1.332298149660964555e+02,-1.586935662110317935e+01,-2.074554885374345758e+01,9.484992027282714844e+00,-9.179025292396545410e-01,-3.442134261131286621e-01,2.170000000000000000e+02
-1.327742834458331345e+02,-1.304402042423826060e+02,4.798594094264444720e+00,-7.000003155180183967e+01,-1.268220286144460260e+02,-1.427210668167899712e+02,-1.680864900729829969e+01,-2.289612227605175576e+01,9.484992027282714844e+00,-9.179025292396545410e-01,-3.442134261131286621e-01,2.180000000000000000e+02
-1.398662243836570269e+02,-1.371157457153603900e+02,4.521637172805640148e+00,-7.511171239328450611e+01,-1.325505951497525530e+02,-1.514033848347362436e+02,-1.620533197368968104e+01,-2.424821557775794645e+01,9.484992027282714844e+00,-9.179025292396545410e-01,-3.442134261131286621e-01,2.190000000000000000e+02
-1.472245243888246478e+02,-1.424319728064810988e+02,2.938710636105497542e+00,-7.879505102781422465e+01,-1.379910595942019427e+02,-1.582362812076025875e+02,-1.472482802151080250e+01,-2.458568635735173302e+01,9.484992027282714844e+00,-9.179025292396545410e-01,-3.442134261131286621e-01,2.200000000000000000e+02
-1.547576497800573634e+02,-1.474904755312827547e+02,1.151096890016560792e-01,-8.146393558988438599e+01,-1.437917844019284530e+02,-1.636729860370096503e+02,-1.342957879512596264e+01,-2.471020148211937340e+01,9.484992027282714844e+00,-9.179025292396545410e-01,-3.442134261131286621e-01,2.210000000000000000e+02
-1.622056492361989513e+02,-1.530372016695746424e+02,-3.213294901748668053e+00,-8.415812896893021389e+01,-1.507135899843779043e+02,-1.691192741383874818e+02,-1.296866129378577170e+01,-2.557906394595465827e+01,9.484992027282714844e+00,-9.179025292396545410e-01,-3.442134261131286621e-01,2.220000000000000000e+02
-1.690011022518401660e+02,-1.588198853369985954e+02,-5.726710007157635118e+00,-8.736852445056774741e+01,-1.585423976109368596e+02,-1.756796247982583736e+02,-1.323898002712758171e+01,-2.745194469089346967e+01,9.484992027282714844e+00,-9.179025292396545410e-01,-3.442134261131286621e-01,2.230000000000000000e+02
-1.746723415396145356e+02,-1.640524779633942671e+02,-6.360864671055423969e+00,-9.073709162941213435e+01,-1.662305642463861659e+02,-1.835097176375857089e+02,-1.384624286642338120e+01,-2.999158024686221324e+01,9.484992027282714844e+00,-9.179025292396545410e-01,-3.442134261131286621e-01,2.240000000000000000e+02
-1.794158951088120375e+02,-1.685070181605378821e+02,-5.229895957774715498e+00,-9.386248337902725325e+01,-1.731066283828286032e+02,-1.921695114511348947e+02,-1.476852605997373757e+01,-3.302716738775143313e+01,9.484992027282714844e+00,-9.179025292396545410e-01,-3.442134261131286621e-01,2.250000000000000000e+02
-1.840995556508232767e+02,-1.730352560635301415e+02,-3.670798532209119003e+00,-9.708519158998387866e+01,-1.796139400901874978e+02,-2.012332136854456621e+02,-1.637234377825643605e+01,-3.687023272797068785e+01,9.484992027282714844e+00,-9.179025292396545410e-01,-3.442134261131286621e-01,2.260000000000000000e+02
-1.895234233363844396e+02,-1.788428826368244700e+02,-3.200503230736103433e+00,-1.012006765882861146e+02,-1.866206189896975047e+02,-2.103846564535442667e+02,-1.868932794462307356e+01,-4.166571783055042033e+01,9.484992027282714844e+00,-9.179025292396545410e-01,-3.442134261131286621e-01,2.270000000000000000e+02
-1.956525408832540052e+02,-1.861359702474665028e+02,-4.300122960248700110e+00,-1.063698215769154558e+02,-1.941258206458242057e+02,-2.190926008621236178e+02,-2.083753375843662070e+01,-4.655636392933593015e+01,9.484992027282714844e+00,-9.179025292396545410e-01,-3.442134261131286621e-01,2.280000000000000000e+02
-2.016795346139670073e+02,-1.935177326200873722e+02,-6.190354370500244841e+00,-1.115175052961449182e+02,-2.009902300630001264e+02,-2.265525385550263309e+02,-2.149411064309879293e+01,-4.984526781358908920e+01,9.484992027282714844e+00,-9.179025292396545410e-01,-3.442134261131286621e-01,2.290000000000000000e+02
-2.069198296109343573e+02,-1.989101138073838229e+02,-7.807997081323264865e+00,-1.150403117529185693e+02,-2.061473761690422180e+02,-2.321861475021660226e+02,-2.021841467455215025e+01,-5.030690920206234296e+01,9.484992027282714844e+00,-9.179025292396545410e-01,-3.442134261131286621e-01,2.300000000000000000e+02
-2.115845251649443526e+02,-2.013109968049930103e+02,-8.946588872891879873e+00,-1.162139759362507903e+02,-2.099479537393144710e+02,-2.361838243105939910e+02,-1.829774160222223145e+01,-4.843306641913386557e+01,9.484992027282714844e+00,-9.179025292396545410e-01,-3.442134261131286621e-01,2.310000000000000000e+02
-2.165509635525468184e+02,-2.017856383413964068e+02,-1.032316791373887099e+01,-1.159069988128685509e+02,-2.140073865644226316e+02,-2.394226491728513793e+02,-1.799439988936956070e+01,-4.627861967600892967e+01,9.484992027282714844e+00,-9.179025292396545410e-01,-3.442134261131286621e-01,2.320000000000000000e+02
-2.222935125720100586e+02,-2.026767209406621078e+02,-1.244179318069291185e+01,-1.158522641991285127e+02,-2.195313955138708479e+02,-2.427478245717938989e+02,-2.059150568506902346e+01,-4.587117106085042906e+01,9.484992027282714844e+00,-9.179025292396545410e-01,-3.442134261131286621e-01,2.330000000000000000e+02
-2.280917962975881892e+02,-2.056474946961088790e+02,-1.446349159247711214e+01,-1.171526643163515473e+02,-2.258355478771245544e+02,-2.463167315410883020e+02,-2.499449821938378591e+01,-4.756949820302270382e+01,9.484992027282714844e+00,-9.179025292396545410e-01,-3.442134261131286621e-01,2.340000000000000000e+02
-2.324490954477410014e+02,-2.103065768070860031e+02,-1.446170083352535585e+01,-1.194280381599774046e+02,-2.307241217551354566e+02,-2.496615001190712064e+02,-2.838057677331016748e+01,-4.986484643274343398e+01,9.484992027282714844e+00,-9.179025292396545410e-01,-3.442134261131286621e-01,2.350000000000000000e+02
-2.344674594887569583e+02,-2.146671166239998456e+02,-1.111257166480481828e+01,-1.213598658066111966e+02,-2.325403243324644791e+02,-2.523728106178386952e+02,-2.853391381996607379e+01,-5.078724509251696873e+01,9.484992027282714844e+00,-9.179025292396545410e-01,-3.442134261131286621e-01,2.360000000000000000e+02
-2.349059698278119868e+02,-2.170022122610826045e+02,-5.318850750494675594e+00,-1.220664550182837047e+02,-2.319705016536772746e+02,-2.547018284045007022e+02,-2.580120516513352413e+01,-4.964392221369143954e+01,9.484992027282714844e+00,-9.179025292396545410e-01,-3.442134261131286621e-01,2.370000000000000000e+02
-2.358431051980619486e+02,-2.173911696245318126e+02,-9.249241954330500448e-02,-1.220082298446086497e+02,-2.318398661301316679e+02,-2.575076546860173039e+02,-2.281399155587178029e+01,-4.760584345764618774e+01,9.484992027282714844e+00,-9.179025292396545410e-01,-3.442134261131286621e-01,2.380000000000000000e+02
-2.391347881281017180e+02,-2.175765596060477947e+02,1.483155216716113500e+00,-1.226244345852392144e+02,-2.350121006695990218e+02,-2.616424256923437497e+02,-2.215018897155550803e+01,-4.675081817493537528e+01,9.446745872497558594e+00,-9.179025292396545410e-01,-3.059675097465515137e-01,2.390000000000000000e+02
-2.449653436714829695e+02,-2.193345800521401543e+02,-1.431762292217172217e+00,-1.250717013142875658e+02,-2.422371813013496649e+02,-2.673482707787397885e+02,-2.406281712049167254e+01,-4.848376418989846570e+01,9.446745872497558594e+00,-9.179025292396545410e-01,-3.059675097465515137e-01,2.400000000000000000e+02
-2.517386306560733829e+02,-2.229199230962926777e+02,-6.855357589116465533e+00,-1.291963773068137016e+02,-2.517550545488029456e+02,-2.741486997682750371e+02,-2.639234970609277298e+01,-5.264220730525903491e+01,9.446745872497558594e+00,-9.179025292396545410e-01,-3.059675097465515137e-01,2.410000000000000000e+02
-2.573969016893884145e+02,-2.269868441956277820e+02,-1.164433165019454464e+01,-1.336216596684880642e+02,-2.608227131501880649e+02,-2.812333020446822047e+02,-2.673167884473559752e+01,-5.784487190558411385e+01,9.446745872497558594e+00,-9.179025292396545410e-01,-3.059675097465515137e-01,2.420000000000000000e+02
-2.610407494347305146e+02,-2.299452668574040217e+02,-1.389770788169107618e+01,-1.368275559584299117e+02,-2.676763294062807290e+02,-2.879389743182800885e+02,-2.478724397441146721e+01,-6.257446900274044310e+01,9.446745872497558594e+00,-9.179025292396545410e-01,-3.059675097465515137e-01,2.430000000000000000e+02
-2.635221310245710811e+02,-2.314113235199984047e+02,-1.400212319206775646e+01,-1.382793770447378847e+02,-2.722789522006728475e+02,-2.939483106567849973e+02,-2.270858681160461856e+01,-6.602380307505245582e+01,9.446745872497558594e+00,-9.179025292396545410e-01,-3.059675097465515137e-01,2.440000000000000000e+02
-2.665957009791331984e+02,-2.324504695415475908e+02,-1.356803613741703884e+01,-1.386813999633604908e+02,-2.755064186873423751e+02,-2.991494523705323445e+02,-2.311891772389844846e+01,-6.814324531120337269e+01,9.446745872497558594e+00,-9.179025292396545410e-01,-3.059675097465515137e-01,2.450000000000000000e+02
-2.713958196029025203e+02,-2.345317032602320069e+02,-1.349266771546172095e+01,-1.392247593053161836e+02,-2.778290355895683206e+02,-3.033911864657038677e+02,-2.673570974674294121e+01,-6.912450125251916688e+01,9.446745872497558594e+00,-9.179025292396545410e-01,-3.059675097465515137e-01,2.460000000000000000e+02
-2.775035029559180657e+02,-2.382744158040231923e+02,-1.312359548615540916e+01,-1.405837235041690292e+02,-2.788792481932541705e+02,-3.064566474777348049e+02,-3.180949321683283415e+01,-6.902321471467348601e+01,9.446745872497558594e+00,-9.179025292396545410e-01,-3.059675097465515137e-01,2.470000000000000000e+02
-2.833074233277720850e+02,-2.431043284843285619e+02,-1.127908987432147114e+01,-1.425739575882953432e+02,-2.782771849029859368e+02,-3.083566655633949267e+02,-3.581410670009609021e+01,-6.795005729408649131e+01,9.446745872497558594e+00,-9.179025292396545410e-01,-3.059675097465515137e-01,2.480000000000000000e+02
-2.872704535951252183e+02,-2.479446159855233418e+02,-7.969737760498446733e+00,-1.446758255915115114e+02,-2.767347331936148294e+02,-3.096415815636582920e+02,-3.766537905876111836e+01,-6.653578255840739075e+01,9.446745872497558594e+00,-9.179025292396545410e-01,-3.059675097465515137e-01,2.490000000000000000e+02
-2.890385809091426381e+02,-2.521115755371761225e+02,-4.962112533939944115e+00,-1.467635672766750758e+02,-2.761429311046313160e+02,-3.112977743094334073e+02,-3.834721780167728866e+01,-6.596073548317917812e+01,9.446745872497558594e+00,-9.179025292396545410e-01,-3.059675097465515137e-01,2.500000000000000000e+02
-2.895706591357875368e+02,-2.555943394657624594e+02,-4.502062359023966565e+00,-1.492326646480951240e+02,-2.783411206920995937e+02,-3.141275006974883581e+02,-3.949158903005127286e+01,-6.722644822885331450e+01,9.446745872497558594e+00,-9.179025292396545410e-01,-3.059675097465515137e-01,2.510000000000000000e+02
-2.903210214682376318e+02,-2.586600838275739989e+02,-7.368116757450025034e+00,-1.523930991511060711e+02,-2.835963731062724946e+02,-3.180528801904010834e+02,-4.147750058740984969e+01,-7.018468903300663442e+01,9.446745872497558594e+00,-9.179025292396545410e-01,-3.059675097465515137e-01,2.520000000000000000e+02
-2.922083263365439052e+02,-2.613581296200813995e+02,-1.209700767278809508e+01,-1.558051316437845344e+02,-2.902160193101103687e+02,-3.220115801072224713e+02,-4.298415389814681475e+01,-7.329993418567710250e+01,9.446745872497558594e+00,-9.179025292396545410e-01,-3.059675097465515137e-01,2.530000000000000000e+02
-2.951552649205063972e+02,-2.634588562036460644e+02,-1.610577748176683599e+01,-1.583488632350145053e+02,-2.957565943618396886e+02,-3.246993847586568336e+02,-4.240429606347970548e+01,-7.464075913894566838e+01,9.446745872497558594e+00,-9.179025292396545410e-01,-3.059675097465515137e-01,2.540000000000000000e+02
-2.984160875629431757e+02,-2.648049254557695349e+02,-1.765574699231683553e+01,-1.590859775282747250e+02,-2.988316711731249598e+02,-3.256305969958661990e+02,-3.964207686940562780e+01,-7.343663834777089505e+01,9.446745872497558594e+00,-9.179025292396545410e-01,-3.059675097465515137e-01,2.550000000000000000e+02
-3.012832124703086265e+02,-2.656404255252186886e+02,-1.689175223360098244e+01,-1.581389499905835692e+02,-2.999587707607356606e+02,-3.256100339722761419e+02,-3.647687027982146901e+01,-7.082626264583586817e+01,9.446745872497558594e+00,-9.179025292396545410e-01,-3.059675097465515137e-01,2.560000000000000000e+02
-3.035588406808001309e+02,-2.665839616418502374e+02,-1.518214212477732872e+01,-1.567378832844597127e+02,-3.007699766082405404e+02,-3.261664836356626438e+02,-3.513253734226782399e+01,-6.900327128905792051e+01,9.446745872497558594e+00,-9.179025292396545410e-01,-3.059675097465515137e-01,2.570000000000000000e+02
-3.054869075838555545e+02,-2.682955225650475768e+02,-1.361927748394646187e+01,-1.563421800330429505e+02,-3.023926579845183369e+02,-3.284017365900995173e+02,-3.645437187460584028e+01,-6.940585405808224095e+01,9.446745872497558594e+00,-9.179025292396545410e-01,-3.059675097465515137e-01,2.580000000000000000e+02
-3.073342607400486486e+02,-2.710987968495242058e+02,-1.219250684486405589e+01,-1.575881180159676660e+02,-3.045102971653827808e+02,-3.322225471008059685e+02,-3.940180757234384146e+01,-7.154421337103622136e+01,9.446745872497558594e+00,-9.179025292396545410e-01,-3.059675097465515137e-01,2.590000000000000000e+02
-3.090579980401066678e+02,-2.747651265377526215e+02,-1.030318182647306458e+01,-1.599348628419015768e+02,-3.059107245009222424e+02,-3.365453016271717388e+02,-4.219863393137029561e+01,-7.353486347145553736e+01,9.446745872497558594e+00,-9.179025292396545410e-01,-3.442134261131286621e-01,2.600000000000000000e+02
-3.103673735987676991e+02,-2.785419161317113321e+02,-7.909407990595809679e+00,-1.622242507916134855e+02,-3.059108975922526952e+02,-3.401943091909502073e+02,-4.390965232699272747e+01,-7.384049458232220786e+01,9.446745872497558594e+00,-9.179025292396545410e-01,-3.442134261131286621e-01,2.610000000000000000e+02
-3.110841763819953485e+02,-2.814473893204103661e+02,-6.012277913593607082e+00,-1.635791500785858261e+02,-3.052482569573367073e+02,-3.426793198511682021e+02,-4.492198322669582922e+01,-7.256333951338683619e+01,9.446745872497558594e+00,-9.179025292396545410e-01,-3.442134261131286621e-01,2.620000000000000000e+02
-3.114567444867238919e+02,-2.827751184333897072e+02,-5.960228749479483668e+00,-1.638919529758272802e+02,-3.055899240120756986e+02,-3.442909094896713214e+02,-4.603666914032328350e+01,-7.111610261339546923e+01,9.446745872497558594e+00,-9.179025292396545410e-01,-3.442134261131286621e-01,2.630000000000000000e+02
-3.121139443413422896e+02,-2.825898531103600817e+02,-8.277990627986355321e+00,-1.636553626960562724e+02,-3.081335050545490049e+02,-3.456508586192276198e+02,-4.729148419366879352e+01,-7.071837294611418656e+01,9.446745872497558594e+00,-9.179025292396545410e-01,-3.442134261131286621e-01,2.640000000000000000e+02
-3.136508293326211287e+02,-2.818581768948552053e+02,-1.214866511945115235e+01,-1.634913771710866968e+02,-3.125867705075470440e+02,-3.472578836297009275e+02,-4.781370338820897814e+01,-7.129202505880084573e+01,9.446745872497558594e+00,-9.179025292396545410e-01,-3.442134261131286621e-01,2.650000000000000000e+02
-3.161654233296846996e+02,-2.819702717582160858e+02,-1.600208286935662727e+01,-1.638689451732338966e+02,-3.173987773878375265e+02,-3.493714113396822540e+02,-4.685387524493012279e+01,-7.182655354216672094e+01,9.446745872497558594e+00,-9.179025292396545410e-01,-3.442134261131286621e-01,2.660000000000000000e+02
-3.191362779464955111e+02,-2.838812976500772720e+02,-1.862180051212544640e+01,-1.651458355583731645e+02,-3.209569987759496144e+02,-3.521267947420162727e+02,-4.488969516495353673e+01,-7.171929150459823177e+01,9.446745872497558594e+00,-9.179025292396545410e-01,-3.442134261131286621e-01,2.670000000000000000e+02
-3.217623189571479543e+02,-2.874742161780377501e+02,-1.978355425781069243e+01,-1.676549369510830729e+02,-3.226486817215875362e+02,-3.555698659192987634e+02,-4.357867709307993209e+01,-7.157024321508424691e+01,9.446745872497558594e+00,-9.179025292396545410e-01,-3.442134261131286621e-01,2.680000000000000000e+02
-3.235060958249541727e+02,-2.916263798589591261e+02,-2.000284889348858997e+01,-1.715317421343679598e+02,-3.229523226825947404e+02,-3.595134031457864694e+02,-4.447550297430279898e+01,-7.253867060997413319e+01,9.446745872497558594e+00,-9.179025292396545410e-01,-3.442134261131286621e-01,2.690000000000000000e+02
-3.244087092402374992e+02,-2.949001826945301445e+02,-1.983375969156054452e+01,-1.763370223913454993e+02,-3.227021017706217663e+02,-3.634175424695299625e+02,-4.764905320495654450e+01,-7.494618519742562057e+01,9.446745872497558594e+00,-9.179025292396545410e-01,-3.442134261131286621e-01,2.700000000000000000e+02
-3.249392630089541854e+02,-2.962999241190506154e+02,-1.945840890891031449e+01,-1.808927091504428972e+02,-3.223762306855755924e+02,-3.665406659628265515e+02,-5.147764969023569392e+01,-7.766886627009080257e+01,9.446745872497558594e+00,-9.179025292396545410e-01,-3.442134261131286621e-01,2.710000000000000000e+02
-3.255493824523030071e+02,-2.955822448565160130e+02,-1.884689715367949248e+01,-1.837002301489642377e+02,-3.220487257820730065e+02,-3.683555691028882393e+02,-5.383689278066935913e+01,-7.906812254073474833e+01,9.446745872497558594e+00,-9.179025292396545410e-01,-3.442134261131286621e-01,2.720000000000000000e+02
-3.263388351564761933e+02,-2.930990776022032378e+02,-1.812677253960623602e+01,-1.837932778204096849e+02,-3.218282753942596628e+02,-3.689074866065063816e+02,-5.366625703833256011e+01,-7.855763267925544824e+01,9.446745872497558594e+00,-9.179025292396545410e-01,-3.442134261131286621e-01,2.730000000000000000e+02
-3.271037473066207895e+02,-2.895523540688840285e+02,-1.765563941202117348e+01,-1.814120796428744598e+02,-3.220960579098018570e+02,-3.687824395890015694e+02,-5.163533995542547927e+01,-7.717571689809619784e+01,9.446745872497558594e+00,-9.179025292396545410e-01,-3.442134261131286621e-01,2.740000000000000000e+02
-3.276500319887709338e+02,-2.859227640293116792e+02,-1.768702520019792246e+01,-1.779021978258485888e+02,-3.231485569317540012e+02,-3.686541463351654784e+02,-4.945706712615742617e+01,-7.650738504463515710e+01,9.446745872497558594e+00,-9.179025292396545410e-01,-3.442134261131286621e-01,2.750000000000000000e+02
-3.280158548093614854e+02,-2.834260799241903896e+02,-1.799510805260092638e+01,-1.748265234634582157e+02,-3.246134174999565403e+02,-3.687354111500089857e+02,-4.852847861048303457e+01,-7.699206764903829026e+01,9.446745872497558594e+00,-9.179025292396545410e-01,-3.442134261131286621e-01,2.760000000000000000e+02
-3.283706569947343041e+02,-2.831933921789720898e+02,-1.789491089114449096e+01,-1.729749683143254515e+02,-3.253828143685607301e+02,-3.685965503123197777e+02,-4.905004990461543457e+01,-7.734157696573561225e+01,9.446745872497558594e+00,-9.179025292396545410e-01,-3.442134261131286621e-01,2.770000000000000000e+02
-3.287111492376994875e+02,-2.856929509047751026e+02,-1.670377101192661939e+01,-1.720876455995676224e+02,-3.243295019921758922e+02,-3.675615486829055953e+02,-5.022096267763663491e+01,-7.572906771202769960e+01,9.446745872497558594e+00,-9.179025292396545410e-01,-3.442134261131286621e-01,2.780000000000000000e+02
-3.287091824602631505e+02,-2.903112629835102325e+02,-1.427220768670986217e+01,-1.715007422603578107e+02,-3.212445228817475709e+02,-3.654111549695671783e+02,-5.114431033379173641e+01,-7.166252199419659519e+01,9.446745872497558594e+00,-9.179025292396545410e-01,-3.442134261131286621e-01,2.790000000000000000e+02
-3.279353250602414391e+02,-2.955404318041623810e+02,-1.117762059619781212e+01,-1.710855431307425079e+02,-3.171510279067451847e+02,-3.628235808986202073e+02,-5.160265680848920056e+01,-6.678560673169727124e+01,9.446745872497558594e+00,-9.179025292396545410e-01,-3.442134261131286621e-01,2.800000000000000000e+02
-3.263100062007084716e+02,-2.997508565179178959e+02,-8.454668123394867507e+00,-1.715702699101541384e+02,-3.136889645872619212e+02,-3.611317248095298282e+02,-5.211730400547048703e+01,-6.384331371729081184e+01,9.446745872497558594e+00,-9.179025292396545410e-01,-3.442134261131286621e-01,2.810000000000000000e+02
-3.243628987673544088e+02,-3.020395288583958973e+02,-7.045091089017660124e+00,-1.739062549004984248e+02,-3.120910361346440141e+02,-3.615021587983874269e+02,-5.335036339587009024e+01,-6.469890240751919919e+01,9.446745872497558594e+00,-9.179025292396545410e-01,-3.442134261131286621e-01,2.820000000000000000e+02
-3.230033101621239666e+02,-3.025671656169031394e+02,-7.280708418831636664e+00,-1.782279780033165935e+02,-3.125576762018517911e+02,-3.641161970189052681e+02,-5.538080891617846646e+01,-6.903106623161181687e+01,9.446745872497558594e+00,-9.179025292396545410e-01,-3.442134261131286621e-01,2.830000000000000000e+02
-3.229162874960619547e+02,-3.021967445746737440e+02,-8.678397332866097713e+00,-1.833393625008882282e+02,-3.143802932309254174e+02,-3.679503902175465555e+02,-5.740999917193585134e+01,-7.461263893683747028e+01,9.446745872497558594e+00,-9.179025292396545410e-01,-3.442134261131286621e-01,2.840000000000000000e+02
-3.240535149706728362e+02,-3.017646848843791076e+02,-1.017001236930900632e+01,-1.872239877967258508e+02,-3.164994661313274946e+02,-3.713059019750546668e+02,-5.810333614285332260e+01,-7.873486858470982952e+01,9.484992027282714844e+00,-9.561483860015869141e-01,-3.059675097465515137e-01,2.850000000000000000e+02
-3.256393568276153019e+02,-3.014904707009879985e+02,-1.068245469540897830e+01,-1.881932441363881026e+02,-3.179782203653023771e+02,-3.726822605548372849e+02,-5.634291452917887000e+01,-7.960350917516177560e+01,9.484992027282714844e+00,-9.561483860015869141e-01,-3.059675097465515137e-01,2.860000000000000000e+02
-3.267079186937726263e+02,-3.008524102801965228e+02,-9.764328995124742505e+00,-1.858008341129918790e+02,-3.182091350934429101e+02,-3.714159530489170038e+02,-5.193483736952862273e+01,-7.689442294297225544e+01,9.484992027282714844e+00,-9.561483860015869141e-01,-3.059675097465515137e-01,2.870000000000000000e+02
-3.267244981412712832e+02,-2.989525028625268988e+02,-7.805906797823581655e+00,-1.809150837198440058e+02,-3.169943942178681482e+02,-3.677737046711981748e+02,-4.583331390836497121e+01,-7.148560792798627972e+01,9.484992027282714844e+00,-9.561483860015869141e-01,-3.059675097465515137e-01,2.880000000000000000e+02
-3.257911809951040141e+02,-2.951409733216296445e+02,-5.648506972773930102e+00,-1.750611338316991805e+02,-3.146274524603500140e+02,-3.626415729920078093e+02,-3.972716530033540039e+01,-6.487889998293462668e+01,9.484992027282714844e+00,-9.561483860015869141e-01,-3.059675097465515137e-01,2.890000000000000000e+02
-3.243426592945206721e+02,-2.895520444857630764e+02,-3.882607125551885474e+00,-1.696270839210719714e+02,-3.118591940336590369e+02,-3.571485560263056414e+02,-3.522101724070535056e+01,-5.871226738504105924e+01,9.484992027282714844e+00,-9.561483860015869141e-01,-3.059675097465515137e-01,2.900000000000000000e+02
-3.226913297227135899e+02,-2.832165709538710416e+02,-2.467266524157480490e+00,-1.654442556117709273e+02,-3.096012270272530031e+02,-3.524180434640695694e+02,-3.310525468138871474e+01,-5.440357153768775333e+01,9.484992027282714844e+00,-9.561483860015869141e-01,-3.059675097465515137e-01,2.910000000000000000e+02
-3.208820638758658106e+02,-2.776275923518851414e+02,-1.047898224048594784e+00,-1.628160353674933276e+02,-3.084838870775516853e+02,-3.494006013596589355e+02,-3.315060900735977611e+01,-5.282709084765224361e+01,9.484992027282714844e+00,-9.561483860015869141e-01,-3.059675097465515137e-01,2.920000000000000000e+02
-3.189285029992469163e+02,-2.739952285278317277e+02,3.682979911544634888e-01,-1.617168700913085786e+02,-3.085701660630453489e+02,-3.486374430431390010e+02,-3.447376574040504238e+01,-5.401401748882381071e+01,9.484992027282714844e+00,-9.561483860015869141e-01,-3.059675097465515137e-01,2.930000000000000000e+02
-3.170685927715238677e+02,-2.727073670273878179e+02,1.148434307572983926e+00,-1.619016182271616344e+02,-3.094075401656098165e+02,-3.499644214491272578e+02,-3.616229755633867171e+01,-5.703270091458489333e+01,9.484992027282714844e+00,-9.561483860015869141e-01,-3.059675097465515137e-01,2.940000000000000000e+02
-3.156829231621455847e+02,-2.733794644471089441e+02,5.730347790125733809e-01,-1.628995848131164621e+02,-3.103061987181220047e+02,-3.524010998577628015e+02,-3.772165536793056617e+01,-6.023543162607074919e+01,9.484992027282714844e+00,-9.561483860015869141e-01,-3.059675097465515137e-01,2.950000000000000000e+02
-3.149339588787446473e+02,-2.753755579520646961e+02,-1.297193203764095415e+00,-1.640539297546935131e+02,-3.106229679804355328e+02,-3.544850542577477199e+02,-3.911496186449755896e+01,-6.191143776387264097e+01,9.484992027282714844e+00,-9.561483860015869141e-01,-3.059675097465515137e-01,2.960000000000000000e+02
-3.145667663730821459e+02,-2.782590487873958409e+02,-3.358512562872874696e+00,-1.647279961109029500e+02,-3.099748262239509131e+02,-3.550082814105578564e+02,-4.051031673612442319e+01,-6.112979187734765674e+01,9.484992027282714844e+00,-9.561483860015869141e-01,-3.059675097465515137e-01,2.970000000000000000e+02
-3.141594483805796472e+02,-2.817287400995115831e+02,-4.212505261816659186e+00,-1.645989568823958962e+02,-3.084234902351196297e+02,-3.537176893928636900e+02,-4.201145868451192200e+01,-5.831889926373298749e+01,9.484992027282714844e+00,-9.561483860015869141e-01,-3.059675097465515137e-01,2.980000000000000000e+02
-3.135636349869986361e+02,-2.851868509970497598e+02,-3.289180263692173867e+00,-1.638199117755657426e+02,-3.065448210445738368e+02,-3.514222757251396843e+02,-4.352857278503165617e+01,-5.510305146931273157e+01,9.484992027282714844e+00,-9.561483860015869141e-01,-3.059675097465515137e-01,2.990000000000000000e+02
-3.130166887640310733e+02,-2.875518890755498660e+02,-1.267973064283410167e+00,-1.628944315950107011e+02,-3.051695745162663798e+02,-3.493394100027448985e+02,-4.478257558405425698e+01,-5.331236552627569836e+01,9.484992027282714844e+00,-9.561483860015869141e-01,-3.059675097465515137e-01,3.000000000000000000e+02
-3.127669580367614799e+02,-2.877383069246433251e+02,5.940307978129339972e-01,-1.623369441594030604e+02,-3.048032318466164270e+02,-3.481529085537862329e+02,-4.540546314808500483e+01,-5.373583964749286679e+01,9.484992027282714844e+00,-9.561483860015869141e-01,-3.059675097465515137e-01,3.010000000000000000e+02
-3.126497909707359213e+02,-2.854964966251416172e+02,1.531831825155222759e+00,-1.623737795979066050e+02,-3.051564472274670834e+02,-3.475721358669372876e+02,-4.512335062814418052e+01,-5.553658570061588762e+01,9.484992027282714844e+00,-9.561483860015869141e-01,-3.059675097465515137e-01,3.020000000000000000e+02
-3.121952341677679215e+02,-2.818093358326079851e+02,1.691348278308964836e+00,-1.628998608891696449e+02,-3.053158548215801602e+02,-3.467922891553131421e+02,-4.397202438535896363e+01,-5.686518970527561123e+01,9.484992027282714844e+00,-9.561483860015869141e-01,-3.059675097465515137e-01,3.030000000000000000e+02
-3.112280470316386527e+02,-2.783375034285013498e+02,1.615778355100246699e+00,-1.636605680734028283e+02,-3.045411719405889244e+02,-3.454123983537489266e+02,-4.237808239822891210e+01,-5.625144345142427937e+01,9.484992027282714844e+00,-9.561483860015869141e-01,-3.059675097465515137e-01,3.040000000000000000e+02
-3.102653375264235365e+02,-2.762939956644408994e+02,1.503270969130312551e+00,-1.644392699329927154e+02,-3.029937055363285481e+02,-3.439144633558852320e+02,-4.096892103376751493e+01,-5.367223171829027706e+01,9.484992027282714844e+00,-9.561483860015869141e-01,-3.059675097465515137e-01,3.050000000000000000e+02
-3.101320056807811625e+02,-2.756937371465290880e+02,1.069558878017232928e+00,-1.650763683283416867e+02,-3.016599040445859146e+02,-3.432199778159628067e+02,-4.019241394345635854e+01,-5.045981478521844110e+01,9.484992027282714844e+00,-9.561483860015869141e-01,-3.059675097465515137e-01,3.060000000000000000e+02
-3.110803250657723993e+02,-2.755815230364212312e+02,4.838859940593920328e-02,-1.653572300987394783e+02,-3.014905542170082526e+02,-3.437572060061582988e+02,-4.005289057220454652e+01,-4.822933463225911055e+01,9.484992027282714844e+00,-9.561483860015869141e-01,-3.059675097465515137e-01,3.070000000000000000e+02
-3.123712323149044323e+02,-2.749298544083860634e+02,-1.385582278938272793e+00,-1.649621126505975326e+02,-3.025710091232771219e+02,-3.449840596401899120e+02,-4.022692429822302529e+01,-4.779052169130727634e+01,9.484992027282714844e+00,-9.561483860015869141e-01,-3.059675097465515137e-01,3.080000000000000000e+02
-3.129044130484988955e+02,-2.733490280736908744e+02,-2.808750658456233396e+00,-1.635924695686771884e+02,-3.041021098114973711e+02,-3.458320019485269086e+02,-4.046732748311330852e+01,-4.886299758401719373e+01,9.484992027282714844e+00,-9.561483860015869141e-01,-3.059675097465515137e-01,3.090000000000000000e+02
-3.123456773449297543e+02,-2.710817247880656851e+02,-4.069597372361727139e+00,-1.611811274161900656e+02,-3.051260724875751293e+02,-3.455841282840625581e+02,-4.088769837022664433e+01,-5.055933003325890240e+01,9.484992027282714844e+00,-9.561483860015869141e-01,-3.059675097465515137e-01,3.100000000000000000e+02
-3.115387282171303696e+02,-2.685497435746069641e+02,-5.405146317570711290e+00,-1.580040466471884884e+02,-3.052038198636853394e+02,-3.442897571270683557e+02,-4.178543315085516952e+01,-5.197285813762368889e+01,9.484992027282714844e+00,-9.561483860015869141e-01,-3.059675097465515137e-01,3.110000000000000000e+02
-3.116315996108936019e+02,-2.660771860123827537e+02,-6.928024178926534660e+00,-1.546169816484396051e+02,-3.044260675940489591e+02,-3.423856549446854842e+02,-4.313472646905029251e+01,-5.240607029794261962e+01,9.599730491638183594e+00,-8.796565532684326172e-01,-3.442134261131286621e-01,3.120000000000000000e+02
-3.127282382394426463e+02,-2.640221123381418238e+02,-8.117329090168823313e+00,-1.516878898732227299e+02,-3.029625449058385129e+02,-3.400897735053298447e+02,-4.429070615931402699e+01,-5.138953116915649844e+01,9.599730491638183594e+00,-8.796565532684326172e-01,-3.442134261131286621e-01,3.130000000000000000e+02
-3.134907641401727005e+02,-2.629360920632324223e+02,-8.060691890301427520e+00,-1.498185719376333509e+02,-3.008135544938975272e+02,-3.373302453878998222e+02,-4.430951693136955782e+01,-4.885673376449165062e+01,9.599730491638183594e+00,-8.796565532684326172e-01,-3.442134261131286621e-01,3.140000000000000000e+02
-3.122344377684630672e+02,-2.632929148469692109e+02,-6.346570348176214793e+00,-1.493641141964762937e+02,-2.980387207792094841e+02,-3.342619264911591017e+02,-4.269686497767838773e+01,-4.542426675055719443e+01,9.599730491638183594e+00,-8.796565532684326172e-01,-3.442134261131286621e-01,3.150000000000000000e+02
-3.085216723199292232e+02,-2.649000578251565230e+02,-3.677643585739929222e+00,-1.502461874570037708e+02,-2.950625709350614443e+02,-3.316480785375229061e+02,-3.993245935145773728e+01,-4.231189430235804139e+01,9.599730491638183594e+00,-8.796565532684326172e-01,-3.442134261131286621e-01,3.160000000000000000e+02
-3.036984550965298695e+02,-2.666398459142729962e+02,-1.450189670313420720e+00,-1.518619986987650918e+02,-2.925358431689406871e+02,-3.304755066031821116e+02,-3.724319072442506240e+01,-4.066087860825189182e+01,9.599730491638183594e+00,-8.796565532684326172e-01,-3.442134261131286621e-01,3.170000000000000000e+02
-2.998302170952890719e+02,-2.670220563038062664e+02,-6.189512579833262862e-01,-1.532554705249635845e+02,-2.907984159677063190e+02,-3.310491702651031574e+02,-3.575068425774929892e+01,-4.068821585903060623e+01,9.599730491638183594e+00,-8.796565532684326172e-01,-3.442134261131286621e-01,3.180000000000000000e+02
-2.980530494795220875e+02,-2.652512086230108252e+02,-9.568535045408452788e-01,-1.535739930979125347e+02,-2.895432641176946618e+02,-3.324935209912905520e+02,-3.569686300870887408e+01,-4.147779397024487480e+01,9.599730491638183594e+00,-8.796565532684326172e-01,-3.442134261131286621e-01,3.190000000000000000e+02
-2.978480021946363649e+02,-2.618964752728321628e+02,-1.424093238579644094e+00,-1.525390341296820225e+02,-2.881062144126844942e+02,-3.332576403256031199e+02,-3.638015687275526489e+01,-4.171115221641298376e+01,9.599730491638183594e+00,-8.796565532684326172e-01,-3.442134261131286621e-01,3.200000000000000000e+02
-2.977582194944761795e+02,-2.585108064204885068e+02,-1.225135306627748832e+00,-1.505593323516168311e+02,-2.861084116214674395e+02,-3.322324743995791323e+02,-3.682930234754303456e+01,-4.073031473526009449e+01,9.599730491638183594e+00,-8.796565532684326172e-01,-3.442134261131286621e-01,3.210000000000000000e+02
-2.966811040608407666e+02,-2.565014384919579697e+02,-4.595032089814594656e-01,-1.483943371577363450e+02,-2.837787544566280076e+02,-3.294852658085204666e+02,-3.663115492428573816e+01,-3.897199650116920111e+01,9.599730491638183594e+00,-8.796565532684326172e-01,-3.442134261131286621e-01,3.220000000000000000e+02
-2.944997331051685023e+02,-2.562109594155151626e+02,2.188148066414896675e-01,-1.466694562708031526e+02,-2.816377188871877024e+02,-3.260145728392180899e+02,-3.623747887477122731e+01,-3.742306446153622801e+01,9.599730491638183594e+00,-8.796565532684326172e-01,-3.442134261131286621e-01,3.230000000000000000e+02
-2.917175559867637276e+02,-2.569308922952798184e+02,4.354190929818742006e-01,-1.456415237410162717e+02,-2.799240006688306721e+02,-3.228787243557122792e+02,-3.654283172552152337e+01,-3.669844599667112561e+01,9.599730491638183594e+00,-8.796565532684326172e-01,-3.442134261131286621e-01,3.240000000000000000e+02
-2.887933191330871523e+02,-2.576941535787912017e+02,4.793354849525712780e-01,-1.453124897306101957e+02,-2.783692365390071473e+02,-3.205348571989122775e+02,-3.810356805659034762e+01,-3.662832158064009036e+01,9.599730491638183594e+00,-8.796565532684326172e-01,-3.442134261131286621e-01,3.250000000000000000e+02
-2.859585876164155707e+02,-2.580526654344133703e+02,8.730196515917896249e-01,-1.456412528808264142e+02,-2.765198262809778953e+02,-3.188733329263413907e+02,-4.063893786701055433e+01,-3.665678732231219783e+01,9.599730491638183594e+00,-8.796565532684326172e-01,-3.442134261131286621e-01,3.260000000000000000e+02
-2.834965880024110447e+02,-2.581771571366502940e+02,1.709447360863350696e+00,-1.465612401791579487e+02,-2.742174585551377959e+02,-3.176843768415138811e+02,-4.317201558591159483e+01,-3.652716594995320065e+01,9.599730491638183594e+00,-8.796565532684326172e-01,-3.442134261131286621e-01,3.270000000000000000e+02
-2.818380698543190874e+02,-2.583441361459925929e+02,2.542981866862305651e+00,-1.478194401026053129e+02,-2.717421164158682814e+02,-3.169651149680423714e+02,-4.467143394648076082e+01,-3.651291757274145766e+01,9.599730491638183594e+00,-8.796565532684326172e-01,-3.442134261131286621e-01,3.280000000000000000e+02
-2.811383644522289842e+02,-2.584331220201132737e+02,2.930341365761023553e+00,-1.489251847529151291e+02,-2.695351080559667025e+02,-3.168061375387097769e+02,-4.470326828454858514e+01,-3.702403488289485267e+01,9.599730491638183594e+00,-8.796565532684326172e-01,-3.442134261131286621e-01,3.290000000000000000e+02
-2.807846468264560826e+02,-2.579145990338124648e+02,2.986851168712064464e+00,-1.493689320480100378e+02,-2.678107613302422578e+02,-3.170752811967489606e+02,-4.360918156848902072e+01,-3.806262110374370877e+01,9.599730491638183594e+00,-8.796565532684326172e-01,-3.442134261131286621e-01,3.300000000000000000e+02
-2.795827770946195869e+02,-2.562657237819936427e+02,3.337380927756044002e+00,-1.489330640157386370e+02,-2.663886648102122763e+02,-3.172781399465349068e+02,-4.212067976389914747e+01,-3.909076927133116897e+01,9.599730491638183594e+00,-8.796565532684326172e-01,-3.442134261131286621e-01,3.310000000000000000e+02
-2.767141378779583647e+02,-2.533740873361540480e+02,4.523072854157589973e+00,-1.477580183933449689e+02,-2.647964972924945641e+02,-3.167263967381675229e+02,-4.074417083690536856e+01,-3.939533923530859738e+01,9.599730491638183594e+00,-8.796565532684326172e-01,-3.442134261131286621e-01,3.320000000000000000e+02
-2.726454753248250427e+02,-2.495907376265463427e+02,6.467404878681008995e+00,-1.460559012822992599e+02,-2.625012043699858850e+02,-3.148532019118647440e+02,-3.940861420677720162e+01,-3.855370006315808951e+01,9.599730491638183594e+00,-8.796565532684326172e-01,-3.442134261131286621e-01,3.330000000000000000e+02
-2.690272027925529983e+02,-2.454815450945166049e+02,8.495518631800678122e+00,-1.437525463580185487e+02,-2.591490445016177091e+02,-3.114746797502998561e+02,-3.762717311606616022e+01,-3.659777930569407545e+01,9.599730491638183594e+00,-8.796565532684326172e-01,-3.442134261131286621e-01,3.340000000000000000e+02
-2.674814406610561264e+02,-2.415570440831141923e+02,9.824976721770440236e+00,-1.404602031519522143e+02,-2.547700225899887982e+02,-3.068953455303030751e+02,-3.499147711784553394e+01,-3.383918122914201376e+01,9.599730491638183594e+00,-8.796565532684326172e-01,-3.442134261131286621e-01,3.350000000000000000e+02
-2.682340859587942532e+02,-2.381371414373315929e+02,1.006948581582219049e+01,-1.358734253160880598e+02,-2.498665329359477028e+02,-3.018310743919278138e+02,-3.155315726901096696e+01,-3.062028063904347164e+01,9.599730491638183594e+00,-8.796565532684326172e-01,-3.442134261131286621e-01,3.360000000000000000e+02
-2.697473968204823223e+02,-2.353043175603187365e+02,9.423819095060480322e+00,-1.302520379429170134e+02,-2.452543500678959845e+02,-2.971359545437665020e+02,-2.778602841324220663e+01,-2.722924304570881304e+01,9.599730491638183594e+00,-8.796565532684326172e-01,-3.442134261131286621e-01,3.370000000000000000e+02
-2.696930616071379063e+02,-2.328847978147861113e+02,8.528359152436451041e+00,-1.245258686504680554e+02,-2.416402459634375646e+02,-2.933848807928743554e+02,-2.421933001790534945e+01,-2.397355691956693136e+01,9.599730491638183594e+00,-8.796565532684326172e-01,-3.442134261131286621e-01,3.380000000000000000e+02
-2.665128302081449192e+02,-2.305199455830021407e+02,8.171409601829509484e+00,-1.198639729511385212e+02,-2.391850925647532904e+02,-2.905436065997250807e+02,-2.111134789744278351e+01,-2.124900141451814761e+01,9.599730491638183594e+00,-8.796565532684326172e-01,-3.442134261131286621e-01,3.390000000000000000e+02
-2.604084249197634335e+02,-2.278965969116226233e+02,8.919831241083102213e+00,-1.170005674705016645e+02,-2.374246445247023303e+02,-2.880205765678733769e+02,-1.841671630658993308e+01,-1.949801573233105501e+01,9.599730491638183594e+00,-8.796565532684326172e-01,-3.442134261131286621e-01,3.400000000000000000e+02
-2.531369910266806755e+02,-2.250104664594836095e+02,1.073356687490718286e+01,-1.158206000179450257e+02,-2.356833779636584723e+02,-2.851607827532011470e+02,-1.597711855730563002e+01,-1.909913255393507825e+01,9.599730491638183594e+00,-8.796565532684326172e-01,-3.442134261131286621e-01,3.410000000000000000e+02
-2.469184587580829202e+02,-2.221742444783371866e+02,1.277404639869905623e+01,-1.154950484423413855e+02,-2.336598246173366533e+02,-2.818295609198476086e+02,-1.367986621652448775e+01,-2.026693101354339888e+01,9.599730491638183594e+00,-8.796565532684326172e-01,-3.442134261131286621e-01,3.420000000000000000e+02
-2.432870062909665876e+02,-2.196426688514823127e+02,1.370691596723736438e+01,-1.150244594143384802e+02,-2.316474753297688949e+02,-2.785456318524907147e+02,-1.144904642887604496e+01,-2.296767039149244738e+01,9.370253562927246094e+00,-9.179025292396545410e-01,-3.824593424797058105e-01,3.430000000000000000e+02
-2.425455319494859623e+02,-2.171646098919475207e+02,1.250709484344702105e+01,-1.137712809565791758e+02,-2.301632334111147884e+02,-2.759644026314679195e+02,-9.194610352272320597e+00,-2.684682679878005729e+01,9.370253562927246094e+00,-9.179025292396545410e-01,-3.824593424797058105e-01,3.440000000000000000e+02
-2.439056162788295978e+02,-2.140024781577194517e+02,9.277068886569395545e+00,-1.116459552905469081e+02,-2.293240731787914228e+02,-2.741473042526627069e+02,-6.902474694703641944e+00,-3.124487790416401367e+01,9.370253562927246094e+00,-9.179025292396545410e-01,-3.824593424797058105e-01,3.450000000000000000e+02
-2.459738634440769829e+02,-2.095943474464886549e+02,5.404001540062836284e+00,-1.089517022543436724e+02,-2.285937712688732972e+02,-2.723511389504728868e+02,-4.827322377303971734e+00,-3.541168934480037933e+01,9.370253562927246094e+00,-9.179025292396545410e-01,-3.824593424797058105e-01,3.460000000000000000e+02
-2.472551221264113792e+02,-2.043321267612872134e+02,2.782820372694459365e+00,-1.061587831750691748e+02,-2.272123043054098162e+02,-2.696537390970486285e+02,-3.533711410235582662e+00,-3.890793701568736651e+01,9.370253562927246094e+00,-9.179025292396545410e-01,-3.824593424797058105e-01,3.470000000000000000e+02
-2.465785482792515495e+02,-1.996430743350500734e+02,2.584536540030285323e+00,-1.038075499626022520e+02,-2.249575663730038286e+02,-2.659020128844190367e+02,-3.610401681627308790e+00,-4.193523591509028847e+01,9.370253562927246094e+00,-9.179025292396545410e-01,-3.824593424797058105e-01,3.480000000000000000e+02
-2.434861215135272232e+02,-1.970927450475902560e+02,4.466264039216184756e+00,-1.024691961042328785e+02,-2.225131516604230910e+02,-2.620448460363586491e+02,-5.229131554324453646e+00,-4.525459354845293092e+01,9.370253562927246094e+00,-9.179025292396545410e-01,-3.824593424797058105e-01,3.490000000000000000e+02
-2.385114754859216646e+02,-1.971681061593008053e+02,6.790923010074493504e+00,-1.025558865876619166e+02,-2.210318189128483937e+02,-2.594019899847066881e+02,-7.936840371188509380e+00,-4.962409414014518916e+01,9.370253562927246094e+00,-9.179025292396545410e-01,-3.824593424797058105e-01,3.500000000000000000e+02
-2.330980214515393527e+02,-1.988412849473505730e+02,7.674715390316691810e+00,-1.039738660632260689e+02,-2.212177704781418015e+02,-2.584560947238983317e+02,-1.089176860910538380e+01,-5.513502963255768918e+01,9.370253562927246094e+00,-9.179025292396545410e-01,-3.824593424797058105e-01,3.510000000000000000e+02
-2.289569447466927841e+02,-2.003613733380379927e+02,6.138767459341124777e+00,-1.059390502924147768e+02,-2.227081061477260846e+02,-2.583151039280205623e+02,-1.331786310543429863e+01,-6.100018466184019417e+01,9.370253562927246094e+00,-9.179025292396545410e-01,-3.824593424797058105e-01,3.520000000000000000e+02
-2.270600602626350337e+02,-2.005817517983382459e+02,2.671267158819318865e+00,-1.072790625838356391e+02,-2.242685593641554078e+02,-2.574297003737754039e+02,-1.473484635119916675e+01,-6.600750937067004998e+01,9.370253562927246094e+00,-9.179025292396545410e-01,-3.824593424797058105e-01,3.530000000000000000e+02
-2.269191813023326176e+02,-1.996351839619151178e+02,-1.048272701846599375e+00,-1.071262913718912841e+02,-2.245980670587136956e+02,-2.549520583913727023e+02,-1.481638175772059185e+01,-6.927484697383306411e+01,9.370253562927246094e+00,-9.179025292396545410e-01,-3.824593424797058105e-01,3.540000000000000000e+02
-2.268102760832648528e+02,-1.984190969814071650e+02,-3.063267186608527481e+00,-1.054682800882619631e+02,-2.230715199280934939e+02,-2.514642025829148224e+02,-1.321338930948263624e+01,-7.070283281123374763e+01,9.370253562927246094e+00,-9.179025292396545410e-01,-3.824593424797058105e-01,3.550000000000000000e+02
-2.249730025538940481e+02,-1.975081439409248105e+02,-2.241678181364022748e+00,-1.030455505941238243e+02,-2.199348038603416171e+02,-2.483847606715535221e+02,-9.754191814037767472e+00,-7.083786979064302614e+01,9.370253562927246094e+00,-9.179025292396545410e-01,-3.824593424797058105e-01,3.560000000000000000e+02
-2.209657879957917430e+02,-1.966213474096502978e+02,9.744714037246922089e-01,-1.006683484816994678e+02,-2.160260686075703234e+02,-2.466416665617239232e+02,-4.971626765958490068e+00,-7.041562875178465220e+01,9.370253562927246094e+00,-9.179025292396545410e-01,-3.824593424797058105e-01,3.570000000000000000e+02
-2.160564460571690688e+02,-1.951017056228852198e+02,4.650680075455056794e+00,-9.860230061741481222e+01,-2.124016629714401461e+02,-2.459006473659651419e+02,-3.586752499390968296e-01,-7.007417413489747560e+01,9.370253562927246094e+00,-9.179025292396545410e-01,-3.824593424797058105e-01,3.580000000000000000e+02
-2.122203305470095529e+02,-1.927582303761628282e+02,6.397938778820844163e+00,-9.658945378236012402e+01,-2.100554802211072456e+02,-2.450383817557340080e+02,2.214182060111625105e+00,-7.038479089597376515e+01,9.370253562927246094e+00,-9.179025292396545410e-01,-3.824593424797058105e-01,3.590000000000000000e+02
-2.105269342904957739e+02,-1.900741544827637881e+02,4.872352677564322221e+00,-9.440827581275857483e+01,-2.096213539870600471e+02,-2.432943349688828221e+02,1.737559196453958066e+00,-7.189268720039081018e+01,9.370253562927246094e+00,-9.179025292396545410e-01,-3.824593424797058105e-01,3.600000000000000000e+02
-2.103250690768970799e+02,-1.875512508331773915e+02,7.349355185929198342e-01,-9.231836328741837860e+01,-2.109893537128048138e+02,-2.409178927375048715e+02,-1.000971410743659362e+00,-7.485181505191985707e+01,9.370253562927246094e+00,-9.179025292396545410e-01,-3.824593424797058105e-01,3.610000000000000000e+02
-2.099738377986830073e+02,-1.849629032216780615e+02,-3.715539250875735888e+00,-9.087336488280470803e+01,-2.131128905867908543e+02,-2.387257798861023730e+02,-3.694972052495131720e+00,-7.879540918720977061e+01,9.370253562927246094e+00,-9.179025292396545410e-01,-3.824593424797058105e-01,3.620000000000000000e+02
-2.084272779194434406e+02,-1.814221636944294005e+02,-6.081514916800870196e+00,-9.027533331961876684e+01,-2.143982017820462715e+02,-2.371206386389371801e+02,-3.972260042953394077e+00,-8.246754099543477423e+01,9.370253562927246094e+00,-9.179025292396545410e-01,-3.824593424797058105e-01,3.630000000000000000e+02
-2.061507580716868233e+02,-1.762983374629177433e+02,-5.454071176611023475e+00,-8.996994409451235697e+01,-2.136337820985049802e+02,-2.356159281297914276e+02,-9.907402576227468671e-01,-8.443417045145451993e+01,9.484992027282714844e+00,-9.179025292396545410e-01,-3.442134261131286621e-01,3.640000000000000000e+02
-2.044835371224203300e+02,-1.700727401333970192e+02,-2.824898561198779134e+00,-8.896328787915308567e+01,-2.108147976900993399e+02,-2.333123096564283969e+02,4.007131770504201995e+00,-8.402564634062946425e+01,9.484992027282714844e+00,-9.179025292396545410e-01,-3.442134261131286621e-01,3.650000000000000000e+02
-2.041034537778184585e+02,-1.642417258638110980e+02,-9.788736296286515426e-02,-8.662627731685938670e+01,-2.071518987752397152e+02,-2.297989004760611351e+02,8.515062417931403616e+00,-8.185976016136237376e+01,9.484992027282714844e+00,-9.179025292396545410e-01,-3.442134261131286621e-01,3.660000000000000000e+02
-2.041962181656433586e+02,-1.603111690063433343e+02,1.337809248911753457e+00,-8.327573955286243290e+01,-2.042102082973742654e+02,-2.256115919366011440e+02,1.025588585062450875e+01,-7.949130285954493047e+01,9.484992027282714844e+00,-9.179025292396545410e-01,-3.442134261131286621e-01,3.670000000000000000e+02
-2.032379546038448552e+02,-1.588025780297839447e+02,1.252527115210341435e+00,-8.003037977770759426e+01,-2.028956674203841430e+02,-2.218844582781277950e+02,8.305632587763284391e+00,-7.846611843751679771e+01,9.484992027282714844e+00,-9.179025292396545410e-01,-3.442134261131286621e-01,3.680000000000000000e+02
-2.006184366695993049e+02,-1.591018388501688605e+02,1.175929018208989874e-01,-7.808285439038718323e+01,-2.030763176503651266e+02,-2.195652793500489679e+02,3.333900754276783118e+00,-7.948754440316861292e+01,9.484992027282714844e+00,-9.179025292396545410e-01,-3.442134261131286621e-01,3.690000000000000000e+02
-1.974191984997928557e+02,-1.601203430456525894e+02,-1.672694539508029266e+00,-7.796836748172472653e+01,-2.039533405619142741e+02,-2.188240987758044866e+02,-2.838709193494651117e+00,-8.216929947822882241e+01,9.484992027282714844e+00,-9.179025292396545410e-01,-3.442134261131286621e-01,3.700000000000000000e+02
-1.954980489248173399e+02,-1.610644727727735699e+02,-3.972504020446194772e+00,-7.932436158532118498e+01,-2.046337886106407495e+02,-2.189810311000048841e+02,-7.959944735731141918e+00,-8.531922497748337264e+01,9.484992027282714844e+00,-9.179025292396545410e-01,-3.442134261131286621e-01,3.710000000000000000e+02
-1.957477582964597786e+02,-1.616859210779555269e+02,-6.371416356608278875e+00,-8.119703932794641332e+01,-2.043653101010108912e+02,-2.188608511254340101e+02,-1.013243497779990321e+01,-8.742102667147150896e+01,9.484992027282714844e+00,-9.179025292396545410e-01,-3.442134261131286621e-01,3.720000000000000000e+02
-1.972422407295377980e+02,-1.620306268116250976e+02,-7.820074122995038124e+00,-8.259860004722872873e+01,-2.024951849260201016e+02,-2.173352428708990374e+02,-8.592642132624177975e+00,-8.714549233133607231e+01,9.484992027282714844e+00,-9.179025292396545410e-01,-3.442134261131286621e-01,3.730000000000000000e+02
-1.980734533280242431e+02,-1.621313676821878289e+02,-7.111512290080781895e+00,-8.297111008892443351e+01,-1.985971533102162994e+02,-2.138490864374807643e+02,-4.201103390406842664e+00,-8.391972751381217677e+01,9.484992027282714844e+00,-9.179025292396545410e-01,-3.442134261131286621e-01,3.740000000000000000e+02
-1.969693917011466056e+02,-1.619333620045242697e+02,-3.948495494073085865e+00,-8.236546884053132089e+01,-1.929217690844095614e+02,-2.087463189871268696e+02,8.311129269013690646e-01,-7.844119122152733325e+01,9.484992027282714844e+00,-9.179025292396545410e-01,-3.442134261131286621e-01,3.750000000000000000e+02
-1.941043440953699246e+02,-1.613583368212518963e+02,4.417727592008304782e-01,-8.132386979913076175e+01,-1.867387057815935805e+02,-2.032056355444633482e+02,4.113107682022246081e+00,-7.272296733499752008e+01,9.484992027282714844e+00,-9.179025292396545410e-01,-3.442134261131286621e-01,3.760000000000000000e+02
-1.904887869790622972e+02,-1.603088068455920165e+02,3.877398627481852600e+00,-8.055629770339373863e+01,-1.819925846037297106e+02,-1.987278835960196375e+02,4.510014166816290526e+00,-6.932323382106505960e+01,9.484992027282714844e+00,-9.179025292396545410e-01,-3.442134261131286621e-01,3.770000000000000000e+02
-1.868524179586549963e+02,-1.586333334970295255e+02,4.612024293583544932e+00,-8.057477680948204579e+01,-1.802747732925927266e+02,-1.964178352272283519e+02,2.786384468529831793e+00,-7.000321028494545317e+01,9.484992027282714844e+00,-9.179025292396545410e-01,-3.442134261131286621e-01,3.780000000000000000e+02
-1.833060265127528510e+02,-1.562311964396301391e+02,2.438947501437041865e+00,-8.146836562167868578e+01,-1.818066695138920750e+02,-1.964971658602867137e+02,9.222064366181257355e-01,-7.465492640036700323e+01,9.484992027282714844e+00,-9.179025292396545410e-01,-3.442134261131286621e-01,3.790000000000000000e+02
-1.799704160232220147e+02,-1.533070559013053753e+02,-1.291892955790444830e+00,-8.292245410742089007e+01,-1.852111214770527567e+02,-1.983218483843957074e+02,6.331909474433814466e-01,-8.130069912448038849e+01,9.484992027282714844e+00,-9.179025292396545410e-01,-3.442134261131286621e-01,3.800000000000000000e+02
-1.775380972998416382e+02,-1.504878007667141446e+02,-4.587251088381435693e+00,-8.443355261674901158e+01,-1.882274769583905254e+02,-2.007807465124060400e+02,2.284783162389430800e+00,-8.719946926752550098e+01,9.484992027282714844e+00,-9.179025292396545410e-01,-3.442134261131286621e-01,3.810000000000000000e+02
-1.768169137513089026e+02,-1.485506340999859276e+02,-5.863522073788772104e+00,-8.555621171036000305e+01,-1.888478933915032485e+02,-2.027377619476146720e+02,4.965011803039942606e+00,-9.025914840131326855e+01,9.484992027282714844e+00,-9.179025292396545410e-01,-3.442134261131286621e-01,3.820000000000000000e+02
-1.776189417419600431e+02,-1.479041034541060071e+02,-4.543356490972655592e+00,-8.603517097486837883e+01,-1.861833606492198214e+02,-2.033118101208401640e+02,7.416115785030342522e+00,-8.983174231341990890e+01,9.484992027282714844e+00,-9.179025292396545410e-01,-3.442134261131286621e-01,3.830000000000000000e+02
-1.783610002452837762e+02,-1.482714144683909581e+02,-1.145761523379405844e+00,-8.580783122528964668e+01,-1.807274395853876285e+02,-2.020492533760966580e+02,8.873953941380477772e+00,-8.659664182637834529e+01,9.484992027282714844e+00,-9.179025292396545410e-01,-3.442134261131286621e-01,3.840000000000000000e+02
-1.771591713067937235e+02,-1.488875254439039963e+02,2.944170735414445517e+00,-8.496420378876609902e+01,-1.740793467665073422e+02,-1.990792439028873559e+02,9.201292617222179615e+00,-8.193175885677305814e+01,9.484992027282714844e+00,-9.179025292396545410e-01,-3.442134261131286621e-01,3.850000000000000000e+02
-1.735678308176650262e+02,-1.490306279058054315e+02,5.986409248926975124e+00,-8.373765476328026125e+01,-1.682920536253341197e+02,-1.951616782513774524e+02,8.556875194709846255e+00,-7.731139698946003591e+01,9.484992027282714844e+00,-9.179025292396545410e-01,-3.442134261131286621e-01,3.860000000000000000e+02
-1.692151162022234985e+02,-1.484120290790669969e+02,6.708429333141566531e+00,-8.249168385829989347e+01,-1.649826658443510041e+02,-1.914153434495751753e+02,7.229594351420018938e+00,-7.388849043766617797e+01,9.484992027282714844e+00,-9.179025292396545410e-01,-3.442134261131286621e-01,3.870000000000000000e+02
-1.665092482877312250e+02,-1.471166159398974287e+02,5.136012188120275823e+00,-8.159654633034642757e+01,-1.644718823811224411e+02,-1.887097780337603581e+02,5.838948844253991410e+00,-7.212313576994779396e+01,9.484992027282714844e+00,-9.179025292396545410e-01,-3.442134261131286621e-01,3.880000000000000000e+02
-1.665113367593837665e+02,-1.452685248068123656e+02,2.755105434379402141e+00,-8.119358016063642935e+01,-1.654725133833571817e+02,-1.871082271514378590e+02,5.420382392383544357e+00,-7.150293236815878117e+01,9.484992027282714844e+00,-9.179025292396545410e-01,-3.824593424797058105e-01,3.890000000000000000e+02
-1.679711671561999538e+02,-1.428333315249240059e+02,1.595635168578610319e+00,-8.100016417732786067e+01,-1.657536384065383572e+02,-1.858545546110321993e+02,6.915099251072660991e+00,-7.071205356300993117e+01,9.484992027282714844e+00,-9.179025292396545410e-01,-3.824593424797058105e-01,3.900000000000000000e+02
-1.684524978183972053e+02,-1.397578955193425827e+02,2.742699556875322742e+00,-8.038675375474531393e+01,-1.635919621091588851e+02,-1.840245038593538993e+02,1.029287787334533277e+01,-6.848549492406982608e+01,9.484992027282714844e+00,-9.179025292396545410e-01,-3.824593424797058105e-01,3.910000000000000000e+02
-1.664596457452300911e+02,-1.362444284331313611e+02,5.489116936552591142e+00,-7.878390273799141141e+01,-1.590708189839949682e+02,-1.813608074550606943e+02,1.418014007973874868e+01,-6.472298151858876736e+01,9.484992027282714844e+00,-9.179025292396545410e-01,-3.824593424797058105e-01,3.920000000000000000e+02
-1.625492543123327778e+02,-1.328115938162256953e+02,7.959901000443096564e+00,-7.615963853580433351e+01,-1.541593237133545244e+02,-1.785703689524384572e+02,1.660766848901448611e+01,-6.090363696852136854e+01,9.484992027282714844e+00,-9.179025292396545410e-01,-3.824593424797058105e-01,3.930000000000000000e+02
-1.584940033610319006e+02,-1.300238274352575445e+02,8.747040267317061080e+00,-7.316500907516456209e+01,-1.513371347037800660e+02,-1.767718838617497568e+02,1.646884419531511412e+01,-5.917947438325882104e+01,9.484992027282714844e+00,-9.179025292396545410e-01,-3.824593424797058105e-01,3.940000000000000000e+02
-1.554963060943352957e+02,-1.281067925088136690e+02,8.112042631794793124e+00,-7.073647565052488062e+01,-1.517264921410633178e+02,-1.765010432788099024e+02,1.448693764548374929e+01,-6.063923867214816710e+01,9.484992027282714844e+00,-9.179025292396545410e-01,-3.824593424797058105e-01,3.950000000000000000e+02
-1.532742198807902696e+02,-1.267607801060153179e+02,7.649077489212686487e+00,-6.939632687898892982e+01,-1.542190795791007076e+02,-1.771112003409948557e+02,1.278093355829605571e+01,-6.414992028795177248e+01,9.484992027282714844e+00,-9.179025292396545410e-01,-3.824593424797058105e-01,3.960000000000000000e+02
-1.508051331319045403e+02,-1.253186161133958194e+02,8.727431219661866635e+00,-6.882096226592011590e+01,-1.563433757417624292e+02,-1.771320208934157563e+02,1.329367022514884411e+01,-6.690116987192504894e+01,9.484992027282714844e+00,-9.179025292396545410e-01,-3.824593424797058105e-01,3.970000000000000000e+02
-1.477547577887592070e+02,-1.231303582697810270e+02,1.120240578672633092e+01,-6.807544139632864244e+01,-1.561521251111335005e+02,-1.753425291849948735e+02,1.635001865993353931e+01,-6.637764677281165859e+01,9.484992027282714844e+00,-9.179025292396545410e-01,-3.824593424797058105e-01,3.980000000000000000e+02
-1.449996896627831120e+02,-1.199391597523979272e+02,1.358701670742289025e+01,-6.635381084212622227e+01,-1.535621661636578210e+02,-1.716968697066772620e+02,2.047982420138009729e+01,-6.221651422842160173e+01,9.484992027282714844e+00,-9.179025292396545410e-01,-3.824593424797058105e-01,3.990000000000000000e+02
-1.437137250229136498e+02,-1.160590110019372787e+02,1.445286355135340273e+01,-6.362299159769645485e+01,-1.500962203284871066e+02,-1.673557786615419900e+02,2.354554976464305582e+01,-5.645965591835465602e+01,9.484992027282714844e+00,-9.179025292396545410e-01,-3.824593424797058105e-01,4.000000000000000000e+02
-1.440385544758203196e+02,-1.122759863684998436e+02,1.368696644359442871e+01,-6.065205694632095401e+01,-1.473997473580134283e+02,-1.638351851953680125e+02,2.417167781751277289e+01,-5.205417769662426508e+01,9.484992027282714844e+00,-9.179025292396545410e-01,-3.824593424797058105e-01,4.010000000000000000e+02
-1.447617375149170584e+02,-1.095197415070963416e+02,1.246539684093318101e+01,-5.846522011227762050e+01,-1.459263070674933260e+02,-1.620019778211585617e+02,2.238375626251763606e+01,-5.085923506663493754e+01,9.484992027282714844e+00,-9.179025292396545410e-01,-3.824593424797058105e-01,4.020000000000000000e+02
-1.443227654079014428e+02,-1.084426946688477074e+02,1.212468030003060449e+01,-5.770298133337701074e+01,-1.448560845729225548e+02,-1.616850838486784596e+02,1.920869740159923822e+01,-5.266044486049077022e+01,9.484992027282714844e+00,-9.179025292396545410e-01,-3.824593424797058105e-01,4.030000000000000000e+02
-1.421249192016061897e+02,-1.090953667007984222e+02,1.311054658967373143e+01,-5.834483973413125568e+01,-1.430703639791690875e+02,-1.620544512093219964e+02,1.584156341188327133e+01,-5.568343323632961983e+01,9.484992027282714844e+00,-9.179025292396545410e-01,-3.824593424797058105e-01,4.040000000000000000e+02
-1.389134519213853309e+02,-1.108765112314481485e+02,1.492434548198252742e+01,-5.984463526603940409e+01,-1.400959904349201679e+02,-1.622647897351275788e+02,1.312004009272231997e+01,-5.788139188863397067e+01,9.484992027282714844e+00,-9.179025292396545410e-01,-3.824593424797058105e-01,4.050000000000000000e+02
-1.359795816323417057e+02,-1.128073192863566874e+02,1.689294994951978879e+01,-6.142545789375526510e+01,-1.361908008012364917e+02,-1.617835549242099660e+02,1.150528854451567895e+01,-5.793754212818021188e+01,9.484992027282714844e+00,-9.179025292396545410e-01,-3.824593424797058105e-01,4.060000000000000000e+02
-1.340965214277423456e+02,-1.139837052139973821e+02,1.878420849339954657e+01,-6.234499437295153257e+01,-1.317936485643990636e+02,-1.603294190777992299e+02,1.119951234608743107e+01,-5.555092437530447569e+01,9.484992027282714844e+00,-9.179025292396545410e-01,-3.824593424797058105e-01,4.070000000000000000e+02
-1.331741269436699895e+02,-1.139313743473458089e+02,2.064120053689021006e+01,-6.213264829674653811e+01,-1.271716444736584890e+02,-1.577797947458493582e+02,1.206393615326442159e+01,-5.129318708151095052e+01,9.484992027282714844e+00,-9.179025292396545410e-01,-3.824593424797058105e-01,4.080000000000000000e+02
-1.327292433672562311e+02,-1.126796994381099921e+02,2.216446515892744173e+01,-6.084079227060237827e+01,-1.227008666618589814e+02,-1.543289357156550068e+02,1.344982900959439576e+01,-4.642148596240667757e+01,9.484992027282714844e+00,-9.179025292396545410e-01,-3.824593424797058105e-01,4.090000000000000000e+02
-1.324639015963632573e+02,-1.105817480276286915e+02,2.250038132950362524e+01,-5.915263386092692599e+01,-1.193005082697454782e+02,-1.507129509882702223e+02,1.437034565723638480e+01,-4.261300537940724098e+01,9.484992027282714844e+00,-9.179025292396545410e-01,-3.824593424797058105e-01,4.100000000000000000e+02
-1.323132178464500157e+02,-1.080408331543692384e+02,2.085293002754474401e+01,-5.808138107033983033e+01,-1.182026940402133732e+02,-1.480479632604083235e+02,1.418478784329658993e+01,-4.134615617776580621e+01,9.484992027282714844e+00,-9.179025292396545410e-01,-3.824593424797058105e-01,4.110000000000000000e+02
-1.320791162841078403e+02,-1.053167249106331838e+02,1.739138529188858229e+01,-5.829339933952132924e+01,-1.199703801352866321e+02,-1.471611292438078635e+02,1.332466129403610466e+01,-4.301731145742178342e+01,9.484992027282714844e+00,-9.179025292396545410e-01,-3.824593424797058105e-01,4.120000000000000000e+02
-1.312530938350196266e+02,-1.024869310500416759e+02,1.353371504898609601e+01,-5.951656185402362098e+01,-1.236291587759160393e+02,-1.478809610149182845e+02,1.330425929743933011e+01,-4.641621621994954694e+01,9.484992027282714844e+00,-9.179025292396545410e-01,-3.824593424797058105e-01,4.130000000000000000e+02
-1.293310953896789215e+02,-9.952507342920171141e+01,1.121011918097269700e+01,-6.058396509116528250e+01,-1.269088748561875946e+02,-1.489601047072251276e+02,1.570565218359706705e+01,-4.919306995275746885e+01,9.484992027282714844e+00,-9.179025292396545410e-01,-3.824593424797058105e-01,4.140000000000000000e+02
-1.262986339183053133e+02,-9.643065675064644893e+01,1.163000246703609264e+01,-6.020266582373460551e+01,-1.276388072275844934e+02,-1.488249564194684353e+02,2.074385028860251623e+01,-4.923134084051389436e+01,9.484992027282714844e+00,-9.179025292396545410e-01,-3.824593424797058105e-01,4.150000000000000000e+02
-1.227399236093924628e+02,-9.334957761575515178e+01,1.450747268645841359e+01,-5.789538346309882400e+01,-1.252225805464113364e+02,-1.466260365504599577e+02,2.657962104991952401e+01,-4.602384744332903210e+01,9.446745872497558594e+00,-8.796565532684326172e-01,-3.442134261131286621e-01,4.160000000000000000e+02
-1.194582011579698246e+02,-9.061960134410082901e+01,1.829442963621545459e+01,-5.436776414526775625e+01,-1.209699606595895602e+02,-1.427918367103156925e+02,3.015636950078624068e+01,-4.102563403857220692e+01,9.446745872497558594e+00,-8.796565532684326172e-01,-3.442134261131286621e-01,4.170000000000000000e+02
-1.169923076826362376e+02,-8.867501590006895640e+01,2.119535659421353557e+01,-5.100466306999169319e+01,-1.170172552323883792e+02,-1.386786491245611614e+02,2.918611040071527896e+01,-3.668157884038100747e+01,9.446745872497558594e+00,-8.796565532684326172e-01,-3.442134261131286621e-01,4.180000000000000000e+02
-1.154345943617606736e+02,-8.780739841808417623e+01,2.222533737501453288e+01,-4.890828193227389420e+01,-1.147527842759236592e+02,-1.356247059995062045e+02,2.388618235249168720e+01,-3.482409263516865394e+01,9.446745872497558594e+00,-8.796565532684326172e-01,-3.442134261131286621e-01,4.190000000000000000e+02
-1.145562104170096518e+02,-8.791212543179290151e+01,2.166357557382525556e+01,-4.822993473142560106e+01,-1.140022463340178547e+02,-1.341319218155545059e+02,1.707992975627666965e+01,-3.558184127588265255e+01,9.446745872497558594e+00,-8.796565532684326172e-01,-3.442134261131286621e-01,4.200000000000000000e+02
-1.139570488804670276e+02,-8.844099086328515114e+01,2.070663042271326049e+01,-4.826279185677640271e+01,-1.135110210950565488e+02,-1.337261462414971902e+02,1.241819928961331243e+01,-3.752927108007997958e+01,9.446745872497558594e+00,-8.796565532684326172e-01,-3.442134261131286621e-01,4.210000000000000000e+02
-1.131021322130175122e+02,-8.867805935640308235e+01,2.063189822952790564e+01,-4.814219415146999381e+01,-1.121659609528055626e+02,-1.335038428580646723e+02,1.194967072233885119e+01,-3.887736840780553393e+01,9.446745872497558594e+00,-8.796565532684326172e-01,-3.442134261131286621e-01,4.220000000000000000e+02
-1.114212167636246704e+02,-8.818786008545748700e+01,2.202751597899805347e+01,-4.754431625500092196e+01,-1.098777693233678292e+02,-1.328823119224648508e+02,1.485328754512556770e+01,-3.877422979633229261e+01,9.446745872497558594e+00,-8.796565532684326172e-01,-3.442134261131286621e-01,4.230000000000000000e+02
-1.086605620386249029e+02,-8.707656609371269951e+01,2.451962945919422054e+01,-4.682674514035579705e+01,-1.074757879494218287e+02,-1.319676422269567411e+02,1.830547046803485500e+01,-3.775802062613684029e+01,9.446745872497558594e+00,-8.796565532684326172e-01,-3.442134261131286621e-01,4.240000000000000000e+02
-1.052948092197525511e+02,-8.580352645040102288e+01,2.708554362832728657e+01,-4.654336837742721400e+01,-1.058577900689356284e+02,-1.312893632177283507e+02,1.976596348725888674e+01,-3.708714713476501856e+01,9.446745872497558594e+00,-8.796565532684326172e-01,-3.442134261131286621e-01,4.250000000000000000e+02
-1.025244528062821701e+02,-8.466616658052043931e+01,2.869867804994009930e+01,-4.678138475418018061e+01,-1.052118182554845589e+02,-1.311649206994284214e+02,1.885308336160687759e+01,-3.753285009600949707e+01,9.446745872497558594e+00,-8.796565532684326172e-01,-3.442134261131286621e-01,4.260000000000000000e+02
-1.016280672104608129e+02,-8.341384888423272059e+01,2.887708655140295377e+01,-4.691619662996981788e+01,-1.049680877103592138e+02,-1.312691757752609192e+02,1.736570442444053697e+01,-3.862384115302211285e+01,9.446745872497558594e+00,-8.796565532684326172e-01,-3.442134261131286621e-01,4.270000000000000000e+02
-1.030313983162113800e+02,-8.138004393147093651e+01,2.785534928644710817e+01,-4.601262171269672763e+01,-1.044051819846376929e+02,-1.307954833234884973e+02,1.759917987167591491e+01,-3.894167082004651093e+01,9.446745872497558594e+00,-8.796565532684326172e-01,-3.442134261131286621e-01,4.280000000000000000e+02
-1.058067413555186249e+02,-7.806212083037735283e+01,2.641321481800650872e+01,-4.353242772420571782e+01,-1.032350559021797380e+02,-1.290569863977548266e+02,2.049504156090915785e+01,-3.717994034341245424e+01,9.446745872497558594e+00,-8.796565532684326172e-01,-3.442134261131286621e-01,4.290000000000000000e+02
-1.080629677208798967e+02,-7.364245144129836262e+01,2.556868310543313783e+01,-3.973727302230372516e+01,-1.015948937474959166e+02,-1.259731406206992688e+02,2.514764015686796483e+01,-3.306786928211522536e+01,9.446745872497558594e+00,-8.796565532684326172e-01,-3.442134261131286621e-01,4.300000000000000000e+02
-1.080079258505588768e+02,-6.898328688678202525e+01,2.626143520129835451e+01,-3.547040904291270635e+01,-9.954634030566376168e+01,-1.220135110797091329e+02,2.985030144636402838e+01,-2.744514884900536345e+01,9.446745872497558594e+00,-8.796565532684326172e-01,-3.442134261131286621e-01,4.310000000000000000e+02
-1.049748569906755620e+02,-6.509235018461322397e+01,2.901171160139847416e+01,-3.157652737465650716e+01,-9.673931429134381688e+01,-1.177268724639097854e+02,3.351402861077986017e+01,-2.156727984890949301e+01,9.446745872497558594e+00,-8.796565532684326172e-01,-3.442134261131286621e-01,4.320000000000000000e+02
-9.975531276272795367e+01,-6.251347660893725333e+01,3.358629714275912193e+01,-2.851113631578346030e+01,-9.273379048540346048e+01,-1.133877666160251465e+02,3.617955195576041660e+01,-1.635144574107289372e+01,9.446745872497558594e+00,-8.796565532684326172e-01,-3.442134261131286621e-01,4.330000000000000000e+02
-9.411001291329171181e+01,-6.114853295352031637e+01,3.886233807845837873e+01,-2.641444198827730361e+01,-8.775288892172966371e+01,-1.091243200921740026e+02,3.837750811407795482e+01,-1.220575144795702727e+01,9.446745872497558594e+00,-8.796565532684326172e-01,-3.442134261131286621e-01,4.340000000000000000e+02
-8.983642245849296160e+01,-6.057421482538893542e+01,4.315210563948267009e+01,-2.539607284170415369e+01,-8.306466176582489425e+01,-1.053184564301250248e+02,4.021399441711764666e+01,-9.398248484479609033e+00,9.446745872497558594e+00,-8.796565532684326172e-01,-3.442134261131286621e-01,4.350000000000000000e+02
-8.794634224589094629e+01,-6.045908398498522729e+01,4.498375035224830754e+01,-2.558583796729681126e+01,-8.042287999393283826e+01,-1.027125576255507440e+02,4.116837446860040473e+01,-8.355834323455383128e+00,9.446745872497558594e+00,-8.796565532684326172e-01,-3.442134261131286621e-01,4.360000000000000000e+02
-8.835327733226381497e+01,-6.070525031706074515e+01,4.388182187282177438e+01,-2.687817185549602073e+01,-8.090609392187297999e+01,-1.019683662101538175e+02,4.066869232176441074e+01,-9.455544169126369525e+00,9.446745872497558594e+00,-8.796565532684326172e-01,-3.442134261131286621e-01,4.370000000000000000e+02
-9.014008892654010197e+01,-6.130751723076764392e+01,4.056799470674945951e+01,-2.875515466350725546e+01,-8.412923156287160964e+01,-1.030613706014801210e+02,3.868990631910924094e+01,-1.251748781870082894e+01,9.446745872497558594e+00,-8.796565532684326172e-01,-3.442134261131286621e-01,4.380000000000000000e+02
-9.216656618316574168e+01,-6.221128340702807691e+01,3.640194887782013211e+01,-3.055597387432635514e+01,-8.852259884815885016e+01,-1.051443574494005588e+02,3.571427416548772271e+01,-1.660826306796161589e+01,9.446745872497558594e+00,-8.796565532684326172e-01,-3.442134261131286621e-01,4.390000000000000000e+02
-9.364457371727439750e+01,-6.335723468772948763e+01,3.251038557882429814e+01,-3.201111060913899564e+01,-9.241202582981850355e+01,-1.070788763255645790e+02,3.222424977664127255e+01,-2.046112514394371829e+01,9.446745872497558594e+00,-8.796565532684326172e-01,-3.442134261131286621e-01,4.400000000000000000e+02
-9.438138307859458109e+01,-6.476752575097862064e+01,2.927973053072355469e+01,-3.343662669795867259e+01,-9.495301566557827755e+01,-1.081608062360464828e+02,2.841412297330498404e+01,-2.316968769287404939e+01,9.446745872497558594e+00,-8.796565532684326172e-01,-3.442134261131286621e-01,4.410000000000000000e+02
-9.462941841397082499e+01,-6.641617230764791202e+01,2.651720758636906794e+01,-3.525870422907064494e+01,-9.622261859888931212e+01,-1.083949853724952845e+02,2.446166449602264947e+01,-2.452756452676794652e+01,9.446745872497558594e+00,-8.796565532684326172e-01,-3.442134261131286621e-01,4.420000000000000000e+02
-9.472987046829757674e+01,-6.791467378810307309e+01,2.401344687139362577e+01,-3.727919730072062521e+01,-9.661242651386146463e+01,-1.081491831585913133e+02,2.096829195251575584e+01,-2.476515969449883414e+01,9.446745872497558594e+00,-8.796565532684326172e-01,-3.442134261131286621e-01,4.430000000000000000e+02
-9.482782157422548153e+01,-6.837709783956825049e+01,2.197652644020877233e+01,-3.848966362337159808e+01,-9.624238861218100283e+01,-1.076223449079384409e+02,1.892599643669359466e+01,-2.405236974306035336e+01,9.446745872497558594e+00,-8.796565532684326172e-01,-3.442134261131286621e-01,4.440000000000000000e+02
-9.480166468080233244e+01,-6.680558323239438323e+01,2.104251373678380332e+01,-3.776702512971405667e+01,-9.491005038944194894e+01,-1.066687983909255308e+02,1.909206776450969301e+01,-2.231338570461048221e+01,9.446745872497558594e+00,-8.796565532684326172e-01,-3.442134261131286621e-01,4.450000000000000000e+02
-9.434279433362758027e+01,-6.284626850577410551e+01,2.196729714230764330e+01,-3.486710101299468079e+01,-9.243930942308043086e+01,-1.050673047410878098e+02,2.137633493003363583e+01,-1.948178255028915373e+01,9.446745872497558594e+00,-8.796565532684326172e-01,-3.442134261131286621e-01,4.460000000000000000e+02
-9.307856752366615183e+01,-5.731940403439625698e+01,2.522509441846136724e+01,-3.076143830547152902e+01,-8.894846636062356993e+01,-1.028633296052225887e+02,2.488307936791170505e+01,-1.581671922055011237e+01,9.446745872497558594e+00,-9.179025292396545410e-01,-4.207052886486053467e-01,4.470000000000000000e+02
-9.070484318482954222e+01,-5.200479014912798448e+01,3.065776842633658816e+01,-2.696480132678198061e+01,-8.479026971124858392e+01,-1.003998035592926499e+02,2.857532455553132422e+01,-1.185929048993421020e+01,9.446745872497558594e+00,-9.179025292396545410e-01,-4.207052886486053467e-01,4.480000000000000000e+02
-8.714343299478173321e+01,-4.874243875993192887e+01,3.728866164343617129e+01,-2.446874339773330576e+01,-8.034741251932337036e+01,-9.804828357224323554e+01,3.189881221130212907e+01,-8.052888634870669193e+00,9.446745872497558594e+00,-9.179025292396545410e-01,-4.207052886486053467e-01,4.490000000000000000e+02
-8.268554974535663860e+01,-4.845389775543480937e+01,4.347974115575334508e+01,-2.323743879222092801e+01,-7.596799489575096231e+01,-9.596272339529559758e+01,3.480721278357782467e+01,-4.450950125054077944e+00,9.446745872497558594e+00,-9.179025292396545410e-01,-4.207052886486053467e-01,4.500000000000000000e+02
-7.801185157731151776e+01,-5.071583346478223575e+01,4.755770453191144043e+01,-2.260781957392782715e+01,-7.205851330558834889e+01,-9.410025758088659131e+01,3.730626864514761110e+01,-8.536008077621772827e-01,9.446745872497558594e+00,-9.179025292396545410e-01,-4.207052886486053467e-01,4.510000000000000000e+02
-7.398140259987758327e+01,-5.405908738102993993e+01,4.869369499193294359e+01,-2.204257371502581009e+01,-6.909547159338217170e+01,-9.241060410425870941e+01,3.913202321481344370e+01,2.773058316784954513e+00,9.446745872497558594e+00,-9.179025292396545410e-01,-4.207052886486053467e-01,4.520000000000000000e+02
-7.125842941829137089e+01,-5.668745554403540154e+01,4.744944227202972797e+01,-2.144097009450206315e+01,-6.739117009433903149e+01,-9.092233508653180252e+01,3.996498313874872110e+01,6.084230025935539743e+00,9.446745872497558594e+00,-9.179025292396545410e-01,-4.207052886486053467e-01,4.530000000000000000e+02
-7.002140403940666147e+01,-5.720387485511037085e+01,4.546323451746411592e+01,-2.081606676047522342e+01,-6.677141640260333588e+01,-8.960525520009423417e+01,3.991511511541511936e+01,8.633489118076340674e+00,9.446745872497558594e+00,-9.179025292396545410e-01,-4.207052886486053467e-01,4.540000000000000000e+02
-6.995851382829323484e+01,-5.511297280861481340e+01,4.438421347641610737e+01,-1.988216358765157565e+01,-6.650118399004327330e+01,-8.818322072474757078e+01,3.968094235637045131e+01,1.038275504398779958e+01,9.446745872497558594e+00,-9.179025292396545410e-01,-4.207052886486053467e-01,4.550000000000000000e+02
-7.051726512683057990e+01,-5.100228831946787977e+01,4.485820885450630158e+01,-1.814781577688654579e+01,-6.562633427145010501e+01,-8.618017523703247207e+01,4.012516517557378393e+01,1.188549881522408214e+01,9.446745872497558594e+00,-9.179025292396545410e-01,-4.207052886486053467e-01,4.560000000000000000e+02
-7.117820893035832341e+01,-4.630679722741274418e+01,4.636741365717898589e+01,-1.546000721741938833e+01,-6.354708272608377229e+01,-8.326981956703912147e+01,4.162049538065002707e+01,1.387435193175269887e+01,9.446745872497558594e+00,-9.179025292396545410e-01,-4.207052886486053467e-01,4.570000000000000000e+02
-7.155027448386044853e+01,-4.262548998650299836e+01,4.796320422499934466e+01,-1.236914053047166817e+01,-6.042518785876040965e+01,-7.967368309151970607e+01,4.375243693170818915e+01,1.658017913259232046e+01,9.446745872497558594e+00,-9.179025292396545410e-01,-4.207052886486053467e-01,4.580000000000000000e+02
-7.130492151214684782e+01,-4.086442797006429828e+01,4.912058995116058213e+01,-9.837826663559098961e+00,-5.713685496419998344e+01,-7.623664180798141388e+01,4.559152896179193704e+01,1.940968967292383240e+01,9.446745872497558594e+00,-9.179025292396545410e-01,-4.207052886486053467e-01,4.590000000000000000e+02
-7.014119269736602291e+01,-4.077341055743227116e+01,4.992715129631346826e+01,-8.517318106219590845e+00,-5.478144392316357880e+01,-7.402078237300929686e+01,4.624002478580314346e+01,2.131711372982454122e+01,9.446745872497558594e+00,-9.179025292396545410e-01,-4.207052886486053467e-01,4.600000000000000000e+02
-6.791739801617268313e+01,-4.129055859021809738e+01,5.060719673827725273e+01,-8.283721467424129514e+00,-5.402840924480324247e+01,-7.363855413588771626e+01,4.525217284233144710e+01,2.158657737336397986e+01,9.446745872497558594e+00,-9.179025292396545410e-01,-4.207052886486053467e-01,4.610000000000000000e+02
-6.487846076634605197e+01,-4.148189604877052261e+01,5.107934091393008202e+01,-8.481661483063362539e+00,-5.471904780535237478e+01,-7.481761962348286943e+01,4.276820937777256404e+01,2.037387062522338965e+01,9.446745872497558594e+00,-9.179025292396545410e-01,-4.207052886486053467e-01,4.620000000000000000e+02
-6.172339230670581856e+01,-4.128960311922060100e+01,5.112274636739107336e+01,-8.587086615014641211e+00,-5.597564183596432486e+01,-7.654526198345570265e+01,3.946888369003613661e+01,1.858581197690818954e+01,9.446745872497558594e+00,-9.179025292396545410e-01,-4.207052886486053467e-01,4.630000000000000000e+02
-5.934039794848445126e+01,-4.139729695105006613e+01,5.091966729447722173e+01,-8.597316756080317646e+00,-5.675329155428516970e+01,-7.770489772134715167e+01,3.643892492308555120e+01,1.725077633668342969e+01,9.446745872497558594e+00,-9.179025292396545410e-01,-4.207052886486053467e-01,4.640000000000000000e+02
-5.830780066274587625e+01,-4.233001324851170466e+01,5.121511801516953710e+01,-8.785666137220005112e+00,-5.645806087241430760e+01,-7.772662156744581807e+01,3.487173360263500399e+01,1.693584193708056773e+01,9.446745872497558594e+00,-9.179025292396545410e-01,-4.207052886486053467e-01,4.650000000000000000e+02
-5.849895567619591930e+01,-4.370109562211700904e+01,5.270911553693986207e+01,-9.168530894101195372e+00,-5.519922558507050780e+01,-7.678149231001293629e+01,3.555931482874075300e+01,1.762166508938571496e+01,9.446745872497558594e+00,-9.179025292396545410e-01,-4.207052886486053467e-01,4.660000000000000000e+02
-5.911419162575953123e+01,-4.442010939382589640e+01,5.521370021584448295e+01,-9.336827592710505996e+00,-5.352986314841496096e+01,-7.544596214905777742e+01,3.838444295694921493e+01,1.896749621984781697e+01,9.446745872497558594e+00,-9.179025292396545410e-01,-4.207052886486053467e-01,4.670000000000000000e+02
-5.916104949151758774e+01,-4.370556821247782864e+01,5.754282357096781197e+01,-8.851604996027617744e+00,-5.191910732502174142e+01,-7.417280943901255341e+01,4.224933604520060726e+01,2.062782116750054229e+01,9.523238182067871094e+00,-9.561483860015869141e-01,-3.824593424797058105e-01,4.680000000000000000e+02
-5.805929961438869213e+01,-4.188485318423863646e+01,5.843960452572628128e+01,-7.745277896519155547e+00,-5.039974405756788656e+01,-7.300237523740179313e+01,4.567355706275520788e+01,2.237913088699656328e+01,9.523238182067871094e+00,-9.561483860015869141e-01,-3.824593424797058105e-01,4.690000000000000000e+02
-5.593207683237801575e+01,-4.010122933784418819e+01,5.775386697629119226e+01,-6.525169187875462740e+00,-4.865748378307580424e+01,-7.167588209426617141e+01,4.774511661200494927e+01,2.410230960986950777e+01,9.523238182067871094e+00,-9.561483860015869141e-01,-3.824593424797058105e-01,4.700000000000000000e+02
-5.339425484937601141e+01,-3.913094062948778173e+01,5.672825807117999375e+01,-5.615327855676468971e+00,-4.642447916050582535e+01,-6.994525894732078086e+01,4.872769974495872702e+01,2.579113014568065410e+01,9.523238182067871094e+00,-9.561483860015869141e-01,-3.824593424797058105e-01,4.710000000000000000e+02
-5.103754897124963463e+01,-3.845887958146181518e+01,5.704820358136498726e+01,-4.811930407403906429e+00,-4.378460941490561709e+01,-6.777540233619060928e+01,4.981443584623002607e+01,2.760588342201094747e+01,9.523238182067871094e+00,-9.561483860015869141e-01,-3.824593424797058105e-01,4.720000000000000000e+02
-4.904615048845676029e+01,-3.661406768782671861e+01,5.947081618809590964e+01,-3.360028362380717226e+00,-4.112036818250010128e+01,-6.531558460744827244e+01,5.216450911565812021e+01,2.982571615806364207e+01,9.523238182067871094e+00,-9.561483860015869141e-01,-3.824593424797058105e-01,4.730000000000000000e+02
-4.724357442881375846e+01,-3.257672697742941637e+01,6.320824349741030801e+01,-6.414421246652182163e-01,-3.881564039838031022e+01,-6.275651081100431838e+01,5.592205289124240153e+01,3.260365661645528235e+01,9.523238182067871094e+00,-9.561483860015869141e-01,-3.824593424797058105e-01,4.740000000000000000e+02
-4.547373478713939221e+01,-2.698386804541041784e+01,6.651816063322974060e+01,3.161061977586655303e+00,-3.704840214281546196e+01,-6.025043035235876232e+01,5.994377145555336028e+01,3.567909436302329595e+01,9.523238182067871094e+00,-9.561483860015869141e-01,-3.824593424797058105e-01,4.750000000000000000e+02
-4.391333135092691009e+01,-2.199335466173886289e+01,6.788496215239331377e+01,7.042768612834152009e+00,-3.588058359364913485e+01,-5.794994134474416114e+01,6.241916114986156572e+01,3.832922159302120235e+01,9.523238182067871094e+00,-9.561483860015869141e-01,-3.824593424797058105e-01,4.760000000000000000e+02
-4.300246435390829447e+01,-1.986934034593480192e+01,6.681316881302234378e+01,9.791747851080003784e+00,-3.550725884865448734e+01,-5.609721285420300774e+01,6.192859495826098737e+01,3.967235619217785825e+01,9.523238182067871094e+00,-9.561483860015869141e-01,-3.824593424797058105e-01,4.770000000000000000e+02
-4.303531700920200365e+01,-2.146716537812380921e+01,6.384319402594849180e+01,1.069045848504936203e+01,-3.629685088159521911e+01,-5.503343638705177909e+01,5.825599996153925986e+01,3.915003751242113594e+01,9.523238182067871094e+00,-9.561483860015869141e-01,-3.824593424797058105e-01,4.780000000000000000e+02
-4.378159991824361441e+01,-2.582247912490555564e+01,6.011011286048483271e+01,9.788427257972671214e+00,-3.845438862271566904e+01,-5.506490048396733528e+01,5.249840851085957638e+01,3.685499026028844582e+01,9.523238182067871094e+00,-9.561483860015869141e-01,-3.824593424797058105e-01,4.790000000000000000e+02
-4.450419744026754643e+01,-3.101534056392006278e+01,5.690383991603033564e+01,7.688883472517204609e+00,-4.158753329626983941e+01,-5.625133016744644010e+01,4.649216370973783796e+01,3.349892534811681344e+01,9.523238182067871094e+00,-9.561483860015869141e-01,-3.824593424797058105e-01,4.800000000000000000e+02
-4.439730999940923084e+01,-3.542547266573160414e+01,5.533728262422522448e+01,5.166902785744184712e+00,-4.465031074459864158e+01,-5.825276725396821575e+01,4.196271187814568293e+01,3.010550315677897970e+01,9.523238182067871094e+00,-9.561483860015869141e-01,-3.824593424797058105e-01,4.810000000000000000e+02
-4.311783064172345803e+01,-3.837103031841644452e+01,5.597785621562366032e+01,2.893406047931875946e+00,-4.644094309459234182e+01,-6.037281837849843669e+01,3.987925544876395634e+01,2.765531535570090682e+01,9.523238182067871094e+00,-9.561483860015869141e-01,-3.824593424797058105e-01,4.820000000000000000e+02
-4.102788944424548845e+01,-3.988750046155507789e+01,5.850755420478375868e+01,1.298958238474256177e+00,-4.628707256314152119e+01,-6.181677315948604701e+01,4.026483530297781499e+01,2.684806255785503026e+01,9.523238182067871094e+00,-9.561483860015869141e-01,-3.824593424797058105e-01,4.830000000000000000e+02
-3.900099757884234464e+01,-4.019400994150439033e+01,6.177473308665128116e+01,5.141243393398440276e-01,-4.432687448143514075e+01,-6.202174329161664446e+01,4.240575985185768104e+01,2.799677638504505239e+01,9.523238182067871094e+00,-9.561483860015869141e-01,-3.824593424797058105e-01,4.840000000000000000e+02
-3.795931261867877993e+01,-3.947083934347266165e+01,6.443419229475721011e+01,4.128595726802331001e-01,-4.116544652655575476e+01,-6.083768042843558987e+01,4.523401797646560851e+01,3.100157742357050239e+01,9.523238182067871094e+00,-9.561483860015869141e-01,-3.824593424797058105e-01,4.850000000000000000e+02
-3.842824840178744239e+01,-3.801723639272218236e+01,6.576711317697036918e+01,8.095827038530813979e-01,-3.731610615460995461e+01,-5.844959331231316924e+01,4.767664077164697289e+01,3.538385413079237196e+01,9.523238182067871094e+00,-9.561483860015869141e-01,-3.824593424797058105e-01,4.860000000000000000e+02
-4.029476647449433813e+01,-3.636271888151412668e+01,6.598061289896223514e+01,1.704603994951895629e+00,-3.302968416729856926e+01,-5.515763992569117136e+01,4.893403995565054743e+01,4.039708950687753486e+01,9.523238182067871094e+00,-9.561483860015869141e-01,-3.824593424797058105e-01,4.870000000000000000e+02
-4.282498137124878212e+01,-3.501121455962748996e+01,6.574038080839446252e+01,3.331874449230667778e+00,-2.863839907270255480e+01,-5.124497108308997895e+01,4.873126071213425803e+01,4.521506593929092332e+01,9.523238182067871094e+00,-9.561483860015869141e-01,-3.824593424797058105e-01,4.880000000000000000e+02
-4.490896975686598580e+01,-3.401417990361449029e+01,6.545834319137435386e+01,5.901312677268947482e+00,-2.490369942223424005e+01,-4.703938534392256088e+01,4.750269770561317273e+01,4.914883137113645262e+01,9.523238182067871094e+00,-9.561483860015869141e-01,-3.824593424797058105e-01,4.890000000000000000e+02
-4.547063102245704158e+01,-3.286393445846283612e+01,6.509415746511342604e+01,9.250475003105407268e+00,-2.278550805820151481e+01,-4.303508372270493965e+01,4.632317373074442912e+01,5.181265854288108130e+01,9.523238182067871094e+00,-9.561483860015869141e-01,-3.824593424797058105e-01,4.900000000000000000e+02
-4.392291542693914153e+01,-3.093575401736353570e+01,6.458616244143843232e+01,1.276153175618173918e+01,-2.270711236357260532e+01,-3.985110595176092829e+01,4.641706437336318913e+01,5.317488195290843578e+01,9.523238182067871094e+00,-9.561483860015869141e-01,-3.824593424797058105e-01,4.910000000000000000e+02
-4.045468312425646218e+01,-2.814297329205885490e+01,6.427490074820900645e+01,1.566392728990047090e+01,-2.405418982158494146e+01,-3.796780418103833199e+01,4.839114505970474056e+01,5.347867465076330973e+01,9.523238182067871094e+00,-9.561483860015869141e-01,-3.824593424797058105e-01,4.920000000000000000e+02
-3.596922206657234256e+01,-2.520643477596956927e+01,6.467706362978333345e+01,1.744850690300540919e+01,-2.554576717883207948e+01,-3.744331396311201843e+01,5.169134609124535018e+01,5.306770586382845067e+01,9.484992027282714844e+00,-1.032640218734741211e+00,-3.824593424797058105e-01,4.930000000000000000e+02
-3.165650557133403709e+01,-2.322650564815808139e+01,6.580891166440289908e+01,1.804509789118799290e+01,-2.622519704052069756e+01,-3.785849163790862804e+01,5.481193930049755636e+01,5.222765067808529693e+01,9.484992027282714844e+00,-1.032640218734741211e+00,-3.824593424797058105e-01,4.940000000000000000e+02
-2.842859004279489454e+01,-2.286604354036251152e+01,6.693731217260005906e+01,1.770509340172611701e+01,-2.611988629606094037e+01,-3.853709696542387064e+01,5.627676067519416847e+01,5.116087634267887552e+01,9.484992027282714844e+00,-1.032640218734741211e+00,-3.824593424797058105e-01,4.950000000000000000e+02
-2.657677319477511446e+01,-2.380285110356180667e+01,6.724909161369669164e+01,1.681662907317991085e+01,-2.589863222830604172e+01,-3.884722256584404931e+01,5.572673464995341419e+01,5.011652596813041782e+01,9.484992027282714844e+00,-1.032640218734741211e+00,-3.824593424797058105e-01,4.960000000000000000e+02
-2.586110365678746348e+01,-2.491650765484178010e+01,6.681450631873099155e+01,1.583315215096035899e+01,-2.590594967558081407e+01,-3.839482624315928661e+01,5.421310015099675184e+01,4.952226517682765916e+01,9.484992027282714844e+00,-1.032640218734741211e+00,-3.824593424797058105e-01,4.970000000000000000e+02
-2.590573763588122347e+01,-2.508864284191486149e+01,6.670046621144319943e+01,1.522744441603913401e+01,-2.563104049109597327e+01,-3.708694482835016970e+01,5.336393435569880239e+01,4.990555543714935993e+01,9.484992027282714844e+00,-1.032640218734741211e+00,-3.824593424797058105e-01,4.980000000000000000e+02
-2.653105654220621545e+01,-2.398837888156549525e+01,6.791428154797313255e+01,1.530527438729041023e+01,-2.419697758987922498e+01,-3.513295593452994581e+01,5.406181077203564200e+01,5.157485980028377526e+01,9.484992027282714844e+00,-1.032640218734741211e+00,-3.824593424797058105e-01,4.990000000000000000e+02
-2.773500781810525950e+01,-2.223086770314330352e+01,7.019423158792233153e+01,1.596031455259389986e+01,-2.134232625966205887e+01,-3.299378288576099294e+01,5.576078912491129813e+01,5.430558235931584932e+01,9.484992027282714844e+00,-1.032640218734741211e+00,-3.824593424797058105e-01,5.000000000000000000e+02
-2.937739456697295282e+01,-2.078784836726094909e+01,7.202321609182672546e+01,1.668891160968996701e+01,-1.781903420442813513e+01,-3.119855855247988075e+01,5.706712821190376417e+01,5.737598605980065258e+01,9.484992027282714844e+00,-1.032640218734741211e+00,-3.824593424797058105e-01,5.010000000000000000e+02
-3.089960578165892002e+01,-2.014594945843487039e+01,7.206215937211800338e+01,1.701885103197673743e+01,-1.474821751177182705e+01,-3.003400101730358074e+01,5.708312160027662685e+01,6.003527673540656906e+01,9.484992027282714844e+00,-1.032640218734741211e+00,-3.824593424797058105e-01,5.020000000000000000e+02
-3.141872790783145319e+01,-1.993256973016536904e+01,7.062545944281578159e+01,1.703302209334833606e+01,-1.259087818651278212e+01,-2.930641797066982690e+01,5.627889405045584681e+01,6.206266844297169882e+01,9.484992027282714844e+00,-1.032640218734741211e+00,-3.824593424797058105e-01,5.030000000000000000e+02
-3.024067537363885094e+01,-1.934122573183458371e+01,6.959025661524310635e+01,1.742225034482953561e+01,-1.081894436970696916e+01,-2.843683495206232692e+01,5.604886009249048584e+01,6.390490405333912349e+01,9.484992027282714844e+00,-1.032640218734741211e+00,-3.824593424797058105e-01,5.040000000000000000e+02
-2.743481996265154521e+01,-1.798287493769339562e+01,7.064237338899124552e+01,1.887618457074631806e+01,-8.634141799753251689e+00,-2.690634314922090198e+01,5.733643995498391632e+01,6.619568711181409526e+01,9.484992027282714844e+00,-1.032640218734741211e+00,-3.824593424797058105e-01,5.050000000000000000e+02
-2.398842967788959868e+01,-1.635115597322828762e+01,7.353756195070809554e+01,2.131229186287509947e+01,-5.963708330090867094e+00,-2.471159568331540868e+01,5.963627524348066800e+01,6.906195983686075124e+01,9.484992027282714844e+00,-1.032640218734741211e+00,-3.824593424797058105e-01,5.060000000000000000e+02
-2.132435045205102142e+01,-1.538160642691536850e+01,7.619387888181881863e+01,2.372794884699214890e+01,-3.663179132684945216e+00,-2.239591683633852881e+01,6.139532515094833798e+01,7.190301250933725896e+01,9.484992027282714844e+00,-1.032640218734741211e+00,-3.824593424797058105e-01,5.070000000000000000e+02
-2.043548961967690047e+01,-1.544653178578073494e+01,7.666230224921991976e+01,2.494552146200021525e+01,-2.671344295582457562e+00,-2.056789213030970132e+01,6.151854701641786960e+01,7.394220193352657589e+01,9.484992027282714844e+00,-1.032640218734741211e+00,-3.824593424797058105e-01,5.080000000000000000e+02
-2.121978638121345284e+01,-1.576164483150114393e+01,7.510732011246545881e+01,2.465052328708679852e+01,-2.934669462918463978e+00,-1.930619009448992074e+01,6.056538988922602584e+01,7.508444664103762989e+01,9.484992027282714844e+00,-1.032640218734741211e+00,-3.824593424797058105e-01,5.090000000000000000e+02
-2.251614174507039934e+01,-1.492063553991147273e+01,7.383211213984031929e+01,2.375152480968790769e+01,-3.191015044320465677e+00,-1.802430389873461536e+01,6.042042908198891382e+01,7.621868734993222461e+01,9.484992027282714844e+00,-1.032640218734741211e+00,-3.824593424797058105e-01,5.100000000000000000e+02
-2.286706490523920365e+01,-1.223630415492561951e+01,7.523885812641128723e+01,2.363924359195425495e+01,-1.910319948155574821e+00,-1.600055707244973746e+01,6.260619258786300634e+01,7.852446848296540338e+01,9.484992027282714844e+00,-1.032640218734741211e+00,-3.824593424797058105e-01,5.110000000000000000e+02
-2.148003325099489302e+01,-8.659697950638019392e+00,7.962139391060236449e+01,2.494706138251194716e+01,1.408187256955443445e+00,-1.312835645841823862e+01,6.675531287823559978e+01,8.231121089382486389e+01,9.484992027282714844e+00,-1.032640218734741211e+00,-3.824593424797058105e-01,5.120000000000000000e+02
-1.869146578014897386e+01,-6.263370535197736899e+00,8.485864637146460154e+01,2.692995437671879699e+01,5.724108273948331771e+00,-1.018033811606255767e+01,7.070964925961743575e+01,8.647279045034338196e+01,9.484992027282714844e+00,-1.032640218734741211e+00,-3.824593424797058105e-01,5.130000000000000000e+02
-1.561966295264755900e+01,-6.545829364681594598e+00,8.824823863944448021e+01,2.807568791983794654e+01,9.194560199382976862e+00,-8.261899637705937494e+00,7.223841776001791004e+01,8.917984266559051321e+01,9.484992027282714844e+00,-1.032640218734741211e+00,-3.824593424797058105e-01,5.140000000000000000e+02
-1.331100147121560440e+01,-9.002380212717071117e+00,8.874498598119589587e+01,2.746600474469596520e+01,1.057646782206211356e+01,-7.866919406802480808e+00,7.084877671922049558e+01,8.931844396323913315e+01,9.484992027282714844e+00,-1.032640218734741211e+00,-3.824593424797058105e-01,5.150000000000000000e+02
-1.206784423516046445e+01,-1.132329753255817195e+01,8.759823344274536794e+01,2.568406383627734613e+01,1.014679568535029830e+01,-8.387219642329000635e+00,6.805221079152443053e+01,8.743205840795326367e+01,9.484992027282714844e+00,-1.032640218734741211e+00,-3.824593424797058105e-01,5.160000000000000000e+02
-1.145401691671031585e+01,-1.118519104488950688e+01,8.697711860845083720e+01,2.441640206268220936e+01,9.396539927541198267e+00,-8.579469236166914925e+00,6.588810880615392307e+01,8.530441463043644035e+01,9.484992027282714844e+00,-1.032640218734741211e+00,-3.824593424797058105e-01,5.170000000000000000e+02
-1.087257121779612135e+01,-8.150316161494629341e+00,8.799721495091307588e+01,2.504592790326296381e+01,9.770009966930956580e+00,-7.623275765691687411e+00,6.512677398900541448e+01,8.452451771247524448e+01,9.484992027282714844e+00,-1.032640218734741211e+00,-3.824593424797058105e-01,5.180000000000000000e+02
-1.013645416453528014e+01,-4.017096718067477923e+00,8.993135440788410051e+01,2.744544371187203069e+01,1.149873507821848762e+01,-5.823745123827393400e+00,6.484251801011487260e+01,8.530487215894390829e+01,9.484992027282714844e+00,-1.032640218734741211e+00,-3.824593424797058105e-01,5.190000000000000000e+02
-9.521694212484362652e+00,-1.335794739329685399e+00,9.112055909662194608e+01,3.003579163647555106e+01,1.348095029189062188e+01,-4.297805879551560793e+00,6.367352776149891724e+01,8.656490779225168808e+01,9.561484336853027344e+00,-9.179025292396545410e-01,-3.059675097465515137e-01,5.200000000000000000e+02
-9.333025509891740512e+00,-1.412304030848645198e+00,9.053238006194987975e+01,3.106714553377605625e+01,1.425572362457205600e+01,-3.945207224382102140e+00,6.142300059711214999e+01,8.708224469463857531e+01,9.561484336853027344e+00,-9.179025292396545410e-01,-3.059675097465515137e-01,5.210000000000000000e+02
-9.479498850416348432e+00,-3.493612050802767044e+00,8.851702847558317444e+01,3.000230817962074070e+01,1.320489006875777704e+01,-4.689061820510687539e+00,5.936538796267632279e+01,8.655817670707074285e+01,9.561484336853027344e+00,-9.179025292396545410e-01,-3.059675097465515137e-01,5.220000000000000000e+02
-9.486505471103555465e+00,-5.669777920906199142e+00,8.627226386997608643e+01,2.782537735425103165e+01,1.096150581410256564e+01,-5.686529626708761498e+00,5.897735114737952244e+01,8.564309883231544518e+01,9.561484336853027344e+00,-9.179025292396545410e-01,-3.059675097465515137e-01,5.230000000000000000e+02
-8.918367177741856722e+00,-6.496994244149391307e+00,8.473762708675894828e+01,2.610257404623553157e+01,8.723685255583404796e+00,-6.234569833323803323e+00,6.040164121651559981e+01,8.504984399175373255e+01,9.561484336853027344e+00,-9.179025292396545410e-01,-3.059675097465515137e-01,5.240000000000000000e+02
-7.788377600896637887e+00,-5.884773909147952509e+00,8.396103211491845286e+01,2.572209734155785554e+01,7.143909506486124883e+00,-6.407540984408115037e+00,6.217230464252043021e+01,8.474030227836738050e+01,9.561484336853027344e+00,-9.179025292396545410e-01,-3.059675097465515137e-01,5.250000000000000000e+02
-6.564482663154194597e+00,-4.676505999188520946e+00,8.335751398291449732e+01,2.642556503265404899e+01,5.817591122163321415e+00,-6.791315082476103271e+00,6.246823237131138740e+01,8.400229469476289523e+01,9.561484336853027344e+00,-9.179025292396545410e-01,-3.059675097465515137e-01,5.260000000000000000e+02
-5.774563412722272915e+00,-3.606711505774001125e+00,8.241880725803730456e+01,2.739223400275295717e+01,3.809160933703424234e+00,-7.669623814937040152e+00,6.067606431223885011e+01,8.227101261751795391e+01,9.561484336853027344e+00,-9.179025292396545410e-01,-3.059675097465515137e-01,5.270000000000000000e+02
-5.566967437878702185e+00,-2.731716901634172245e+00,8.117346019883189001e+01,2.814628834552604530e+01,7.107898132053378504e-01,-8.595284542532681371e+00,5.780989929227325774e+01,7.982365894968916109e+01,9.561484336853027344e+00,-9.179025292396545410e-01,-3.059675097465515137e-01,5.280000000000000000e+02
-5.575575577233394142e+00,-1.752025479241638095e+00,8.010387922445988806e+01,2.886385601849542581e+01,-2.740116438360018947e+00,-8.846290940535254776e+00,5.551232262768917280e+01,7.766453262660525070e+01,9.561484336853027344e+00,-9.179025292396545410e-01,-3.059675097465515137e-01,5.290000000000000000e+02
-5.164718583613648661e+00,-6.798749826948551345e-01,7.973643584550973173e+01,2.989010933380995994e+01,-5.042933490603900282e+00,-8.281056180707309977e+00,5.468571644951771304e+01,7.674337298457976431e+01,9.561484336853027344e+00,-9.179025292396545410e-01,-3.059675097465515137e-01,5.300000000000000000e+02
-3.861650059055136808e+00,-5.447614912282006117e-02,8.028131358381688187e+01,3.110562141306400008e+01,-5.002497694039448106e+00,-7.637138810336182360e+00,5.499581004471656343e+01,7.725217575776423473e+01,9.561484336853027344e+00,-9.179025292396545410e-01,-3.059675097465515137e-01,5.310000000000000000e+02
-1.687520311043954280e+00,-4.763311961523868376e-01,8.154094161727516621e+01,3.186088824516173190e+01,-2.604514593032035918e+00,-7.895218376894263201e+00,5.550821424694913730e+01,7.858891049093745096e+01,9.561484336853027344e+00,-9.179025292396545410e-01,-3.059675097465515137e-01,5.320000000000000000e+02
8.106062584683968453e-01,-1.956920439666646416e+00,8.307401629562173184e+01,3.155598155049119669e+01,9.960406245954800397e-01,-9.302899272619470139e+00,5.564869382652796048e+01,7.994255173844976525e+01,9.561484336853027344e+00,-9.179025292396545410e-01,-3.059675097465515137e-01,5.330000000000000000e+02
2.845054523423641513e+00,-3.732022016802147846e+00,8.446691190920137160e+01,3.025752719141746638e+01,4.317232406549919688e+00,-1.101657231290846539e+01,5.556269380945650482e+01,8.094978665099733917e+01,9.561484336853027344e+00,-9.179025292396545410e-01,-3.059675097465515137e-01,5.340000000000000000e+02
3.821535481504724885e+00,-4.726784460319322534e+00,8.553454417033935897e+01,2.871882567087413918e+01,6.515073094305989798e+00,-1.172730919103560154e+01,5.569781472563136049e+01,8.188874590979139612e+01,9.561484336853027344e+00,-9.179025292396545410e-01,-3.059675097465515137e-01,5.350000000000000000e+02
3.654298416335223010e+00,-4.282683585390259395e+00,8.631721386136996443e+01,2.778565791655819339e+01,7.714401232666205033e+00,-1.071364310347962601e+01,5.620253766629411984e+01,8.330782434518005175e+01,9.561484336853027344e+00,-9.179025292396545410e-01,-3.059675097465515137e-01,5.360000000000000000e+02
2.756623640525504015e+00,-2.572432412056514295e+00,8.686792668503949244e+01,2.775461086807808897e+01,8.520928005149471574e+00,-8.417256301416273345e+00,5.677173457005028467e+01,8.540750277951156022e+01,9.561484336853027344e+00,-9.179025292396545410e-01,-3.059675097465515137e-01,5.370000000000000000e+02
1.741339983386751555e+00,-4.161537274521833751e-01,8.703293452684920339e+01,2.825764671515753435e+01,9.250833857331599575e+00,-6.096211620812027832e+00,5.701101208464751835e+01,8.766841398292490339e+01,9.561484336853027344e+00,-9.179025292396545410e-01,-3.059675097465515137e-01,5.380000000000000000e+02
1.089547660287280451e+00,1.314471760242668097e+00,8.650212938306049182e+01,2.871824438952717173e+01,9.616258879903398338e+00,-4.909811338955478277e+00,5.687533538386833243e+01,8.904654884414412663e+01,9.561484336853027344e+00,-9.179025292396545410e-01,-3.059675097465515137e-01,5.390000000000000000e+02
1.040315013769941288e+00,2.251266957644475042e+00,8.517371027596891508e+01,2.891885128134344995e+01,9.156017330047689029e+00,-5.158787574171583401e+00,5.673734323328244500e+01,8.866374577812166535e+01,9.561484336853027344e+00,-9.179025292396545410e-01,-3.059675097465515137e-01,5.400000000000000000e+02
1.685577495907637058e+00,2.655905748964869417e+00,8.349475194942715461e+01,2.917294324345675705e+01,7.964709742676859605e+00,-6.177935211551812245e+00,5.705019891141819244e+01,8.652686214349523652e+01,9.561484336853027344e+00,-9.179025292396545410e-01,-3.059675097465515137e-01,5.410000000000000000e+02
3.022184504829056095e+00,3.050416767442584387e+00,8.232007153027734603e+01,2.998703639654195285e+01,6.927237621757740271e+00,-6.875996484521238017e+00,5.792636895686518983e+01,8.368589389876797213e+01,9.561484336853027344e+00,-9.179025292396545410e-01,-3.059675097465515137e-01,5.420000000000000000e+02
4.796631456723844167e+00,3.650617354214773513e+00,8.223241963556029077e+01,3.153219395411360892e+01,7.100540722942241700e+00,-6.510198837202551658e+00,5.896598480039210699e+01,8.159273599542757438e+01,9.561484336853027344e+00,-9.179025292396545410e-01,-3.059675097465515137e-01,5.430000000000000000e+02
6.335017565568705322e+00,4.086325364994991105e+00,8.288551547575298173e+01,3.338248884809581796e+01,8.740740831712173531e+00,-5.179653743889502948e+00,5.945512942171626491e+01,8.108392194191401359e+01,9.561484336853027344e+00,-9.179025292396545410e-01,-3.059675097465515137e-01,5.440000000000000000e+02
6.734528393579239491e+00,3.705568167715682648e+00,8.309243048316056957e+01,3.475214352515467908e+01,1.092058884549078357e+01,-3.711318775265681325e+00,5.882172142861236352e+01,8.181695024742657552e+01,9.561484336853027344e+00,-9.179025292396545410e-01,-3.059675097465515137e-01,5.450000000000000000e+02
5.495026459188011358e+00,2.257117579445548472e+00,8.176420868185959989e+01,3.506021105688705575e+01,1.219498800039764319e+01,-3.004894387371678022e+00,5.706833347629799391e+01,8.266400729921224411e+01,9.561484336853027344e+00,-9.179025292396545410e-01,-3.059675097465515137e-01,5.460000000000000000e+02
3.127801131695377990e+00,3.481308338959934190e-01,7.895545157822016336e+01,3.440453559884372225e+01,1.180058201786050631e+01,-3.294175317054396146e+00,5.489795201900415123e+01,8.272043390346880187e+01,9.561484336853027344e+00,-9.179025292396545410e-01,-3.059675097465515137e-01,5.470000000000000000e+02
1.091747848346130922e+00,-8.176878806098102359e-01,7.605438103800770477e+01,3.359340166932088323e+01,1.034027393955511798e+01,-3.903176927922686446e+00,5.341064631015433406e+01,8.201616786187150865e+01,9.561484336853027344e+00,-9.179025292396545410e-01,-3.059675097465515137e-01,5.480000000000000000e+02
9.173720663347921800e-01,-3.052574443809135118e-01,7.485770744922410813e+01,3.370358729451618274e+01,9.345909747302357573e+00,-3.723936375898119877e+00,5.352145090863632504e+01,8.130474494539157604e+01,9.561484336853027344e+00,-9.179025292396545410e-01,-3.059675097465515137e-01,5.490000000000000000e+02
3.125739484907171573e+00,1.788098402248579077e+00,7.624952036062313709e+01,3.544897977376967901e+01,1.010068710167433892e+01,-2.061226604289913666e+00,5.545438051240125787e+01,8.117963228972803336e+01,9.561484336853027344e+00,-9.179025292396545410e-01,-3.059675097465515137e-01,5.500000000000000000e+02
6.824893760176564683e+00,4.375518484359417926e+00,7.957304518008822924e+01,3.875519322136278788e+01,1.270321250177767070e+01,8.263254133507871302e-01,5.864329533060117683e+01,8.138820006848618505e+01,9.446745872497558594e+00,-9.179025292396545410e-01,-3.824593424797058105e-01,5.510000000000000000e+02
1.032712987455488474e+01,6.250098220811196370e+00,8.314205180512908555e+01,4.278961908447308815e+01,1.607672784981332370e+01,3.920382262351267855e+00,6.209450173158802500e+01,8.098410839342614054e+01,9.446745872497558594e+00,-9.179025292396545410e-01,-3.824593424797058105e-01,5.520000000000000000e+02
1.227889715475430421e+01,7.035462256384562352e+00,8.537526676810193749e+01,4.639618194932518236e+01,1.877331257029254630e+01,6.177096063482167665e+00,6.494532027331297286e+01,7.911331176151179534e+01,9.446745872497558594e+00,-9.179025292396545410e-01,-3.824593424797058105e-01,5.530000000000000000e+02
1.242142286747366597e+01,7.372585454389991355e+00,8.563035247292100394e+01,4.865721063696946658e+01,1.985150071835050767e+01,7.180348809011775302e+00,6.684009952314227121e+01,7.566291868554253597e+01,9.446745872497558594e+00,-9.179025292396545410e-01,-3.824593424797058105e-01,5.540000000000000000e+02
1.151301893017989642e+01,8.193842615826724796e+00,8.425614504253280757e+01,4.927977946090504702e+01,1.924613189451702056e+01,7.245034549829142634e+00,6.793878716492690728e+01,7.124679886907142645e+01,9.446745872497558594e+00,-9.179025292396545410e-01,-3.824593424797058105e-01,5.550000000000000000e+02
1.066514298091169621e+01,9.772805692762631224e+00,8.208882187792005425e+01,4.863253206471017620e+01,1.756600548237838666e+01,7.009408553691173438e+00,6.863803742530944874e+01,6.668425142000342021e+01,9.446745872497558594e+00,-9.179025292396545410e-01,-3.824593424797058105e-01,5.560000000000000000e+02
1.068077267764238059e+01,1.141978554760135012e+01,7.991566847708054411e+01,4.745983170797262574e+01,1.562747695659345482e+01,6.950312141492759110e+00,6.924768683813090320e+01,6.253411515615334793e+01,9.446745872497558594e+00,-9.179025292396545410e-01,-3.824593424797058105e-01,5.570000000000000000e+02
1.177252408936146821e+01,1.208187956272922747e+01,7.819974520905816462e+01,4.647379452553104784e+01,1.405708615560070029e+01,7.195464288368384587e+00,6.983025332247416372e+01,5.902652302168462484e+01,9.446745872497558594e+00,-9.179025292396545410e-01,-3.824593424797058105e-01,5.580000000000000000e+02
1.362955796032292710e+01,1.127374609581056575e+01,7.702538165763326106e+01,4.606122106186558085e+01,1.311203592104175186e+01,7.649152163157850737e+00,7.026854060717232642e+01,5.623997334777595825e+01,9.446745872497558594e+00,-9.179025292396545410e-01,-3.824593424797058105e-01,5.590000000000000000e+02
1.562303318846170441e+01,9.498371513207530370e+00,7.613323350259997824e+01,4.622768033741886029e+01,1.270911546440402162e+01,8.191280999646551209e+00,7.045659074863397109e+01,5.417914654479682213e+01,9.446745872497558594e+00,-9.179025292396545410e-01,-3.824593424797058105e-01,5.600000000000000000e+02
1.704078422746351862e+01,7.842998410669679288e+00,7.505757361949508777e+01,4.674066922760903253e+01,1.260181786030443618e+01,8.753287682786321966e+00,7.045419061933171179e+01,5.267342677929445927e+01,9.446745872497558594e+00,-9.179025292396545410e-01,-3.824593424797058105e-01,5.610000000000000000e+02
1.737477132834283111e+01,7.177246905435822555e+00,7.342813303154252935e+01,4.732468725569196977e+01,1.260227695693356509e+01,9.288454855373856844e+00,7.048120178054341523e+01,5.133246448794125172e+01,9.446745872497558594e+00,-9.179025292396545410e-01,-3.824593424797058105e-01,5.620000000000000000e+02
1.658723534314231074e+01,7.656315306869146298e+00,7.128547379210976942e+01,4.777433708483658847e+01,1.269603728251604480e+01,9.753306724040157860e+00,7.071907173938416236e+01,4.973782338782621082e+01,9.446745872497558594e+00,-9.179025292396545410e-01,-3.824593424797058105e-01,5.630000000000000000e+02
1.515431299587180547e+01,8.852786274392201449e+00,6.913356467476114631e+01,4.797326388164219679e+01,1.296886973759683315e+01,1.015649175584258046e+01,7.107288825319847092e+01,4.774666858664932079e+01,9.446745872497558594e+00,-9.179025292396545410e-01,-3.824593424797058105e-01,5.640000000000000000e+02
1.378686801159892639e+01,1.025914309216022957e+01,6.762497426603840722e+01,4.790174460868001916e+01,1.345237889726558933e+01,1.062191734027510392e+01,7.115680024396351655e+01,4.561632293746879441e+01,9.446745872497558594e+00,-9.179025292396545410e-01,-3.824593424797058105e-01,5.650000000000000000e+02
1.299979473287567089e+01,1.165564470839490241e+01,6.710840375782208866e+01,4.765695451591818710e+01,1.407640860887477174e+01,1.135114144933686475e+01,7.060620193095746799e+01,4.381335359856166178e+01,9.446745872497558594e+00,-9.179025292396545410e-01,-3.824593424797058105e-01,5.660000000000000000e+02
1.286267912824223458e+01,1.309097556887172686e+01,6.742606488584715407e+01,4.743225803004315821e+01,1.479216802220616955e+01,1.248729466506119934e+01,6.949384440617905057e+01,4.268626708315787255e+01,9.446745872497558594e+00,-9.179025292396545410e-01,-3.824593424797058105e-01,5.670000000000000000e+02
1.312327168770934804e+01,1.461961521376724704e+01,6.811897730606324330e+01,4.740716621480532922e+01,1.571290327979659196e+01,1.398965801916347118e+01,6.842852672653498303e+01,4.227422587235196261e+01,9.446745872497558594e+00,-9.179025292396545410e-01,-3.824593424797058105e-01,5.680000000000000000e+02
1.354744703212782042e+01,1.611098621610835835e+01,6.881532010301634728e+01,4.760629338505896158e+01,1.706018583742479677e+01,1.563308724646049086e+01,6.812489298842228891e+01,4.234417211091204081e+01,9.446745872497558594e+00,-9.179025292396545410e-01,-3.824593424797058105e-01,5.690000000000000000e+02
1.414364723686776415e+01,1.728560642244337942e+01,6.944070676844057743e+01,4.786143912320767413e+01,1.891447190484177554e+01,1.713874700137603213e+01,6.873798417000580230e+01,4.252669654256533249e+01,9.446745872497558594e+00,-9.179025292396545410e-01,-3.824593424797058105e-01,5.700000000000000000e+02
1.507839008635710343e+01,1.788147509169721161e+01,7.011372474713607517e+01,4.792508860174348229e+01,2.100141045382042648e+01,1.832020017120157718e+01,6.957721980601127143e+01,4.240410117970895953e+01,9.446745872497558594e+00,-9.179025292396545410e-01,-3.824593424797058105e-01,5.710000000000000000e+02
1.639730661222711205e+01,1.777833167996141128e+01,7.090309424770384794e+01,4.763404227776845801e+01,2.275798448116984218e+01,1.912498892584335408e+01,6.955549918239194085e+01,4.157557865014678100e+01,9.484992027282714844e+00,-8.796565532684326172e-01,-3.442134261131286621e-01,5.720000000000000000e+02
1.785190314740611939e+01,1.703241872324360884e+01,7.171018427295348374e+01,4.698424733072170056e+01,2.367865060570693458e+01,1.957908575393958017e+01,6.808947168940721895e+01,3.981671199772608816e+01,9.484992027282714844e+00,-8.796565532684326172e-01,-3.442134261131286621e-01,5.730000000000000000e+02
1.899888314114650711e+01,1.587709211178298574e+01,7.235607278211318771e+01,4.609587998452479951e+01,2.367262612655031262e+01,1.974989586026276811e+01,6.568453060977481073e+01,3.730731775953972829e+01,9.484992027282714844e+00,-8.796565532684326172e-01,-3.442134261131286621e-01,5.740000000000000000e+02
1.947523875956176198e+01,1.469964324837565073e+01,7.272033068881501094e+01,4.517074080468955799e+01,2.313228083282228909e+01,1.980154089341158397e+01,6.365284687332314206e+01,3.470596107394521823e+01,9.484992027282714844e+00,-8.796565532684326172e-01,-3.442134261131286621e-01,5.750000000000000000e+02
1.922367004702755366e+01,1.393836347280739574e+01,7.278110110992201953e+01,4.450555588180577615e+01,2.264714499238107237e+01,2.003901966650300892e+01,6.315638369148655329e+01,3.287117917472642148e+01,9.484992027282714844e+00,-8.796565532684326172e-01,-3.442134261131286621e-01,5.760000000000000000e+02
1.850410236887910287e+01,1.388687853331430233e+01,7.255472168085179874e+01,4.447238745444701635e+01,2.257936284753668588e+01,2.077871959147159941e+01,6.436504536309803370e+01,3.232683842506958172e+01,9.484992027282714844e+00,-8.796565532684326172e-01,-3.442134261131286621e-01,5.770000000000000000e+02
1.771711476110431249e+01,1.450945072827016702e+01,7.205181819658901077e+01,4.535073036095855059e+01,2.283323005894999369e+01,2.205645803370134672e+01,6.641893658627304831e+01,3.286974682306390605e+01,9.484992027282714844e+00,-8.796565532684326172e-01,-3.442134261131286621e-01,5.780000000000000000e+02
1.717332668738526991e+01,1.543566163578361738e+01,7.131656358623513370e+01,4.707241669289942365e+01,2.299619719011752750e+01,2.343932463232340524e+01,6.816446799679397373e+01,3.368045253847230924e+01,9.484992027282714844e+00,-8.796565532684326172e-01,-3.442134261131286621e-01,5.790000000000000000e+02
1.694794999820805970e+01,1.620173204909951892e+01,7.047663800193549832e+01,4.913457885678508319e+01,2.274638921751102316e+01,2.424197912856470793e+01,6.899356438622999121e+01,3.390657345675572287e+01,9.484992027282714844e+00,-8.796565532684326172e-01,-3.442134261131286621e-01,5.800000000000000000e+02
1.688804382993112085e+01,1.656318135972105665e+01,6.970144658540448290e+01,5.084953059471808956e+01,2.217678103152502445e+01,2.406926415992347756e+01,6.910887509595340816e+01,3.325619208734133281e+01,9.484992027282714844e+00,-8.796565532684326172e-01,-3.442134261131286621e-01,5.810000000000000000e+02
1.676722528979007620e+01,1.662521533721155720e+01,6.908470543637304218e+01,5.179295771511533530e+01,2.173235903031309135e+01,2.322350464785267832e+01,6.911377217018161900e+01,3.211473503365050419e+01,9.484992027282714844e+00,-8.796565532684326172e-01,-3.442134261131286621e-01,5.820000000000000000e+02
1.650613257682925905e+01,1.669784524165879702e+01,6.858155150057791616e+01,5.207612348911789013e+01,2.178570813420446939e+01,2.254116133043498849e+01,6.942453370512521360e+01,3.111342675640480593e+01,9.484992027282714844e+00,-8.796565532684326172e-01,-3.442134261131286621e-01,5.830000000000000000e+02
1.629968683196057100e+01,1.703178890535855317e+01,6.808502988773761899e+01,5.219131963389008888e+01,2.222124794850242324e+01,2.272593391145710484e+01,7.004599972857613466e+01,3.055505607621307718e+01,9.484992027282714844e+00,-8.796565532684326172e-01,-3.442134261131286621e-01,5.840000000000000000e+02
1.652017813400379964e+01,1.768301656046605785e+01,6.757686455551083782e+01,5.257251626103243325e+01,2.245859105532144895e+01,2.377232929568708641e+01,7.078957576612083358e+01,3.020501004013931379e+01,9.484992027282714844e+00,-8.796565532684326172e-01,-3.442134261131286621e-01,5.850000000000000000e+02
1.739628913182605174e+01,1.855939698110523750e+01,6.718263525671864045e+01,5.325337418780327425e+01,2.195587091354900622e+01,2.501430183082993608e+01,7.156171884564537322e+01,2.958578345835849177e+01,9.484992027282714844e+00,-8.796565532684326172e-01,-3.442134261131286621e-01,5.860000000000000000e+02
1.868574929636815796e+01,1.952460453812091146e+01,6.707314071801010869e+01,5.389128309598163469e+01,2.077454295376082882e+01,2.574555202707415447e+01,7.238016859847630258e+01,2.846809125968502485e+01,9.484992027282714844e+00,-8.796565532684326172e-01,-3.442134261131286621e-01,5.870000000000000000e+02
1.967267518852167996e+01,2.041521491281673661e+01,6.731481523062757333e+01,5.407752131539382390e+01,1.964848089721635915e+01,2.580162523342733039e+01,7.316021454206929775e+01,2.709668621746095596e+01,9.484992027282714844e+00,-8.796565532684326172e-01,-3.442134261131286621e-01,5.880000000000000000e+02
1.963778102575452067e+01,2.100079554412877769e+01,6.783200628507620422e+01,5.363575781806866871e+01,1.943973444418952568e+01,2.557175280388401006e+01,7.361551849684110493e+01,2.597038354275719030e+01,9.484992027282714844e+00,-8.796565532684326172e-01,-3.442134261131286621e-01,5.890000000000000000e+02
1.851267507396551082e+01,2.105986015110829612e+01,6.851600803660767269e+01,5.270295501360669732e+01,2.044984357823341270e+01,2.550945996127848048e+01,7.348021311267075362e+01,2.540978427355730673e+01,9.484992027282714844e+00,-8.796565532684326172e-01,-3.442134261131286621e-01,5.900000000000000000e+02
