F3,F4,C3,C4,P3,P4,Cz,Pz,Accel_x,Accel_y,Accel_z,Sample
-4.820321919396519661e-11,-3.637978807091712952e-11,-2.910383045673370361e-11,-6.002665031701326370e-11,-3.547029336914420128e-11,-5.638867150992155075e-11,-3.728928277269005775e-11,-3.456079866737127304e-11,9.408499717712402344e+00,-9.179025292396545410e-01,-3.824593424797058105e-01,2.260000000000000000e+02
-4.029862445583603403e+00,-1.621669395230128430e+00,1.882123701722775877e+00,6.793562170450968551e+00,5.161183812686431338e+00,3.437769376107098651e+00,6.405784904605752672e+00,3.690660882917654817e+00,9.408499717712402344e+00,-9.179025292396545410e-01,-3.824593424797058105e-01,2.270000000000000000e+02
-9.967755586891144048e+00,-4.734714056243319646e+00,2.401583847808979044e+00,7.940316702815835015e+00,4.170840410765777051e+00,-1.412037645168311428e-01,9.015627260979272251e+00,4.558511995143817330e+00,9.408499717712402344e+00,-9.179025292396545410e-01,-3.824593424797058105e-01,2.280000000000000000e+02
-1.830226622270402004e+01,-1.038010816069709108e+01,9.208612908460054314e-01,2.754496050642046612e+00,-4.072612862399182632e+00,-1.160148376946563076e+01,6.596197371661219222e+00,2.017928099996424862e+00,9.446745872497558594e+00,-8.796565532684326172e-01,-3.824593424797058105e-01,2.290000000000000000e+02
-2.786703264369680255e+01,-1.858135246551955788e+01,-2.268643830755536328e+00,-4.324730068589815346e+00,-1.534806266327268531e+01,-2.540339661107100255e+01,1.256155370953820238e+00,-2.038773142783611547e+00,9.446745872497558594e+00,-8.796565532684326172e-01,-3.824593424797058105e-01,2.300000000000000000e+02
-3.686098743807815481e+01,-2.801225775962393527e+01,-6.282584183434664737e+00,-8.233964739801194810e+00,-2.450436402791365254e+01,-3.514144857153951307e+01,-3.066245417244317650e+00,-5.056324789780774154e+00,9.446745872497558594e+00,-8.796565532684326172e-01,-3.824593424797058105e-01,2.310000000000000000e+02
-4.410972709426914662e+01,-3.648155678551665915e+01,-1.011104080893619539e+01,-7.745688754934235476e+00,-2.988857186590939818e+01,-3.913088911603335873e+01,-3.284435086216944910e+00,-5.883297314609990281e+00,9.446745872497558594e+00,-8.796565532684326172e-01,-3.824593424797058105e-01,2.320000000000000000e+02
-4.954838478062174545e+01,-4.225105971162520291e+01,-1.290590987310588389e+01,-5.729590958109838539e+00,-3.371580481826276809e+01,-4.084843093038398365e+01,8.591991321009118110e-01,-5.343943759428839257e+00,9.446745872497558594e+00,-8.796565532684326172e-01,-3.824593424797058105e-01,2.330000000000000000e+02
-5.382103105560054246e+01,-4.530303131807522732e+01,-1.415851429422127694e+01,-5.695027306797783240e+00,-3.885435028704341676e+01,-4.466456163864859263e+01,6.795233828618620464e+00,-5.213027434866489784e+00,9.446745872497558594e+00,-8.796565532684326172e-01,-3.824593424797058105e-01,2.340000000000000000e+02
-5.767366273328207171e+01,-4.742794097180740209e+01,-1.394131759571246221e+01,-8.601023512375832070e+00,-4.591866419672169286e+01,-5.175632280267745955e+01,1.095467546856070840e+01,-6.864305508273901069e+00,9.446745872497558594e+00,-8.796565532684326172e-01,-3.824593424797058105e-01,2.350000000000000000e+02
-6.171773806251258065e+01,-5.087405544108150934e+01,-1.306347565580290393e+01,-1.285856105260336335e+01,-5.343152121985258418e+01,-6.000231923565661418e+01,1.108364982028615486e+01,-1.070021983024616929e+01,9.446745872497558594e+00,-8.796565532684326172e-01,-3.824593424797058105e-01,2.360000000000000000e+02
-6.648552218855365936e+01,-5.662550200114947074e+01,-1.278894605132245488e+01,-1.664404910972461948e+01,-6.006019304675464809e+01,-6.698276516384794377e+01,7.478391010516133974e+00,-1.637508154178431141e+01,9.446745872497558594e+00,-8.796565532684326172e-01,-3.824593424797058105e-01,2.370000000000000000e+02
-7.237013207839390816e+01,-6.380977216080009384e+01,-1.409131936700759979e+01,-1.957197768396054016e+01,-6.600441927144493093e+01,-7.236756045360380085e+01,2.411961808521482453e+00,-2.320236191819913074e+01,9.446745872497558594e+00,-8.796565532684326172e-01,-3.824593424797058105e-01,2.380000000000000000e+02
-7.934166239173646318e+01,-7.073520603524593753e+01,-1.695354872705138405e+01,-2.225711078921995068e+01,-7.221727453119456186e+01,-7.750624334486019507e+01,-1.651978295901244564e+00,-3.039600882335707865e+01,9.446745872497558594e+00,-8.796565532684326172e-01,-3.824593424797058105e-01,2.390000000000000000e+02
-8.677618302472637879e+01,-7.653333195299910585e+01,-2.035730630924899742e+01,-2.498748436990990740e+01,-7.888834707928981516e+01,-8.346067295183547685e+01,-3.660955781277152710e+00,-3.727832855032374937e+01,9.446745872497558594e+00,-8.796565532684326172e-01,-3.824593424797058105e-01,2.400000000000000000e+02
-9.372886211414970603e+01,-8.183721226441593899e+01,-2.304535303947341163e+01,-2.738028246463727555e+01,-8.520176010561135627e+01,-9.000643627169210959e+01,-4.274970021177978197e+00,-4.355761012720086001e+01,9.446745872497558594e+00,-8.796565532684326172e-01,-3.824593424797058105e-01,2.410000000000000000e+02
-9.952857716076960060e+01,-8.791251763655964169e+01,-2.440740755719707522e+01,-2.916910510185880412e+01,-9.048224751274392474e+01,-9.633685217568745429e+01,-4.820844393913830572e+00,-4.939206869481313333e+01,9.446745872497558594e+00,-8.796565532684326172e-01,-3.824593424797058105e-01,2.420000000000000000e+02
-1.042151342895840571e+02,-9.518867769306234550e+01,-2.475538299375148199e+01,-3.076097604448750644e+01,-9.513290810535454511e+01,-1.021138925465374996e+02,-5.934456504157424206e+00,-5.503299470137790195e+01,9.446745872497558594e+00,-8.796565532684326172e-01,-3.824593424797058105e-01,2.430000000000000000e+02
-1.084538433344896475e+02,-1.026766330445043423e+02,-2.486917872937647189e+01,-3.272481686597529915e+01,-1.001990279717047088e+02,-1.075240970005088457e+02,-7.076413792734456365e+00,-6.036155738833076612e+01,9.446745872497558594e+00,-8.796565532684326172e-01,-3.824593424797058105e-01,2.440000000000000000e+02
-1.130257271470654814e+02,-1.088174327842580169e+02,-2.536117057627870963e+01,-3.499114109721085697e+01,-1.062015370141625681e+02,-1.126426701521504583e+02,-7.267108762919633591e+00,-6.492278867288132460e+01,9.446745872497558594e+00,-8.796565532684326172e-01,-3.824593424797058105e-01,2.450000000000000000e+02
-1.182966100869534785e+02,-1.128656088342486328e+02,-2.640985535501113191e+01,-3.697913837493706524e+01,-1.126928102732572370e+02,-1.172743587692211804e+02,-6.257073724646943447e+00,-6.854389240647014958e+01,9.446745872497558594e+00,-8.796565532684326172e-01,-3.824593424797058105e-01,2.460000000000000000e+02
-1.240146603418479572e+02,-1.154648938647369505e+02,-2.788251926004613779e+01,-3.857285720452455280e+01,-1.189379420742307047e+02,-1.215363025787337392e+02,-4.987578297318577825e+00,-7.184039439222669898e+01,9.446745872497558594e+00,-8.796565532684326172e-01,-3.824593424797058105e-01,2.470000000000000000e+02
-1.295263703724995139e+02,-1.179771267861196975e+02,-2.950788969495624769e+01,-4.065330767295654368e+01,-1.247720849956112943e+02,-1.262516478858760820e+02,-4.932835019554659084e+00,-7.591350819653689541e+01,9.446745872497558594e+00,-8.796565532684326172e-01,-3.824593424797058105e-01,2.480000000000000000e+02
-1.342453981492899402e+02,-1.213519765978562646e+02,-3.088303428162635100e+01,-4.433711591794235574e+01,-1.305987815336557105e+02,-1.323496984412031452e+02,-6.943228274706598313e+00,-8.138020604420853488e+01,9.446745872497558594e+00,-8.796565532684326172e-01,-3.824593424797058105e-01,2.490000000000000000e+02
-1.380805535884328492e+02,-1.256247413269502431e+02,-3.147638221137640357e+01,-4.967531205916657200e+01,-1.366471445246306757e+02,-1.397959638637785247e+02,-1.060694194290317682e+01,-8.768320784705792903e+01,9.446745872497558594e+00,-8.796565532684326172e-01,-3.824593424797058105e-01,2.500000000000000000e+02
-1.415267862771761429e+02,-1.303191235028443771e+02,-3.085592524564617634e+01,-5.532333438675323123e+01,-1.424778543675865876e+02,-1.473272361060971889e+02,-1.459728736432953156e+01,-9.342172586975812010e+01,9.446745872497558594e+00,-8.796565532684326172e-01,-3.824593424797058105e-01,2.510000000000000000e+02
-1.453118591833317623e+02,-1.350804144662852195e+02,-2.902386962451873842e+01,-5.962398093135652744e+01,-1.473028292096178120e+02,-1.534198536093208531e+02,-1.755685086838184361e+01,-9.739065279661917884e+01,9.446745872497558594e+00,-8.796565532684326172e-01,-3.824593424797058105e-01,2.520000000000000000e+02
-1.498443650091303425e+02,-1.398264702135811604e+02,-2.649955612671874405e+01,-6.196896691917663702e+01,-1.507162960698569805e+02,-1.575474125346008805e+02,-1.876451300153985358e+01,-9.934551202453621954e+01,9.446745872497558594e+00,-8.796565532684326172e-01,-3.824593424797058105e-01,2.530000000000000000e+02
-1.549057308390392791e+02,-1.444368189226797767e+02,-2.398437857587668987e+01,-6.304500752096737415e+01,-1.530373144732093351e+02,-1.604664801656617783e+02,-1.822739274405103060e+01,-9.987249000038445956e+01,9.599730491638183594e+00,-9.561483860015869141e-01,-2.677215635776519775e-01,2.540000000000000000e+02
-1.598712434270109952e+02,-1.485607195751072140e+02,-2.188201648787435261e+01,-6.387074447083250561e+01,-1.549919413167017410e+02,-1.633520774534508746e+02,-1.641059146360930754e+01,-9.968968844772007287e+01,9.599730491638183594e+00,-9.561483860015869141e-01,-2.677215635776519775e-01,2.550000000000000000e+02
-1.642700852973757719e+02,-1.518996322073307965e+02,-2.012426707946178794e+01,-6.480597374619628681e+01,-1.571479697401273370e+02,-1.667671850088790961e+02,-1.397981787917797192e+01,-9.916504573139627610e+01,9.599730491638183594e+00,-9.561483860015869141e-01,-2.677215635776519775e-01,2.560000000000000000e+02
-1.681480473816054655e+02,-1.546431710227752774e+02,-1.843069136619033088e+01,-6.555059271399386489e+01,-1.595982606535089872e+02,-1.704398039654060995e+02,-1.165972847914417798e+01,-9.839102864351571043e+01,9.599730491638183594e+00,-9.561483860015869141e-01,-2.677215635776519775e-01,2.570000000000000000e+02
-1.718965021990270543e+02,-1.574689736849431938e+02,-1.669511270907878497e+01,-6.592372314925705723e+01,-1.620452976527267310e+02,-1.738581472608739205e+02,-1.007156746980490425e+01,-9.749732721668533486e+01,9.599730491638183594e+00,-9.561483860015869141e-01,-2.677215635776519775e-01,2.580000000000000000e+02
-1.757684883327574425e+02,-1.609976702391491017e+02,-1.511628528846358677e+01,-6.637341595684392814e+01,-1.641253437001550992e+02,-1.769190731228200093e+02,-9.520657528524679947e+00,-9.675558817939145229e+01,9.599730491638183594e+00,-9.561483860015869141e-01,-2.677215635776519775e-01,2.590000000000000000e+02
-1.796281283045309465e+02,-1.652361947615695499e+02,-1.403049686549820763e+01,-6.762332164917825139e+01,-1.657699533400227665e+02,-1.800295339289205003e+02,-9.921311345620779321e+00,-9.645029343104124564e+01,9.599730491638183594e+00,-9.561483860015869141e-01,-2.677215635776519775e-01,2.600000000000000000e+02
-1.832203087781031172e+02,-1.695844467265778803e+02,-1.372241633408884809e+01,-6.992509476594750595e+01,-1.674477114914425329e+02,-1.837521363647974795e+02,-1.099553095949158887e+01,-9.680680285820199060e+01,9.599730491638183594e+00,-9.561483860015869141e-01,-2.677215635776519775e-01,2.610000000000000000e+02
-1.866358155078437449e+02,-1.733676903792779740e+02,-1.441044035388813427e+01,-7.277987509647846309e+01,-1.700787317885678931e+02,-1.884310644869037787e+02,-1.257834668640361997e+01,-9.807920996422581084e+01,9.599730491638183594e+00,-9.561483860015869141e-01,-2.677215635776519775e-01,2.620000000000000000e+02
-1.903957037811419468e+02,-1.763376729549913762e+02,-1.630918202492330238e+01,-7.540858234090592305e+01,-1.745336190709713264e+02,-1.940598174984243087e+02,-1.471626854673013440e+01,-1.005810127374306830e+02,9.599730491638183594e+00,-9.561483860015869141e-01,-2.677215635776519775e-01,2.630000000000000000e+02
-1.949762919109380164e+02,-1.787155065600932176e+02,-1.953794821048813901e+01,-7.743868996198216337e+01,-1.809902554793234231e+02,-2.003330524623261226e+02,-1.745926536710931032e+01,-1.044655862695517499e+02,9.599730491638183594e+00,-9.561483860015869141e-01,-2.677215635776519775e-01,2.640000000000000000e+02
-2.002366190236139118e+02,-1.808891477683619087e+02,-2.386104310280870777e+01,-7.914174159627873451e+01,-1.886989630955758912e+02,-2.067680736940847055e+02,-2.061725821730578900e+01,-1.094430606776013519e+02,9.599730491638183594e+00,-9.561483860015869141e-01,-2.677215635776519775e-01,2.650000000000000000e+02
-2.053740022874399074e+02,-1.831825888350276728e+02,-2.852635134683760043e+01,-8.110569214837323671e+01,-1.964516576119649471e+02,-2.128973060359303417e+02,-2.379552355385476403e+01,-1.148070888196680244e+02,9.599730491638183594e+00,-9.561483860015869141e-01,-2.677215635776519775e-01,2.660000000000000000e+02
-2.095101374580913216e+02,-1.858650801482508541e+02,-3.246960531004560835e+01,-8.374713957815401955e+01,-2.033832403104242985e+02,-2.184983006157117416e+02,-2.666951517439247255e+01,-1.198253422543130000e+02,9.599730491638183594e+00,-9.561483860015869141e-01,-2.677215635776519775e-01,2.670000000000000000e+02
-2.123767541195029480e+02,-1.891458978561704498e+02,-3.479584641468454720e+01,-8.706648891815984825e+01,-2.093386286776708403e+02,-2.236698588109175034e+02,-2.910460048048707904e+01,-1.240626676099891483e+02,9.599730491638183594e+00,-9.561483860015869141e-01,-2.677215635776519775e-01,2.680000000000000000e+02
-2.144737582503294107e+02,-1.929164378644068165e+02,-3.514099257957650480e+01,-9.067397684224124532e+01,-2.144321065610797632e+02,-2.285766855222127560e+02,-3.087262245104420799e+01,-1.272331314679249772e+02,9.599730491638183594e+00,-9.561483860015869141e-01,-2.677215635776519775e-01,2.690000000000000000e+02
-2.166056280019251972e+02,-1.964803015329225673e+02,-3.366056575367520054e+01,-9.394168580227869825e+01,-2.183592721326704122e+02,-2.330642429871022614e+02,-3.132091570658576529e+01,-1.288193635277293652e+02,9.599730491638183594e+00,-9.561483860015869141e-01,-2.677215635776519775e-01,2.700000000000000000e+02
-2.192864230177160607e+02,-1.987678881996962446e+02,-3.077077142624648332e+01,-9.625684747171271738e+01,-2.203686740658208691e+02,-2.366268660317909962e+02,-2.959183171261520329e+01,-1.281246379928857095e+02,9.599730491638183594e+00,-9.561483860015869141e-01,-2.677215635776519775e-01,2.710000000000000000e+02
-2.225458738166985313e+02,-1.991425812916991163e+02,-2.699175519706977866e+01,-9.737416968870184064e+01,-2.200991507960861782e+02,-2.389142293254735705e+02,-2.549822695705779552e+01,-1.250117795200198998e+02,9.599730491638183594e+00,-9.561483860015869141e-01,-2.677215635776519775e-01,2.720000000000000000e+02
-2.261790679575519789e+02,-1.981579117695328023e+02,-2.302337936756521231e+01,-9.767260927738516330e+01,-2.184333296505983526e+02,-2.403102428466909259e+02,-2.030381255558950215e+01,-1.206487060412805477e+02,9.599730491638183594e+00,-9.561483860015869141e-01,-2.677215635776519775e-01,2.730000000000000000e+02
-2.300632466397250937e+02,-1.974384980764389184e+02,-1.981154134220059859e+01,-9.803697528167958808e+01,-2.173398168589387751e+02,-2.419166917791162632e+02,-1.644710684463188954e+01,-1.172764374703820067e+02,9.599730491638183594e+00,-9.561483860015869141e-01,-2.677215635776519775e-01,2.740000000000000000e+02
-2.341953489785860256e+02,-1.985878309802264994e+02,-1.830783348279874190e+01,-9.931718230571277672e+01,-2.186453638185653290e+02,-2.447984631379058555e+02,-1.609630121332065755e+01,-1.168396985240160575e+02,9.599730491638183594e+00,-9.561483860015869141e-01,-2.677215635776519775e-01,2.750000000000000000e+02
-2.384722253924942379e+02,-2.019712240907692831e+02,-1.892731202073628083e+01,-1.017122370698371014e+02,-2.227347529183207371e+02,-2.490918753930418461e+02,-1.955699262393864046e+01,-1.195179231925280874e+02,9.599730491638183594e+00,-9.561483860015869141e-01,-2.677215635776519775e-01,2.760000000000000000e+02
-2.425266892967265449e+02,-2.064445460949805238e+02,-2.113238636813184712e+01,-1.046075245743681990e+02,-2.283199910635771630e+02,-2.538149161137507690e+02,-2.489919709711648466e+01,-1.235231839687935462e+02,9.599730491638183594e+00,-9.561483860015869141e-01,-2.677215635776519775e-01,2.770000000000000000e+02
-2.458396301355319338e+02,-2.102912436407641508e+02,-2.360147016934706699e+01,-1.070678550584025288e+02,-2.334648179079026704e+02,-2.576256872559497424e+02,-2.924467067536625109e+01,-1.264902713407423107e+02,9.599730491638183594e+00,-9.561483860015869141e-01,-2.677215635776519775e-01,2.780000000000000000e+02
-2.480675315002422394e+02,-2.125446953712989853e+02,-2.499443381426726773e+01,-1.086019106897392703e+02,-2.369531619454101019e+02,-2.598897025477590432e+02,-3.075871685264746702e+01,-1.273107312011125032e+02,9.599730491638183594e+00,-9.561483860015869141e-01,-2.677215635776519775e-01,2.790000000000000000e+02
-2.493448716355096622e+02,-2.135623928854765836e+02,-2.480409440931953213e+01,-1.095441533357270600e+02,-2.389013672418091119e+02,-2.611168081977502879e+02,-2.980792112207473110e+01,-1.268190870040830305e+02,9.599730491638183594e+00,-9.561483860015869141e-01,-2.677215635776519775e-01,2.800000000000000000e+02
-2.503383789982890448e+02,-2.144746464331465177e+02,-2.364155295198406748e+01,-1.107286179049656312e+02,-2.402893437097341121e+02,-2.624189720367680820e+02,-2.846440295007596433e+01,-1.267885981475610606e+02,9.523238182067871094e+00,-9.561483860015869141e-01,-3.442134261131286621e-01,2.810000000000000000e+02
-2.519786177829601002e+02,-2.161326820806912110e+02,-2.272773260334406586e+01,-1.127649116686443449e+02,-2.420187566484009949e+02,-2.645417213144705784e+02,-2.888620688457149299e+01,-1.282535679344532582e+02,9.523238182067871094e+00,-9.561483860015869141e-01,-3.442134261131286621e-01,2.820000000000000000e+02
-2.549556115788191164e+02,-2.184862129836060376e+02,-2.297400668964291981e+01,-1.155456047403026787e+02,-2.443289229262236404e+02,-2.673618193039474136e+02,-3.186459097782881145e+01,-1.307014173418874634e+02,9.523238182067871094e+00,-9.561483860015869141e-01,-3.442134261131286621e-01,2.830000000000000000e+02
-2.592113372294529654e+02,-2.207859145991928926e+02,-2.431895052438812854e+01,-1.183667536410084722e+02,-2.468765189130613180e+02,-2.702304184873091799e+02,-3.647010568057930868e+01,-1.327122485021218381e+02,9.523238182067871094e+00,-9.561483860015869141e-01,-3.442134261131286621e-01,2.840000000000000000e+02
-2.637644566473145460e+02,-2.222529468186107806e+02,-2.577081605646890239e+01,-1.204927293970304163e+02,-2.491535032434171626e+02,-2.727011935320542761e+02,-4.078131932624546607e+01,-1.332309717375283071e+02,9.523238182067871094e+00,-9.561483860015869141e-01,-3.442134261131286621e-01,2.850000000000000000e+02
-2.671268087609519171e+02,-2.226034690221563324e+02,-2.609659706678985458e+01,-1.216511443795297964e+02,-2.507942680772471249e+02,-2.748850434677719932e+02,-4.303454406452055991e+01,-1.322322624817243195e+02,9.523238182067871094e+00,-9.561483860015869141e-01,-3.442134261131286621e-01,2.860000000000000000e+02
-2.682073916036156334e+02,-2.221357682004968410e+02,-2.467246162715400715e+01,-1.221072068553175995e+02,-2.516513276748455610e+02,-2.771548187682042226e+02,-4.251184793113407068e+01,-1.303600240003461295e+02,9.523238182067871094e+00,-9.561483860015869141e-01,-3.442134261131286621e-01,2.870000000000000000e+02
-2.671416771598906053e+02,-2.215063494835308120e+02,-2.192735133921632951e+01,-1.223779867514799662e+02,-2.518109050850448511e+02,-2.796239251314432295e+02,-3.983685250813277889e+01,-1.281952769642589374e+02,9.523238182067871094e+00,-9.561483860015869141e-01,-3.442134261131286621e-01,2.880000000000000000e+02
-2.653432850511148899e+02,-2.214207643271770394e+02,-1.909788289110338155e+01,-1.228909676671144098e+02,-2.516635302700201464e+02,-2.820171765538061663e+02,-3.663185169212442815e+01,-1.260092443161386200e+02,9.523238182067871094e+00,-9.561483860015869141e-01,-3.442134261131286621e-01,2.890000000000000000e+02
-2.645838469337741117e+02,-2.223483913355842105e+02,-1.744787211364632640e+01,-1.238218872566440041e+02,-2.518822598573153755e+02,-2.840538708333567683e+02,-3.466170840001814213e+01,-1.240874737327392268e+02,9.523238182067871094e+00,-9.561483860015869141e-01,-3.442134261131286621e-01,2.900000000000000000e+02
-2.657299314912741011e+02,-2.243144777089144100e+02,-1.747042361197031823e+01,-1.251178407358304412e+02,-2.531342813718358684e+02,-2.858569887690762243e+02,-3.485068200938349037e+01,-1.229803890929281351e+02,9.523238182067871094e+00,-9.561483860015869141e-01,-3.442134261131286621e-01,2.910000000000000000e+02
-2.681626998469233740e+02,-2.268822483274843762e+02,-1.861692071535458126e+01,-1.265884841802803749e+02,-2.556377502594959878e+02,-2.878759829321745656e+02,-3.676277436317195679e+01,-1.231834529113307326e+02,9.523238182067871094e+00,-9.561483860015869141e-01,-3.442134261131286621e-01,2.920000000000000000e+02
-2.703901123529619781e+02,-2.294122959055724777e+02,-1.974185659905856483e+01,-1.280037694474845011e+02,-2.589284209050235859e+02,-2.903773717596313872e+02,-3.897039561133351526e+01,-1.245417920602121740e+02,9.523238182067871094e+00,-9.561483860015869141e-01,-3.442134261131286621e-01,2.930000000000000000e+02
-2.713083583446589273e+02,-2.314423284986829685e+02,-1.992740135518465650e+01,-1.292069710563816898e+02,-2.621065207610081416e+02,-2.930721157598873106e+02,-4.011212956675262831e+01,-1.261242984527852968e+02,9.523238182067871094e+00,-9.561483860015869141e-01,-3.442134261131286621e-01,2.940000000000000000e+02
-2.709960794688104215e+02,-2.328604363449297807e+02,-1.905887113712606151e+01,-1.302046879083120530e+02,-2.644104630806091336e+02,-2.953215163223151194e+02,-3.981450333263524044e+01,-1.268471065458575140e+02,9.523238182067871094e+00,-9.561483860015869141e-01,-3.442134261131286621e-01,2.950000000000000000e+02
-2.703911309971745141e+02,-2.337089905958661120e+02,-1.772395297600451158e+01,-1.311266536609975901e+02,-2.656498740418196576e+02,-2.967168846670381299e+02,-3.870589549523515416e+01,-1.262696761161328141e+02,9.523238182067871094e+00,-9.561483860015869141e-01,-3.442134261131286621e-01,2.960000000000000000e+02
-2.702931289651612587e+02,-2.338626945856157135e+02,-1.659499386521520137e+01,-1.320361490867653629e+02,-2.661611656552381646e+02,-2.974124701847254073e+02,-3.756605531315176449e+01,-1.247629662585763981e+02,9.523238182067871094e+00,-9.561483860015869141e-01,-3.442134261131286621e-01,2.970000000000000000e+02
-2.707367155465605038e+02,-2.330338152605904725e+02,-1.587649676887622263e+01,-1.327505529314594241e+02,-2.663917919790760607e+02,-2.978594066482337439e+02,-3.648639917318814696e+01,-1.229057640311684736e+02,9.523238182067871094e+00,-9.561483860015869141e-01,-3.442134261131286621e-01,2.980000000000000000e+02
-2.712852509470155837e+02,-2.312051521686349815e+02,-1.527445251625090350e+01,-1.328921243167742432e+02,-2.665251896204856621e+02,-2.982522933242325962e+02,-3.488994411399562523e+01,-1.207944459957602703e+02,9.523238182067871094e+00,-9.561483860015869141e-01,-3.442134261131286621e-01,2.990000000000000000e+02
-2.717698531235620294e+02,-2.290481204410302780e+02,-1.441179470614747515e+01,-1.322031157860733401e+02,-2.664454607468709355e+02,-2.983293968370799121e+02,-3.237988595501360578e+01,-1.180316459685795962e+02,9.523238182067871094e+00,-9.561483860015869141e-01,-3.442134261131286621e-01,3.000000000000000000e+02
-2.725338377460951733e+02,-2.277474293768792677e+02,-1.318953573127328127e+01,-1.308513506283413790e+02,-2.659470290532834724e+02,-2.977431563785150956e+02,-2.948946678976108160e+01,-1.143685341144423546e+02,9.523238182067871094e+00,-9.561483860015869141e-01,-3.442134261131286621e-01,3.010000000000000000e+02
-2.738653500534271643e+02,-2.281794271931512412e+02,-1.173188757161756257e+01,-1.294022358623683431e+02,-2.649152753831380096e+02,-2.965731486643757080e+02,-2.747177284158374277e+01,-1.102538812532038719e+02,9.523238182067871094e+00,-9.561483860015869141e-01,-3.442134261131286621e-01,3.020000000000000000e+02
-2.753042245078690939e+02,-2.301274596578059572e+02,-1.007504529713355623e+01,-1.284362646707945714e+02,-2.633584730230875266e+02,-2.953959256857449418e+02,-2.725188707561960655e+01,-1.066523769445161633e+02,9.523238182067871094e+00,-9.561483860015869141e-01,-3.442134261131286621e-01,3.030000000000000000e+02
-2.757315315203245518e+02,-2.323260757414622049e+02,-8.047002258471820824e+00,-1.281486197542062655e+02,-2.613842647137255426e+02,-2.948165262036588956e+02,-2.852985664976017688e+01,-1.042989360588410364e+02,9.523238182067871094e+00,-9.561483860015869141e-01,-3.442134261131286621e-01,3.040000000000000000e+02
-2.743146337419316296e+02,-2.333960880796425954e+02,-5.518664177891878353e+00,-1.282861321393249909e+02,-2.592093723815995645e+02,-2.949383941140372372e+02,-2.990787112252110092e+01,-1.031327402454023741e+02,9.523238182067871094e+00,-9.561483860015869141e-01,-3.442134261131286621e-01,3.050000000000000000e+02
-2.713867937510035517e+02,-2.328656276752009262e+02,-2.718511000646003595e+00,-1.284447845764616432e+02,-2.571412499986269040e+02,-2.953053124082874774e+02,-2.995208806035520865e+01,-1.024394181948173355e+02,9.523238182067871094e+00,-9.561483860015869141e-01,-3.442134261131286621e-01,3.060000000000000000e+02
-2.683013958331154072e+02,-2.313636076942144655e+02,-1.815607017390448163e-01,-1.284143921235140624e+02,-2.554371820636974917e+02,-2.953500763856794720e+02,-2.823987499188319816e+01,-1.014977998186545847e+02,9.523238182067871094e+00,-9.561483860015869141e-01,-3.442134261131286621e-01,3.070000000000000000e+02
-2.663415405077704463e+02,-2.298555616772841859e+02,1.677247091461140371e+00,-1.282601925400538221e+02,-2.541462900460842320e+02,-2.948926464802575538e+02,-2.553253663226723802e+01,-1.000920703251356372e+02,9.523238182067871094e+00,-9.561483860015869141e-01,-3.442134261131286621e-01,3.080000000000000000e+02
-2.657419989614747919e+02,-2.286886313610921206e+02,2.907371304504295040e+00,-1.281398730826124392e+02,-2.531667647235663026e+02,-2.942491552262292771e+02,-2.306191989424905842e+01,-9.850145070112751000e+01,9.523238182067871094e+00,-9.561483860015869141e-01,-3.442134261131286621e-01,3.090000000000000000e+02
-2.657424454050044460e+02,-2.273651481893164146e+02,3.879367172688944265e+00,-1.281066797233443140e+02,-2.525261444482504203e+02,-2.939157247217854092e+02,-2.164672401312600414e+01,-9.713765881414644809e+01,9.523238182067871094e+00,-9.561483860015869141e-01,-3.442134261131286621e-01,3.100000000000000000e+02
-2.655167966916562818e+02,-2.252110756797524118e+02,4.803882818557440260e+00,-1.280756428369920741e+02,-2.525483770253130160e+02,-2.941383037212902991e+02,-2.133706049300303675e+01,-9.623376453437163036e+01,9.523238182067871094e+00,-9.561483860015869141e-01,-3.442134261131286621e-01,3.110000000000000000e+02
-2.649360706101981577e+02,-2.222216805361136949e+02,5.485816761888600013e+00,-1.278946545437504483e+02,-2.535692161610483026e+02,-2.946889893692721216e+02,-2.166618543818094622e+01,-9.577476875624461172e+01,9.446745872497558594e+00,-9.179025292396545410e-01,-4.589512646198272705e-01,3.120000000000000000e+02
-2.644091336177884841e+02,-2.192544151212821362e+02,5.635241383762604528e+00,-1.273983642944506300e+02,-2.553735012037975594e+02,-2.949642069864702307e+02,-2.209648951965516517e+01,-9.557060472854141153e+01,9.446745872497558594e+00,-9.179025292396545410e-01,-4.589512646198272705e-01,3.130000000000000000e+02
-2.641241437112223593e+02,-2.174243905137475394e+02,5.392294884780653774e+00,-1.264630106687415037e+02,-2.569997054876748734e+02,-2.943414535122150255e+02,-2.229272500892079734e+01,-9.534503471444782008e+01,9.446745872497558594e+00,-9.179025292396545410e-01,-4.589512646198272705e-01,3.140000000000000000e+02
-2.636535230384994861e+02,-2.173136402758872237e+02,5.422571323802458210e+00,-1.251394774087943915e+02,-2.573295110301097566e+02,-2.926042722905917799e+02,-2.216514244046925342e+01,-9.484218430118744436e+01,9.446745872497558594e+00,-9.179025292396545410e-01,-4.589512646198272705e-01,3.150000000000000000e+02
-2.624201507067942316e+02,-2.186967365797494267e+02,6.367527175072268619e+00,-1.237944115002276249e+02,-2.560536669651202146e+02,-2.901782981157261929e+02,-2.181887625104263861e+01,-9.397972335012195799e+01,9.446745872497558594e+00,-9.179025292396545410e-01,-4.589512646198272705e-01,3.160000000000000000e+02
-2.604942393185957599e+02,-2.208998709832988538e+02,8.163810879191146341e+00,-1.230429860848795443e+02,-2.540620597791821638e+02,-2.879591417708521703e+02,-2.147451833110483221e+01,-9.293728528337169337e+01,9.446745872497558594e+00,-9.179025292396545410e-01,-4.589512646198272705e-01,3.170000000000000000e+02
-2.587742470480008024e+02,-2.233190280016819997e+02,9.952246199762271317e+00,-1.233619937949758878e+02,-2.527502582223812624e+02,-2.867493757966856265e+02,-2.131375410248142543e+01,-9.201729529437602650e+01,9.446745872497558594e+00,-9.179025292396545410e-01,-4.589512646198272705e-01,3.180000000000000000e+02
-2.582685166002676169e+02,-2.255780244511963701e+02,1.075122161796878117e+01,-1.246256763331139155e+02,-2.528004164377528014e+02,-2.866630359570403925e+02,-2.125995888485817886e+01,-9.132306531109895786e+01,9.446745872497558594e+00,-9.179025292396545410e-01,-4.589512646198272705e-01,3.190000000000000000e+02
-2.591618419288416248e+02,-2.273018514677866051e+02,1.030278556759594721e+01,-1.260162027566091183e+02,-2.535730463206332388e+02,-2.869961159382967253e+02,-2.088211859643774915e+01,-9.055569317020342623e+01,9.446745872497558594e+00,-9.179025292396545410e-01,-4.589512646198272705e-01,3.200000000000000000e+02
-2.605895826928763768e+02,-2.279292430253379962e+02,9.292054105734678160e+00,-1.265141441314817712e+02,-2.537006746838570734e+02,-2.867456472915350787e+02,-1.964329404251498090e+01,-8.921264499705466733e+01,9.446745872497558594e+00,-9.179025292396545410e-01,-4.589512646198272705e-01,3.210000000000000000e+02
-2.613385612808425549e+02,-2.269084952915129634e+02,8.752131370138840794e+00,-1.256287467300398930e+02,-2.522894782694770583e+02,-2.853841179586179351e+02,-1.739293118609407429e+01,-8.708166163133489590e+01,9.446745872497558594e+00,-9.179025292396545410e-01,-4.589512646198272705e-01,3.220000000000000000e+02
-2.607938226118110947e+02,-2.241653977917175098e+02,9.220984415984048610e+00,-1.237522484848328759e+02,-2.495727544381463758e+02,-2.832282968461195196e+02,-1.467250245615718995e+01,-8.455379699655497916e+01,9.446745872497558594e+00,-9.179025292396545410e-01,-4.589512646198272705e-01,3.230000000000000000e+02
-2.592909969831986245e+02,-2.203848192262290695e+02,1.036811573088573368e+01,-1.218370948401625355e+02,-2.465209818174287193e+02,-2.811130892744248513e+02,-1.248885196177309354e+01,-8.242145689279197995e+01,9.446745872497558594e+00,-9.179025292396545410e-01,-4.589512646198272705e-01,3.240000000000000000e+02
-2.576761972102043501e+02,-2.167462248372271461e+02,1.134422192333533985e+01,-1.206746527517576624e+02,-2.439613274893673633e+02,-2.797031915107037321e+02,-1.163031068231975951e+01,-8.130100269737863528e+01,9.446745872497558594e+00,-9.179025292396545410e-01,-4.589512646198272705e-01,3.250000000000000000e+02
-2.565928808098567515e+02,-2.142181118664350379e+02,1.150118429919712071e+01,-1.203518335942824251e+02,-2.420982409672433278e+02,-2.790525513437019072e+02,-1.202904471272404408e+01,-8.115543480634460138e+01,9.446745872497558594e+00,-9.179025292396545410e-01,-4.589512646198272705e-01,3.260000000000000000e+02
-2.561246384488517833e+02,-2.129262415170135228e+02,1.090950632363922068e+01,-1.202583125578076988e+02,-2.407260621664908058e+02,-2.787283176844496211e+02,-1.272692655793241556e+01,-8.131444717325916827e+01,9.446745872497558594e+00,-9.179025292396545410e-01,-4.589512646198272705e-01,3.270000000000000000e+02
-2.559644692267659707e+02,-2.120832652545249175e+02,1.033793848137202076e+01,-1.195423732934276586e+02,-2.396433002526011933e+02,-2.782628773967693405e+02,-1.254643822689808985e+01,-8.094838573467131937e+01,9.446745872497558594e+00,-9.179025292396545410e-01,-4.589512646198272705e-01,3.280000000000000000e+02
-2.558276279748693582e+02,-2.105683052234006709e+02,1.073845158475660355e+01,-1.176600394041348636e+02,-2.387526815689433306e+02,-2.774701214121060957e+02,-1.100396103500418121e+01,-7.962308391863643919e+01,9.446745872497558594e+00,-9.179025292396545410e-01,-4.589512646198272705e-01,3.290000000000000000e+02
-2.557289573638738034e+02,-2.077685497095978917e+02,1.255302906912038452e+01,-1.147112915264879121e+02,-2.379000680664456695e+02,-2.764150434210350795e+02,-8.767947065154203301e+00,-7.757101896804499575e+01,9.446745872497558594e+00,-9.179025292396545410e-01,-4.589512646198272705e-01,3.300000000000000000e+02
-2.559794500641779678e+02,-2.040864845928862223e+02,1.524528472078441155e+01,-1.114388568729626741e+02,-2.368830783334580019e+02,-2.752134839489253864e+02,-7.275606723682471966e+00,-7.556849480204675729e+01,9.446745872497558594e+00,-9.179025292396545410e-01,-4.589512646198272705e-01,3.310000000000000000e+02
-2.569735670498554896e+02,-2.007394497674650893e+02,1.741080468320353702e+01,-1.089122657238142438e+02,-2.357710698070045510e+02,-2.739392146976538243e+02,-7.739957990916423114e+00,-7.452738516082456499e+01,9.446745872497558594e+00,-9.179025292396545410e-01,-4.589512646198272705e-01,3.320000000000000000e+02
-2.589063914872851342e+02,-1.989682718969613688e+02,1.753695428928722322e+01,-1.080042921309825488e+02,-2.351156658517414826e+02,-2.726836236195048286e+02,-1.024762568460596412e+01,-7.499547123827790074e+01,9.484992027282714844e+00,-9.179025292396545410e-01,-3.824593424797058105e-01,3.330000000000000000e+02
-2.615489001296481320e+02,-1.991965341991135574e+02,1.503150117756251802e+01,-1.088898347547750518e+02,-2.356104054001087889e+02,-2.716078077239241111e+02,-1.360844470624817859e+01,-7.679761558416134903e+01,9.484992027282714844e+00,-9.179025292396545410e-01,-3.824593424797058105e-01,3.340000000000000000e+02
-2.642250918608582424e+02,-2.007336502093975241e+02,1.081104928783327068e+01,-1.108756727951910079e+02,-2.373765976740739916e+02,-2.708563346722646656e+02,-1.607070023663027314e+01,-7.903331626325655179e+01,9.484992027282714844e+00,-9.179025292396545410e-01,-3.824593424797058105e-01,3.350000000000000000e+02
-2.660819319166211017e+02,-2.022341341040793168e+02,6.906890819127056602e+00,-1.127413022855760119e+02,-2.395938012989806793e+02,-2.704101298227876669e+02,-1.640642989750699599e+01,-8.051261311867824588e+01,9.484992027282714844e+00,-9.179025292396545410e-01,-3.824593424797058105e-01,3.360000000000000000e+02
-2.665297895324135879e+02,-2.025762851934507580e+02,5.256545194577142865e+00,-1.134352333144699969e+02,-2.409580718066426925e+02,-2.700627410347836985e+02,-1.462528491025216226e+01,-8.042574932068191629e+01,9.484992027282714844e+00,-9.179025292396545410e-01,-3.824593424797058105e-01,3.370000000000000000e+02
-2.655402335908555642e+02,-2.015058436786129050e+02,6.544385493834738554e+00,-1.126727783153673954e+02,-2.406327667551244076e+02,-2.695815597596964608e+02,-1.185491039143596481e+01,-7.879939863749882534e+01,9.484992027282714844e+00,-9.179025292396545410e-01,-3.824593424797058105e-01,3.380000000000000000e+02
-2.635586181582285690e+02,-1.995958921222098752e+02,9.947748436488723200e+00,-1.110200866106442845e+02,-2.388349612475547019e+02,-2.689168002443868772e+02,-9.543146533227968575e+00,-7.638737190623817241e+01,9.484992027282714844e+00,-9.179025292396545410e-01,-3.824593424797058105e-01,3.390000000000000000e+02
-2.611201047474193047e+02,-1.976399306929726549e+02,1.390755179279813092e+01,-1.094175726083226436e+02,-2.365293522601149334e+02,-2.682445860652316014e+02,-8.571190581463042690e+00,-7.406791563182616756e+01,9.484992027282714844e+00,-9.179025292396545410e-01,-3.824593424797058105e-01,3.400000000000000000e+02
-2.585299494780973646e+02,-1.960240930238584269e+02,1.720030527693222666e+01,-1.085029079613638032e+02,-2.345787707946624323e+02,-2.677800457664721989e+02,-8.858168305736626280e+00,-7.224543673649839093e+01,9.484992027282714844e+00,-9.179025292396545410e-01,-3.824593424797058105e-01,3.410000000000000000e+02
-2.559025655896123794e+02,-1.945940335827039007e+02,1.943049856554637245e+01,-1.082269320596766420e+02,-2.332008158310957242e+02,-2.675260274078455041e+02,-9.652678464503992473e+00,-7.076792325654002980e+01,9.484992027282714844e+00,-9.179025292396545410e-01,-3.824593424797058105e-01,3.420000000000000000e+02
-2.534412553329834736e+02,-1.930525019077238085e+02,2.073035870565252026e+01,-1.080161435299855839e+02,-2.321638360027218368e+02,-2.672149109464090770e+02,-1.020645078268626094e+01,-6.937218699232073504e+01,9.484992027282714844e+00,-9.179025292396545410e-01,-3.824593424797058105e-01,3.430000000000000000e+02
-2.515496893533078264e+02,-1.914355168923495967e+02,2.120424953053566242e+01,-1.073241304945834145e+02,-2.313568282736036963e+02,-2.665435882870882551e+02,-1.029750530789578988e+01,-6.816320362649162234e+01,9.484992027282714844e+00,-9.179025292396545410e-01,-3.824593424797058105e-01,3.440000000000000000e+02
-2.505523568297778638e+02,-1.901726418569608086e+02,2.076832476595507160e+01,-1.061343532110224714e+02,-2.310206561413145891e+02,-2.655056261453687512e+02,-1.023968901629882566e+01,-6.760374386595924534e+01,9.484992027282714844e+00,-9.179025292396545410e-01,-3.824593424797058105e-01,3.450000000000000000e+02
-2.502567316627087166e+02,-1.896486859613625029e+02,1.949773856431067998e+01,-1.049956556081140207e+02,-2.313516292306455853e+02,-2.644606800841575023e+02,-1.039614344312906269e+01,-6.796471787604878045e+01,9.484992027282714844e+00,-9.179025292396545410e-01,-3.824593424797058105e-01,3.460000000000000000e+02
-2.498796345157859378e+02,-1.896963123491282204e+02,1.797533082372137869e+01,-1.045365554237308743e+02,-2.319473015427842029e+02,-2.637872267963102786e+02,-1.063463094957046451e+01,-6.877379965956106389e+01,9.484992027282714844e+00,-9.179025292396545410e-01,-3.824593424797058105e-01,3.470000000000000000e+02
-2.485808758098613680e+02,-1.895663858053204649e+02,1.712963778383073077e+01,-1.048474331043003076e+02,-2.317940653822923878e+02,-2.633817768405385777e+02,-1.024558035157429003e+01,-6.886946045043657705e+01,9.484992027282714844e+00,-9.179025292396545410e-01,-3.824593424797058105e-01,3.480000000000000000e+02
-2.462118454665155696e+02,-1.884714836961902620e+02,1.764941020944274896e+01,-1.052717732790091532e+02,-2.299494462610864502e+02,-2.625009947869108373e+02,-8.472494850345469786e+00,-6.711869094315386519e+01,9.484992027282714844e+00,-9.179025292396545410e-01,-3.824593424797058105e-01,3.490000000000000000e+02
-2.435747698773370757e+02,-1.862603281663300550e+02,1.949695276989643844e+01,-1.048518176010184106e+02,-2.263668564864231030e+02,-2.602323686966893774e+02,-5.326445644638965859e+00,-6.325866857388530207e+01,9.484992027282714844e+00,-9.179025292396545410e-01,-3.824593424797058105e-01,3.500000000000000000e+02
-2.418605280398978721e+02,-1.836179344655514569e+02,2.193593598985648896e+01,-1.031128135070071039e+02,-2.221028856006406613e+02,-2.562943212378216913e+02,-2.004789383651996104e+00,-5.817729658331995779e+01,9.484992027282714844e+00,-9.179025292396545410e-01,-3.824593424797058105e-01,3.510000000000000000e+02
-2.416952396625703159e+02,-1.815749545559314129e+02,2.401104170455391795e+01,-1.005172798539547330e+02,-2.186550181371197823e+02,-2.514679261059519604e+02,-3.890077318581006693e-01,-5.339338626943390409e+01,9.484992027282714844e+00,-9.179025292396545410e-01,-3.824593424797058105e-01,3.520000000000000000e+02
-2.426350283816282172e+02,-1.807386987912498171e+02,2.504306408721129174e+01,-9.816382833266015950e+01,-2.169560019370096597e+02,-2.471990089939237123e+02,-1.826320630336681461e+00,-5.015457156354841572e+01,9.484992027282714844e+00,-9.179025292396545410e-01,-3.824593424797058105e-01,3.530000000000000000e+02
-2.435486943975345184e+02,-1.808924411862469697e+02,2.485283925374983482e+01,-9.696360523540238319e+01,-2.168121823785182869e+02,-2.446204887854920571e+02,-6.049594984519785612e+00,-4.879575580359039577e+01,9.484992027282714844e+00,-9.179025292396545410e-01,-3.824593424797058105e-01,3.540000000000000000e+02
-2.435076968084690634e+02,-1.812568076213678978e+02,2.376662027269708233e+01,-9.699170282785951258e+01,-2.171342176644628807e+02,-2.437629492747209952e+02,-1.110024193148444738e+01,-4.868875135582766234e+01,9.484992027282714844e+00,-9.179025292396545410e-01,-3.824593424797058105e-01,3.550000000000000000e+02
-2.423530874973971549e+02,-1.811175792187866591e+02,2.255577968010140921e+01,-9.752481008429708709e+01,-2.166673904357941183e+02,-2.435761309472711673e+02,-1.441183998202518524e+01,-4.865344262910230100e+01,9.484992027282714844e+00,-9.179025292396545410e-01,-3.824593424797058105e-01,3.560000000000000000e+02
-2.404780271077883071e+02,-1.802429783271786619e+02,2.227942050623209980e+01,-9.764910297278231610e+01,-2.146436404380557406e+02,-2.426887229997500981e+02,-1.431229701597249004e+01,-4.749725522219739560e+01,9.484992027282714844e+00,-9.179025292396545410e-01,-3.824593424797058105e-01,3.570000000000000000e+02
-2.381690879965756267e+02,-1.788122375666364405e+02,2.386467041435605552e+01,-9.687647028685569239e+01,-2.110311809944133756e+02,-2.402850745366768024e+02,-1.090504881056813247e+01,-4.448390578014914354e+01,9.484992027282714844e+00,-9.561483860015869141e-01,-3.442134261131286621e-01,3.580000000000000000e+02
-2.352565393142164112e+02,-1.770777493528598825e+02,2.749096243835253972e+01,-9.530170735877300103e+01,-2.064426914634827881e+02,-2.364852860728756241e+02,-5.782839467242979481e+00,-3.966306857139875319e+01,9.484992027282714844e+00,-9.561483860015869141e-01,-3.442134261131286621e-01,3.590000000000000000e+02
-2.314350808414968697e+02,-1.751787486779979872e+02,3.223680389191838458e+01,-9.331734538589512340e+01,-2.018703978707939086e+02,-2.320897038228604288e+02,-9.225571535923791089e-01,-3.395779432297126732e+01,9.484992027282714844e+00,-9.561483860015869141e-01,-3.442134261131286621e-01,3.600000000000000000e+02
-2.268354213127719277e+02,-1.732438594311180395e+02,3.645876074638260889e+01,-9.125810903051956302e+01,-1.983002554405596811e+02,-2.280079072363478190e+02,2.393365617999506867e+00,-2.882915665482380518e+01,9.484992027282714844e+00,-9.561483860015869141e-01,-3.442134261131286621e-01,3.610000000000000000e+02
-2.221510283306662359e+02,-1.715385090165914335e+02,3.881901656095192266e+01,-8.927395555176121889e+01,-1.962275232000388314e+02,-2.247941331721408460e+02,3.987107400284344294e+00,-2.552649349042087579e+01,9.484992027282714844e+00,-9.561483860015869141e-01,-3.442134261131286621e-01,3.620000000000000000e+02
-2.181378717392401541e+02,-1.703700868735346603e+02,3.920085512775767711e+01,-8.742427781302262702e+01,-1.953083114913908958e+02,-2.225109286422332389e+02,4.494383944138007791e+00,-2.434913082319690147e+01,9.484992027282714844e+00,-9.561483860015869141e-01,-3.442134261131286621e-01,3.630000000000000000e+02
-2.150193224693116463e+02,-1.698026256999992256e+02,3.871285817406965180e+01,-8.580449142271936580e+01,-1.945005863094381766e+02,-2.209063776856933146e+02,4.791198448197292237e+00,-2.451130824497454341e+01,9.484992027282714844e+00,-9.561483860015869141e-01,-3.442134261131286621e-01,3.640000000000000000e+02
-2.124508338084332308e+02,-1.695227104319088767e+02,3.872237579656894013e+01,-8.456365796067871088e+01,-1.927691369311711469e+02,-2.197330887537511899e+02,5.533117169226670740e+00,-2.479878285250094905e+01,9.484992027282714844e+00,-9.561483860015869141e-01,-3.442134261131286621e-01,3.650000000000000000e+02
-2.100612151391828775e+02,-1.690498356860551894e+02,3.973609372125861228e+01,-8.380820963152882541e+01,-1.898848980533206259e+02,-2.189664134118311267e+02,6.943814249249498971e+00,-2.450562315134311575e+01,9.484992027282714844e+00,-9.561483860015869141e-01,-3.442134261131286621e-01,3.660000000000000000e+02
-2.079195311205617145e+02,-1.680857747004471321e+02,4.111227393953481624e+01,-8.345262108357519537e+01,-1.866045522522208557e+02,-2.187294823504007582e+02,8.819860963098790307e+00,-2.382084699398728844e+01,9.484992027282714844e+00,-9.561483860015869141e-01,-3.442134261131286621e-01,3.670000000000000000e+02
-2.063552662980040395e+02,-1.666184382105734585e+02,4.182259637477159231e+01,-8.311303554551932393e+01,-1.839961160867139824e+02,-2.189579470224496163e+02,1.069729883180298202e+01,-2.333221093436168303e+01,9.484992027282714844e+00,-9.561483860015869141e-01,-3.442134261131286621e-01,3.680000000000000000e+02
-2.053292935373837054e+02,-1.646865113285392681e+02,4.149735028377790513e+01,-8.217109435947509155e+01,-1.824840199027560175e+02,-2.191239263833799669e+02,1.211510710855952766e+01,-2.318702918717826833e+01,9.484992027282714844e+00,-9.561483860015869141e-01,-3.442134261131286621e-01,3.690000000000000000e+02
-2.041495575707680246e+02,-1.621679318286821854e+02,4.073954845224784549e+01,-8.009822215087751829e+01,-1.815147417141015467e+02,-2.183978213115374274e+02,1.282574515776514090e+01,-2.281604275081417654e+01,9.484992027282714844e+00,-9.561483860015869141e-01,-3.442134261131286621e-01,3.700000000000000000e+02
-2.020228073182915978e+02,-1.589761149079417919e+02,4.042443704862193954e+01,-7.693078339032149415e+01,-1.801834175818362382e+02,-2.162577048802484114e+02,1.278208597977857153e+01,-2.154673763725986646e+01,9.484992027282714844e+00,-9.561483860015869141e-01,-3.442134261131286621e-01,3.710000000000000000e+02
-1.989823799002147098e+02,-1.555262719367866566e+02,4.070149730414595979e+01,-7.351951861092265972e+01,-1.782244090706026327e+02,-2.130458564334453513e+02,1.192115329422313152e+01,-1.947714595066236143e+01,9.484992027282714844e+00,-9.561483860015869141e-01,-3.442134261131286621e-01,3.720000000000000000e+02
-1.961712392387163391e+02,-1.528577769551769734e+02,4.071769891500673566e+01,-7.118514286648246525e+01,-1.763910059196907696e+02,-2.098834829774173159e+02,1.003580016836235700e+01,-1.765796298586792545e+01,9.484992027282714844e+00,-9.561483860015869141e-01,-3.442134261131286621e-01,3.730000000000000000e+02
-1.949929354749784807e+02,-1.520000241242704533e+02,3.938988802989001670e+01,-7.085719528744039053e+01,-1.758333414371691106e+02,-2.078793011208395001e+02,7.017530965455989644e+00,-1.728373836315404333e+01,9.484992027282714844e+00,-9.561483860015869141e-01,-3.442134261131286621e-01,3.740000000000000000e+02
-1.957993899216322689e+02,-1.529740986183705900e+02,3.652769909968992579e+01,-7.231304807042715765e+01,-1.770388922408073995e+02,-2.072594768050780658e+02,3.337352304327055208e+00,-1.859885417617329040e+01,9.484992027282714844e+00,-9.561483860015869141e-01,-3.442134261131286621e-01,3.750000000000000000e+02
-1.973807692030881071e+02,-1.544171348929785381e+02,3.323516771204890574e+01,-7.422356542343823094e+01,-1.793112416327194296e+02,-2.072131134178821412e+02,2.078631386585811924e-01,-2.056315463828173051e+01,9.484992027282714844e+00,-9.561483860015869141e-01,-3.442134261131286621e-01,3.760000000000000000e+02
-1.978446557561114787e+02,-1.544295248376731706e+02,3.115095735793863696e+01,-7.510285960206601885e+01,-1.812472127016119430e+02,-2.066305933385215212e+02,-1.011305441108333980e+00,-2.163795479149553103e+01,9.484992027282714844e+00,-9.561483860015869141e-01,-3.442134261131286621e-01,3.770000000000000000e+02
-1.961561551160175441e+02,-1.520857273443468785e+02,3.116072084328970959e+01,-7.444327554853384754e+01,-1.817583320961143727e+02,-2.050745955719232825e+02,1.225716504955016717e-01,-2.100160255215496363e+01,9.484992027282714844e+00,-9.561483860015869141e-01,-3.442134261131286621e-01,3.780000000000000000e+02
-1.929445708978623770e+02,-1.482739971395433258e+02,3.272202807025860238e+01,-7.306894953302662543e+01,-1.807475228373716618e+02,-2.031016340822934581e+02,2.545880770500389190e+00,-1.911081085130399515e+01,9.484992027282714844e+00,-9.561483860015869141e-01,-3.442134261131286621e-01,3.790000000000000000e+02
-1.898286556031478085e+02,-1.449928921806513245e+02,3.442903024344786900e+01,-7.235974251575089511e+01,-1.789122665268191668e+02,-2.016505180532767554e+02,4.318145039724868184e+00,-1.712871959588164827e+01,9.484992027282714844e+00,-9.561483860015869141e-01,-3.442134261131286621e-01,3.800000000000000000e+02
-1.878927522067610880e+02,-1.436284689695887664e+02,3.533672129531601058e+01,-7.298775501887030259e+01,-1.769385762442047962e+02,-2.010769082189572146e+02,4.167908348550554365e+00,-1.576681437680508679e+01,9.484992027282714844e+00,-9.561483860015869141e-01,-3.442134261131286621e-01,3.810000000000000000e+02
-1.867148869157167610e+02,-1.437402774959341514e+02,3.584924887981719621e+01,-7.425588862748736574e+01,-1.748486278038244564e+02,-2.007200270110449765e+02,2.667344616490026965e+00,-1.459031113184119022e+01,9.484992027282714844e+00,-9.561483860015869141e-01,-3.442134261131286621e-01,3.820000000000000000e+02
-1.847946358481165134e+02,-1.434653139438344169e+02,3.734188212130675311e+01,-7.462055037868617546e+01,-1.720598512202100210e+02,-1.993878602942941143e+02,1.891859133508660307e+00,-1.240090710349409164e+01,9.484992027282714844e+00,-9.561483860015869141e-01,-3.442134261131286621e-01,3.830000000000000000e+02
-1.809159060648212289e+02,-1.411754109399901154e+02,4.081535821039642542e+01,-7.295653695421628981e+01,-1.680608201827258199e+02,-1.963371767420721881e+02,3.711797885524674712e+00,-8.356451103760264232e+00,9.484992027282714844e+00,-9.561483860015869141e-01,-3.442134261131286621e-01,3.840000000000000000e+02
-1.751904813164733241e+02,-1.368890134579960431e+02,4.578110456330659872e+01,-6.949428540094777418e+01,-1.630719149980618567e+02,-1.919200704683803451e+02,8.146573125207851263e+00,-2.858944387768360684e+00,9.484992027282714844e+00,-9.561483860015869141e-01,-3.442134261131286621e-01,3.850000000000000000e+02
-1.689277148352593940e+02,-1.322136240492804973e+02,5.040929299150320730e+01,-6.566306721961200310e+01,-1.580920361728415173e+02,-1.873908380772854798e+02,1.323387364323798465e+01,2.549987209692517354e+00,9.484992027282714844e+00,-9.561483860015869141e-01,-3.442134261131286621e-01,3.860000000000000000e+02
-1.635910492665575475e+02,-1.289694108375958876e+02,5.285847325718441425e+01,-6.301084472319234919e+01,-1.542709355966564999e+02,-1.840657776143189039e+02,1.654024188981520638e+01,6.224134081221336601e+00,9.484992027282714844e+00,-9.561483860015869141e-01,-3.442134261131286621e-01,3.870000000000000000e+02
-1.598417402507302540e+02,-1.277728936807077389e+02,5.264437998944094943e+01,-6.211219394675254080e+01,-1.521293100546713504e+02,-1.824904105081618582e+02,1.700045117812101125e+01,7.572095681217888341e+00,9.484992027282714844e+00,-9.561483860015869141e-01,-3.442134261131286621e-01,3.880000000000000000e+02
-1.574109370810467681e+02,-1.277406573794423821e+02,5.087638915231082137e+01,-6.231126591859674591e+01,-1.512796342324122634e+02,-1.821916429838170188e+02,1.553659697806051554e+01,7.440651748837808555e+00,9.484992027282714844e+00,-9.561483860015869141e-01,-3.442134261131286621e-01,3.890000000000000000e+02
-1.556678274394432719e+02,-1.273704739953946046e+02,4.922420811934057383e+01,-6.239463917028706419e+01,-1.508449874314617318e+02,-1.821043138213160546e+02,1.409170949234885484e+01,7.445584261599151432e+00,9.484992027282714844e+00,-9.561483860015869141e-01,-3.442134261131286621e-01,3.900000000000000000e+02
-1.541929446894846478e+02,-1.257039282961400204e+02,4.859352131790728890e+01,-6.154766312093784109e+01,-1.501544889288782088e+02,-1.812821962187808822e+02,1.408550095818941372e+01,8.796906709069389763e+00,9.484992027282714844e+00,-9.561483860015869141e-01,-3.442134261131286621e-01,3.910000000000000000e+02
-1.528790044867560027e+02,-1.228701964982517438e+02,4.867148643978862310e+01,-5.982583842622807424e+01,-1.491026320058642796e+02,-1.794042798264547400e+02,1.559511684943117871e+01,1.150778833309254878e+01,9.484992027282714844e+00,-9.561483860015869141e-01,-3.442134261131286621e-01,3.920000000000000000e+02
-1.516769591415209106e+02,-1.198215301982468191e+02,4.860056053958464872e+01,-5.789433954818878192e+01,-1.479513046006102286e+02,-1.768270164779091829e+02,1.769545247846463099e+01,1.452320120013246196e+01,9.484992027282714844e+00,-9.561483860015869141e-01,-3.442134261131286621e-01,3.930000000000000000e+02
-1.504362874479954826e+02,-1.176793168235626581e+02,4.797999832994059943e+01,-5.641724842783264648e+01,-1.469063469965769855e+02,-1.742707781163305754e+02,1.935007999316417227e+01,1.656593447364821259e+01,9.484992027282714844e+00,-9.561483860015869141e-01,-3.442134261131286621e-01,3.940000000000000000e+02
-1.490437457565242312e+02,-1.171378984916259469e+02,4.720715391321755305e+01,-5.564007551409736152e+01,-1.459471291227737311e+02,-1.723877168889509903e+02,2.000645317480666563e+01,1.701218070145432648e+01,9.484992027282714844e+00,-9.561483860015869141e-01,-3.442134261131286621e-01,3.950000000000000000e+02
-1.476136718635671059e+02,-1.180963151308887973e+02,4.693196013544502421e+01,-5.538922385058435793e+01,-1.450144850274577948e+02,-1.714259878586922241e+02,1.963915936496573522e+01,1.619384768575264388e+01,9.484992027282714844e+00,-9.561483860015869141e-01,-3.442134261131286621e-01,3.960000000000000000e+02
-1.464119839904378750e+02,-1.195946538327546023e+02,4.731129742311304653e+01,-5.531435718069042196e+01,-1.442213692878958682e+02,-1.711057363610461834e+02,1.858033844772899101e+01,1.504838188484632155e+01,9.484992027282714844e+00,-9.561483860015869141e-01,-3.442134261131286621e-01,3.970000000000000000e+02
-1.455142563386862093e+02,-1.201747124516566601e+02,4.789139841740598058e+01,-5.508539899522361338e+01,-1.437343491974472727e+02,-1.707411397005707840e+02,1.745323208246372815e+01,1.451488212691083390e+01,9.484992027282714844e+00,-9.561483860015869141e-01,-3.442134261131286621e-01,3.980000000000000000e+02
-1.445682977644773928e+02,-1.186842281310889575e+02,4.819900162081785311e+01,-5.445451196379235625e+01,-1.434160455296382679e+02,-1.695806503715966755e+02,1.709754222748233587e+01,1.512154486249619367e+01,9.484992027282714844e+00,-9.561483860015869141e-01,-3.442134261131286621e-01,3.990000000000000000e+02
-1.429926079696508623e+02,-1.151130355351722301e+02,4.834251002477935799e+01,-5.328284750915690893e+01,-1.426678410463061937e+02,-1.672268866577865083e+02,1.821760633789381245e+01,1.691914033152829688e+01,9.484992027282714844e+00,-9.561483860015869141e-01,-3.442134261131286621e-01,4.000000000000000000e+02
-1.405118737563411742e+02,-1.107644190894184248e+02,4.891943878221854902e+01,-5.160485401125038152e+01,-1.407653594321825494e+02,-1.638971659100038778e+02,2.083003665431647278e+01,1.961863188376901235e+01,9.484992027282714844e+00,-9.561483860015869141e-01,-3.442134261131286621e-01,4.010000000000000000e+02
-1.375582989482761604e+02,-1.074222324873544494e+02,5.029776882141004535e+01,-4.965528740372474203e+01,-1.374476626513305746e+02,-1.603175996443355871e+02,2.401819460777619497e+01,2.275123026991286679e+01,9.484992027282714844e+00,-9.561483860015869141e-01,-3.442134261131286621e-01,4.020000000000000000e+02
-1.351275825474231169e+02,-1.060383391280520300e+02,5.203463896380685583e+01,-4.776700882157297201e+01,-1.332126407609009675e+02,-1.572830472654991354e+02,2.640342969094263026e+01,2.580783238775029531e+01,9.484992027282714844e+00,-9.561483860015869141e-01,-3.442134261131286621e-01,4.030000000000000000e+02
-1.341252708349543354e+02,-1.060394596874448325e+02,5.308453805570616169e+01,-4.619447081578800862e+01,-1.290266334595721673e+02,-1.552003146110346279e+02,2.708206107569139931e+01,2.839948125165255988e+01,9.484992027282714844e+00,-9.561483860015869141e-01,-3.442134261131286621e-01,4.040000000000000000e+02
-1.346799532820650711e+02,-1.059098356582637734e+02,5.267520549946016217e+01,-4.501970439207116215e+01,-1.256810444094683135e+02,-1.539372156682984496e+02,2.626754146414987190e+01,3.041538052692067140e+01,9.484992027282714844e+00,-9.561483860015869141e-01,-3.442134261131286621e-01,4.050000000000000000e+02
-1.359632173399650128e+02,-1.045772042615003556e+02,5.103261668867526168e+01,-4.421911309560073278e+01,-1.233382331642603731e+02,-1.530375836490452457e+02,2.507341661672444388e+01,3.204675791659178685e+01,9.484992027282714844e+00,-9.561483860015869141e-01,-3.442134261131286621e-01,4.060000000000000000e+02
-1.366695307586339823e+02,-1.023625542619556654e+02,4.927116306511607036e+01,-4.377338691543764071e+01,-1.215985546784763756e+02,-1.520691938834920620e+02,2.461955167869291472e+01,3.359973511688190229e+01,9.484992027282714844e+00,-9.561483860015869141e-01,-3.442134261131286621e-01,4.070000000000000000e+02
-1.358226914189829131e+02,-1.006329639163711818e+02,4.854298660987251424e+01,-4.366170544618125859e+01,-1.199552424582602725e+02,-1.508220918428751247e+02,2.522929306037258357e+01,3.520022743747449567e+01,9.484992027282714844e+00,-9.561483860015869141e-01,-3.442134261131286621e-01,4.080000000000000000e+02
-1.333459325674677984e+02,-1.004907593597490632e+02,4.920136572996034374e+01,-4.375237074260257941e+01,-1.182178903658505078e+02,-1.492864327272591254e+02,2.636602561674976641e+01,3.665472418365220619e+01,9.484992027282714844e+00,-9.561483860015869141e-01,-3.442134261131286621e-01,4.090000000000000000e+02
-1.300136747463920983e+02,-1.017119371614376178e+02,5.069050027283469717e+01,-4.375935051679425669e+01,-1.165824149440177280e+02,-1.475419048371127246e+02,2.727377999534246555e+01,3.763991347546925681e+01,9.484992027282714844e+00,-9.561483860015869141e-01,-3.442134261131286621e-01,4.100000000000000000e+02
-1.268506111994665844e+02,-1.028758404377138049e+02,5.216529327063130950e+01,-4.337250394733837311e+01,-1.153518390353222003e+02,-1.456910126454931742e+02,2.769048193899993748e+01,3.807939762546902784e+01,9.484992027282714844e+00,-9.561483860015869141e-01,-3.442134261131286621e-01,4.110000000000000000e+02
-1.244430462768677899e+02,-1.025182176243217782e+02,5.320852078917414474e+01,-4.244948450178799249e+01,-1.145678916352735541e+02,-1.438309275555047861e+02,2.802964898190180065e+01,3.835649064024028121e+01,9.484992027282714844e+00,-9.561483860015869141e-01,-3.442134261131286621e-01,4.120000000000000000e+02
-1.226770536258877655e+02,-1.002550227197168624e+02,5.400963046727747496e+01,-4.106513929467655544e+01,-1.138685248546883031e+02,-1.419907413544970041e+02,2.894085619884594962e+01,3.911614448843670289e+01,9.484992027282714844e+00,-9.561483860015869141e-01,-3.442134261131286621e-01,4.130000000000000000e+02
-1.210732313326882377e+02,-9.696317009410449828e+01,5.494351657087872809e+01,-3.936084149851740221e+01,-1.127044262518500091e+02,-1.400638809559432048e+02,3.068419566664374543e+01,4.077895103716741687e+01,9.484992027282714844e+00,-9.561483860015869141e-01,-3.442134261131286621e-01,4.140000000000000000e+02
-1.193798340798186928e+02,-9.401144695689208675e+01,5.605342940477567026e+01,-3.736740446435487684e+01,-1.107494610632772947e+02,-1.378372443617663521e+02,3.286906268494044525e+01,4.321107359260895464e+01,9.484992027282714844e+00,-9.561483860015869141e-01,-3.442134261131286621e-01,4.150000000000000000e+02
-1.178559316329594822e+02,-9.230042914986643154e+01,5.696830093159564967e+01,-3.501959740078382310e+01,-1.081757888416236710e+02,-1.351506374131749908e+02,3.475389322786691082e+01,4.588537885304867814e+01,9.446745872497558594e+00,-8.796565532684326172e-01,-3.059675097465515137e-01,4.160000000000000000e+02
-1.169662830978018064e+02,-9.185674895153169928e+01,5.729481110927417831e+01,-3.235538530956955583e+01,-1.055496495167180910e+02,-1.320630331246306923e+02,3.581080728568531413e+01,4.838975311343256180e+01,9.446745872497558594e+00,-8.796565532684326172e-01,-3.059675097465515137e-01,4.170000000000000000e+02
-1.167875721382376923e+02,-9.213683742330226778e+01,5.705241158827811887e+01,-2.967498375422110257e+01,-1.034069399827340021e+02,-1.288711561047484793e+02,3.605514359322569362e+01,5.076797659132080298e+01,9.446745872497558594e+00,-8.796565532684326172e-01,-3.059675097465515137e-01,4.180000000000000000e+02
-1.167645001830078400e+02,-9.263578549124440542e+01,5.668308629323814785e+01,-2.747600538814594984e+01,-1.018809438892658363e+02,-1.259766168656851733e+02,3.584992705248373568e+01,5.330025425549547435e+01,9.446745872497558594e+00,-8.796565532684326172e-01,-3.059675097465515137e-01,4.190000000000000000e+02
-1.161413671208913456e+02,-9.328877957146232802e+01,5.660475041715335465e+01,-2.620850232421571491e+01,-1.007194479200743444e+02,-1.237434956980659990e+02,3.536972096981298819e+01,5.589749516919209782e+01,9.446745872497558594e+00,-8.796565532684326172e-01,-3.059675097465515137e-01,4.200000000000000000e+02
-1.147113553415379101e+02,-9.442490897789161863e+01,5.673637376489364215e+01,-2.605930401336036084e+01,-9.966971995686253649e+01,-1.224520263885938220e+02,3.424364785639954789e+01,5.774684824952737472e+01,9.446745872497558594e+00,-8.796565532684326172e-01,-3.059675097465515137e-01,4.210000000000000000e+02
-1.131542163924852957e+02,-9.637964362860202527e+01,5.646480352863954977e+01,-2.691455891932309896e+01,-9.886051950169940028e+01,-1.222953569666428848e+02,3.177289251034608242e+01,5.769576870094806509e+01,9.446745872497558594e+00,-8.796565532684326172e-01,-3.059675097465515137e-01,4.220000000000000000e+02
-1.125554038624054556e+02,-9.907005048267774328e+01,5.512017129728133114e+01,-2.845694265979636839e+01,-9.878070396429257016e+01,-1.233009752707143889e+02,2.761899396365697612e+01,5.517543426000020190e+01,9.446745872497558594e+00,-8.796565532684326172e-01,-3.059675097465515137e-01,4.230000000000000000e+02
-1.134759623917159388e+02,-1.018459905057948163e+02,5.256529432370575705e+01,-3.026943504604059854e+01,-9.983347626353997839e+01,-1.251856195160380594e+02,2.239441905433841384e+01,5.088742829825650915e+01,9.446745872497558594e+00,-8.796565532684326172e-01,-3.059675097465515137e-01,4.240000000000000000e+02
-1.154069950734501617e+02,-1.037669263410366511e+02,4.939243370021722512e+01,-3.189343024436766427e+01,-1.018597383423675637e+02,-1.273054628886884529e+02,1.756722685059708056e+01,4.658650404513127796e+01,9.446745872497558594e+00,-8.796565532684326172e-01,-3.059675097465515137e-01,4.250000000000000000e+02
-1.171346827761910845e+02,-1.041850932815166288e+02,4.654516334736217686e+01,-3.291067226672612378e+01,-1.040726149318979878e+02,-1.288537185023719758e+02,1.461459634834909593e+01,4.402681164428486227e+01,9.446745872497558594e+00,-8.796565532684326172e-01,-3.059675097465515137e-01,4.260000000000000000e+02
-1.177164146566340150e+02,-1.032382529492585945e+02,4.465656901661486700e+01,-3.310123031568400620e+01,-1.055072280041599697e+02,-1.292562330982100320e+02,1.401984333813447847e+01,4.385461616939392115e+01,9.446745872497558594e+00,-8.796565532684326172e-01,-3.059675097465515137e-01,4.270000000000000000e+02
-1.172274629653161355e+02,-1.018262834578877118e+02,4.360814237523845804e+01,-3.260105923993478427e+01,-1.056750807770149549e+02,-1.285214856172915461e+02,1.489600991357974635e+01,4.525590029903514733e+01,9.446745872497558594e+00,-8.796565532684326172e-01,-3.059675097465515137e-01,4.280000000000000000e+02
-1.166662951198652536e+02,-1.010151205064985334e+02,4.261151906545546808e+01,-3.191092418898824690e+01,-1.049635764068480057e+02,-1.273061791706090844e+02,1.554537619339407684e+01,4.653485436611435944e+01,9.446745872497558594e+00,-8.796565532684326172e-01,-3.059675097465515137e-01,4.290000000000000000e+02
-1.171313810483891302e+02,-1.013046311866401084e+02,4.073322723982073512e+01,-3.166834502379015248e+01,-1.044820593056019788e+02,-1.266144205608652555e+02,1.455736475010508002e+01,4.613679701553337509e+01,9.446745872497558594e+00,-8.796565532684326172e-01,-3.059675097465515137e-01,4.300000000000000000e+02
-1.189629545189095552e+02,-1.023654152820774925e+02,3.748176043028047388e+01,-3.228659903055631730e+01,-1.053996663429456930e+02,-1.272636915252455765e+02,1.165558981739968658e+01,4.342144891440057108e+01,9.446745872497558594e+00,-8.796565532684326172e-01,-3.059675097465515137e-01,4.310000000000000000e+02
-1.214861161714093214e+02,-1.034426596812031676e+02,3.307985013375036942e+01,-3.369170454189452357e+01,-1.081452255710755708e+02,-1.293842223788119554e+02,7.756169622944071307e+00,3.882819887929781544e+01,9.446745872497558594e+00,-8.796565532684326172e-01,-3.059675097465515137e-01,4.320000000000000000e+02
-1.234672526731433209e+02,-1.040179114156730975e+02,2.827474992766588002e+01,-3.535518266883309479e+01,-1.119998381740642799e+02,-1.322508541296078874e+02,4.284308855651488557e+00,3.351806078102708852e+01,9.446745872497558594e+00,-8.796565532684326172e-01,-3.059675097465515137e-01,4.330000000000000000e+02
-1.238881296722749994e+02,-1.041066726768574426e+02,2.383716565839040413e+01,-3.663455051409937369e+01,-1.154524011512953621e+02,-1.346318222025674913e+02,2.256542325011196226e+00,2.877968673776376818e+01,9.446745872497558594e+00,-8.796565532684326172e-01,-3.059675097465515137e-01,4.340000000000000000e+02
-1.225091738128444376e+02,-1.039622351485299987e+02,2.012441790078241866e+01,-3.718918672680956661e+01,-1.171657790723556900e+02,-1.355085745536675859e+02,1.739152612349698757e+00,2.548264434160500969e+01,9.446745872497558594e+00,-8.796565532684326172e-01,-3.059675097465515137e-01,4.350000000000000000e+02
-1.199208027683105229e+02,-1.035945970748994114e+02,1.702123451085572015e+01,-3.715409561204978672e+01,-1.168838210690842061e+02,-1.346997625432027235e+02,1.968572761720452036e+00,2.377490486347596743e+01,9.446745872497558594e+00,-8.796565532684326172e-01,-3.059675097465515137e-01,4.360000000000000000e+02
-1.171349786585510628e+02,-1.027052933352847504e+02,1.425945770828093373e+01,-3.694833714233800492e+01,-1.155652338586455699e+02,-1.329065330214325513e+02,1.966453109051599313e+00,2.312550731341116261e+01,9.446745872497558594e+00,-9.179025292396545410e-01,-3.824593424797058105e-01,4.370000000000000000e+02
-1.150102624953576651e+02,-1.011135854267795366e+02,1.181555470324155976e+01,-3.688913966551808699e+01,-1.145813547946399922e+02,-1.311146203913958743e+02,1.230763010518785450e+00,2.268633174754313586e+01,9.446745872497558594e+00,-9.179025292396545410e-01,-3.824593424797058105e-01,4.380000000000000000e+02
-1.138704623953735791e+02,-9.913639052070948310e+01,9.979002588966977783e+00,-3.694495307668603346e+01,-1.146241767728365630e+02,-1.298331286773745887e+02,6.472415955295218737e-02,2.175922074278651053e+01,9.446745872497558594e+00,-9.179025292396545410e-01,-3.824593424797058105e-01,4.390000000000000000e+02
-1.135285560355441703e+02,-9.739057955170119385e+01,8.988015951218130795e+00,-3.681954727021729923e+01,-1.152564391943883493e+02,-1.288196420934191337e+02,-6.659249363870003435e-01,2.006659343041701504e+01,9.446745872497558594e+00,-9.179025292396545410e-01,-3.824593424797058105e-01,4.400000000000000000e+02
-1.136284347829416674e+02,-9.614465935909584005e+01,8.585043780420164694e+00,-3.625467518825053048e+01,-1.154625508209078362e+02,-1.275037892597383689e+02,-1.953160916582419304e-01,1.767917445821331057e+01,9.446745872497558594e+00,-9.179025292396545410e-01,-3.824593424797058105e-01,4.410000000000000000e+02
-1.139652209870869228e+02,-9.495274431936468318e+01,7.997154070213355226e+00,-3.525956343431425921e+01,-1.146447093342221706e+02,-1.256772266531465903e+02,1.517400950352111977e+00,1.474341760505831189e+01,9.446745872497558594e+00,-9.179025292396545410e-01,-3.824593424797058105e-01,4.420000000000000000e+02
-1.144900735453597918e+02,-9.309742648551855382e+01,6.487560910897627764e+00,-3.408278045440738424e+01,-1.131239045015904594e+02,-1.237826259551466137e+02,3.676272518877794937e+00,1.129518952331636683e+01,9.446745872497558594e+00,-9.179025292396545410e-01,-3.824593424797058105e-01,4.430000000000000000e+02
-1.150206009634925977e+02,-9.049003858387550281e+01,4.059355107498049620e+00,-3.301551652344278409e+01,-1.117259448594322748e+02,-1.225440555687491724e+02,5.176753019327861693e+00,7.318811937597274664e+00,9.446745872497558594e+00,-9.179025292396545410e-01,-3.824593424797058105e-01,4.440000000000000000e+02
-1.150154498763981792e+02,-8.807174879795047673e+01,1.640358728838236857e+00,-3.225138476278107191e+01,-1.109278362299105538e+02,-1.223174839406447063e+02,5.415725722848947044e+00,2.946208884105999459e+00,9.446745872497558594e+00,-9.179025292396545410e-01,-3.824593424797058105e-01,4.450000000000000000e+02
-1.137743871892430434e+02,-8.715110117352423913e+01,4.748396041959495051e-01,-3.189500116600720503e+01,-1.104236844858451150e+02,-1.227724271264669369e+02,4.760741830152710463e+00,-1.452115624569614738e+00,9.446745872497558594e+00,-9.179025292396545410e-01,-3.824593424797058105e-01,4.460000000000000000e+02
-1.109996386976044960e+02,-8.818746526423456089e+01,1.176005216958401434e+00,-3.200806040753150228e+01,-1.094841599699202561e+02,-1.231431031032307146e+02,4.302861794340969936e+00,-5.406617454616934992e+00,9.446745872497558594e+00,-9.179025292396545410e-01,-3.824593424797058105e-01,4.470000000000000000e+02
-1.072235493419439081e+02,-9.018310697453807734e+01,3.239865853882292868e+00,-3.255731186240973329e+01,-1.076824869416172987e+02,-1.227585225167490535e+02,5.065814000919544924e+00,-8.599900388234345883e+00,9.446745872497558594e+00,-9.179025292396545410e-01,-3.824593424797058105e-01,4.480000000000000000e+02
-1.036325849215663766e+02,-9.134992987436362455e+01,5.430786214376439602e+00,-3.331461227858244456e+01,-1.052810816306400739e+02,-1.214061201962276755e+02,7.255130698990797100e+00,-1.102771458747383804e+01,9.446745872497558594e+00,-9.179025292396545410e-01,-3.824593424797058105e-01,4.490000000000000000e+02
-1.013204660575474918e+02,-9.050048401445701529e+01,6.704138786551993689e+00,-3.386483951577929474e+01,-1.029631452644589444e+02,-1.193216148496094320e+02,1.011287611369152728e+01,-1.294722604258095089e+01,9.446745872497558594e+00,-9.179025292396545410e-01,-3.824593424797058105e-01,4.500000000000000000e+02
-1.005613948602285745e+02,-8.790930558136369655e+01,6.888043815491073474e+00,-3.378935644635203062e+01,-1.012503061365464418e+02,-1.169333041761842651e+02,1.247079178770854924e+01,-1.467203904612415499e+01,9.446745872497558594e+00,-9.179025292396545410e-01,-3.824593424797058105e-01,4.510000000000000000e+02
-1.007068430850031291e+02,-8.489042812197658350e+01,6.618479894595111546e+00,-3.289401482000448595e+01,-1.001705201128102090e+02,-1.146024405298753663e+02,1.357261833546317575e+01,-1.636431592993130835e+01,9.446745872497558594e+00,-9.179025292396545410e-01,-3.824593424797058105e-01,4.520000000000000000e+02
-1.007468164915544548e+02,-8.255605953421263621e+01,6.727152304050378007e+00,-3.127715414733756916e+01,-9.938300188870607599e+01,-1.124844596029852255e+02,1.358426026324013947e+01,-1.794340159126386425e+01,9.446745872497558594e+00,-9.179025292396545410e-01,-3.824593424797058105e-01,4.530000000000000000e+02
-1.000075331250286581e+02,-8.094896471036008734e+01,7.695337902976916666e+00,-2.921353690617615939e+01,-9.850617872363409333e+01,-1.105183674700570009e+02,1.345587747047602534e+01,-1.916306119311684597e+01,9.446745872497558594e+00,-9.179025292396545410e-01,-3.824593424797058105e-01,4.540000000000000000e+02
-9.841457326585350529e+01,-7.929230642164202436e+01,9.549479908178454934e+00,-2.701052586497871744e+01,-9.729542647988728277e+01,-1.085112327297547381e+02,1.423877323325723410e+01,-1.981993017998775031e+01,9.446745872497558594e+00,-9.179025292396545410e-01,-3.824593424797058105e-01,4.550000000000000000e+02
-9.623976296868113423e+01,-7.699490836839322583e+01,1.205400772009943466e+01,-2.497710319338875706e+01,-9.561351915635259502e+01,-1.062973584834890062e+02,1.630719938510128486e+01,-1.998497954598769866e+01,9.446745872497558594e+00,-9.179025292396545410e-01,-3.824593424797058105e-01,4.560000000000000000e+02
-9.374373422887720153e+01,-7.437584752015345657e+01,1.483780621471805716e+01,-2.346283572899483261e+01,-9.340666223633752452e+01,-1.039091875855629041e+02,1.899539933207461218e+01,-2.010153755465262293e+01,9.446745872497558594e+00,-9.179025292396545410e-01,-3.824593424797058105e-01,4.570000000000000000e+02
-9.110720221262408813e+01,-7.243412433166076880e+01,1.734331586105054157e+01,-2.280682990767718366e+01,-9.083111447063856758e+01,-1.016383352370153261e+02,2.092356698620278621e+01,-2.082281299292480981e+01,9.446745872497558594e+00,-9.179025292396545410e-01,-3.824593424797058105e-01,4.580000000000000000e+02
-8.860319089240374524e+01,-7.193595554899593481e+01,1.886429466404160848e+01,-2.315465174385144564e+01,-8.837121682220367802e+01,-9.990768006340658758e+01,2.086398437950765583e+01,-2.262690204306136366e+01,9.446745872497558594e+00,-9.179025292396545410e-01,-3.824593424797058105e-01,4.590000000000000000e+02
-8.662875430764324847e+01,-7.268236739130452406e+01,1.891632079657983923e+01,-2.428936316751060076e+01,-8.666502979756387504e+01,-9.901253824503783108e+01,1.862799656906872769e+01,-2.543595986927948616e+01,9.446745872497558594e+00,-9.179025292396545410e-01,-3.824593424797058105e-01,4.600000000000000000e+02
-8.540241930920251434e+01,-7.356735191941288576e+01,1.773270229352647220e+01,-2.565775091235263972e+01,-8.601751808111066566e+01,-9.889749917805511359e+01,1.535161637189685280e+01,-2.852738425826464663e+01,9.446745872497558594e+00,-9.179025292396545410e-01,-3.824593424797058105e-01,4.610000000000000000e+02
-8.463164203607470881e+01,-7.333042592293350026e+01,1.634408270534777330e+01,-2.662400115495756836e+01,-8.600591839559865548e+01,-9.913272879250871483e+01,1.288315489397291458e+01,-3.088740295458001128e+01,9.523238182067871094e+00,-9.561483860015869141e-01,-2.677215635776519775e-01,4.620000000000000000e+02
-8.360789528885288746e+01,-7.138269343819911228e+01,1.595545044277150737e+01,-2.678362183019453369e+01,-8.564836921269670711e+01,-9.912508097006184471e+01,1.260735569527219013e+01,-3.183667723665803351e+01,9.523238182067871094e+00,-9.561483860015869141e-01,-2.677215635776519775e-01,4.630000000000000000e+02
-8.177793716875430619e+01,-6.813066225540251253e+01,1.703525522835980155e+01,-2.613994948731306067e+01,-8.415070599308182864e+01,-9.845232665148841988e+01,1.451423205667629190e+01,-3.150728394353018302e+01,9.523238182067871094e+00,-9.561483860015869141e-01,-2.677215635776519775e-01,4.640000000000000000e+02
-7.929169598513021811e+01,-6.466186979010490177e+01,1.892080621692070963e+01,-2.505876289876459850e+01,-8.164237137433701719e+01,-9.710973186690262082e+01,1.722905247343283008e+01,-3.079761299580241030e+01,9.523238182067871094e+00,-9.561483860015869141e-01,-2.677215635776519775e-01,4.650000000000000000e+02
-7.696608882493956116e+01,-6.206069383749286317e+01,2.036912002484496043e+01,-2.404800237128756635e+01,-7.918293884725153475e+01,-9.548629602330720445e+01,1.903400460222655965e+01,-3.077916811273644271e+01,9.523238182067871094e+00,-9.561483860015869141e-01,-2.677215635776519775e-01,4.660000000000000000e+02
-7.564069278715737710e+01,-6.078710425881740775e+01,2.060786118001988143e+01,-2.347446801476962719e+01,-7.791958074138483425e+01,-9.405316556589195898e+01,1.912113510827248319e+01,-3.195298913445276412e+01,9.523238182067871094e+00,-9.561483860015869141e-01,-2.677215635776519775e-01,4.670000000000000000e+02
-7.551924570504456824e+01,-6.046787144487848309e+01,1.992496367618491604e+01,-2.335414337667452855e+01,-7.808612334296503832e+01,-9.296893852037419492e+01,1.810094600080151395e+01,-3.390388693442037038e+01,9.523238182067871094e+00,-9.561483860015869141e-01,-2.677215635776519775e-01,4.680000000000000000e+02
-7.610212611831616414e+01,-6.020375649554102893e+01,1.925858717687083299e+01,-2.334853687848180925e+01,-7.877071817794330855e+01,-9.192817737349514573e+01,1.739720948242438681e+01,-3.562721489803107033e+01,9.523238182067871094e+00,-9.561483860015869141e-01,-2.677215635776519775e-01,4.690000000000000000e+02
-7.668530508573962834e+01,-5.917836811023153132e+01,1.924104173827936393e+01,-2.299093028287097695e+01,-7.868356534574695615e+01,-9.039784601674728037e+01,1.809350299213951985e+01,-3.625366701350367293e+01,9.523238182067871094e+00,-9.561483860015869141e-01,-2.677215635776519775e-01,4.700000000000000000e+02
-7.684172161023775516e+01,-5.715588264773850824e+01,1.966806321059175389e+01,-2.200376206394503242e+01,-7.721537834983428183e+01,-8.805920125277998523e+01,2.020844265436790010e+01,-3.558681594873860377e+01,9.523238182067871094e+00,-9.561483860015869141e-01,-2.677215635776519775e-01,4.710000000000000000e+02
-7.641592979274560093e+01,-5.453384793133795938e+01,1.991220316960016135e+01,-2.047284320671496971e+01,-7.481694776608173925e+01,-8.508190908365349969e+01,2.291372091435960101e+01,-3.406429040041939516e+01,9.523238182067871094e+00,-9.561483860015869141e-01,-2.677215635776519775e-01,4.720000000000000000e+02
-7.520807498852695971e+01,-5.196044863041470308e+01,1.978971979026005101e+01,-1.874081868412031326e+01,-7.243146505590812012e+01,-8.200667028557063531e+01,2.533846627451248423e+01,-3.229737724549977429e+01,9.523238182067871094e+00,-9.561483860015869141e-01,-2.677215635776519775e-01,4.730000000000000000e+02
-7.292337504166675899e+01,-4.988401553426183455e+01,1.988439319640679059e+01,-1.713938910387832948e+01,-7.065923754428013126e+01,-7.939163416695600972e+01,2.712688201336868588e+01,-3.069754061216235641e+01,9.523238182067871094e+00,-9.561483860015869141e-01,-2.677215635776519775e-01,4.740000000000000000e+02
-6.959678806551619346e+01,-4.840696691245602779e+01,2.093516230649242971e+01,-1.581390063099161125e+01,-6.948488134991021070e+01,-7.755299005395636414e+01,2.831091488261154154e+01,-2.949952515596305602e+01,9.523238182067871094e+00,-9.561483860015869141e-01,-2.677215635776519775e-01,4.750000000000000000e+02
-6.600253971913434725e+01,-4.747144871791988407e+01,2.292456891248707507e+01,-1.477241939029863715e+01,-6.868945846647102371e+01,-7.655850263224510854e+01,2.884271488136641892e+01,-2.899338380241806590e+01,9.523238182067871094e+00,-9.561483860015869141e-01,-2.677215635776519775e-01,4.760000000000000000e+02
-6.341047471804154156e+01,-4.706982572983133650e+01,2.486212539301777724e+01,-1.404796055966653512e+01,-6.832332634454451181e+01,-7.633757623225073985e+01,2.844174403142915253e+01,-2.954864503552926180e+01,9.523238182067871094e+00,-9.561483860015869141e-01,-2.677215635776519775e-01,4.770000000000000000e+02
-6.269091756138755045e+01,-4.719382123572654564e+01,2.556918782316392935e+01,-1.374673511768469325e+01,-6.862012205918040308e+01,-7.669866516638967369e+01,2.698403480721276537e+01,-3.128783254890186072e+01,9.523238182067871094e+00,-9.561483860015869141e-01,-2.677215635776519775e-01,4.780000000000000000e+02
-6.355935761253795135e+01,-4.761489736889393498e+01,2.470661314159428912e+01,-1.392829518506732711e+01,-6.948815936161599893e+01,-7.727623641609852712e+01,2.494138151858419405e+01,-3.375984520489441820e+01,9.523238182067871094e+00,-9.561483860015869141e-01,-2.677215635776519775e-01,4.790000000000000000e+02
-6.478386408386518269e+01,-4.787323806368613077e+01,2.299056226832794891e+01,-1.449765108063911612e+01,-7.028578572421884019e+01,-7.762316560350791406e+01,2.322137576370437273e+01,-3.607588489012277932e+01,9.523238182067871094e+00,-9.561483860015869141e-01,-2.677215635776519775e-01,4.800000000000000000e+02
-6.525658288729846390e+01,-4.763148078080416781e+01,2.140971045743799550e+01,-1.526918270676378597e+01,-7.026507896797306785e+01,-7.749429792906130388e+01,2.243941128709684563e+01,-3.748899094718808556e+01,9.523238182067871094e+00,-9.561483860015869141e-01,-2.677215635776519775e-01,4.810000000000000000e+02
-6.490807937032650443e+01,-4.707916261289392423e+01,2.029419202975986991e+01,-1.613606391535950024e+01,-6.927166523498567585e+01,-7.707027885592106031e+01,2.235518041157251901e+01,-3.789600018897954214e+01,9.523238182067871094e+00,-9.561483860015869141e-01,-2.677215635776519775e-01,4.820000000000000000e+02
-6.456609108540806119e+01,-4.689650237466503313e+01,1.921121923535861242e+01,-1.711874724990184404e+01,-6.793600816982757351e+01,-7.680848531437368365e+01,2.214803320768851336e+01,-3.776222890339522564e+01,9.523238182067871094e+00,-9.561483860015869141e-01,-2.677215635776519775e-01,4.830000000000000000e+02
-6.491296097274107524e+01,-4.765273986811484974e+01,1.776215373265540620e+01,-1.818028651778558924e+01,-6.710190938845676101e+01,-7.696919174462482260e+01,2.136780418206899412e+01,-3.753617092558260993e+01,9.523238182067871094e+00,-9.561483860015869141e-01,-2.677215635776519775e-01,4.840000000000000000e+02
-6.563331858633364391e+01,-4.913908759184164410e+01,1.636618467627295104e+01,-1.898928291454262762e+01,-6.705022015766030563e+01,-7.727182998977832540e+01,2.059481241968524046e+01,-3.714843054484208551e+01,9.523238182067871094e+00,-9.561483860015869141e-01,-2.677215635776519775e-01,4.850000000000000000e+02
-6.565350287719866174e+01,-5.032093684500819109e+01,1.611284224808332510e+01,-1.894631471912839515e+01,-6.729021463862318342e+01,-7.707136236332735280e+01,2.102820537077354857e+01,-3.609718528129224069e+01,9.523238182067871094e+00,-9.561483860015869141e-01,-2.677215635776519775e-01,4.860000000000000000e+02
-6.423653141733893790e+01,-5.008060408086521420e+01,1.776628785569391766e+01,-1.758006077850700422e+01,-6.708649118059292960e+01,-7.593984204358503121e+01,2.329306475212752048e+01,-3.401819650689708396e+01,9.523238182067871094e+00,-9.561483860015869141e-01,-2.677215635776519775e-01,4.870000000000000000e+02
-6.180209863935465364e+01,-4.814838269598658371e+01,2.092188569257677955e+01,-1.503516849768948305e+01,-6.615304087515892206e+01,-7.409901860203672186e+01,2.660508835211567202e+01,-3.116589593444655293e+01,9.523238182067871094e+00,-9.561483860015869141e-01,-2.677215635776519775e-01,4.880000000000000000e+02
-5.963531314402371208e+01,-4.538538930733261623e+01,2.417683549513685648e+01,-1.222263520429191885e+01,-6.486920171959604886e+01,-7.227330118091595068e+01,2.917980888657189098e+01,-2.836323444026606921e+01,9.523238182067871094e+00,-9.943943619728088379e-01,-3.824593424797058105e-01,4.890000000000000000e+02
-5.878592897598809941e+01,-4.314067282947121384e+01,2.617181898307467236e+01,-1.040562124505458996e+01,-6.391432626231676295e+01,-7.109471283290781685e+01,2.960820424407620521e+01,-2.648455243390708347e+01,9.523238182067871094e+00,-9.943943619728088379e-01,-3.824593424797058105e-01,4.900000000000000000e+02
-5.924572803269938959e+01,-4.224136141585995574e+01,2.653726433602309953e+01,-1.042900756083099623e+01,-6.374109242123245167e+01,-7.061701512354193255e+01,2.798266973091699583e+01,-2.590024982406475829e+01,9.523238182067871094e+00,-9.943943619728088379e-01,-3.824593424797058105e-01,4.910000000000000000e+02
-6.013647751454277568e+01,-4.247721806801473576e+01,2.594045619602093211e+01,-1.211902584831227614e+01,-6.431002139143106433e+01,-7.034931086743335982e+01,2.578984121465327917e+01,-2.625045497499490921e+01,9.523238182067871094e+00,-9.943943619728088379e-01,-3.824593424797058105e-01,4.920000000000000000e+02
-6.059385660423913578e+01,-4.294572648776306778e+01,2.535985114838626941e+01,-1.431113640184389624e+01,-6.514606254786303907e+01,-6.970255548573686610e+01,2.472963455555350265e+01,-2.661346699055684439e+01,9.523238182067871094e+00,-9.943943619728088379e-01,-3.824593424797058105e-01,4.930000000000000000e+02
-6.041145719066003039e+01,-4.283435511397510709e+01,2.537805499565843093e+01,-1.553842588884754150e+01,-6.553757624275772287e+01,-6.839934956381603115e+01,2.553572439197569111e+01,-2.594423354307991758e+01,9.523238182067871094e+00,-9.943943619728088379e-01,-3.824593424797058105e-01,4.940000000000000000e+02
-5.989482544223028526e+01,-4.190181814250308889e+01,2.606619588889861916e+01,-1.492722876819266276e+01,-6.476969439970116582e+01,-6.652898071207914654e+01,2.772202699836157080e+01,-2.360831150438116310e+01,9.523238182067871094e+00,-9.943943619728088379e-01,-3.824593424797058105e-01,4.950000000000000000e+02
-5.926017154047190161e+01,-4.034193411444289268e+01,2.731513732429334596e+01,-1.268087623152382548e+01,-6.242356104525060800e+01,-6.432515507544803768e+01,3.023553878203551903e+01,-1.979437759475194980e+01,9.523238182067871094e+00,-9.943943619728088379e-01,-3.824593424797058105e-01,4.960000000000000000e+02
-5.830872184681481940e+01,-3.834608767108329630e+01,2.907559986341402691e+01,-9.824215815663364992e+00,-5.867554461728764181e+01,-6.196924604269361225e+01,3.225903927199965437e+01,-1.551766551653713577e+01,9.523238182067871094e+00,-9.943943619728088379e-01,-3.824593424797058105e-01,4.970000000000000000e+02
-5.668886900234690529e+01,-3.591562054137602900e+01,3.126498498885837307e+01,-7.425586574910994386e+00,-5.433167062490042554e+01,-5.958942639440374478e+01,3.353442553057698206e+01,-1.205259728518831253e+01,9.523238182067871094e+00,-9.943943619728088379e-01,-3.824593424797058105e-01,4.980000000000000000e+02
-5.436240786150767690e+01,-3.308860551953000595e+01,3.359970274224212972e+01,-5.903540901699670940e+00,-5.041467147121966264e+01,-5.735728020156079765e+01,3.422214234664431842e+01,-1.005915523526891775e+01,9.523238182067871094e+00,-9.943943619728088379e-01,-3.824593424797058105e-01,4.990000000000000000e+02
-5.171192723479873621e+01,-3.021957035078116860e+01,3.569272988214424913e+01,-4.921737201522319083e+00,-4.753028986780100240e+01,-5.549235140193695770e+01,3.468623014179070196e+01,-9.077546050513092268e+00,9.523238182067871094e+00,-9.943943619728088379e-01,-3.824593424797058105e-01,5.000000000000000000e+02
-4.920799197262613234e+01,-2.787783130295463252e+01,3.735014667587370241e+01,-3.866662319942633985e+00,-4.554209975192225102e+01,-5.412871098951336535e+01,3.538852775225245750e+01,-7.926807888399139301e+00,9.523238182067871094e+00,-9.943943619728088379e-01,-3.824593424797058105e-01,5.010000000000000000e+02
-4.705526614861889811e+01,-2.638649215564544193e+01,3.868598962581552314e+01,-2.433659090884361831e+00,-4.387711572776788671e+01,-5.319035616425753688e+01,3.672842870777969893e+01,-5.785805472450988418e+00,9.523238182067871094e+00,-9.943943619728088379e-01,-3.824593424797058105e-01,5.020000000000000000e+02
-4.521123176710932512e+01,-2.548925883350921140e+01,3.986267077467789477e+01,-8.339197906112758574e-01,-4.219706980110447603e+01,-5.244280087606341567e+01,3.870313454701135925e+01,-3.040223653849920993e+00,9.523238182067871094e+00,-9.943943619728088379e-01,-3.824593424797058105e-01,5.030000000000000000e+02
-4.367760830841604047e+01,-2.456002594117745730e+01,4.076476836467554676e+01,4.633123875457840768e-01,-4.076384258356608825e+01,-5.170540617158053465e+01,4.067842005831664665e+01,-1.056458853502590500e+00,9.523238182067871094e+00,-9.943943619728088379e-01,-3.824593424797058105e-01,5.040000000000000000e+02
-4.262021176372348918e+01,-2.321388997567197521e+01,4.108750833023452742e+01,1.142019591116081756e+00,-4.008608175181564093e+01,-5.101278678082076112e+01,4.170367428461577219e+01,-9.710704408013839384e-01,9.523238182067871094e+00,-9.943943619728088379e-01,-3.824593424797058105e-01,5.050000000000000000e+02
-4.212426644926000563e+01,-2.171145795922097932e+01,4.085013648247127094e+01,1.247124874709697906e+00,-4.017361058375837501e+01,-5.053941192386548664e+01,4.132767361859919220e+01,-2.540940071754903329e+00,9.523238182067871094e+00,-9.943943619728088379e-01,-3.824593424797058105e-01,5.060000000000000000e+02
-4.188067813974782894e+01,-2.069259002275384773e+01,4.076973273578209955e+01,1.097612664922564818e+00,-4.016905508498842892e+01,-5.031901055642833853e+01,4.022867937060721033e+01,-4.109143353149818267e+00,9.523238182067871094e+00,-9.943943619728088379e-01,-3.824593424797058105e-01,5.070000000000000000e+02
-4.125904294750560553e+01,-2.045296755343935047e+01,4.192587076889023479e+01,1.073003944592301195e+00,-3.883173538744435405e+01,-5.003063791673491778e+01,3.992054307250484158e+01,-3.776267750048418748e+00,9.523238182067871094e+00,-9.943943619728088379e-01,-3.824593424797058105e-01,5.080000000000000000e+02
-3.981393763794783069e+01,-2.047014441158437137e+01,4.484330754731792013e+01,1.467869913565010620e+00,-3.554013096783657488e+01,-4.910548632962650117e+01,4.158698885099352083e+01,-7.986004051815314142e-01,9.523238182067871094e+00,-9.943943619728088379e-01,-3.824593424797058105e-01,5.090000000000000000e+02
-3.775111507311304138e+01,-1.970767464295377636e+01,4.880626362235732074e+01,2.453007803504661410e+00,-3.093852247465379435e+01,-4.712906619919749573e+01,4.500008725570216939e+01,3.927833930775435078e+00,9.523238182067871094e+00,-9.943943619728088379e-01,-3.824593424797058105e-01,5.100000000000000000e+02
-3.583728129806151230e+01,-1.747396899299269535e+01,5.215291952149254939e+01,4.073931717465001157e+00,-2.663001132588051689e+01,-4.421560179413918945e+01,4.854965571863125717e+01,8.593502771387534267e+00,9.523238182067871094e+00,-9.943943619728088379e-01,-3.824593424797058105e-01,5.110000000000000000e+02
-3.477445651453697906e+01,-1.405223448342113102e+01,5.342264000390524359e+01,6.228289715931396131e+00,-2.416467788111788195e+01,-4.102091853699212720e+01,5.044473167980491723e+01,1.168120579921782110e+01,9.523238182067871094e+00,-9.943943619728088379e-01,-3.824593424797058105e-01,5.120000000000000000e+02
-3.461974806024934992e+01,-1.052148431003604401e+01,5.240210859358742823e+01,8.636501976060856123e+00,-2.416799772757667597e+01,-3.836032037165136899e+01,5.006055825134012593e+01,1.268298842654382952e+01,9.523238182067871094e+00,-9.943943619728088379e-01,-3.824593424797058105e-01,5.130000000000000000e+02
-3.480310338012628790e+01,-7.941017433890010579e+00,5.019543454234297997e+01,1.086485227044363455e+01,-2.622120360153866159e+01,-3.672786694379885830e+01,4.830360801676158644e+01,1.200037872490128166e+01,9.523238182067871094e+00,-9.943943619728088379e-01,-3.824593424797058105e-01,5.140000000000000000e+02
-3.470265900578760920e+01,-6.634987180072300816e+00,4.832952197007892892e+01,1.245136741352905574e+01,-2.935748224089070391e+01,-3.606243042187031733e+01,4.679053099422156947e+01,1.044743442840228909e+01,9.523238182067871094e+00,-9.943943619728088379e-01,-3.824593424797058105e-01,5.150000000000000000e+02
-3.419855710494755385e+01,-6.149917729507592412e+00,4.773130216413147764e+01,1.312938254639072966e+01,-3.255814888320855971e+01,-3.586731444621023002e+01,4.667360166961719870e+01,8.911560369971311957e+00,9.523238182067871094e+00,-9.943943619728088379e-01,-3.824593424797058105e-01,5.160000000000000000e+02
-3.367255689213789083e+01,-5.788937569811992034e+00,4.841681067592173804e+01,1.305385926107487649e+01,-3.486604613023894217e+01,-3.551747935281593982e+01,4.810842934001402682e+01,8.273893150268349928e+00,9.523238182067871094e+00,-9.943943619728088379e-01,-3.824593424797058105e-01,5.170000000000000000e+02
-3.348770822242465783e+01,-5.126696523451528265e+00,4.996951300757473291e+01,1.285663281740869479e+01,-3.534165845698930752e+01,-3.453518531772419919e+01,5.059461761895386189e+01,9.282958468114316020e+00,9.523238182067871094e+00,-9.943943619728088379e-01,-3.824593424797058105e-01,5.180000000000000000e+02
-3.350123620004785607e+01,-4.073036456377963077e+00,5.215254114572928756e+01,1.338704016716314982e+01,-3.331159739574400191e+01,-3.274493204847158268e+01,5.357857230347644872e+01,1.220199174578942802e+01,9.523238182067871094e+00,-9.943943619728088379e-01,-3.824593424797058105e-01,5.190000000000000000e+02
-3.312702480952066253e+01,-2.647231278996514447e+00,5.500283138244515158e+01,1.518862949705635401e+01,-2.892503241479425924e+01,-3.032739660301740514e+01,5.662999118569234724e+01,1.649061661900827858e+01,9.446745872497558594e+00,-9.179025292396545410e-01,-3.059675097465515137e-01,5.200000000000000000e+02
-3.190269888973239176e+01,-8.995666422176782362e-01,5.842194707233534245e+01,1.803175233315073456e+01,-2.343726006079214130e+01,-2.777085214795374668e+01,5.919013384944241807e+01,2.094284100173717889e+01,9.446745872497558594e+00,-9.179025292396545410e-01,-3.059675097465515137e-01,5.210000000000000000e+02
-3.000437099062833113e+01,9.075497329827157955e-01,6.185334425890778220e+01,2.090805997045595177e+01,-1.867353390159291848e+01,-2.567409928812435282e+01,6.047997177293063942e+01,2.434012927361095535e+01,9.446745872497558594e+00,-9.179025292396545410e-01,-3.059675097465515137e-01,5.220000000000000000e+02
-2.819256848928353065e+01,2.202316281546472965e+00,6.451589626973736813e+01,2.260416323233562252e+01,-1.588281510348679149e+01,-2.443186523304643742e+01,5.996085779790587367e+01,2.615849435774089216e+01,9.446745872497558594e+00,-9.179025292396545410e-01,-3.059675097465515137e-01,5.230000000000000000e+02
-2.720238925957346510e+01,2.446717987190595522e+00,6.604873239660150830e+01,2.249555462834223363e+01,-1.489643129132718968e+01,-2.400148935349125168e+01,5.800146726007528741e+01,2.677253451804313045e+01,9.446745872497558594e+00,-9.179025292396545410e-01,-3.059675097465515137e-01,5.240000000000000000e+02
-2.711278302169057497e+01,1.738245257071639571e+00,6.692771323827446395e+01,2.096991264506482366e+01,-1.436259788138136173e+01,-2.393869283173626172e+01,5.597442258699925333e+01,2.705549586367010306e+01,9.446745872497558594e+00,-9.179025292396545410e-01,-3.059675097465515137e-01,5.250000000000000000e+02
-2.726471652150871705e+01,1.001623405813461432e+00,6.815504824030176678e+01,1.914499286175737325e+01,-1.289878482749327304e+01,-2.369609580750966416e+01,5.541956302980952387e+01,2.776265744851912132e+01,9.446745872497558594e+00,-9.179025292396545410e-01,-3.059675097465515137e-01,5.260000000000000000e+02
-2.683622692019548595e+01,1.354731986441493063e+00,7.038826270883555480e+01,1.810181010067981333e+01,-1.018877290649061251e+01,-2.296123043316356416e+01,5.681150840151553894e+01,2.915306772758049192e+01,9.446745872497558594e+00,-9.179025292396545410e-01,-3.059675097465515137e-01,5.270000000000000000e+02
-2.560388660370176694e+01,3.071301218602911831e+00,7.322846933640221323e+01,1.821566561214331159e+01,-7.151553075500032719e+00,-2.179708907080339486e+01,5.899678311356365157e+01,3.096834290320066430e+01,9.446745872497558594e+00,-9.179025292396545410e-01,-3.059675097465515137e-01,5.280000000000000000e+02
-2.423530839634986478e+01,5.125085105102471061e+00,7.531550649234895900e+01,1.904192710078905293e+01,-5.183829288954711956e+00,-2.055510512851242311e+01,5.991566510153006675e+01,3.259745422523883462e+01,9.446745872497558594e+00,-9.179025292396545410e-01,-3.059675097465515137e-01,5.290000000000000000e+02
-2.382478339855651939e+01,5.892196516755120683e+00,7.524070009424917771e+01,1.975554261267416223e+01,-5.224605969553977047e+00,-1.969391302186977555e+01,5.812678654149658541e+01,3.328292607048751961e+01,9.446745872497558594e+00,-9.179025292396545410e-01,-3.059675097465515137e-01,5.300000000000000000e+02
-2.503144682260517584e+01,4.483079543011172063e+00,7.259114739695678509e+01,1.974705156404434092e+01,-7.359109815432020696e+00,-1.961454989547200967e+01,5.391533064229406591e+01,3.240243815046187592e+01,9.446745872497558594e+00,-9.179025292396545410e-01,-3.059675097465515137e-01,5.310000000000000000e+02
-2.754531702023496109e+01,1.488644712574568985e+00,6.829278789926911486e+01,1.894019467735688522e+01,-1.105307252088914538e+01,-2.051960763774923180e+01,4.906652845984899614e+01,2.983543382577499870e+01,9.446745872497558594e+00,-9.179025292396545410e-01,-3.059675097465515137e-01,5.320000000000000000e+02
-3.036023509393908171e+01,-1.577088036284294503e+00,6.396897329710145641e+01,1.768051668374482688e+01,-1.558684665496684829e+01,-2.229146280802433466e+01,4.550315461707759823e+01,2.618874023141506768e+01,9.446745872497558594e+00,-9.179025292396545410e-01,-3.059675097465515137e-01,5.330000000000000000e+02
-3.263962969857675489e+01,-3.622289086228192900e+00,6.081329059318932195e+01,1.637830505326019193e+01,-2.030862126881220320e+01,-2.447659286905627596e+01,4.393636836863333883e+01,2.258412297034919902e+01,9.446745872497558594e+00,-9.179025292396545410e-01,-3.059675097465515137e-01,5.340000000000000000e+02
-3.442212901038328710e+01,-4.835067509117834561e+00,5.886158051055326723e+01,1.521420340655868131e+01,-2.468388770682850009e+01,-2.647078588608474092e+01,4.360805911510487931e+01,2.002733022518305006e+01,9.446745872497558594e+00,-9.179025292396545410e-01,-3.059675097465515137e-01,5.350000000000000000e+02
-3.650530121954170681e+01,-6.244451878434119863e+00,5.721816423193286028e+01,1.412483252723950500e+01,-2.829322957886870427e+01,-2.783135624161241140e+01,4.323199445588716117e+01,1.884266823425377879e+01,9.446745872497558594e+00,-9.179025292396545410e-01,-3.059675097465515137e-01,5.360000000000000000e+02
-3.957813377120555742e+01,-8.474314946620324918e+00,5.499763094370337058e+01,1.303360942126209920e+01,-3.085402248490890997e+01,-2.848881780174451706e+01,4.220236077437220956e+01,1.866719903107514256e+01,9.446745872497558594e+00,-9.179025292396545410e-01,-3.059675097465515137e-01,5.370000000000000000e+02
-4.338575113214756129e+01,-1.096059807840720168e+01,5.217260630015243805e+01,1.208210419496299437e+01,-3.221716879289442659e+01,-2.868551946954903542e+01,4.098651148405133426e+01,1.898173517834857194e+01,9.446745872497558594e+00,-9.179025292396545410e-01,-3.059675097465515137e-01,5.380000000000000000e+02
-4.671663953765983024e+01,-1.240956980464898152e+01,4.963710580966744601e+01,1.161752986159808643e+01,-3.234033927884411241e+01,-2.872626939667679835e+01,4.046514268470491515e+01,1.962047253773607736e+01,9.446745872497558594e+00,-9.179025292396545410e-01,-3.059675097465515137e-01,5.390000000000000000e+02
-4.827454892313198798e+01,-1.202033103906887845e+01,4.851134542264753691e+01,1.192206941492622718e+01,-3.131208339214072112e+01,-2.877744820770931256e+01,4.097928488529805691e+01,2.076077307711329922e+01,9.446745872497558594e+00,-9.179025292396545410e-01,-3.059675097465515137e-01,5.400000000000000000e+02
-4.768742584550091124e+01,-1.025522511870622111e+01,4.933273299592065086e+01,1.293340065417851292e+01,-2.942296554774293327e+01,-2.884464781651695375e+01,4.203741189669926825e+01,2.249130681874157744e+01,9.484992027282714844e+00,-8.796565532684326172e-01,-2.677215635776519775e-01,5.410000000000000000e+02
-4.578238095815822817e+01,-8.441961997286398400e+00,5.177286662164942754e+01,1.423875921897160879e+01,-2.714825158637722780e+01,-2.884667411124337377e+01,4.286827210344790728e+01,2.451984103737049736e+01,9.484992027282714844e+00,-8.796565532684326172e-01,-2.677215635776519775e-01,5.420000000000000000e+02
-4.392199681506735942e+01,-7.652175621233709535e+00,5.498681545335193732e+01,1.536856595253993873e+01,-2.491247112024666421e+01,-2.864873923346021911e+01,4.314763568854186815e+01,2.638977982110009179e+01,9.484992027282714844e+00,-8.796565532684326172e-01,-2.677215635776519775e-01,5.430000000000000000e+02
-4.301644786492397543e+01,-7.936949807562996284e+00,5.816197456549025446e+01,1.612144117209845717e+01,-2.277972397334360721e+01,-2.806959932492645748e+01,4.313168168269839953e+01,2.795132892904439359e+01,9.484992027282714844e+00,-8.796565532684326172e-01,-2.677215635776519775e-01,5.440000000000000000e+02
-4.303777872727096110e+01,-8.550851426666667976e+00,6.079639005004446517e+01,1.661769723031193280e+01,-2.041391213935366977e+01,-2.697684243335788778e+01,4.314369022753362515e+01,2.950308937095724104e+01,9.484992027282714844e+00,-8.796565532684326172e-01,-2.677215635776519775e-01,5.450000000000000000e+02
-4.332536542694106174e+01,-8.808552817113195488e+00,6.263590635803484474e+01,1.705900809176182520e+01,-1.747168795099878480e+01,-2.547283556940419658e+01,4.307750482304800244e+01,3.138152876963977178e+01,9.484992027282714844e+00,-8.796565532684326172e-01,-2.677215635776519775e-01,5.460000000000000000e+02
-4.326350235735844763e+01,-8.682056207402638393e+00,6.354555327152957034e+01,1.746839349262882024e+01,-1.414006056581183657e+01,-2.397518403172216495e+01,4.251458913597161882e+01,3.343436028139512928e+01,9.484992027282714844e+00,-8.796565532684326172e-01,-2.677215635776519775e-01,5.470000000000000000e+02
-4.270428685970182414e+01,-8.639531229738167895e+00,6.353855602033308969e+01,1.767711084304755786e+01,-1.128707459497854870e+01,-2.301723963096901571e+01,4.130828572526206699e+01,3.498246628774813871e+01,9.484992027282714844e+00,-8.796565532684326172e-01,-2.677215635776519775e-01,5.480000000000000000e+02
-4.188851224752397684e+01,-9.046997332741739228e+00,6.286691676375266979e+01,1.753532482525224623e+01,-9.984703883104884881e+00,-2.288545118664205802e+01,3.991730992139400769e+01,3.535784036803943309e+01,9.484992027282714844e+00,-8.796565532684326172e-01,-2.677215635776519775e-01,5.490000000000000000e+02
-4.110433068611109775e+01,-9.795073280254655401e+00,6.196688420316422707e+01,1.709112942116462364e+01,-1.073915988416047185e+01,-2.341870865551027237e+01,3.905009901120683935e+01,3.450021308457598934e+01,9.484992027282714844e+00,-8.796565532684326172e-01,-2.677215635776519775e-01,5.500000000000000000e+02
-4.044688799075447605e+01,-1.044791558173801604e+01,6.123470187522343622e+01,1.655096623438112147e+01,-1.305793440247725812e+01,-2.415545039504831948e+01,3.898381278570104769e+01,3.305049667976163619e+01,9.484992027282714844e+00,-8.796565532684326172e-01,-2.677215635776519775e-01,5.510000000000000000e+02
-3.981530648771695269e+01,-1.062868443953357200e+01,6.085625964949667832e+01,1.610215260307359131e+01,-1.570545567621411465e+01,-2.466588218758442963e+01,3.933332763807266019e+01,3.190767828700973041e+01,9.484992027282714844e+00,-8.796565532684326172e-01,-2.677215635776519775e-01,5.520000000000000000e+02
-3.902606424457098910e+01,-1.020288222742965445e+01,6.087437039110500336e+01,1.581705477712785068e+01,-1.743893990317155840e+01,-2.474533819127645984e+01,3.956474858958426921e+01,3.170549569862305361e+01,9.484992027282714844e+00,-8.796565532684326172e-01,-2.677215635776519775e-01,5.530000000000000000e+02
-3.790680241927657335e+01,-9.153664398710134265e+00,6.138643180970848334e+01,1.572922098736125918e+01,-1.766139346686395584e+01,-2.433889934552826162e+01,3.970763292839637870e+01,3.262704384673270397e+01,9.484992027282714844e+00,-8.796565532684326172e-01,-2.677215635776519775e-01,5.540000000000000000e+02
-3.636472426555064885e+01,-7.432480521104480431e+00,6.257368630684777600e+01,1.594718379539062880e+01,-1.658954039133459446e+01,-2.340073991126519104e+01,4.044798212251043878e+01,3.453229195105268445e+01,9.484992027282714844e+00,-8.796565532684326172e-01,-2.677215635776519775e-01,5.550000000000000000e+02
-3.446536869523242785e+01,-5.050259191905752232e+00,6.446225387139384111e+01,1.661762766218726028e+01,-1.495483151815278688e+01,-2.194096200158855936e+01,4.242259044916590938e+01,3.709343776981040719e+01,9.484992027282714844e+00,-8.796565532684326172e-01,-2.677215635776519775e-01,5.560000000000000000e+02
-3.247299273196767899e+01,-2.299598889441767824e+00,6.666770797569733986e+01,1.773996064909806591e+01,-1.354492696760644321e+01,-2.020951923816028284e+01,4.541935674821161228e+01,3.980660362292655918e+01,9.484992027282714844e+00,-8.796565532684326172e-01,-2.677215635776519775e-01,5.570000000000000000e+02
-3.075722066891285067e+01,2.174082327073847409e-01,6.847906763010541908e+01,1.903571394528444216e+01,-1.287570051574493846e+01,-1.871856694927009812e+01,4.832079618496754847e+01,4.204982416150960489e+01,9.484992027282714844e+00,-8.796565532684326172e-01,-2.677215635776519775e-01,5.580000000000000000e+02
-2.956257738738531771e+01,1.908294591658886930e+00,6.932689120352097234e+01,2.005630734087571909e+01,-1.306479203797971422e+01,-1.792761587293716730e+01,4.992361769955914497e+01,4.337025966284181777e+01,9.484992027282714844e+00,-8.796565532684326172e-01,-2.677215635776519775e-01,5.590000000000000000e+02
-2.881806970144589286e+01,2.613214378801785642e+00,6.923461723301443271e+01,2.049241131205053534e+01,-1.383684165171143832e+01,-1.781045275814176421e+01,4.988930887911101308e+01,4.385279173024900956e+01,9.484992027282714844e+00,-8.796565532684326172e-01,-2.677215635776519775e-01,5.600000000000000000e+02
-2.818173076785205922e+01,2.732595830977516016e+00,6.881388166665965400e+01,2.045052950646095269e+01,-1.461135361658125476e+01,-1.774157783243208542e+01,4.896521357273741160e+01,4.419174808594834758e+01,9.484992027282714844e+00,-8.796565532684326172e-01,-2.677215635776519775e-01,5.610000000000000000e+02
-2.729983395541148639e+01,2.926838521552781458e+00,6.878915157246228773e+01,2.046486323794306372e+01,-1.468102842302505451e+01,-1.690398212050058646e+01,4.833552308517573692e+01,4.529181434525889927e+01,9.484992027282714844e+00,-8.796565532684326172e-01,-2.677215635776519775e-01,5.620000000000000000e+02
-2.606187304369359481e+01,3.644407457366469316e+00,6.948210601299615519e+01,2.118759691231025499e+01,-1.348760145193045901e+01,-1.492862945528031560e+01,4.872145502548664808e+01,4.765568414119297813e+01,9.484992027282714844e+00,-8.796565532684326172e-01,-2.677215635776519775e-01,5.630000000000000000e+02
-2.462470053682409343e+01,4.884032810162352689e+00,7.072414009754629660e+01,2.293685385062781279e+01,-1.088980096055092872e+01,-1.220525907397495757e+01,5.000358821802637976e+01,5.106852396911017422e+01,9.484992027282714844e+00,-8.796565532684326172e-01,-2.677215635776519775e-01,5.640000000000000000e+02
-2.318106358376553544e+01,6.366649510360730346e+00,7.225057601598018664e+01,2.543695773710169306e+01,-7.227683258632168872e+00,-9.550737668754663900e+00,5.160234769464932469e+01,5.485606825799550279e+01,9.484992027282714844e+00,-8.796565532684326172e-01,-2.677215635776519775e-01,5.650000000000000000e+02
-2.169375262254288828e+01,7.888726663884881418e+00,7.412817895549778768e+01,2.797822279825595615e+01,-3.110281621846297639e+00,-7.504222329871481634e+00,5.316130785223504063e+01,5.846332260663803027e+01,9.484992027282714844e+00,-9.179025292396545410e-01,-3.059675097465515137e-01,5.660000000000000000e+02
-1.985981815027662378e+01,9.500403634632675676e+00,7.675602875440381467e+01,2.992615731174373650e+01,9.378653492494777311e-01,-5.859002519069690607e+00,5.490130434716047603e+01,6.183529023154369497e+01,9.484992027282714844e+00,-9.179025292396545410e-01,-3.059675097465515137e-01,5.670000000000000000e+02
-1.737282180775582674e+01,1.135473375025503628e+01,8.040208343401900493e+01,3.119256717415373714e+01,4.678334709396949620e+00,-3.879098731484191376e+00,5.734664705176146526e+01,6.526921834741006023e+01,9.484992027282714844e+00,-9.179025292396545410e-01,-3.059675097465515137e-01,5.680000000000000000e+02
-1.428090816251824435e+01,1.341101849076767394e+01,8.470439513541532506e+01,3.224513471126920194e+01,8.026592325708406861e+00,-1.062154481662219041e+00,6.066758328000651090e+01,6.888743966417314368e+01,9.484992027282714844e+00,-9.179025292396545410e-01,-3.059675097465515137e-01,5.690000000000000000e+02
-1.112511243249355175e+01,1.531180753520675353e+01,8.863669078125531087e+01,3.359975772114739812e+01,1.075063591231082682e+01,2.216949186400597682e+00,6.421798112818396476e+01,7.223457061151384551e+01,9.484992027282714844e+00,-9.179025292396545410e-01,-3.059675097465515137e-01,5.700000000000000000e+02
-8.701496085583130480e+00,1.658215167645175825e+01,9.104511546873072803e+01,3.523261770298631745e+01,1.238106670944398502e+01,4.810043200448490097e+00,6.672068138753638777e+01,7.441861852465262928e+01,9.484992027282714844e+00,-9.179025292396545410e-01,-3.059675097465515137e-01,5.710000000000000000e+02
-7.589000328254769556e+00,1.700259774395999557e+01,9.135936000929177681e+01,3.648590037346912140e+01,1.252877896281825087e+01,5.652587200063862838e+00,6.707386307591150398e+01,7.475160547295672586e+01,9.484992027282714844e+00,-9.179025292396545410e-01,-3.059675097465515137e-01,5.720000000000000000e+02
-7.782759669296865468e+00,1.685429126024973812e+01,8.994648939135913679e+01,3.662608385689600254e+01,1.137955941114887537e+01,4.696333619656797964e+00,6.523919897374798893e+01,7.340926994807887240e+01,9.484992027282714844e+00,-9.179025292396545410e-01,-3.059675097465515137e-01,5.730000000000000000e+02
-8.710301614915806567e+00,1.682935342483870045e+01,8.786266833308036439e+01,3.557737131750945991e+01,9.858086831785840332e+00,3.094137496311304858e+00,6.248445798497959913e+01,7.154783765993852285e+01,9.484992027282714844e+00,-9.179025292396545410e-01,-3.059675097465515137e-01,5.740000000000000000e+02
-9.611558721931942273e+00,1.764603059712862887e+01,8.621116085881476465e+01,3.412069078788772458e+01,9.176363890133870882e+00,2.407633761195029365e+00,6.065094651251820324e+01,7.067861210239243519e+01,9.484992027282714844e+00,-9.179025292396545410e-01,-3.059675097465515137e-01,5.750000000000000000e+02
-9.993361951850602054e+00,1.960838333061292360e+01,8.555772064792472520e+01,3.331447191323240986e+01,1.003935863686638186e+01,3.463394972239257186e+00,6.088080147814252996e+01,7.167699718271251186e+01,9.484992027282714844e+00,-9.179025292396545410e-01,-3.059675097465515137e-01,5.760000000000000000e+02
-9.855419602883557673e+00,2.237994936841460003e+01,8.573665825651914929e+01,3.362592231059170444e+01,1.213750224921750487e+01,5.794704104224365437e+00,6.277075918629270745e+01,7.414696866750091431e+01,9.484992027282714844e+00,-9.179025292396545410e-01,-3.059675097465515137e-01,5.770000000000000000e+02
-9.592729079529817682e+00,2.513081694609900296e+01,8.607424100747448392e+01,3.456040029003088421e+01,1.436020920066221152e+01,8.098241837615205441e+00,6.471367712254686921e+01,7.666924773625578382e+01,9.484992027282714844e+00,-9.179025292396545410e-01,-3.059675097465515137e-01,5.780000000000000000e+02
-9.713333515866906964e+00,2.700288527362681634e+01,8.582752419613279926e+01,3.512032076382456580e+01,1.556446508453154820e+01,9.256482563188910717e+00,6.522938312840597064e+01,7.781054396428407927e+01,9.484992027282714844e+00,-9.179025292396545410e-01,-3.059675097465515137e-01,5.790000000000000000e+02
-1.056125116405928566e+01,2.764217545335486648e+01,8.460128271110443166e+01,3.467751214620693645e+01,1.530050167500485259e+01,9.058621318738005357e+00,6.419421953198070696e+01,7.716164344843309664e+01,9.484992027282714844e+00,-9.179025292396545410e-01,-3.059675097465515137e-01,5.800000000000000000e+02
-1.212368109583258047e+01,2.747434470745793078e+01,8.258710772800623090e+01,3.351007947412836074e+01,1.401242641216049378e+01,8.139035323740245076e+00,6.291464513619212084e+01,7.563069685801201558e+01,9.484992027282714844e+00,-9.179025292396545410e-01,-3.059675097465515137e-01,5.810000000000000000e+02
-1.396234005807309586e+01,2.747965717693841725e+01,8.052356992546083347e+01,3.259047674413341156e+01,1.266736158402818546e+01,7.368878318950009998e+00,6.295709681931657542e+01,7.477340571776949218e+01,9.484992027282714844e+00,-9.179025292396545410e-01,-3.059675097465515137e-01,5.820000000000000000e+02
-1.533092690036573913e+01,2.854449708317224577e+01,7.935051561141153798e+01,3.286108372343551309e+01,1.214447156179994636e+01,7.308141118857747642e+00,6.477137612735532457e+01,7.568993520519325102e+01,9.484992027282714844e+00,-9.179025292396545410e-01,-3.059675097465515137e-01,5.830000000000000000e+02
-1.551974523143508122e+01,3.080878507630222884e+01,7.968444297980568081e+01,3.459039127907817601e+01,1.277612092127310461e+01,8.063891671255987603e+00,6.732874868614635488e+01,7.832691218448417203e+01,9.484992027282714844e+00,-9.179025292396545410e-01,-3.059675097465515137e-01,5.840000000000000000e+02
-1.429871935622395540e+01,3.352724082339045708e+01,8.140978008968704671e+01,3.725956111911000335e+01,1.425532333085175196e+01,9.448792556599073578e+00,6.906805905755027197e+01,8.166314198530744761e+01,9.484992027282714844e+00,-9.179025292396545410e-01,-3.059675097465515137e-01,5.850000000000000000e+02
-1.213478563450371439e+01,3.561191799305743189e+01,8.367921404564185650e+01,3.996571171043979120e+01,1.588349375332109048e+01,1.114652965386994765e+01,6.924821142804830743e+01,8.451776550695285550e+01,9.484992027282714844e+00,-9.179025292396545410e-01,-3.059675097465515137e-01,5.860000000000000000e+02
-9.939645691936675576e+00,3.645280147465200571e+01,8.535695017855505284e+01,4.197102504987924476e+01,1.697416837794298772e+01,1.276018684521477553e+01,6.846034373885231616e+01,8.625063072799821384e+01,9.484992027282714844e+00,-9.179025292396545410e-01,-3.059675097465515137e-01,5.870000000000000000e+02
-8.478065561550465645e+00,3.634306601021307870e+01,8.563715088901335548e+01,4.303186850127167418e+01,1.717942738044803264e+01,1.387377354729323997e+01,6.791153097885035095e+01,8.684985571912693558e+01,9.484992027282714844e+00,-9.179025292396545410e-01,-3.059675097465515137e-01,5.880000000000000000e+02
-7.899655004155647475e+00,3.614007369449791440e+01,8.443063513633933326e+01,4.337108047301444458e+01,1.656635372518576332e+01,1.421536596042278688e+01,6.823547876249722322e+01,8.652151915057402221e+01,9.484992027282714844e+00,-9.179025292396545410e-01,-3.059675097465515137e-01,5.890000000000000000e+02
-7.785843353316522553e+00,3.647945639144018060e+01,8.230894747398997424e+01,4.341775425490777707e+01,1.546279938541192678e+01,1.383187872911730665e+01,6.897617205348615244e+01,8.535350971022489830e+01,9.484992027282714844e+00,-9.179025292396545410e-01,-3.059675097465515137e-01,5.900000000000000000e+02
-7.629641879100745427e+00,3.727103103193985589e+01,8.013721134984734817e+01,4.354059980816964526e+01,1.424739898251209524e+01,1.310107919241636409e+01,6.916176563687076850e+01,8.343784849229996325e+01,9.484992027282714844e+00,-9.179025292396545410e-01,-3.059675097465515137e-01,5.910000000000000000e+02
-7.253467654618361848e+00,3.792244004082022002e+01,7.866765684552774474e+01,4.392101319877474452e+01,1.324250550054057385e+01,1.252808150000419118e+01,6.830707767181229428e+01,8.122755281096760882e+01,9.484992027282714844e+00,-9.179025292396545410e-01,-3.059675097465515137e-01,5.920000000000000000e+02
-6.780849422482788214e+00,3.802241292839062226e+01,7.827410144705936546e+01,4.455507122928247554e+01,1.270499672287041903e+01,1.246620156972494442e+01,6.684999159686776693e+01,7.957642002825014060e+01,9.484992027282714844e+00,-9.943943619728088379e-01,-2.677215635776519775e-01,5.930000000000000000e+02
-6.284409613906973391e+00,3.777251177292782813e+01,7.886038960357473115e+01,4.529208447186101694e+01,1.280079360536183231e+01,1.295036900647392031e+01,6.569165248481476738e+01,7.922883961895786342e+01,9.484992027282714844e+00,-9.943943619728088379e-01,-2.677215635776519775e-01,5.940000000000000000e+02
-5.576430650186011917e+00,3.775182238736306317e+01,7.993537256541640090e+01,4.587359296940121567e+01,1.352140071698886459e+01,1.373120033524537575e+01,6.541118778704367287e+01,8.018171169048946467e+01,9.484992027282714844e+00,-9.943943619728088379e-01,-2.677215635776519775e-01,5.950000000000000000e+02
-4.406737860746943625e+00,3.830139953887555748e+01,8.087735381536549539e+01,4.601915041488973657e+01,1.466856392937916098e+01,1.446480096897357726e+01,6.594396968958608340e+01,8.160666428908371017e+01,9.484992027282714844e+00,-9.943943619728088379e-01,-2.677215635776519775e-01,5.960000000000000000e+02
-2.820392227498814464e+00,3.919586438580154208e+01,8.132548642816618667e+01,4.558140540965541732e+01,1.602045402585645206e+01,1.493121912420974695e+01,6.690475092367705656e+01,8.252960579776845407e+01,9.484992027282714844e+00,-9.943943619728088379e-01,-2.677215635776519775e-01,5.970000000000000000e+02
-1.227315900818211958e+00,3.991602547804723145e+01,8.143061408531866618e+01,4.467349963805099833e+01,1.753900830125712673e+01,1.514554054383916082e+01,6.802331937700728304e+01,8.265694247939245543e+01,9.484992027282714844e+00,-9.943943619728088379e-01,-2.677215635776519775e-01,5.980000000000000000e+02
-6.951131030655233189e-02,4.017682703373066033e+01,8.168331460518675158e+01,4.360959397939586779e+01,1.932182268083852250e+01,1.527522083586882218e+01,6.914126897296955576e+01,8.250620068111675209e+01,9.484992027282714844e+00,-9.943943619728088379e-01,-2.677215635776519775e-01,5.990000000000000000e+02
5.505434522892755922e-01,4.011764538055649609e+01,8.237520840535580646e+01,4.264780497341416776e+01,2.126199068765345146e+01,1.543287875921669183e+01,6.987040471979707945e+01,8.269635163204657147e+01,9.484992027282714844e+00,-9.943943619728088379e-01,-2.677215635776519775e-01,6.000000000000000000e+02
8.771744957884948235e-01,3.998439199702625046e+01,8.317963973656515009e+01,4.176161521755420836e+01,2.280130465242837090e+01,1.554948112308920827e+01,6.952372025616568862e+01,8.316092617992035230e+01,9.484992027282714844e+00,-9.943943619728088379e-01,-2.677215635776519775e-01,6.010000000000000000e+02
1.177944087612559088e+00,3.975323157904858817e+01,8.334798457424039952e+01,4.070211697674676543e+01,2.322021998389755026e+01,1.548631986917825998e+01,6.766326895610836800e+01,8.318702744659822201e+01,9.484992027282714844e+00,-9.943943619728088379e-01,-2.677215635776519775e-01,6.020000000000000000e+02
1.503962255177611951e+00,3.919913315308076562e+01,8.244566258508348255e+01,3.933974941879569087e+01,2.235454273444702267e+01,1.529838545106758829e+01,6.481037829061097000e+01,8.231530985068093287e+01,9.484992027282714844e+00,-9.943943619728088379e-01,-2.677215635776519775e-01,6.030000000000000000e+02
1.807023401863261824e+00,3.836889315617372631e+01,8.092876918400725117e+01,3.794762797025759937e+01,2.101140090059561771e+01,1.533912874497036682e+01,6.246030563367094146e+01,8.114234945720090764e+01,9.484992027282714844e+00,-9.943943619728088379e-01,-2.677215635776519775e-01,6.040000000000000000e+02
2.204888528187439078e+00,3.790037459084487637e+01,7.989223185312221176e+01,3.709235185938814539e+01,2.048083000330734649e+01,1.601275155182520393e+01,6.211296918752486818e+01,8.106428229605808156e+01,9.484992027282714844e+00,-9.943943619728088379e-01,-2.677215635776519775e-01,6.050000000000000000e+02
2.969868167689128313e+00,3.871371350590197835e+01,8.011815765137362177e+01,3.717922266918685636e+01,2.142252256552819745e+01,1.736676521986009902e+01,6.403845444344551652e+01,8.306400770851905691e+01,9.484992027282714844e+00,-9.943943619728088379e-01,-2.677215635776519775e-01,6.060000000000000000e+02
4.149381505296332762e+00,4.124092138426203746e+01,8.131322702191391727e+01,3.806704245040600654e+01,2.317185782856540754e+01,1.894560444299349911e+01,6.690142742421812727e+01,8.667481861911801388e+01,9.484992027282714844e+00,-9.943943619728088379e-01,-2.677215635776519775e-01,6.070000000000000000e+02
5.243915527757053496e+00,4.488984205716769793e+01,8.231774333638895769e+01,3.911924896446362254e+01,2.422477648110725568e+01,2.009731961167926784e+01,6.866559174384019570e+01,9.015874008768150816e+01,9.484992027282714844e+00,-9.943943619728088379e-01,-2.677215635776519775e-01,6.080000000000000000e+02
5.430735558817104902e+00,4.828330457764604944e+01,8.214476598384135286e+01,3.964948919838934671e+01,2.351921666589259985e+01,2.044701144854116137e+01,6.805710325830659713e+01,9.178341375658419565e+01,9.484992027282714844e+00,-9.943943619728088379e-01,-2.677215635776519775e-01,6.090000000000000000e+02
4.266055136649811175e+00,5.011031940600514645e+01,8.086737438437558012e+01,3.937552115391736152e+01,2.131534656154690310e+01,2.006856684960075654e+01,6.537520149071860942e+01,9.105287569916617940e+01,9.484992027282714844e+00,-9.943943619728088379e-01,-2.677215635776519775e-01,6.100000000000000000e+02
2.214390284469118342e+00,4.989367834279983072e+01,7.950794365752517479e+01,3.854859236091579078e+01,1.886712484258532641e+01,1.923680725969461491e+01,6.208262583570831339e+01,8.886998646865686169e+01,9.484992027282714844e+00,-9.943943619728088379e-01,-2.677215635776519775e-01,6.110000000000000000e+02
4.192390841199085116e-01,4.810100232620607130e+01,7.908095344683533767e+01,3.775456708363708458e+01,1.730620067051859223e+01,1.812275175553804729e+01,5.969759993379193475e+01,8.668561299192515435e+01,9.484992027282714844e+00,-9.943943619728088379e-01,-2.677215635776519775e-01,6.120000000000000000e+02
-1.490701358743535820e-01,4.562613621031050570e+01,7.976594531092268880e+01,3.760273237406363478e+01,1.690676532140423660e+01,1.683419339263127767e+01,5.897247119834719342e+01,8.556629344145403593e+01,9.484992027282714844e+00,-9.943943619728088379e-01,-2.677215635776519775e-01,6.130000000000000000e+02
5.996189704783319030e-01,4.313961496715637622e+01,8.097048913188700681e+01,3.844978785765852081e+01,1.735200056249959744e+01,1.570102264067099895e+01,5.984720931914853281e+01,8.591428192364401184e+01,9.484992027282714844e+00,-9.943943619728088379e-01,-2.677215635776519775e-01,6.140000000000000000e+02
1.952235287764779059e+00,4.078446540091681527e+01,8.207837315064170980e+01,4.019790182398719480e+01,1.846723962598480284e+01,1.531380821754282806e+01,6.186160318254769663e+01,8.772264806132443482e+01,9.484992027282714844e+00,-9.943943619728088379e-01,-2.677215635776519775e-01,6.150000000000000000e+02
