F3,F4,C3,C4,P3,P4,Cz,Pz,Accel_x,Accel_y,Accel_z,Sample
-4.729372449219226837e-11,-3.637978807091712952e-11,-2.000888343900442123e-11,-7.094058673828840256e-11,-4.547473508864641190e-11,-1.273292582482099533e-10,-2.819433575496077538e-11,-4.911271389573812485e-11,9.523238182067871094e+00,-9.561483860015869141e-01,3.824593871831893921e-02,2.260000000000000000e+02
-9.499632750540513371e+00,-6.674743638754989661e+00,-3.321703705836625886e+00,1.508426204089300882e+01,-3.593654939892076072e+00,1.740068702634562214e+01,-2.188555283932146267e+00,-2.937632309010950848e+00,9.523238182067871094e+00,-9.561483860015869141e-01,3.824593871831893921e-02,2.270000000000000000e+02
-1.859778542607455165e+01,-1.390644183225049346e+01,-5.807712991342668829e+00,2.718389542923614499e+01,-7.009787088054508786e+00,3.021083964301578817e+01,-2.737772637162379397e+00,-4.740507998638349818e+00,9.523238182067871094e+00,-9.561483860015869141e-01,3.824593871831893921e-02,2.280000000000000000e+02
-2.698163707857202098e+01,-2.135598902812580491e+01,-6.844762295017972065e+00,3.589097970052353048e+01,-9.718285385895796935e+00,3.770072512201113568e+01,-1.162337898519581358e+00,-4.752386656786256935e+00,9.523238182067871094e+00,-1.032640218734741211e+00,3.824593871831893921e-02,2.290000000000000000e+02
-3.455233006379421568e+01,-2.801510758527274447e+01,-6.345916166370443534e+00,4.342594511457900808e+01,-1.109278500608161266e+01,4.315316834725126682e+01,1.586728158114965481e+00,-3.182603134746386786e+00,9.523238182067871094e+00,-1.032640218734741211e+00,3.824593871831893921e-02,2.300000000000000000e+02
-4.152311923636807478e+01,-3.337302670893404866e+01,-4.943118859313472058e+00,5.225807067635651038e+01,-1.107038304606976453e+01,5.041297977176873246e+01,3.897307551128506020e+00,-1.115058655643224483e+00,9.523238182067871094e+00,-1.032640218734741211e+00,3.824593871831893921e-02,2.310000000000000000e+02
-4.835155325693358463e+01,-3.819850607544412924e+01,-3.741362234402004106e+00,6.278518023072683718e+01,-1.043709505256629200e+01,6.045775787825368752e+01,4.681657999451999785e+00,7.453434358831145801e-02,9.523238182067871094e+00,-1.032640218734741211e+00,3.824593871831893921e-02,2.320000000000000000e+02
-5.545271244689138257e+01,-4.398596748992440553e+01,-3.649787968954115058e+00,7.328407562165739364e+01,-1.031145742074295413e+01,7.122888277156198455e+01,4.028096965535951313e+00,-3.792853981831285637e-01,9.523238182067871094e+00,-1.032640218734741211e+00,3.824593871831893921e-02,2.330000000000000000e+02
-6.286530485264574963e+01,-5.155901399602498714e+01,-4.787973602505189774e+00,8.185279294735119038e+01,-1.130198325663877768e+01,8.035575333511042118e+01,2.869093958523990295e+00,-2.114820963583042612e+00,9.523238182067871094e+00,-1.032640218734741211e+00,3.824593871831893921e-02,2.340000000000000000e+02
-7.018336878157151659e+01,-6.025759021811154525e+01,-6.536091668022891099e+00,8.815250490869220812e+01,-1.318333241667096445e+01,8.761868164860970865e+01,2.051378656784436316e+00,-3.992831382834992837e+00,9.523238182067871094e+00,-1.032640218734741211e+00,3.824593871831893921e-02,2.350000000000000000e+02
-7.690328094101550960e+01,-6.852552031375671504e+01,-8.217050119126724894e+00,9.333866779719755868e+01,-1.534277548039062822e+01,9.478647501169689349e+01,1.681995016298969858e+00,-5.004773045038746204e+00,9.523238182067871094e+00,-1.032640218734741211e+00,3.824593871831893921e-02,2.360000000000000000e+02
-8.294704874426497554e+01,-7.525047896579053486e+01,-9.738687541090257582e+00,9.865470400891899772e+01,-1.743402285792581097e+01,1.035011836112698802e+02,1.323712376564799342e+00,-4.896527040714317991e+00,9.523238182067871094e+00,-1.032640218734741211e+00,3.824593871831893921e-02,2.370000000000000000e+02
-8.887198414343220065e+01,-8.050902654653964419e+01,-1.154140245375219820e+01,1.043859604422468692e+02,-1.953723347582126735e+01,1.137031376559752971e+02,7.531584905864292523e-01,-3.989454883530015650e+00,9.523238182067871094e+00,-1.032640218734741211e+00,3.824593871831893921e-02,2.380000000000000000e+02
-9.549511629108201305e+01,-8.512531451615359401e+01,-1.392134138120673015e+01,1.100993619505788956e+02,-2.178486986260395497e+01,1.240168618135485303e+02,4.271259958295559045e-01,-2.561306734399295237e+00,9.523238182067871094e+00,-1.032640218734741211e+00,3.824593871831893921e-02,2.390000000000000000e+02
-1.031833833235650673e+02,-8.976014316934379167e+01,-1.648455525660483545e+01,1.155195746009685536e+02,-2.400321189298483660e+01,1.332376780831527867e+02,1.090979167607656564e+00,-5.713269305751964566e-01,9.523238182067871094e+00,-1.032640218734741211e+00,3.824593871831893921e-02,2.400000000000000000e+02
-1.114300298126145208e+02,-9.460610679133969825e+01,-1.837810188255571120e+01,1.208719836032578314e+02,-2.580095629574134364e+01,1.411847265594806231e+02,2.855432346211273398e+00,1.977574713459034683e+00,9.523238182067871094e+00,-1.032640218734741211e+00,3.824593871831893921e-02,2.410000000000000000e+02
-1.191510756372335891e+02,-9.986591671251153457e+01,-1.910035935908035754e+01,1.264146995619012159e+02,-2.694900101558960159e+01,1.483194081065903447e+02,4.704532130218467501e+00,4.559996054568728141e+00,9.523238182067871094e+00,-1.032640218734741211e+00,3.824593871831893921e-02,2.420000000000000000e+02
-1.254871719856964773e+02,-1.061788659426374579e+02,-1.904686163869610027e+01,1.319293020666900702e+02,-2.757173081357541378e+01,1.549770956115717127e+02,5.085320610886810755e+00,6.228055662527367531e+00,9.523238182067871094e+00,-1.032640218734741211e+00,3.824593871831893921e-02,2.430000000000000000e+02
-1.304226903624094120e+02,-1.142208793274076015e+02,-1.919009669165825471e+01,1.369053537738273008e+02,-2.796669997256594797e+01,1.611731630057911389e+02,3.194175128093775129e+00,6.322591847089825023e+00,9.523238182067871094e+00,-1.032640218734741211e+00,3.824593871831893921e-02,2.440000000000000000e+02
-1.347116821752215401e+02,-1.237701987256050415e+02,-2.020968779832583095e+01,1.412339498257970263e+02,-2.833585515146842226e+01,1.669479178541059810e+02,-1.946056647129807970e-01,5.083711503736594750e+00,9.523238182067871094e+00,-1.032640218734741211e+00,3.824593871831893921e-02,2.450000000000000000e+02
-1.392601022471089891e+02,-1.333414911226263939e+02,-2.196971902008590405e+01,1.455807096463049675e+02,-2.874552160522944178e+01,1.725673309437515854e+02,-3.195304062424838776e+00,3.499030305971245980e+00,9.523238182067871094e+00,-1.032640218734741211e+00,3.824593871831893921e-02,2.460000000000000000e+02
-1.445707532806500240e+02,-1.410416840878906442e+02,-2.384790003932903346e+01,1.509391037316381698e+02,-2.930420080431758834e+01,1.782623464096013777e+02,-4.251350040931356489e+00,2.496862718340707943e+00,9.523238182067871094e+00,-1.032640218734741211e+00,3.824593871831893921e-02,2.470000000000000000e+02
-1.506736449900245134e+02,-1.460403336531999230e+02,-2.550829135166895867e+01,1.577605555368409114e+02,-3.025592779093130957e+01,1.839236787567224383e+02,-3.323945128657214809e+00,2.265744471278594574e+00,9.523238182067871094e+00,-1.032640218734741211e+00,3.824593871831893921e-02,2.480000000000000000e+02
-1.573987502187601422e+02,-1.493086452631687280e+02,-2.724750198440324311e+01,1.654865314018552453e+02,-3.182341995993465389e+01,1.892301620509988425e+02,-1.808012397310449160e+00,2.317847885944502195e+00,9.523238182067871094e+00,-1.032640218734741211e+00,3.824593871831893921e-02,2.490000000000000000e+02
-1.645608191614892348e+02,-1.528658891604873133e+02,-2.956703557235323387e+01,1.729234179690120072e+02,-3.396381573552025657e+01,1.940944352329443063e+02,-1.297909550913573185e+00,2.147507586413667013e+00,9.523238182067871094e+00,-1.032640218734741211e+00,3.824593871831893921e-02,2.500000000000000000e+02
-1.718744018240677178e+02,-1.581325153491256970e+02,-3.250215170009596477e+01,1.791453972391027492e+02,-3.631242997156732599e+01,1.988864077603029727e+02,-2.318748009769478813e+00,1.786461858529037272e+00,9.523238182067871094e+00,-1.032640218734741211e+00,3.824593871831893921e-02,2.510000000000000000e+02
-1.788367151477086736e+02,-1.647934956598587632e+02,-3.546443887364330294e+01,1.841786575949627149e+02,-3.840593664793959761e+01,2.041381540043967107e+02,-4.057932677244025399e+00,1.727854804354137741e+00,9.523238182067871094e+00,-1.032640218734741211e+00,3.824593871831893921e-02,2.520000000000000000e+02
-1.849032287578438627e+02,-1.711011487650443996e+02,-3.778034111532451789e+01,1.889571330730323098e+02,-4.000523578069351061e+01,2.100399195616082579e+02,-5.173950137976135011e+00,2.376693103317847999e+00,9.523238182067871094e+00,-1.032640218734741211e+00,3.824593871831893921e-02,2.530000000000000000e+02
-1.899116344041995035e+02,-1.752987248705367165e+02,-3.933119355337385059e+01,1.946435498724622448e+02,-4.127683160611559288e+01,2.162356813992810203e+02,-4.867278011738562782e+00,3.601567945876922749e+00,9.484992027282714844e+00,-9.943943619728088379e-01,7.649187743663787842e-02,2.540000000000000000e+02
-1.943154121428383405e+02,-1.769838709678315354e+02,-4.061189791103151947e+01,2.018704366603178642e+02,-4.271118103841217817e+01,2.220810354252771504e+02,-3.353230731629992079e+00,4.791666672143946926e+00,9.484992027282714844e+00,-9.943943619728088379e-01,7.649187743663787842e-02,2.550000000000000000e+02
-1.989056613747825395e+02,-1.774081075685180622e+02,-4.219430063235631678e+01,2.104563422174578591e+02,-4.482721369210230478e+01,2.270798112251286511e+02,-1.576004888028364803e+00,5.307238722925831098e+00,9.484992027282714844e+00,-9.943943619728088379e-01,7.649187743663787842e-02,2.560000000000000000e+02
-2.042115641446744121e+02,-1.785844877331983298e+02,-4.419361395277064730e+01,2.197076266390504315e+02,-4.783439682756306865e+01,2.311303813286813238e+02,-6.081321811152520240e-01,4.884802173413845594e+00,9.484992027282714844e+00,-9.943943619728088379e-01,7.649187743663787842e-02,2.570000000000000000e+02
-2.101278721937060254e+02,-1.819500601242380071e+02,-4.627354696344809781e+01,2.289566378218351019e+02,-5.146383583818897023e+01,2.344840717243660038e+02,-1.202108562290050031e+00,3.681627794594533043e+00,9.484992027282714844e+00,-9.943943619728088379e-01,7.649187743663787842e-02,2.580000000000000000e+02
-2.161192740205115115e+02,-1.875291764923417759e+02,-4.809854392808483681e+01,2.378516730555311369e+02,-5.512176600494512968e+01,2.375475117148798745e+02,-3.592542193097870040e+00,2.021088993517878407e+00,9.484992027282714844e+00,-9.943943619728088379e-01,7.649187743663787842e-02,2.590000000000000000e+02
-2.217677826731182904e+02,-1.940821623903862019e+02,-4.968606881094365235e+01,2.462353029461919505e+02,-5.830014567321450158e+01,2.406768933178918815e+02,-7.411170379850773315e+00,1.370229219719476532e-01,9.484992027282714844e+00,-9.943943619728088379e-01,7.649187743663787842e-02,2.600000000000000000e+02
-2.270959716009929252e+02,-2.000339468967022185e+02,-5.129757059893699989e+01,2.538864165603608853e+02,-6.092583003172876488e+01,2.440279424332456983e+02,-1.168743795010232134e+01,-1.849829433906052145e+00,9.484992027282714844e+00,-9.943943619728088379e-01,7.649187743663787842e-02,2.610000000000000000e+02
-2.323605343527278819e+02,-2.044803433317065355e+02,-5.305003821266518571e+01,2.605076778854927397e+02,-6.331989796753805422e+01,2.474883699843558134e+02,-1.509448938588866440e+01,-3.755862253737177525e+00,9.484992027282714844e+00,-9.943943619728088379e-01,7.649187743663787842e-02,2.620000000000000000e+02
-2.375831026317973738e+02,-2.076068631638245279e+02,-5.471165168047264160e+01,2.660164671418442595e+02,-6.573654354926111409e+01,2.507527827272460854e+02,-1.651096862331678494e+01,-5.179024741001740040e+00,9.484992027282714844e+00,-9.943943619728088379e-01,7.649187743663787842e-02,2.630000000000000000e+02
-2.423661012155671415e+02,-2.103318345777192917e+02,-5.588513375286811424e+01,2.707953704653073146e+02,-6.789605377981297352e+01,2.535508212276381528e+02,-1.562297553002872519e+01,-5.566003648053992947e+00,9.484992027282714844e+00,-9.943943619728088379e-01,7.649187743663787842e-02,2.640000000000000000e+02
-2.462242426978350522e+02,-2.135449367709470607e+02,-5.635488185361100477e+01,2.755604910793736053e+02,-6.901955457935673621e+01,2.559063303927741799e+02,-1.312811535458558865e+01,-4.494912338135691243e+00,9.484992027282714844e+00,-9.943943619728088379e-01,7.649187743663787842e-02,2.650000000000000000e+02
-2.490914032204814248e+02,-2.175562398115453107e+02,-5.624222436799709612e+01,2.809021557638316153e+02,-6.844600706847722904e+01,2.582252322677686607e+02,-1.032247835454700180e+01,-1.970074783022937481e+00,9.484992027282714844e+00,-9.943943619728088379e-01,7.649187743663787842e-02,2.660000000000000000e+02
-2.514492392536703846e+02,-2.220855965407913573e+02,-5.584856690776223331e+01,2.868793608457090158e+02,-6.635997384033453272e+01,2.610801983950186695e+02,-8.334434896491075051e+00,1.486999463682877831e+00,9.484992027282714844e+00,-9.943943619728088379e-01,7.649187743663787842e-02,2.670000000000000000e+02
-2.539142663110783360e+02,-2.266491377291413301e+02,-5.540164092130635254e+01,2.929993190027371384e+02,-6.394853176887136215e+01,2.648016979074691335e+02,-7.549195332625913579e+00,5.034505078489928565e+00,9.484992027282714844e+00,-9.943943619728088379e-01,7.649187743663787842e-02,2.680000000000000000e+02
-2.566956008010788537e+02,-2.309163591772648942e+02,-5.497128817377642918e+01,2.985390806145169336e+02,-6.275713333344992861e+01,2.691765701922704466e+02,-7.595148083367348590e+00,7.891492965197357989e+00,9.484992027282714844e+00,-9.943943619728088379e-01,7.649187743663787842e-02,2.690000000000000000e+02
-2.594936782858853803e+02,-2.347748772801301129e+02,-5.461267125004314948e+01,3.029043940824749370e+02,-6.370871370853365079e+01,2.735195454526092362e+02,-7.828641202980179514e+00,9.680534472247018130e+00,9.484992027282714844e+00,-9.943943619728088379e-01,7.649187743663787842e-02,2.700000000000000000e+02
-2.619567413060703984e+02,-2.382080911445632410e+02,-5.454440491176092110e+01,3.058274226372650446e+02,-6.654245298238220130e+01,2.771191243827352082e+02,-7.911384679567163403e+00,1.053646239220688585e+01,9.484992027282714844e+00,-9.943943619728088379e-01,7.649187743663787842e-02,2.710000000000000000e+02
-2.642184987762116180e+02,-2.412218980651387028e+02,-5.513317512498952055e+01,3.074175228971953402e+02,-7.010432321758980834e+01,2.797389828863388175e+02,-8.052264971635850088e+00,1.090279335635750613e+01,9.484992027282714844e+00,-9.943943619728088379e-01,7.649187743663787842e-02,2.720000000000000000e+02
-2.669154474127976755e+02,-2.438899466561920235e+02,-5.664147596873635848e+01,3.081456299654219038e+02,-7.321716705693506810e+01,2.817773941670166096e+02,-8.774943544340203516e+00,1.114369798220468510e+01,9.484992027282714844e+00,-9.943943619728088379e-01,7.649187743663787842e-02,2.730000000000000000e+02
-2.706111659242201313e+02,-2.464037009052271969e+02,-5.891949203189733453e+01,3.087339030381317571e+02,-7.539381370992850862e+01,2.839322076464231941e+02,-1.042126810717127228e+01,1.125584929728029238e+01,9.484992027282714844e+00,-9.943943619728088379e-01,7.649187743663787842e-02,2.740000000000000000e+02
-2.751885976234570990e+02,-2.490240889600040646e+02,-6.131129727150710096e+01,3.098739050634230807e+02,-7.685594299136209884e+01,2.866365655265144596e+02,-1.277104742963410899e+01,1.092851589975089155e+01,9.484992027282714844e+00,-9.943943619728088379e-01,7.649187743663787842e-02,2.750000000000000000e+02
-2.798380723005179789e+02,-2.519800329168747339e+02,-6.292409961838438903e+01,3.118797856762012088e+02,-7.796427169597518514e+01,2.897670673492602873e+02,-1.505579304522734674e+01,9.951799995631517959e+00,9.484992027282714844e+00,-9.943943619728088379e-01,7.649187743663787842e-02,2.760000000000000000e+02
-2.837040766341160634e+02,-2.554215291331579465e+02,-6.315291539175359503e+01,3.145445904828657149e+02,-7.867069649163113354e+01,2.928774086040320981e+02,-1.636397794397316829e+01,8.640190860888651514e+00,9.484992027282714844e+00,-9.943943619728088379e-01,7.649187743663787842e-02,2.770000000000000000e+02
-2.865897595977244237e+02,-2.594170273285549229e+02,-6.210470716462168639e+01,3.173297407505151568e+02,-7.854952950511324161e+01,2.956854033034278473e+02,-1.615553860754971538e+01,7.846221164794769720e+00,9.484992027282714844e+00,-9.943943619728088379e-01,7.649187743663787842e-02,2.780000000000000000e+02
-2.890387726631997793e+02,-2.638849256999178579e+02,-6.057006136228847026e+01,3.197152134104362631e+02,-7.736369807286155265e+01,2.982940946794415140e+02,-1.454159426781143338e+01,8.445770747416645463e+00,9.484992027282714844e+00,-9.943943619728088379e-01,7.649187743663787842e-02,2.790000000000000000e+02
-2.917201556904192330e+02,-2.684389905381262906e+02,-5.950012922975156471e+01,3.214031630164536182e+02,-7.556514948082804040e+01,3.009247679977761436e+02,-1.218652261153283689e+01,1.067081985482172968e+01,9.484992027282714844e+00,-9.943943619728088379e-01,7.649187743663787842e-02,2.800000000000000000e+02
-2.947349056851639943e+02,-2.723618677294271038e+02,-5.935860409507176882e+01,3.222690501488159498e+02,-7.415937648417457240e+01,3.034944136147214522e+02,-9.954564622705220245e+00,1.385571440773264840e+01,9.484992027282714844e+00,-1.070886254310607910e+00,7.649187743663787842e-02,2.810000000000000000e+02
-2.975119632685223223e+02,-2.749130243694257842e+02,-5.984887528830859083e+01,3.222548219875843643e+02,-7.397519180692961527e+01,3.055593759707962818e+02,-8.553040576988223620e+00,1.682966682476626374e+01,9.484992027282714844e+00,-1.070886254310607910e+00,7.649187743663787842e-02,2.820000000000000000e+02
-2.993595639184763968e+02,-2.758555468396284596e+02,-6.022368665531894294e+01,3.214122213150112657e+02,-7.500033133535271190e+01,3.067339824386381224e+02,-8.326877584780959296e+00,1.862098977442065006e+01,9.484992027282714844e+00,-1.070886254310607910e+00,7.649187743663787842e-02,2.830000000000000000e+02
-3.001067595752433590e+02,-2.757806747944423478e+02,-5.989263585014850833e+01,3.200466449036557606e+02,-7.640932530901909558e+01,3.071546271926754343e+02,-9.200651765965631057e+00,1.890595336298156326e+01,9.484992027282714844e+00,-1.070886254310607910e+00,7.649187743663787842e-02,2.840000000000000000e+02
-3.002350772993409009e+02,-2.758556124246342733e+02,-5.881204765864094952e+01,3.187037862159777433e+02,-7.724816049298942744e+01,3.074775756389753951e+02,-1.072118594408902936e+01,1.794690714171383661e+01,9.484992027282714844e+00,-1.070886254310607910e+00,7.649187743663787842e-02,2.850000000000000000e+02
-3.004637922025590342e+02,-2.770929747534573835e+02,-5.739429063332545411e+01,3.178866610600798595e+02,-7.714207858985128041e+01,3.083803947362112012e+02,-1.222858970350398522e+01,1.626480287281947312e+01,9.484992027282714844e+00,-1.070886254310607910e+00,7.649187743663787842e-02,2.860000000000000000e+02
-3.012568555236493921e+02,-2.796837223303368773e+02,-5.611874750445349491e+01,3.177397190095525730e+02,-7.642214603778620585e+01,3.100504074558130014e+02,-1.315504761064539707e+01,1.443735516601691415e+01,9.484992027282714844e+00,-1.070886254310607910e+00,7.649187743663787842e-02,2.870000000000000000e+02
-3.026920625416641997e+02,-2.829104279155162658e+02,-5.524571092160113039e+01,3.180271729913720264e+02,-7.567680718438532494e+01,3.121163206192877624e+02,-1.332483378925053330e+01,1.308211497935553780e+01,9.484992027282714844e+00,-1.070886254310607910e+00,7.649187743663787842e-02,2.880000000000000000e+02
-3.046717874886136315e+02,-2.857070068780880092e+02,-5.483110841231746235e+01,3.184628544390557181e+02,-7.525107667747897722e+01,3.140189389976223993e+02,-1.304123037665999618e+01,1.274709609055275905e+01,9.484992027282714844e+00,-1.070886254310607910e+00,7.649187743663787842e-02,2.890000000000000000e+02
-3.071134761511049760e+02,-2.874228791648074548e+02,-5.487314213423769615e+01,3.190755469604980590e+02,-7.514184768772793177e+01,3.154246282390829492e+02,-1.283183474960060266e+01,1.355658473937728559e+01,9.484992027282714844e+00,-1.070886254310607910e+00,7.649187743663787842e-02,2.900000000000000000e+02
-3.098875418319505002e+02,-2.882273055432444266e+02,-5.533281921964771755e+01,3.202424181387627868e+02,-7.525218874064307784e+01,3.163393227778842629e+02,-1.301724721926029815e+01,1.488975220021575296e+01,9.484992027282714844e+00,-1.070886254310607910e+00,7.649187743663787842e-02,2.910000000000000000e+02
-3.126551364983324106e+02,-2.888948742924479802e+02,-5.601142134598444500e+01,3.223463903691063024e+02,-7.561911387624195413e+01,3.169327298421553678e+02,-1.346303460946433006e+01,1.555585722446380714e+01,9.484992027282714844e+00,-1.070886254310607910e+00,7.649187743663787842e-02,2.920000000000000000e+02
-3.149110182111365930e+02,-2.901863042523027048e+02,-5.652321526136370267e+01,3.253563959221073674e+02,-7.638268857477464735e+01,3.172980975746170316e+02,-1.374171748884782573e+01,1.450975955598801193e+01,9.484992027282714844e+00,-1.070886254310607910e+00,7.649187743663787842e-02,2.930000000000000000e+02
-3.162854093214289151e+02,-2.922915276148161183e+02,-5.654436410940138558e+01,3.287152365308459139e+02,-7.759036839919417616e+01,3.173533007020157584e+02,-1.354893708648523898e+01,1.158232103733394069e+01,9.484992027282714844e+00,-1.070886254310607910e+00,7.649187743663787842e-02,2.940000000000000000e+02
-3.168232014218831409e+02,-2.947001140226413440e+02,-5.616682935728658776e+01,3.316415489917419563e+02,-7.907110323710708144e+01,3.169102544126528755e+02,-1.297449812163631577e+01,7.592245007392648404e+00,9.484992027282714844e+00,-1.070886254310607910e+00,7.649187743663787842e-02,2.950000000000000000e+02
-3.169447497182214875e+02,-2.965514253442303243e+02,-5.596218008246637510e+01,3.336118116500408632e+02,-8.047493587742837917e+01,3.158469497183907606e+02,-1.238025827938599832e+01,3.748702328838817266e+00,9.484992027282714844e+00,-1.070886254310607910e+00,7.649187743663787842e-02,2.960000000000000000e+02
-3.171214360508292316e+02,-2.971886597942157664e+02,-5.657579810277024990e+01,3.346697949411163791e+02,-8.139700619548398208e+01,3.143011900035808139e+02,-1.203271356650168400e+01,9.082119750241872680e-01,9.484992027282714844e+00,-1.070886254310607910e+00,7.649187743663787842e-02,2.970000000000000000e+02
-3.175909922365755165e+02,-2.965331685735312703e+02,-5.813587034451120417e+01,3.353423545985958754e+02,-8.152153207753440256e+01,3.127474908413100820e+02,-1.187537624695335126e+01,-6.928287990569970134e-01,9.484992027282714844e+00,-1.070886254310607910e+00,7.649187743663787842e-02,2.980000000000000000e+02
-3.183645529616479166e+02,-2.950754892641610923e+02,-6.001959714594659090e+01,3.362503825969670288e+02,-8.076611695026258531e+01,3.118352860590798628e+02,-1.165566914482496941e+01,-1.147343226724615306e+00,9.484992027282714844e+00,-1.070886254310607910e+00,7.649187743663787842e-02,2.990000000000000000e+02
-3.194468327042607712e+02,-2.935667516387155729e+02,-6.126591754587047944e+01,3.377022835804812075e+02,-7.938257321500987018e+01,3.119921354623738807e+02,-1.125693769908616559e+01,-5.204025568447150363e-01,9.484992027282714844e+00,-1.070886254310607910e+00,7.649187743663787842e-02,3.000000000000000000e+02
-3.209625096516753615e+02,-2.926748269136372755e+02,-6.132584753649871345e+01,3.395451915002324768e+02,-7.788668728035645472e+01,3.130530703944248216e+02,-1.087815207485823521e+01,1.145498732217902216e+00,9.484992027282714844e+00,-1.070886254310607910e+00,7.649187743663787842e-02,3.010000000000000000e+02
-3.230238773112081390e+02,-2.928022621565199302e+02,-6.051236132637359333e+01,3.413464093885941111e+02,-7.676830846765960814e+01,3.142632811035127816e+02,-1.088647828703290088e+01,3.552884106329202041e+00,9.484992027282714844e+00,-1.070886254310607910e+00,7.649187743663787842e-02,3.020000000000000000e+02
-3.254924648583549924e+02,-2.940484075010970173e+02,-5.974147019368956535e+01,3.427170423712807406e+02,-7.619156232023465236e+01,3.147303451171519555e+02,-1.150682071297808307e+01,6.051159422651494424e+00,9.484992027282714844e+00,-1.070886254310607910e+00,7.649187743663787842e-02,3.030000000000000000e+02
-3.279197652629776485e+02,-2.961854236229633557e+02,-5.978796408652101491e+01,3.435091337460914929e+02,-7.598451634561979517e+01,3.140111740945837937e+02,-1.266091444827588930e+01,7.957981622091551799e+00,9.484992027282714844e+00,-1.070886254310607910e+00,7.649187743663787842e-02,3.040000000000000000e+02
-3.297620940772105769e+02,-2.986308239683326065e+02,-6.070403284004737543e+01,3.437674222011505663e+02,-7.593664406424136359e+01,3.123837261061821664e+02,-1.408373339692309401e+01,9.015658754599371605e+00,9.484992027282714844e+00,-1.070886254310607910e+00,7.649187743663787842e-02,3.050000000000000000e+02
-3.306967194767489673e+02,-3.005491056606107350e+02,-6.187281003571024485e+01,3.435704323350805680e+02,-7.607023074811957031e+01,3.106169195734985351e+02,-1.554167007942180589e+01,9.487951627433517388e+00,9.484992027282714844e+00,-1.070886254310607910e+00,7.649187743663787842e-02,3.060000000000000000e+02
-3.307789850495091173e+02,-3.011915316105188936e+02,-6.258667008519557839e+01,3.429790895162616380e+02,-7.655403875479100861e+01,3.094583673928739245e+02,-1.690073951773729277e+01,9.774835384368543600e+00,9.484992027282714844e+00,-1.070886254310607910e+00,7.649187743663787842e-02,3.070000000000000000e+02
-3.303510514324649989e+02,-3.003462015860737324e+02,-6.259449798337789161e+01,3.421441992480026784e+02,-7.735301947369430309e+01,3.092208130664353121e+02,-1.800948428994001915e+01,9.945152975039604826e+00,9.484992027282714844e+00,-1.070886254310607910e+00,7.649187743663787842e-02,3.080000000000000000e+02
-3.298361141807013155e+02,-2.985667912094988878e+02,-6.216720516070540725e+01,3.414319259885901374e+02,-7.805680683710500034e+01,3.097003562608467746e+02,-1.862710709255384245e+01,9.692999464688227818e+00,9.484992027282714844e+00,-1.070886254310607910e+00,7.649187743663787842e-02,3.090000000000000000e+02
-3.295883145705982429e+02,-2.969496668786682676e+02,-6.174249621956835199e+01,3.413651689065400205e+02,-7.817189288140298231e+01,3.103787535096835200e+02,-1.860313796757066029e+01,8.761829234573724534e+00,9.484992027282714844e+00,-1.070886254310607910e+00,7.649187743663787842e-02,3.100000000000000000e+02
-3.298407435480802405e+02,-2.965568638181368897e+02,-6.156091766983672642e+01,3.423467960095090348e+02,-7.761357380941910833e+01,3.107318161384905579e+02,-1.816617999080597201e+01,7.372931963354062646e+00,9.484992027282714844e+00,-1.070886254310607910e+00,7.649187743663787842e-02,3.110000000000000000e+02
-3.306797853619223133e+02,-2.978414174075805931e+02,-6.161219030653853679e+01,3.443570646872194629e+02,-7.684324521256405660e+01,3.104771335112943689e+02,-1.795724287685038689e+01,6.170724400725930536e+00,9.446745872497558594e+00,-1.147378087043762207e+00,7.649187743663787842e-02,3.120000000000000000e+02
-3.319970014782385306e+02,-3.004179832108623032e+02,-6.180936284888412047e+01,3.468693491776818973e+02,-7.646865399658770457e+01,3.096482545288204165e+02,-1.862001745664611008e+01,5.702332049531833036e+00,9.446745872497558594e+00,-1.147378087043762207e+00,7.649187743663787842e-02,3.130000000000000000e+02
-3.334825066525212378e+02,-3.032871407473460295e+02,-6.209325470974454220e+01,3.490942116007704499e+02,-7.669406126663261603e+01,3.084750393758697555e+02,-2.022930345875420244e+01,5.962103817080446788e+00,9.446745872497558594e+00,-1.147378087043762207e+00,7.649187743663787842e-02,3.140000000000000000e+02
-3.347404183422099777e+02,-3.053690504210513836e+02,-6.234467983204945085e+01,3.504325004543816249e+02,-7.717313905373316629e+01,3.071575883853233790e+02,-2.212473319313551201e+01,6.479038828806210404e+00,9.446745872497558594e+00,-1.147378087043762207e+00,7.649187743663787842e-02,3.150000000000000000e+02
-3.354961393446195643e+02,-3.060736946891292973e+02,-6.229919189199847551e+01,3.508543435599035547e+02,-7.738285418224506884e+01,3.057169983229650825e+02,-2.342417486951933370e+01,6.862931643530259862e+00,9.446745872497558594e+00,-1.147378087043762207e+00,7.649187743663787842e-02,3.160000000000000000e+02
-3.357497275614309160e+02,-3.056052452594674378e+02,-6.169115542424810883e+01,3.509275721711471760e+02,-7.708832615586538850e+01,3.040551405632851356e+02,-2.380072273749249234e+01,7.247734553413238245e+00,9.446745872497558594e+00,-1.147378087043762207e+00,7.649187743663787842e-02,3.170000000000000000e+02
-3.357552740078074294e+02,-3.047986402295641710e+02,-6.057325844138540560e+01,3.514016015562310713e+02,-7.644812462859113111e+01,3.021323046805082413e+02,-2.377236615301512757e+01,8.153762690524899881e+00,9.446745872497558594e+00,-1.147378087043762207e+00,7.649187743663787842e-02,3.180000000000000000e+02
-3.358523816678369371e+02,-3.045331962048720129e+02,-5.947988033098317828e+01,3.525963165887167179e+02,-7.575801383463772254e+01,3.000509317200230726e+02,-2.415997468177852170e+01,9.889718297004264969e+00,9.446745872497558594e+00,-1.147378087043762207e+00,7.649187743663787842e-02,3.190000000000000000e+02
-3.362841405772924190e+02,-3.050852501167516948e+02,-5.915728619605295080e+01,3.540739541206114609e+02,-7.519222957303600197e+01,2.979530621967596744e+02,-2.519750289339629035e+01,1.211313369737240464e+01,9.446745872497558594e+00,-1.147378087043762207e+00,7.649187743663787842e-02,3.200000000000000000e+02
-3.371102863101922935e+02,-3.059147194280466238e+02,-5.999791627325964782e+01,3.549294138996383481e+02,-7.478987353192553655e+01,2.958835443572484110e+02,-2.619586351774080413e+01,1.402285811497802115e+01,9.446745872497558594e+00,-1.147378087043762207e+00,7.649187743663787842e-02,3.210000000000000000e+02
-3.382165152896292852e+02,-3.061151442868925869e+02,-6.166189038953120871e+01,3.545386404280586703e+02,-7.457006389663843038e+01,2.938306493336347103e+02,-2.617198369874915898e+01,1.501570273707534398e+01,9.446745872497558594e+00,-1.147378087043762207e+00,7.649187743663787842e-02,3.220000000000000000e+02
-3.393591726767372165e+02,-3.052095487341814533e+02,-6.325657233664662726e+01,3.531288094517294667e+02,-7.454665842760596206e+01,2.919032783642587674e+02,-2.487606941496335367e+01,1.515548776314290080e+01,9.446745872497558594e+00,-1.147378087043762207e+00,7.649187743663787842e-02,3.230000000000000000e+02
-3.402099153879396454e+02,-3.036049793492659319e+02,-6.396620840162790955e+01,3.516209360504371944e+02,-7.462446505392472318e+01,2.903770493028123383e+02,-2.318125245186683969e+01,1.500524806135695144e+01,9.446745872497558594e+00,-1.147378087043762207e+00,7.649187743663787842e-02,3.240000000000000000e+02
-3.404466138884692441e+02,-3.022641319639513995e+02,-6.361486179027724575e+01,3.508413356739583833e+02,-7.457655018729701624e+01,2.894573339518080957e+02,-2.238587921498105970e+01,1.502708007222327069e+01,9.446745872497558594e+00,-1.147378087043762207e+00,7.649187743663787842e-02,3.250000000000000000e+02
-3.398968370410767648e+02,-3.018415936611903021e+02,-6.268533824260418896e+01,3.508119631882120757e+02,-7.419429250208463600e+01,2.889803542562517578e+02,-2.305173074015419843e+01,1.518933683207524155e+01,9.446745872497558594e+00,-1.147378087043762207e+00,7.649187743663787842e-02,3.260000000000000000e+02
-3.386421501446540674e+02,-3.020425827794701945e+02,-6.179594967374566750e+01,3.507709323495162153e+02,-7.345057175002330041e+01,2.884322364567851764e+02,-2.449278768079875590e+01,1.516161494184621006e+01,9.446745872497558594e+00,-1.147378087043762207e+00,7.649187743663787842e-02,3.270000000000000000e+02
-3.369600878592018489e+02,-3.017985248097432418e+02,-6.109880887706128760e+01,3.498749945466047393e+02,-7.245724327021241606e+01,2.873665604038176298e+02,-2.539350895424604460e+01,1.484183826444609622e+01,9.446745872497558594e+00,-1.147378087043762207e+00,7.649187743663787842e-02,3.280000000000000000e+02
-3.351139186472374263e+02,-3.001450704826182800e+02,-6.013424635656213013e+01,3.478937891595451219e+02,-7.124134140933711024e+01,2.858387374199701298e+02,-2.494356922085080441e+01,1.460079394244348805e+01,9.446745872497558594e+00,-1.147378087043762207e+00,7.649187743663787842e-02,3.290000000000000000e+02
-3.331738487823553783e+02,-2.970565291512017438e+02,-5.828649734328837440e+01,3.452623825681009748e+02,-6.962785055223002928e+01,2.844009995200567573e+02,-2.341901935664463963e+01,1.493550010365379421e+01,9.446745872497558594e+00,-1.147378087043762207e+00,7.649187743663787842e-02,3.300000000000000000e+02
-3.310496458169354810e+02,-2.935386182360209659e+02,-5.545803450684445579e+01,3.425483644519840709e+02,-6.743508136524781094e+01,2.836283907878469108e+02,-2.176032204973864737e+01,1.586725177240714402e+01,9.446745872497558594e+00,-1.147378087043762207e+00,7.649187743663787842e-02,3.310000000000000000e+02
-3.287146928061577569e+02,-2.909324856050415633e+02,-5.235807871078066000e+01,3.399465191050901467e+02,-6.481522136603405215e+01,2.836292001239273759e+02,-2.070326132401589803e+01,1.671384536010259581e+01,9.446745872497558594e+00,-1.147378087043762207e+00,7.649187743663787842e-02,3.320000000000000000e+02
-3.263985239996113705e+02,-2.900236165162630755e+02,-5.010915840173777269e+01,3.372609277154756455e+02,-6.236718178434728088e+01,2.839835842018944732e+02,-2.035490533385450362e+01,1.651558380357664646e+01,9.484992027282714844e+00,-1.032640218734741211e+00,1.147378161549568176e-01,3.330000000000000000e+02
-3.245489031981095422e+02,-2.906420466620003253e+02,-4.946838467300733555e+01,3.342551639988878378e+02,-6.081851669331092580e+01,2.841113953225794830e+02,-2.050930088713562327e+01,1.478448611932833501e+01,9.484992027282714844e+00,-1.032640218734741211e+00,1.147378161549568176e-01,3.340000000000000000e+02
-3.235769711659033305e+02,-2.919502656958038642e+02,-5.030324982530987654e+01,3.309155046932310142e+02,-6.049809924535986738e+01,2.836652126762755870e+02,-2.115071497563747016e+01,1.195436635688270144e+01,9.484992027282714844e+00,-1.032640218734741211e+00,1.147378161549568176e-01,3.350000000000000000e+02
-3.235974293585053374e+02,-2.930542078434932591e+02,-5.175682022192336262e+01,3.274003495440006191e+02,-6.105817475458547960e+01,2.826109483698999156e+02,-2.245957109348250924e+01,9.177679885894576728e+00,9.484992027282714844e+00,-1.032640218734741211e+00,1.147378161549568176e-01,3.360000000000000000e+02
-3.243692792745233078e+02,-2.934160377155857304e+02,-5.294816823542521433e+01,3.238845510177154665e+02,-6.172174796788260664e+01,2.810601986302881414e+02,-2.431614341132808477e+01,7.631562293157230670e+00,9.484992027282714844e+00,-1.032640218734741211e+00,1.147378161549568176e-01,3.370000000000000000e+02
-3.254433955516927881e+02,-2.928721605943129589e+02,-5.357399013737358473e+01,3.205792189520684587e+02,-6.188213079956301499e+01,2.791205590423896865e+02,-2.599205636325132218e+01,7.804585765800766239e+00,9.484992027282714844e+00,-1.032640218734741211e+00,1.147378161549568176e-01,3.380000000000000000e+02
-3.263578548595902475e+02,-2.914779573885273294e+02,-5.390937755432582890e+01,3.178852256950603987e+02,-6.155612150097101676e+01,2.769126271073205316e+02,-2.659427194924262494e+01,9.210093566986074620e+00,9.484992027282714844e+00,-1.032640218734741211e+00,1.147378161549568176e-01,3.390000000000000000e+02
-3.267722659256369298e+02,-2.894817569536736528e+02,-5.428668613447280222e+01,3.163681267493411724e+02,-6.130615121872142481e+01,2.746352252016608873e+02,-2.596607832741801758e+01,1.068464028893208706e+01,9.484992027282714844e+00,-1.032640218734741211e+00,1.147378161549568176e-01,3.400000000000000000e+02
-3.265275206598519162e+02,-2.874285263920104398e+02,-5.461403847500537267e+01,3.164136707243280853e+02,-6.168157793410807699e+01,2.725160354666547846e+02,-2.509273225305594224e+01,1.109578552602295076e+01,9.484992027282714844e+00,-1.032640218734741211e+00,1.147378161549568176e-01,3.410000000000000000e+02
-3.256533443087973865e+02,-2.860898760394127862e+02,-5.441714831448496170e+01,3.178489281213801405e+02,-6.265119007739508561e+01,2.706706532634734685e+02,-2.539785620315240067e+01,1.003773279100403215e+01,9.484992027282714844e+00,-1.032640218734741211e+00,1.147378161549568176e-01,3.420000000000000000e+02
-3.243076805492462995e+02,-2.860021898828180724e+02,-5.333717681258053744e+01,3.199333581752553073e+02,-6.354738759029203266e+01,2.690183948878798219e+02,-2.741542205196310533e+01,8.061495843083548607e+00,9.484992027282714844e+00,-1.032640218734741211e+00,1.147378161549568176e-01,3.430000000000000000e+02
-3.226399897259165073e+02,-2.868726106194191061e+02,-5.157902318746062065e+01,3.217965619772639911e+02,-6.361015117185161216e+01,2.673516466569694785e+02,-3.008589953598163902e+01,6.268583453061637556e+00,9.484992027282714844e+00,-1.032640218734741211e+00,1.147378161549568176e-01,3.440000000000000000e+02
-3.206898215207742169e+02,-2.874748576234142092e+02,-4.988673183972275638e+01,3.229485546787395833e+02,-6.269161829271615716e+01,2.654790907554331625e+02,-3.149609569903725514e+01,5.535585532572440570e+00,9.484992027282714844e+00,-1.032640218734741211e+00,1.147378161549568176e-01,3.450000000000000000e+02
-3.184609802996465078e+02,-2.863863671224716541e+02,-4.908911910428378178e+01,3.234295984515963482e+02,-6.148687304187149039e+01,2.633205917477191633e+02,-3.054817630875402301e+01,5.945837596153523918e+00,9.484992027282714844e+00,-1.032640218734741211e+00,1.147378161549568176e-01,3.460000000000000000e+02
-3.161502271102142458e+02,-2.831419231657754381e+02,-4.962344342794528984e+01,3.235183523019766199e+02,-6.103820905191912516e+01,2.609249695494418120e+02,-2.806639656067966371e+01,6.848440277546387733e+00,9.484992027282714844e+00,-1.032640218734741211e+00,1.147378161549568176e-01,3.470000000000000000e+02
-3.142782169752887285e+02,-2.788298269445363076e+02,-5.136940727404135032e+01,3.233137321065532888e+02,-6.192572603135567988e+01,2.584412033652731679e+02,-2.627143964203946780e+01,7.430502792967331516e+00,9.484992027282714844e+00,-1.032640218734741211e+00,1.147378161549568176e-01,3.480000000000000000e+02
-3.134621526192463534e+02,-2.754657126219522070e+02,-5.379554849843634656e+01,3.225884844072502347e+02,-6.382883928062813084e+01,2.560720643128183838e+02,-2.699390130262258936e+01,7.289795321599854105e+00,9.484992027282714844e+00,-1.032640218734741211e+00,1.147378161549568176e-01,3.490000000000000000e+02
-3.138980469285029358e+02,-2.745142295631985689e+02,-5.620850584734239419e+01,3.210062522137889118e+02,-6.581483066907014745e+01,2.539894259292650531e+02,-3.016776968901012879e+01,6.554985199969678433e+00,9.484992027282714844e+00,-1.032640218734741211e+00,1.147378161549568176e-01,3.500000000000000000e+02
-3.150040704111058858e+02,-2.757548411180006269e+02,-5.795766463178267713e+01,3.184584551423884022e+02,-6.705985901815517991e+01,2.522252087924366606e+02,-3.393042455717761641e+01,5.570842407729401202e+00,9.484992027282714844e+00,-1.032640218734741211e+00,1.147378161549568176e-01,3.510000000000000000e+02
-3.156505110307864470e+02,-2.774722027881872464e+02,-5.860472755449757187e+01,3.152130046146839959e+02,-6.735730448526419423e+01,2.506272498712257857e+02,-3.618650154035140076e+01,4.548419383401778759e+00,9.484992027282714844e+00,-1.032640218734741211e+00,1.147378161549568176e-01,3.520000000000000000e+02
-3.149031303101064623e+02,-2.778054989507076016e+02,-5.806725723014596952e+01,3.117620567616650078e+02,-6.703994794626157727e+01,2.489461545299284353e+02,-3.619314919530609131e+01,3.505645944127991243e+00,9.484992027282714844e+00,-1.032640218734741211e+00,1.147378161549568176e-01,3.530000000000000000e+02
-3.126925259230006304e+02,-2.760897535067142599e+02,-5.664979650180123372e+01,3.085345700610978383e+02,-6.649909558249385100e+01,2.470228676345252552e+02,-3.480084819767478166e+01,2.463530693635220814e+00,9.484992027282714844e+00,-1.032640218734741211e+00,1.147378161549568176e-01,3.540000000000000000e+02
-3.098294020999825307e+02,-2.730992918978495254e+02,-5.486229055961757695e+01,3.057171537726881070e+02,-6.580822884854865151e+01,2.449284312975423745e+02,-3.331155367351038876e+01,1.597574744701773852e+00,9.484992027282714844e+00,-1.032640218734741211e+00,1.147378161549568176e-01,3.550000000000000000e+02
-3.073537672677607588e+02,-2.701644057101359522e+02,-5.310500992523532204e+01,3.032905520527938279e+02,-6.475940385548165068e+01,2.429378400558505291e+02,-3.219071286561256784e+01,1.167609337576323014e+00,9.484992027282714844e+00,-1.032640218734741211e+00,1.147378161549568176e-01,3.560000000000000000e+02
-3.057890515149956627e+02,-2.681108858855983499e+02,-5.147812504723196980e+01,3.011815086734866327e+02,-6.319286594582467842e+01,2.413570024344162448e+02,-3.089049459044201740e+01,1.328183253560155208e+00,9.484992027282714844e+00,-1.032640218734741211e+00,1.147378161549568176e-01,3.570000000000000000e+02
-3.049078273735749463e+02,-2.669555172929177616e+02,-4.988406305932028317e+01,2.993303859080822349e+02,-6.128236008829071579e+01,2.403082401258827758e+02,-2.882010788393608891e+01,2.014733469504903951e+00,9.408499717712402344e+00,-1.185624003410339355e+00,7.649187743663787842e-02,3.580000000000000000e+02
-3.040881558553971900e+02,-2.663897959294154134e+02,-4.829816806534824991e+01,2.976260927466942121e+02,-5.952639678958394143e+01,2.396209884270424482e+02,-2.632871270450061729e+01,2.993900534283966408e+00,9.408499717712402344e+00,-1.185624003410339355e+00,7.649187743663787842e-02,3.590000000000000000e+02
-3.028260033169952976e+02,-2.662999264848701841e+02,-4.690642475420406754e+01,2.958439006656376478e+02,-5.847200157545898946e+01,2.389013090117766751e+02,-2.462089464951236550e+01,3.997181033341348666e+00,9.408499717712402344e+00,-1.185624003410339355e+00,7.649187743663787842e-02,3.600000000000000000e+02
-3.009709745644830718e+02,-2.667027082557410722e+02,-4.596161492488317890e+01,2.937403024511982039e+02,-5.837862252516970329e+01,2.377374200076549187e+02,-2.467670811752759619e+01,4.841217846747895237e+00,9.408499717712402344e+00,-1.185624003410339355e+00,7.649187743663787842e-02,3.610000000000000000e+02
-2.986398785556941675e+02,-2.672697546138117559e+02,-4.553201793513255780e+01,2.912550145387172051e+02,-5.904696533487572196e+01,2.359084670173335780e+02,-2.628761050154457735e+01,5.501132666235207580e+00,9.408499717712402344e+00,-1.185624003410339355e+00,7.649187743663787842e-02,3.620000000000000000e+02
-2.960640084570371755e+02,-2.671442785779363476e+02,-4.543477760195719384e+01,2.885561655391945806e+02,-5.994311481853719670e+01,2.334324051020068964e+02,-2.818986405702594311e+01,6.108555026435624313e+00,9.408499717712402344e+00,-1.185624003410339355e+00,7.649187743663787842e-02,3.630000000000000000e+02
-2.935575941816584873e+02,-2.654641991386870359e+02,-4.544081726590434300e+01,2.857779944459446142e+02,-6.054867788575893428e+01,2.304251525040617707e+02,-2.916981120168759389e+01,6.843431133257581678e+00,9.408499717712402344e+00,-1.185624003410339355e+00,7.649187743663787842e-02,3.640000000000000000e+02
-2.915120097055366841e+02,-2.621762615011534763e+02,-4.552001018364126139e+01,2.826642071991634566e+02,-6.068125859678548295e+01,2.269345213259027787e+02,-2.906197078922218680e+01,7.746132374139506283e+00,9.408499717712402344e+00,-1.185624003410339355e+00,7.649187743663787842e-02,3.650000000000000000e+02
-2.902250204263605156e+02,-2.582902387464105232e+02,-4.583795651949139938e+01,2.785562581545327703e+02,-6.052884551852685036e+01,2.229577701369701117e+02,-2.871872409964157669e+01,8.606314028618271550e+00,9.408499717712402344e+00,-1.185624003410339355e+00,7.649187743663787842e-02,3.660000000000000000e+02
-2.896264385190197572e+02,-2.551972006916587361e+02,-4.648761156246484916e+01,2.729218288884203503e+02,-6.037225145149977834e+01,2.186592671543767210e+02,-2.906784561707229386e+01,9.095728838101877045e+00,9.408499717712402344e+00,-1.185624003410339355e+00,7.649187743663787842e-02,3.670000000000000000e+02
-2.892012928635381286e+02,-2.535991587109755301e+02,-4.724026141266199375e+01,2.660288483310694119e+02,-6.025904552995007180e+01,2.145337016980979570e+02,-3.022010193004587109e+01,9.095181047981441225e+00,9.408499717712402344e+00,-1.185624003410339355e+00,7.649187743663787842e-02,3.680000000000000000e+02
-2.882943244865300585e+02,-2.530110166044994457e+02,-4.759281450805679015e+01,2.590856533092280642e+02,-5.994640689174343606e+01,2.112525496395337541e+02,-3.143411599539626877e+01,8.919448878025832528e+00,9.408499717712402344e+00,-1.185624003410339355e+00,7.649187743663787842e-02,3.690000000000000000e+02
-2.865890437337441199e+02,-2.522889111140145815e+02,-4.708191729886857502e+01,2.535710445249392251e+02,-5.917877780291610179e+01,2.092372724840197407e+02,-3.184381891131556586e+01,9.160920622066669239e+00,9.408499717712402344e+00,-1.185624003410339355e+00,7.649187743663787842e-02,3.700000000000000000e+02
-2.843178674458445130e+02,-2.506854911776737254e+02,-4.557066633834688218e+01,2.502420068907838413e+02,-5.799669576528867765e+01,2.083312292352134136e+02,-3.117461102802565165e+01,1.022343809405356296e+01,9.408499717712402344e+00,-1.185624003410339355e+00,7.649187743663787842e-02,3.710000000000000000e+02
-2.819953419965015655e+02,-2.484784920882558481e+02,-4.326422187641969686e+01,2.486748919172302976e+02,-5.672060696615744746e+01,2.079119812968210681e+02,-2.983340368351218785e+01,1.196683026035043440e+01,9.408499717712402344e+00,-1.185624003410339355e+00,7.649187743663787842e-02,3.720000000000000000e+02
-2.799428261409400420e+02,-2.466643923153258129e+02,-4.049301058432115497e+01,2.477323437710376766e+02,-5.561063855893189611e+01,2.073603402168546381e+02,-2.845479200775116624e+01,1.381946759591301088e+01,9.408499717712402344e+00,-1.185624003410339355e+00,7.649187743663787842e-02,3.730000000000000000e+02
-2.780924211972261446e+02,-2.460967704558713649e+02,-3.754273578157653901e+01,2.465314819235181858e+02,-5.457426833148406331e+01,2.064552672380459626e+02,-2.746590730753689513e+01,1.528428068270045515e+01,9.408499717712402344e+00,-1.185624003410339355e+00,7.649187743663787842e-02,3.740000000000000000e+02
-2.762463360403919523e+02,-2.468809221680953669e+02,-3.470581392127985509e+01,2.450811818963022688e+02,-5.327566158920990347e+01,2.053661364728859553e+02,-2.703005240592381142e+01,1.636921254111484814e+01,9.408499717712402344e+00,-1.185624003410339355e+00,7.649187743663787842e-02,3.750000000000000000e+02
-2.744684199463179084e+02,-2.484456561321519530e+02,-3.241821800297520895e+01,2.441117079807527261e+02,-5.157809320327646674e+01,2.043364196287193408e+02,-2.721540745802326455e+01,1.753465992904148152e+01,9.408499717712402344e+00,-1.185624003410339355e+00,7.649187743663787842e-02,3.760000000000000000e+02
-2.731336544270761806e+02,-2.500158487362955384e+02,-3.119167796953433935e+01,2.443666564458735593e+02,-4.984479999347399826e+01,2.034537797129555656e+02,-2.802372870288490958e+01,1.922352630028080966e+01,9.408499717712402344e+00,-1.185624003410339355e+00,7.649187743663787842e-02,3.770000000000000000e+02
-2.725282539963991439e+02,-2.509357360339540719e+02,-3.125647461566484253e+01,2.459979325130980214e+02,-4.871785890653382012e+01,2.027062890574970879e+02,-2.921305225192963917e+01,2.142762273700395781e+01,9.408499717712402344e+00,-1.185624003410339355e+00,7.649187743663787842e-02,3.780000000000000000e+02
-2.724213280053843391e+02,-2.506842670887700706e+02,-3.221519924048129724e+01,2.484848663358570775e+02,-4.850587319412670695e+01,2.021468934569152225e+02,-3.022799465839352706e+01,2.367822102636228010e+01,9.408499717712402344e+00,-1.185624003410339355e+00,7.649187743663787842e-02,3.790000000000000000e+02
-2.721056677869360101e+02,-2.488825593256992761e+02,-3.311921599755282841e+01,2.510215223719674213e+02,-4.873193911593625671e+01,2.018925143230208050e+02,-3.048096143366160504e+01,2.544099108842010537e+01,9.408499717712402344e+00,-1.185624003410339355e+00,7.649187743663787842e-02,3.800000000000000000e+02
-2.709550855604445587e+02,-2.455462939226700883e+02,-3.302594261007652676e+01,2.530081467902355143e+02,-4.831185627499576185e+01,2.019494771032295830e+02,-2.978723631988759735e+01,2.654893642270826604e+01,9.408499717712402344e+00,-1.185624003410339355e+00,7.649187743663787842e-02,3.810000000000000000e+02
-2.690046273754996946e+02,-2.413663888412920642e+02,-3.164655133867859149e+01,2.543368832090195610e+02,-4.632303152412441705e+01,2.021323816586582325e+02,-2.850156437519945030e+01,2.732711137265573598e+01,9.408499717712402344e+00,-1.185624003410339355e+00,7.649187743663787842e-02,3.820000000000000000e+02
-2.669755231248134351e+02,-2.375220733644163147e+02,-2.953618427982837602e+01,2.553552438040492234e+02,-4.280045606008320647e+01,2.022329763427815124e+02,-2.717540186171800087e+01,2.835071225838737519e+01,9.408499717712402344e+00,-1.185624003410339355e+00,7.649187743663787842e-02,3.830000000000000000e+02
-2.656725994554396948e+02,-2.349348355302963682e+02,-2.764607694847813946e+01,2.565519495934131555e+02,-3.889878564885907508e+01,2.022635849481221157e+02,-2.608404775538633658e+01,3.003812199438903008e+01,9.408499717712402344e+00,-1.185624003410339355e+00,7.649187743663787842e-02,3.840000000000000000e+02
-2.652620901419504662e+02,-2.335655910809337001e+02,-2.662127097406391840e+01,2.581307817601355055e+02,-3.623245655689606792e+01,2.024532402717227342e+02,-2.514455973054600690e+01,3.233869993005782817e+01,9.446745872497558594e+00,-1.185624003410339355e+00,7.649187743663787842e-02,3.850000000000000000e+02
-2.650665043041831268e+02,-2.324972963853633701e+02,-2.645475391408945143e+01,2.597290826132020811e+02,-3.585144221248492613e+01,2.029306337800198889e+02,-2.432233586834809103e+01,3.466545881775618909e+01,9.446745872497558594e+00,-1.185624003410339355e+00,7.649187743663787842e-02,3.860000000000000000e+02
-2.640700278502047240e+02,-2.308457431469641961e+02,-2.675212916903592486e+01,2.605165527731332986e+02,-3.762762925802144309e+01,2.034137935803332766e+02,-2.401427823611265921e+01,3.611440403419601353e+01,9.446745872497558594e+00,-1.185624003410339355e+00,7.649187743663787842e-02,3.870000000000000000e+02
-2.617237571985517661e+02,-2.286459424120102994e+02,-2.728854502382637293e+01,2.596862591695803530e+02,-4.051589877883247937e+01,2.032677839884790956e+02,-2.486386142934952659e+01,3.591667621350234185e+01,9.446745872497558594e+00,-1.185624003410339355e+00,7.649187743663787842e-02,3.880000000000000000e+02
-2.584149900179068027e+02,-2.268107324730574419e+02,-2.829760988463021931e+01,2.570333627796976543e+02,-4.342791535427477356e+01,2.019564480022308999e+02,-2.708657101002563650e+01,3.395038132475679049e+01,9.446745872497558594e+00,-1.185624003410339355e+00,7.649187743663787842e-02,3.890000000000000000e+02
-2.552664446464827961e+02,-2.261759010071357352e+02,-3.022341740715546621e+01,2.531833892451386419e+02,-4.595773230563918332e+01,1.995140757624762955e+02,-3.000176380069979132e+01,3.098599009578219921e+01,9.446745872497558594e+00,-1.185624003410339355e+00,7.649187743663787842e-02,3.900000000000000000e+02
-2.534209043916011979e+02,-2.266222926326524885e+02,-3.320084131193743815e+01,2.492620138518072963e+02,-4.834794337111134155e+01,1.966236765278504208e+02,-3.236429637623768940e+01,2.837694041293980263e+01,9.446745872497558594e+00,-1.185624003410339355e+00,7.649187743663787842e-02,3.910000000000000000e+02
-2.533108770971093691e+02,-2.272174765778036090e+02,-3.677555491449243164e+01,2.462384602740476112e+02,-5.082116763830958917e+01,1.942156020796155644e+02,-3.330917552478672405e+01,2.724163018492299670e+01,9.446745872497558594e+00,-1.185624003410339355e+00,7.649187743663787842e-02,3.920000000000000000e+02
-2.543776710727797763e+02,-2.272290595514994038e+02,-4.011987415866792617e+01,2.444196700621637319e+02,-5.303460644858046180e+01,1.928586542071661825e+02,-3.304012479311950301e+01,2.764073452449042634e+01,9.446745872497558594e+00,-1.185624003410339355e+00,7.649187743663787842e-02,3.930000000000000000e+02
-2.553955699943830950e+02,-2.269278503522987194e+02,-4.254865901238281367e+01,2.434381746440440111e+02,-5.425796439691703199e+01,1.923769498174765431e+02,-3.257078274024661368e+01,2.842947274375092093e+01,9.446745872497558594e+00,-1.185624003410339355e+00,7.649187743663787842e-02,3.940000000000000000e+02
-2.551864032579728701e+02,-2.272547915397192355e+02,-4.389221863072611995e+01,2.426786508096156467e+02,-5.408252161236578104e+01,1.919745037563552614e+02,-3.271911645468867391e+01,2.804717980348459605e+01,9.446745872497558594e+00,-1.185624003410339355e+00,7.649187743663787842e-02,3.950000000000000000e+02
-2.532767165703685350e+02,-2.286158271200890795e+02,-4.447056025209803920e+01,2.417627705205063648e+02,-5.288407478628232639e+01,1.908069230758978847e+02,-3.330724841789583479e+01,2.571789095117810575e+01,9.446745872497558594e+00,-1.185624003410339355e+00,7.649187743663787842e-02,3.960000000000000000e+02
-2.500958411663139032e+02,-2.300546460132468383e+02,-4.477692971716282955e+01,2.407210042918741237e+02,-5.151953901055094320e+01,1.886217946772844698e+02,-3.333537707824234531e+01,2.207444017337547848e+01,9.446745872497558594e+00,-1.185624003410339355e+00,7.649187743663787842e-02,3.970000000000000000e+02
-2.466026394053546937e+02,-2.297623811604885304e+02,-4.517690520185306013e+01,2.397809952307620733e+02,-5.058396950784435830e+01,1.859821830384726127e+02,-3.196179291052362714e+01,1.859980570270477074e+01,9.446745872497558594e+00,-1.185624003410339355e+00,7.649187743663787842e-02,3.980000000000000000e+02
-2.436372113906083996e+02,-2.266005817676943934e+02,-4.585577877103833089e+01,2.390449430023973036e+02,-5.004629627075246390e+01,1.838521975287403620e+02,-2.938061622122540939e+01,1.630327345380851511e+01,9.446745872497558594e+00,-1.185624003410339355e+00,7.649187743663787842e-02,3.990000000000000000e+02
-2.414821466088783382e+02,-2.212607824329859341e+02,-4.693945969745936964e+01,2.383928446838913260e+02,-4.963292392224138894e+01,1.828277523356591701e+02,-2.679824296328251876e+01,1.480303225976422254e+01,9.446745872497558594e+00,-1.185624003410339355e+00,7.649187743663787842e-02,4.000000000000000000e+02
-2.399101720841067618e+02,-2.159446012979196894e+02,-4.854281724297038636e+01,2.376862601739057936e+02,-4.944240028619924487e+01,1.826383803399803583e+02,-2.553145013825496790e+01,1.268734035807210603e+01,9.446745872497558594e+00,-1.185624003410339355e+00,7.649187743663787842e-02,4.010000000000000000e+02
-2.385717435866906726e+02,-2.127575020706719897e+02,-5.062358265455031869e+01,2.370098479790262900e+02,-4.997925286002191569e+01,1.823701617003184765e+02,-2.600344643022208402e+01,8.868196475937565992e+00,9.446745872497558594e+00,-1.185624003410339355e+00,7.649187743663787842e-02,4.020000000000000000e+02
-2.372929065948130756e+02,-2.121583348286928867e+02,-5.275922194334430060e+01,2.366243651281656639e+02,-5.147026347988912676e+01,1.812414614086828806e+02,-2.741399694791402908e+01,3.703129008240921394e+00,9.446745872497558594e+00,-1.185624003410339355e+00,7.649187743663787842e-02,4.030000000000000000e+02
-2.360267310264628122e+02,-2.127665582935821931e+02,-5.415204396915260077e+01,2.366089976530893182e+02,-5.321624147929242099e+01,1.792564483748146813e+02,-2.827909547857620964e+01,-1.157755501870724402e+00,9.446745872497558594e+00,-1.185624003410339355e+00,7.649187743663787842e-02,4.040000000000000000e+02
-2.346157276299575187e+02,-2.126221895058840801e+02,-5.402295136851603274e+01,2.365673233820807582e+02,-5.382383737260988710e+01,1.771671962484956566e+02,-2.738237526748912387e+01,-4.076708070533186401e+00,9.446745872497558594e+00,-1.185624003410339355e+00,7.649187743663787842e-02,4.050000000000000000e+02
-2.327356031435826935e+02,-2.107660979553361358e+02,-5.218936585095025293e+01,2.357999369037233919e+02,-5.227261805478201495e+01,1.758143556169388830e+02,-2.448281377784269353e+01,-4.718945529644315684e+00,9.446745872497558594e+00,-1.185624003410339355e+00,7.649187743663787842e-02,4.060000000000000000e+02
-2.301625671488238822e+02,-2.078001274751463825e+02,-4.936020028707343954e+01,2.339116466684708939e+02,-4.885058945174796463e+01,1.754686635252301130e+02,-2.039085724377605402e+01,-4.238913756337751693e+00,9.446745872497558594e+00,-1.185624003410339355e+00,7.649187743663787842e-02,4.070000000000000000e+02
-2.270961981478344569e+02,-2.050526658173005217e+02,-4.680830272608886844e+01,2.313082302861612334e+02,-4.505586420677991555e+01,1.757207750690126886e+02,-1.646437946818127784e+01,-4.341531080261574971e+00,9.446745872497558594e+00,-1.185624003410339355e+00,7.649187743663787842e-02,4.080000000000000000e+02
-2.241421838391688652e+02,-2.032353271407043849e+02,-4.557399241013990832e+01,2.290582507192775665e+02,-4.251505296318464389e+01,1.759231178949139576e+02,-1.387904288257368535e+01,-6.153125718386945664e+00,9.446745872497558594e+00,-1.185624003410339355e+00,7.649187743663787842e-02,4.090000000000000000e+02
-2.218879488590059736e+02,-2.018670323541653033e+02,-4.578376754005580551e+01,2.281593026535247191e+02,-4.187483324764662029e+01,1.757198229920959420e+02,-1.308209335911124072e+01,-9.799795277161138074e+00,9.446745872497558594e+00,-1.185624003410339355e+00,7.649187743663787842e-02,4.100000000000000000e+02
-2.204262766158476552e+02,-1.999671986123414626e+02,-4.661738233466235215e+01,2.288368945337078912e+02,-4.256994142675921466e+01,1.752370348523641042e+02,-1.367701633225897240e+01,-1.473796835773600833e+01,9.446745872497558594e+00,-1.185624003410339355e+00,7.649187743663787842e-02,4.110000000000000000e+02
-2.192468565555668647e+02,-1.972897631813107182e+02,-4.693068665715281895e+01,2.304862438126838242e+02,-4.349819021822440845e+01,1.748924620851121290e+02,-1.473068082168174442e+01,-2.021003241267908379e+01,9.446745872497558594e+00,-1.185624003410339355e+00,7.649187743663787842e-02,4.120000000000000000e+02
-2.175788809847183529e+02,-1.948428604540231390e+02,-4.600693807682273473e+01,2.322225205580875809e+02,-4.387796922211828132e+01,1.750693282258671388e+02,-1.528534922627136439e+01,-2.536142128598476120e+01,9.446745872497558594e+00,-1.185624003410339355e+00,7.649187743663787842e-02,4.130000000000000000e+02
-2.148958215981053854e+02,-1.941207585389847736e+02,-4.387182560949349863e+01,2.334506815517356699e+02,-4.357520847788146057e+01,1.758983517282636058e+02,-1.479767037620217707e+01,-2.919453929284236438e+01,9.446745872497558594e+00,-1.185624003410339355e+00,7.649187743663787842e-02,4.140000000000000000e+02
-2.112280268083309238e+02,-1.957147931619329029e+02,-4.106011712464737684e+01,2.339657581069814114e+02,-4.282913391183683416e+01,1.772091898086673609e+02,-1.332043571956455708e+01,-3.081962255453299804e+01,9.446745872497558594e+00,-1.185624003410339355e+00,7.649187743663787842e-02,4.150000000000000000e+02
-2.071624273918305335e+02,-1.985891110685668082e+02,-3.818749629875719620e+01,2.336750374879425181e+02,-4.184556565962520835e+01,1.786086896373581112e+02,-1.140123888051857648e+01,-3.005420937360668177e+01,9.446745872497558594e+00,-1.262115836143493652e+00,1.147378161549568176e-01,4.160000000000000000e+02
-2.035982509931084223e+02,-2.007142458824930600e+02,-3.571718051158450180e+01,2.324270229055946402e+02,-4.067497872676722181e+01,1.796429586017438851e+02,-9.782719106049171387e+00,-2.781773605741364008e+01,9.446745872497558594e+00,-1.262115836143493652e+00,1.147378161549568176e-01,4.170000000000000000e+02
-2.013474489991042446e+02,-2.005026587552383717e+02,-3.394985986996948668e+01,2.301895308242619649e+02,-3.936930002161579978e+01,1.799850959236846393e+02,-9.016426467646851961e+00,-2.576419589905935936e+01,9.446745872497558594e+00,-1.262115836143493652e+00,1.147378161549568176e-01,4.180000000000000000e+02
-2.006802747369595181e+02,-1.978241019090894497e+02,-3.300101657846926173e+01,2.273084504686194123e+02,-3.810196216393478608e+01,1.795602458156745342e+02,-9.142937887330617741e+00,-2.525728885506168808e+01,9.446745872497558594e+00,-1.262115836143493652e+00,1.147378161549568176e-01,4.190000000000000000e+02
-2.010394165835277818e+02,-1.938496372689755844e+02,-3.265821123036516838e+01,2.244204165503597324e+02,-3.706287328750067900e+01,1.785302715326115504e+02,-9.631964243425272798e+00,-2.647531645636490794e+01,9.446745872497558594e+00,-1.262115836143493652e+00,1.147378161549568176e-01,4.200000000000000000e+02
-2.012197167671915849e+02,-1.900481830282435567e+02,-3.232442829896172043e+01,2.219988529900738286e+02,-3.626965754982711587e+01,1.771665429401573419e+02,-9.681896465325735335e+00,-2.840487885804532198e+01,9.446745872497558594e+00,-1.262115836143493652e+00,1.147378161549568176e-01,4.210000000000000000e+02
-2.000843042769040494e+02,-1.872908425517439355e+02,-3.131146739971791249e+01,2.199805920266198882e+02,-3.556334812437216897e+01,1.757298238480516375e+02,-8.757470243787111031e+00,-2.972721285841407735e+01,9.446745872497558594e+00,-1.262115836143493652e+00,1.147378161549568176e-01,4.220000000000000000e+02
-1.973854813896000451e+02,-1.856719914837265151e+02,-2.937974601744144820e+01,2.178772815000947958e+02,-3.486247050234123890e+01,1.744303950014373186e+02,-7.000565420935572547e+00,-2.983576910240208235e+01,9.446745872497558594e+00,-1.262115836143493652e+00,1.147378161549568176e-01,4.230000000000000000e+02
-1.940021754020485787e+02,-1.848817884568643422e+02,-2.704064421989846778e+01,2.152750768580535805e+02,-3.441116748865670161e+01,1.734224776527898939e+02,-5.176919854898187623e+00,-2.915775611300250603e+01,9.446745872497558594e+00,-1.262115836143493652e+00,1.147378161549568176e-01,4.240000000000000000e+02
-1.912772788648123878e+02,-1.845654455149865498e+02,-2.524459195743020246e+01,2.122188845989007859e+02,-3.469258100387287413e+01,1.727483593774559267e+02,-4.167769130655187837e+00,-2.862090212307930415e+01,9.446745872497558594e+00,-1.262115836143493652e+00,1.147378161549568176e-01,4.250000000000000000e+02
-1.899397881347149450e+02,-1.843705087774383173e+02,-2.463725113949703882e+01,2.091206985846743009e+02,-3.599036405826427654e+01,1.722638250944828542e+02,-4.377819535783601168e+00,-2.883702499158789578e+01,9.446745872497558594e+00,-1.262115836143493652e+00,1.147378161549568176e-01,4.260000000000000000e+02
-1.895465682061671941e+02,-1.838660811718350487e+02,-2.502388962486202217e+01,2.063478520044945981e+02,-3.797789989956845602e+01,1.716747919615881983e+02,-5.497374113090700121e+00,-2.972249981982577083e+01,9.446745872497558594e+00,-1.262115836143493652e+00,1.147378161549568176e-01,4.270000000000000000e+02
-1.889516888673438189e+02,-1.826186910221647395e+02,-2.554131712221192174e+01,2.039296004789794097e+02,-3.978819558343911922e+01,1.707338977699082534e+02,-6.752358707327630327e+00,-3.078825647527719411e+01,9.446745872497558594e+00,-1.262115836143493652e+00,1.147378161549568176e-01,4.280000000000000000e+02
-1.873758168383460543e+02,-1.804426733193902237e+02,-2.539897579076978218e+01,2.016479145957891888e+02,-4.059649464056656143e+01,1.694755820751215651e+02,-7.385159996798847715e+00,-3.171458894729403255e+01,9.446745872497558594e+00,-1.262115836143493652e+00,1.147378161549568176e-01,4.290000000000000000e+02
-1.850832431135258958e+02,-1.775496098881176295e+02,-2.451376400582876158e+01,1.993614632797784907e+02,-4.022784664385835640e+01,1.682829235041335778e+02,-6.981789975977335416e+00,-3.263775611674691390e+01,9.446745872497558594e+00,-1.262115836143493652e+00,1.147378161549568176e-01,4.300000000000000000e+02
-1.830770947533737854e+02,-1.744219668161908885e+02,-2.349568068912731178e+01,1.971925363117306915e+02,-3.923355257249659189e+01,1.676837473977029731e+02,-5.508076962753420958e+00,-3.393864379632941564e+01,9.446745872497558594e+00,-1.262115836143493652e+00,1.147378161549568176e-01,4.310000000000000000e+02
-1.821519237539307596e+02,-1.715244517816240659e+02,-2.303020408034922184e+01,1.954168761932910456e+02,-3.833991381826945144e+01,1.680063442521322941e+02,-3.193370055341119951e+00,-3.578891218951866904e+01,9.446745872497558594e+00,-1.262115836143493652e+00,1.147378161549568176e-01,4.320000000000000000e+02
-1.822011618860467479e+02,-1.690968082296844841e+02,-2.322608093651683703e+01,1.942050815426246118e+02,-3.777452443915672120e+01,1.691375307257067107e+02,-4.359180242408910999e-01,-3.789168791028669148e+01,9.446745872497558594e+00,-1.262115836143493652e+00,1.147378161549568176e-01,4.330000000000000000e+02
-1.823529455124757988e+02,-1.671472809246911311e+02,-2.348753647740250017e+01,1.934929967137422864e+02,-3.709789380569645800e+01,1.705641929491766859e+02,2.251615151289115602e+00,-3.960181206151582955e+01,9.446745872497558594e+00,-1.262115836143493652e+00,1.147378161549568176e-01,4.340000000000000000e+02
-1.816962704155744177e+02,-1.655573452770477161e+02,-2.297175274290839297e+01,1.930831486536890225e+02,-3.568701476643673232e+01,1.716782181788285016e+02,4.348017951374913537e+00,-4.025605704202916968e+01,9.446745872497558594e+00,-1.262115836143493652e+00,1.147378161549568176e-01,4.350000000000000000e+02
-1.798954623772010564e+02,-1.641769578198961881e+02,-2.123806147288860302e+01,1.928445501832284208e+02,-3.340794015141136697e+01,1.721488236468358082e+02,5.501648202054639114e+00,-3.944234750611258278e+01,9.446745872497558594e+00,-1.262115836143493652e+00,1.147378161549568176e-01,4.360000000000000000e+02
-1.772725973276503737e+02,-1.629060632646571776e+02,-1.861336828844491720e+01,1.928040252974187752e+02,-3.086401423901043017e+01,1.721071023918430001e+02,5.663229205302286573e+00,-3.710017698561978250e+01,9.408499717712402344e+00,-1.185624003410339355e+00,1.147378161549568176e-01,4.370000000000000000e+02
-1.744985909807146527e+02,-1.617887979266631646e+02,-1.605093541406904478e+01,1.930364489732442053e+02,-2.902808135506165854e+01,1.719865800132138247e+02,5.074458843375396100e+00,-3.353513828848372214e+01,9.408499717712402344e+00,-1.185624003410339355e+00,1.147378161549568176e-01,4.380000000000000000e+02
-1.722646034684166807e+02,-1.610580420454305113e+02,-1.460528273861541493e+01,1.934727344755510785e+02,-2.857914053394461007e+01,1.721314703292046033e+02,4.139585765446554433e+00,-2.939124402063225716e+01,9.408499717712402344e+00,-1.185624003410339355e+00,1.147378161549568176e-01,4.390000000000000000e+02
-1.710841417202354933e+02,-1.609955402654568388e+02,-1.482745966507332014e+01,1.938313789374087719e+02,-2.944169167643030960e+01,1.724976351656850966e+02,3.292374358427878178e+00,-2.549097752974148534e+01,9.408499717712402344e+00,-1.185624003410339355e+00,1.147378161549568176e-01,4.400000000000000000e+02
-1.711009662591370670e+02,-1.616191390245455750e+02,-1.638954866662083987e+01,1.937644441747625024e+02,-3.081142980682761845e+01,1.727239570594856559e+02,2.920784168591580965e+00,-2.249134964061295250e+01,9.408499717712402344e+00,-1.185624003410339355e+00,1.147378161549568176e-01,4.410000000000000000e+02
-1.718633436037912361e+02,-1.624560420883656207e+02,-1.815887540290350444e+01,1.931133893400619854e+02,-3.160213406441926054e+01,1.725369864257727386e+02,3.281057800023518212e+00,-2.054142753492487827e+01,9.408499717712402344e+00,-1.185624003410339355e+00,1.147378161549568176e-01,4.420000000000000000e+02
-1.723230869078465730e+02,-1.626867581693074953e+02,-1.875108658850581378e+01,1.920540455192185618e+02,-3.104923604596297082e+01,1.721128659226324089e+02,4.352350717135777813e+00,-1.927571849102969281e+01,9.408499717712402344e+00,-1.185624003410339355e+00,1.147378161549568176e-01,4.430000000000000000e+02
-1.713472286767603237e+02,-1.616610345065514593e+02,-1.732883011048261324e+01,1.910091654007555917e+02,-2.914197303170521991e+01,1.720230206999585789e+02,5.731919435629606596e+00,-1.824445618865456709e+01,9.408499717712402344e+00,-1.185624003410339355e+00,1.147378161549568176e-01,4.440000000000000000e+02
-1.685720111562520742e+02,-1.594030251945780492e+02,-1.418472179786112974e+01,1.904235867742836490e+02,-2.662820217305852566e+01,1.727714763523863439e+02,6.757914751672615239e+00,-1.742906973473918697e+01,9.408499717712402344e+00,-1.185624003410339355e+00,1.147378161549568176e-01,4.450000000000000000e+02
-1.649105916778892151e+02,-1.566474005184261387e+02,-1.066670462469119229e+01,1.906080407400277181e+02,-2.454823616177191070e+01,1.743472904889249548e+02,6.903498532556113787e+00,-1.731240470802458731e+01,9.408499717712402344e+00,-1.185624003410339355e+00,1.147378161549568176e-01,4.460000000000000000e+02
-1.621006377452795277e+02,-1.543107530052811853e+02,-8.385578753239997241e+00,1.917290935592673122e+02,-2.358439643210522263e+01,1.762105089696078721e+02,6.210025790050622163e+00,-1.835565808434012069e+01,9.408499717712402344e+00,-1.185624003410339355e+00,1.147378161549568176e-01,4.470000000000000000e+02
-1.614452098709496113e+02,-1.528103519997646345e+02,-8.175516618136725810e+00,1.938182918173743019e+02,-2.371510505111700695e+01,1.777014041655183973e+02,5.395595573976152082e+00,-2.035650256661801905e+01,9.408499717712402344e+00,-1.185624003410339355e+00,1.147378161549568176e-01,4.480000000000000000e+02
-1.627199862372044663e+02,-1.518127903120696374e+02,-9.540047541801413900e+00,1.966710005451286634e+02,-2.443989031371847886e+01,1.784791194878089300e+02,5.452696106273833720e+00,-2.234939183691403741e+01,9.408499717712402344e+00,-1.185624003410339355e+00,1.147378161549568176e-01,4.490000000000000000e+02
-1.641997504567536907e+02,-1.506236990214738398e+02,-1.100458269171485881e+01,1.997358439979752802e+02,-2.532978824261363116e+01,1.786214585187308330e+02,6.961332834972381534e+00,-2.321316508742575024e+01,9.408499717712402344e+00,-1.185624003410339355e+00,1.147378161549568176e-01,4.500000000000000000e+02
-1.638786871463241823e+02,-1.488701555688001008e+02,-1.113140374670388155e+01,2.022496339944154897e+02,-2.634252850291068171e+01,1.783941299417892878e+02,9.614961096499428095e+00,-2.246779105590439940e+01,9.408499717712402344e+00,-1.185624003410339355e+00,1.147378161549568176e-01,4.510000000000000000e+02
-1.609280879029752214e+02,-1.468605849056050374e+02,-9.442894233450488173e+00,2.036854469361251176e+02,-2.759773355780862403e+01,1.779847953520948067e+02,1.233879114184856007e+01,-2.055814184525843302e+01,9.408499717712402344e+00,-1.185624003410339355e+00,1.147378161549568176e-01,4.520000000000000000e+02
-1.562076032200534428e+02,-1.452806876507393099e+02,-6.575583209091291792e+00,2.041999122703036846e+02,-2.891458563077594590e+01,1.774294248970445551e+02,1.397444250148055289e+01,-1.842994391100228313e+01,9.408499717712402344e+00,-1.185624003410339355e+00,1.147378161549568176e-01,4.530000000000000000e+02
-1.514865939848800735e+02,-1.445232780250939868e+02,-3.665701547728303922e+00,2.046308633160642785e+02,-2.970878287070490842e+01,1.766979456401295465e+02,1.405268594324661535e+01,-1.685842578546817094e+01,9.408499717712402344e+00,-1.185624003410339355e+00,1.147378161549568176e-01,4.540000000000000000e+02
-1.481241581901842892e+02,-1.442766877007968560e+02,-1.559102047878695885e+00,2.059394702447361851e+02,-2.944176881924477129e+01,1.757809583214593658e+02,1.310328224128761576e+01,-1.611544868394412333e+01,9.408499717712402344e+00,-1.185624003410339355e+00,1.147378161549568176e-01,4.550000000000000000e+02
-1.463089270487082558e+02,-1.437427292020665845e+02,-4.640160270701016998e-01,2.085218703916734739e+02,-2.815987559927725670e+01,1.747195163812084502e+02,1.227574024783234563e+01,-1.609630616170670692e+01,9.408499717712402344e+00,-1.185624003410339355e+00,1.147378161549568176e-01,4.560000000000000000e+02
-1.453340340558245316e+02,-1.422733333507969746e+02,-1.576705974623564543e-01,2.119736421923553280e+02,-2.650737595814780434e+01,1.736312249457741927e+02,1.253810176104389029e+01,-1.656548074363263368e+01,9.408499717712402344e+00,-1.185624003410339355e+00,1.147378161549568176e-01,4.570000000000000000e+02
-1.444386501658459565e+02,-1.398415003393711231e+02,-3.449789179471736134e-01,2.154801279987968883e+02,-2.514276795737714565e+01,1.727352135839255425e+02,1.404163928454408961e+01,-1.720213935926130944e+01,9.408499717712402344e+00,-1.185624003410339355e+00,1.147378161549568176e-01,4.580000000000000000e+02
-1.433793470423925100e+02,-1.369746544354725302e+02,-7.641982627183097065e-01,2.184315436386168585e+02,-2.413778418410129234e+01,1.722987169551815896e+02,1.609903061879504094e+01,-1.752553253933820088e+01,9.408499717712402344e+00,-1.185624003410339355e+00,1.147378161549568176e-01,4.590000000000000000e+02
-1.423408677115587579e+02,-1.342977159478746216e+02,-1.046372302988402225e+00,2.207012817091645047e+02,-2.296502889298426453e+01,1.724792108753281354e+02,1.775347572701866738e+01,-1.700991965755292767e+01,9.408499717712402344e+00,-1.185624003410339355e+00,1.147378161549568176e-01,4.600000000000000000e+02
-1.414688002713617152e+02,-1.321334750120288390e+02,-6.542768733322645858e-01,2.224306494401780583e+02,-2.104097901271416049e+01,1.731964812379419527e+02,1.849319231772506100e+01,-1.544454801325264270e+01,9.408499717712402344e+00,-1.185624003410339355e+00,1.147378161549568176e-01,4.610000000000000000e+02
-1.405633251353642663e+02,-1.304446251401072914e+02,8.662656529309060716e-01,2.236492845860830130e+02,-1.825085659522210335e+01,1.741872304560038174e+02,1.856487063763734113e+01,-1.320642076947160604e+01,9.484992027282714844e+00,-1.300361871719360352e+00,1.147378161549568176e-01,4.620000000000000000e+02
-1.391622679688323387e+02,-1.290114772172298672e+02,3.497848713416487954e+00,2.241586718151188506e+02,-1.499092083031428047e+01,1.752025362801787196e+02,1.868357410155022080e+01,-1.108605443146780090e+01,9.484992027282714844e+00,-1.300361871719360352e+00,1.147378161549568176e-01,4.630000000000000000e+02
-1.368401243042137594e+02,-1.275916247907446177e+02,6.614503185630610460e+00,2.237776165424338615e+02,-1.182848131787841339e+01,1.761365835215701736e+02,1.939692101233140420e+01,-9.729875426432045060e+00,9.484992027282714844e+00,-1.300361871719360352e+00,1.147378161549568176e-01,4.640000000000000000e+02
-1.334728930176806898e+02,-1.259847636880915616e+02,9.289755906065920499e+00,2.226707859144248687e+02,-9.221151205891146674e+00,1.769483642074483214e+02,2.062253106084585852e+01,-9.184258015235172934e+00,9.484992027282714844e+00,-1.300361871719360352e+00,1.147378161549568176e-01,4.650000000000000000e+02
-1.293832621486910739e+02,-1.241145520350778497e+02,1.079945767844083093e+01,2.214213275154033909e+02,-7.517140560985353659e+00,1.774994987893460348e+02,2.169951277613722596e+01,-8.971736242780025350e+00,9.484992027282714844e+00,-1.300361871719360352e+00,1.147378161549568176e-01,4.660000000000000000e+02
-1.253833952419449815e+02,-1.221755679624066033e+02,1.092103893020293981e+01,2.207509370404086440e+02,-7.020232389888860780e+00,1.775524709209848879e+02,2.187348037756419217e+01,-8.632166299738855741e+00,9.484992027282714844e+00,-1.300361871719360352e+00,1.147378161549568176e-01,4.670000000000000000e+02
-1.226305040704799012e+02,-1.206653663464796864e+02,9.884615413332767275e+00,2.210691129639358223e+02,-7.840353909701661905e+00,1.769775946503586965e+02,2.084111145305405444e+01,-8.202797099471354159e+00,9.484992027282714844e+00,-1.300361871719360352e+00,1.147378161549568176e-01,4.680000000000000000e+02
-1.221480234985638162e+02,-1.201088155593524789e+02,8.172147515958840813e+00,2.221664464678169679e+02,-9.603101402179163415e+00,1.759507906875769550e+02,1.897947554371808110e+01,-8.153630984174014884e+00,9.484992027282714844e+00,-1.300361871719360352e+00,1.147378161549568176e-01,4.690000000000000000e+02
-1.241310633393509306e+02,-1.206033685764518850e+02,6.384199640982387791e+00,2.232701323624914949e+02,-1.141299579016640564e+01,1.749095435469598669e+02,1.713341789000105564e+01,-8.834861874556736439e+00,9.484992027282714844e+00,-1.300361871719360352e+00,1.147378161549568176e-01,4.700000000000000000e+02
-1.275210212120607594e+02,-1.216139146806340250e+02,5.171990036520128342e+00,2.234726504827822282e+02,-1.228833046730551359e+01,1.742912783453602970e+02,1.613836557881950284e+01,-9.979909301182033232e+00,9.484992027282714844e+00,-1.300361871719360352e+00,1.147378161549568176e-01,4.710000000000000000e+02
-1.303482759468370205e+02,-1.223147745510907498e+02,5.060783411474858440e+00,2.222969159534150094e+02,-1.178826344469371179e+01,1.742919040902224879e+02,1.636943059440272918e+01,-1.078855314213979000e+01,9.484992027282714844e+00,-1.300361871719360352e+00,1.147378161549568176e-01,4.720000000000000000e+02
-1.307968326396050998e+02,-1.222478415880161720e+02,6.139266083283473563e+00,2.199909946688630953e+02,-1.031919191981796757e+01,1.748048874355636144e+02,1.755137357960666122e+01,-1.060537538921289524e+01,9.484992027282714844e+00,-1.300361871719360352e+00,1.147378161549568176e-01,4.730000000000000000e+02
-1.282829144395059302e+02,-1.216895762852118423e+02,7.867570404021989816e+00,2.172963287368975216e+02,-8.849711175014817854e+00,1.755003906594201908e+02,1.890687883087593946e+01,-9.614002466943475156e+00,9.484992027282714844e+00,-1.300361871719360352e+00,1.147378161549568176e-01,4.740000000000000000e+02
-1.237274087137307106e+02,-1.213236227458100984e+02,9.288619500218828762e+00,2.148423492184965653e+02,-8.261415784128075757e+00,1.759274365272840441e+02,1.958238076564452967e+01,-8.862458782440626237e+00,9.484992027282714844e+00,-1.300361871719360352e+00,1.147378161549568176e-01,4.750000000000000000e+02
-1.188340626182321103e+02,-1.214736583639712535e+02,9.612787895321162068e+00,2.126909735800004455e+02,-8.826563396880374057e+00,1.756543190779357246e+02,1.917671703351470569e+01,-9.460409778494522470e+00,9.484992027282714844e+00,-1.300361871719360352e+00,1.147378161549568176e-01,4.760000000000000000e+02
-1.149868241335441326e+02,-1.216191111750035816e+02,8.767685216956124350e+00,2.104588580663526045e+02,-1.012537236383013806e+01,1.745173664417125110e+02,1.808075579548381029e+01,-1.154173907968151980e+01,9.484992027282714844e+00,-1.300361871719360352e+00,1.147378161549568176e-01,4.770000000000000000e+02
-1.126138337455936380e+02,-1.207008512789745964e+02,7.459376368293760606e+00,2.079166108711210654e+02,-1.135719662481324121e+01,1.728679504609599462e+02,1.735088631566509321e+01,-1.390799129237348097e+01,9.484992027282714844e+00,-1.300361871719360352e+00,1.147378161549568176e-01,4.780000000000000000e+02
-1.113569865488443611e+02,-1.180082724944556958e+02,6.674021824899227795e+00,2.054915088191428367e+02,-1.177084876764001820e+01,1.715345367123018150e+02,1.807092282035819153e+01,-1.478901837970806810e+01,9.484992027282714844e+00,-1.300361871719360352e+00,1.147378161549568176e-01,4.790000000000000000e+02
-1.106741633996305154e+02,-1.139061799706310012e+02,7.014799792995745520e+00,2.041295221496634440e+02,-1.098326429769622337e+01,1.713359949529708501e+02,2.053947758256549605e+01,-1.321984000959810146e+01,9.484992027282714844e+00,-1.300361871719360352e+00,1.147378161549568176e-01,4.800000000000000000e+02
-1.102427619717834659e+02,-1.097541984992765265e+02,8.392614580200415730e+00,2.045788405000030252e+02,-9.085520098026790947e+00,1.724369383372595621e+02,2.390924474568237201e+01,-9.907163778781068686e+00,9.484992027282714844e+00,-1.300361871719360352e+00,1.147378161549568176e-01,4.810000000000000000e+02
-1.099004463244009457e+02,-1.070300453731501875e+02,1.024469717050533291e+01,2.067246747033323118e+02,-6.561656932793539454e+00,1.741052259661159951e+02,2.666923766513286864e+01,-6.802268372588969214e+00,9.484992027282714844e+00,-1.300361871719360352e+00,1.147378161549568176e-01,4.820000000000000000e+02
-1.093915434476284645e+02,-1.063164045244159297e+02,1.201331072837865577e+01,2.095633098724229058e+02,-4.083710968187006074e+00,1.751650587143335542e+02,2.771088702607357845e+01,-5.668433393563191203e+00,9.484992027282714844e+00,-1.300361871719360352e+00,1.147378161549568176e-01,4.830000000000000000e+02
-1.083152817223656257e+02,-1.069378857899071136e+02,1.347536523110102280e+01,2.118514036250599020e+02,-2.230360451062551874e+00,1.748510338513719944e+02,2.715794756356808648e+01,-6.787120427010449930e+00,9.484992027282714844e+00,-1.300361871719360352e+00,1.147378161549568176e-01,4.840000000000000000e+02
-1.063742881454822964e+02,-1.075234348134222273e+02,1.473396142707906620e+01,2.128854217831740243e+02,-1.217219704927174462e+00,1.733746403214531711e+02,2.624254105001477910e+01,-8.853696842839781311e+00,9.484992027282714844e+00,-1.300361871719360352e+00,1.147378161549568176e-01,4.850000000000000000e+02
-1.036519023121441023e+02,-1.070264886891745846e+02,1.602524522398516638e+01,2.128136875894574587e+02,-7.565807210635284719e-01,1.717501425277068847e+02,2.630800740011181915e+01,-1.008234614849243371e+01,9.484992027282714844e+00,-1.300361871719360352e+00,1.147378161549568176e-01,4.860000000000000000e+02
-1.006144388296941088e+02,-1.053960478019282618e+02,1.759014848528454422e+01,2.123376320687539192e+02,-1.493117075906411628e-01,1.710421764869615799e+02,2.779706311616610037e+01,-9.539110656744924199e+00,9.484992027282714844e+00,-1.300361871719360352e+00,1.147378161549568176e-01,4.870000000000000000e+02
-9.781255023301014262e+01,-1.033837600845413363e+02,1.966593363842775943e+01,2.121253015393340320e+02,1.372174460134601759e+00,1.716280417314733313e+02,3.008152902868187084e+01,-7.639142090320547140e+00,9.484992027282714844e+00,-1.300361871719360352e+00,1.147378161549568176e-01,4.880000000000000000e+02
-9.552762569168726259e+01,-1.017146102570184212e+02,2.245205257062025339e+01,2.123953893067396166e+02,4.202313651925123850e+00,1.730013248428244879e+02,3.218804585689485975e+01,-5.558760859922813324e+00,9.446745872497558594e+00,-1.300361871719360352e+00,7.649187743663787842e-02,4.890000000000000000e+02
-9.363530750242944123e+01,-1.003983678734064142e+02,2.595418641889295941e+01,2.128969850104117540e+02,8.093753112023250651e+00,1.741905245781858866e+02,3.366010485642755157e+01,-4.230831841295184859e+00,9.446745872497558594e+00,-1.300361871719360352e+00,7.649187743663787842e-02,4.900000000000000000e+02
-9.175061993896406420e+01,-9.880566343287773634e+01,2.983241234399770292e+01,2.131803658786116102e+02,1.226201215356059038e+01,1.744425898247591249e+02,3.476528296211381530e+01,-3.799761352292762240e+00,9.446745872497558594e+00,-1.300361871719360352e+00,7.649187743663787842e-02,4.910000000000000000e+02
-8.950848626265133134e+01,-9.638995417464684579e+01,3.350375569434072531e+01,2.128962664636314912e+02,1.583224560245048451e+01,1.736954609441631874e+02,3.600530724300347174e+01,-3.822413910939758352e+00,9.446745872497558594e+00,-1.300361871719360352e+00,7.649187743663787842e-02,4.920000000000000000e+02
-8.679151101813499736e+01,-9.330795299896328743e+01,3.651599198363965115e+01,2.119161352872092721e+02,1.833301964869428957e+01,1.725412828252178770e+02,3.757007510937182815e+01,-3.804364661659292324e+00,9.446745872497558594e+00,-1.300361871719360352e+00,7.649187743663787842e-02,4.930000000000000000e+02
-8.381739638177919005e+01,-9.033065511356210209e+01,3.884708873191516432e+01,2.102510485612760931e+02,1.989515215071423881e+01,1.717334153838610291e+02,3.925690346209853487e+01,-3.502407913563274633e+00,9.446745872497558594e+00,-1.300361871719360352e+00,7.649187743663787842e-02,4.940000000000000000e+02
-8.107285020479639570e+01,-8.817060672279012579e+01,4.076412877187090089e+01,2.079117952366023019e+02,2.103051376923895077e+01,1.715892794874757783e+02,4.074036628663566262e+01,-2.846915711927067605e+00,9.446745872497558594e+00,-1.300361871719360352e+00,7.649187743663787842e-02,4.950000000000000000e+02
-7.912852791458510637e+01,-8.693720325842605234e+01,4.231409435183650203e+01,2.048787110785963250e+02,2.218497706169137018e+01,1.717269742666339880e+02,4.171873791465395698e+01,-1.780934820844322530e+00,9.446745872497558594e+00,-1.300361871719360352e+00,7.649187743663787842e-02,4.960000000000000000e+02
-7.838936026391945688e+01,-8.626496021427647065e+01,4.299665196919045229e+01,2.012302851253703011e+02,2.340717147992359060e+01,1.713424185972226041e+02,4.180287011443260781e+01,-3.051765769823759911e-01,9.446745872497558594e+00,-1.300361871719360352e+00,7.649187743663787842e-02,4.970000000000000000e+02
-7.887396157407260944e+01,-8.588102379345627924e+01,4.211695514240409466e+01,1.972929449758728424e+02,2.435752839229962774e+01,1.698078430948116875e+02,4.054434302543575086e+01,1.323977545703883152e+00,9.446745872497558594e+00,-1.300361871719360352e+00,7.649187743663787842e-02,4.980000000000000000e+02
-8.014648342150235294e+01,-8.589688938342987967e+01,3.962723185072536580e+01,1.936295601529300257e+02,2.462899786103662336e+01,1.671195814668246840e+02,3.791622893865280730e+01,2.573061696147760813e+00,9.446745872497558594e+00,-1.300361871719360352e+00,7.649187743663787842e-02,4.990000000000000000e+02
-8.148612722638722516e+01,-8.646425693598826001e+01,3.661760613111493967e+01,1.908075365627996689e+02,2.413023293769083466e+01,1.638564206199341697e+02,3.485961733620240466e+01,2.955214364116955039e+00,9.446745872497558594e+00,-1.300361871719360352e+00,7.649187743663787842e-02,5.000000000000000000e+02
-8.223299687699181959e+01,-8.723139063384587644e+01,3.477694859665507465e+01,1.890954298720007500e+02,2.325871450037152499e+01,1.607302366157350662e+02,3.309038400820168135e+01,2.469716030644008242e+00,9.446745872497558594e+00,-1.300361871719360352e+00,7.649187743663787842e-02,5.010000000000000000e+02
-8.210426644346807734e+01,-8.733978092363315682e+01,3.512259422329600511e+01,1.883336657268780527e+02,2.273914216454375037e+01,1.581390477003610613e+02,3.393472802949906963e+01,1.745511967050333624e+00,9.446745872497558594e+00,-1.300361871719360352e+00,7.649187743663787842e-02,5.020000000000000000e+02
-8.128955178509613688e+01,-8.613984381285268910e+01,3.712193725019028534e+01,1.880775139648517325e+02,2.320190510289910435e+01,1.560647262829686497e+02,3.707723425689300711e+01,1.703335805875440201e+00,9.446745872497558594e+00,-1.300361871719360352e+00,7.649187743663787842e-02,5.030000000000000000e+02
-8.027892691560612093e+01,-8.394153873038095526e+01,3.909256142959134195e+01,1.878931000670870617e+02,2.476721556696190873e+01,1.543138371121451655e+02,4.050437369318012770e+01,2.988413038879116357e+00,9.446745872497558594e+00,-1.300361871719360352e+00,7.649187743663787842e-02,5.040000000000000000e+02
-7.955674652476244546e+01,-8.193150169041462050e+01,3.959978418951197909e+01,1.875777551548142128e+02,2.693016386547014918e+01,1.528199301790140225e+02,4.196954472500721067e+01,5.611451917141721424e+00,9.446745872497558594e+00,-1.300361871719360352e+00,7.649187743663787842e-02,5.050000000000000000e+02
-7.937320947965019968e+01,-8.118126197811966449e+01,3.859780608756335596e+01,1.871676848507286195e+02,2.886554754030566983e+01,1.517364191743979518e+02,4.081326245126047070e+01,9.025598423375697621e+00,9.446745872497558594e+00,-1.300361871719360352e+00,7.649187743663787842e-02,5.060000000000000000e+02
-7.969649653649290144e+01,-8.163203934230085679e+01,3.730731221961400479e+01,1.867825947364262902e+02,2.996353299114434776e+01,1.512836374838461779e+02,3.849785007707271234e+01,1.250166522030917804e+01,9.446745872497558594e+00,-1.300361871719360352e+00,7.649187743663787842e-02,5.070000000000000000e+02
-8.030415303589455789e+01,-8.206778355685597148e+01,3.703619083951639368e+01,1.864553649159942097e+02,3.020368074088383992e+01,1.514983354937551212e+02,3.733186176479014762e+01,1.547338234671303780e+01,9.446745872497558594e+00,-1.300361871719360352e+00,7.649187743663787842e-02,5.080000000000000000e+02
-8.089948355465318741e+01,-8.118128992185317827e+01,3.811228960167781565e+01,1.860861489643001505e+02,3.011054821355202193e+01,1.520942964215099096e+02,3.853566259485310752e+01,1.766896515783133736e+01,9.446745872497558594e+00,-1.300361871719360352e+00,7.649187743663787842e-02,5.090000000000000000e+02
-8.119875251055930221e+01,-7.877473770601662295e+01,3.985509974050054893e+01,1.855327972485423800e+02,3.036299377986422598e+01,1.525410606377829481e+02,4.136632041304697083e+01,1.906762207294423206e+01,9.446745872497558594e+00,-1.300361871719360352e+00,7.649187743663787842e-02,5.100000000000000000e+02
-8.100012196685548815e+01,-7.598119527001173878e+01,4.140064477352332517e+01,1.847431438270861577e+02,3.136407717207011103e+01,1.523238346266189751e+02,4.395263705273111299e+01,1.980517665335912625e+01,9.446745872497558594e+00,-1.300361871719360352e+00,7.649187743663787842e-02,5.110000000000000000e+02
-8.024191014729075278e+01,-7.430022622085976991e+01,4.242272524668381095e+01,1.837989142148412043e+02,3.303735027714327543e+01,1.512348387003576136e+02,4.491113341750389054e+01,2.009263686908730051e+01,9.446745872497558594e+00,-1.300361871719360352e+00,7.649187743663787842e-02,5.120000000000000000e+02
-7.902058874044527670e+01,-7.431830379835042777e+01,4.309656587314930221e+01,1.828217130081073378e+02,3.488870974427669580e+01,1.495057334991901143e+02,4.426532027224584454e+01,2.013345449115848851e+01,9.446745872497558594e+00,-1.300361871719360352e+00,7.649187743663787842e-02,5.130000000000000000e+02
-7.753692668267063937e+01,-7.523898001523582479e+01,4.357115550168839491e+01,1.818474375831776797e+02,3.624003910335488854e+01,1.476912319925793327e+02,4.305453751689287856e+01,2.007347654319124786e+01,9.446745872497558594e+00,-1.300361871719360352e+00,7.649187743663787842e-02,5.140000000000000000e+02
-7.598167646320268886e+01,-7.557762232623622367e+01,4.370054413666224491e+01,1.808376192350575593e+02,3.655347180989076605e+01,1.463812230860562522e+02,4.229255138153752114e+01,2.005769318033082982e+01,9.446745872497558594e+00,-1.300361871719360352e+00,7.649187743663787842e-02,5.150000000000000000e+02
-7.444249404939614578e+01,-7.434663268361828159e+01,4.334475622763528690e+01,1.798665412467075839e+02,3.577429098417167097e+01,1.459330831952872813e+02,4.232427886889314550e+01,2.035981916261505376e+01,9.446745872497558594e+00,-1.300361871719360352e+00,7.649187743663787842e-02,5.160000000000000000e+02
-7.290345496686018123e+01,-7.173422723401006351e+01,4.279646845951720024e+01,1.792779868828956751e+02,3.449314289219444163e+01,1.463632337227345488e+02,4.296812269936049233e+01,2.138748154473842078e+01,9.446745872497558594e+00,-1.300361871719360352e+00,7.649187743663787842e-02,5.170000000000000000e+02
-7.132396334426255180e+01,-6.882049344634310728e+01,4.273333692437108766e+01,1.795316518895820082e+02,3.368271498739795788e+01,1.473736981849060612e+02,4.399901681885023663e+01,2.341146941881288512e+01,9.446745872497558594e+00,-1.300361871719360352e+00,7.649187743663787842e-02,5.180000000000000000e+02
-6.972254092843786566e+01,-6.672933247292712622e+01,4.366222221388738944e+01,1.807534797929895376e+02,3.403818415577961787e+01,1.484453263012496791e+02,4.534514895329004958e+01,2.617612307212721134e+01,9.446745872497558594e+00,-1.300361871719360352e+00,7.649187743663787842e-02,5.190000000000000000e+02
-6.819574644109286510e+01,-6.596880276160356971e+01,4.543347009152307692e+01,1.823909184252611340e+02,3.537048983262320689e+01,1.489930376334468747e+02,4.689556272946470017e+01,2.878522302117517029e+01,9.408499717712402344e+00,-1.300361871719360352e+00,1.147378161549568176e-01,5.200000000000000000e+02
-6.687242159502011418e+01,-6.636502524568754779e+01,4.735089062025781459e+01,1.834131631231048232e+02,3.662176375113381255e+01,1.486243835962422963e+02,4.829665728493841925e+01,3.011121187482103778e+01,9.408499717712402344e+00,-1.300361871719360352e+00,1.147378161549568176e-01,5.210000000000000000e+02
-6.583186880071025371e+01,-6.740647917359547137e+01,4.875913622572807071e+01,1.830262756577717482e+02,3.661554402550359555e+01,1.474272434244348915e+02,4.905012677111062658e+01,2.949551181708420700e+01,9.408499717712402344e+00,-1.300361871719360352e+00,1.147378161549568176e-01,5.220000000000000000e+02
-6.501310936006802876e+01,-6.856406230830202730e+01,4.950733510752866096e+01,1.813049142590916745e+02,3.496100325689076271e+01,1.460256736303172147e+02,4.881677764801133890e+01,2.717657360233579311e+01,9.408499717712402344e+00,-1.300361871719360352e+00,1.147378161549568176e-01,5.230000000000000000e+02
-6.417725778526528302e+01,-6.939187177515077565e+01,4.986583994107309081e+01,1.791322711354168860e+02,3.233369640518208143e+01,1.452121428676396135e+02,4.761019637980189145e+01,2.409331780325487671e+01,9.408499717712402344e+00,-1.300361871719360352e+00,1.147378161549568176e-01,5.240000000000000000e+02
-6.300194793469859178e+01,-6.954784126539880162e+01,5.008571210339277968e+01,1.774612199661887644e+02,2.990742544711838491e+01,1.453348506042434565e+02,4.575209504674944583e+01,2.128037824505008757e+01,9.408499717712402344e+00,-1.300361871719360352e+00,1.147378161549568176e-01,5.250000000000000000e+02
-6.132176632581217746e+01,-6.890733377416631811e+01,5.012496063145704284e+01,1.765743410910845341e+02,2.848819612768693332e+01,1.459525451636491198e+02,4.371889353059759742e+01,1.939572995432627067e+01,9.408499717712402344e+00,-1.300361871719360352e+00,1.147378161549568176e-01,5.260000000000000000e+02
-5.937711365221480264e+01,-6.769672482293231042e+01,4.980923085507379255e+01,1.760198529899694222e+02,2.812757785836947733e+01,1.461567412313197565e+02,4.204654756445484054e+01,1.869457052314146495e+01,9.408499717712402344e+00,-1.300361871719360352e+00,1.147378161549568176e-01,5.270000000000000000e+02
-5.783222338849077460e+01,-6.641135703923919209e+01,4.917324259893393901e+01,1.752021445893815326e+02,2.844424385962156521e+01,1.453544398808899132e+02,4.125707969070049330e+01,1.925605501767950045e+01,9.408499717712402344e+00,-1.300361871719360352e+00,1.147378161549568176e-01,5.280000000000000000e+02
-5.743122322039403116e+01,-6.548667023915004393e+01,4.854013948032275039e+01,1.739832654436140729e+02,2.918376005099253234e+01,1.438382913914902019e+02,4.164869617224917420e+01,2.107955322922680352e+01,9.408499717712402344e+00,-1.300361871719360352e+00,1.147378161549568176e-01,5.290000000000000000e+02
-5.846782719353541324e+01,-6.497738942830414999e+01,4.822138008765227823e+01,1.727232373399892822e+02,3.040431675434183489e+01,1.426076050391111494e+02,4.299811184788995888e+01,2.394771183170496442e+01,9.408499717712402344e+00,-1.300361871719360352e+00,1.147378161549568176e-01,5.300000000000000000e+02
-6.046693667757153889e+01,-6.455242684671793540e+01,4.816976269176939240e+01,1.718325701840785769e+02,3.217148114442079532e+01,1.425626263769863726e+02,4.449667404593128595e+01,2.733093839091816335e+01,9.408499717712402344e+00,-1.300361871719360352e+00,1.147378161549568176e-01,5.310000000000000000e+02
-6.237743128169859119e+01,-6.382641638931499983e+01,4.798753645038186733e+01,1.713885722215127316e+02,3.418355058861743601e+01,1.437596458077041461e+02,4.515815300210761052e+01,3.058118800311694940e+01,9.408499717712402344e+00,-1.300361871719360352e+00,1.147378161549568176e-01,5.320000000000000000e+02
-6.317558883315359708e+01,-6.267555857027446109e+01,4.732672003173229314e+01,1.711807552536511139e+02,3.577460303811130871e+01,1.453397631973775788e+02,4.451776140392030356e+01,3.328400666159132015e+01,9.408499717712402344e+00,-1.300361871719360352e+00,1.147378161549568176e-01,5.330000000000000000e+02
-6.242037877933489654e+01,-6.123517510977580969e+01,4.629574925828546839e+01,1.710367015083556907e+02,3.633574710756238346e+01,1.461698036884272369e+02,4.306907887004445001e+01,3.542194248499527021e+01,9.408499717712402344e+00,-1.300361871719360352e+00,1.147378161549568176e-01,5.340000000000000000e+02
-6.039795319519816985e+01,-5.966998734027811224e+01,4.544487240572880182e+01,1.709895319523093349e+02,3.578450347789566877e+01,1.456510048812006062e+02,4.197760821961446709e+01,3.719870953423878746e+01,9.408499717712402344e+00,-1.300361871719360352e+00,1.147378161549568176e-01,5.350000000000000000e+02
-5.785149058524393695e+01,-5.805392304630095168e+01,4.531574466389565714e+01,1.711358242397554932e+02,3.471591593530774844e+01,1.440870305285297945e+02,4.220614976334400126e+01,3.876628898859507899e+01,9.408499717712402344e+00,-1.300361871719360352e+00,1.147378161549568176e-01,5.360000000000000000e+02
-5.558022764648740122e+01,-5.653328205419347796e+01,4.596466385598068882e+01,1.714441890824946313e+02,3.413445987209888699e+01,1.424066769531418686e+02,4.374095756654833167e+01,4.018072350031707174e+01,9.408499717712402344e+00,-1.300361871719360352e+00,1.147378161549568176e-01,5.370000000000000000e+02
-5.417146308612063876e+01,-5.552999717632064858e+01,4.691241718399214733e+01,1.717834507953357388e+02,3.492137320707752224e+01,1.415024167557494366e+02,4.557571355452319040e+01,4.158467828730499605e+01,9.408499717712402344e+00,-1.300361871719360352e+00,1.147378161549568176e-01,5.380000000000000000e+02
-5.387224693725966063e+01,-5.558997342725660928e+01,4.756825810796863152e+01,1.721095542559469322e+02,3.732285779072208243e+01,1.416829272986278738e+02,4.646784247220512043e+01,4.330123118516712566e+01,9.408499717712402344e+00,-1.300361871719360352e+00,1.147378161549568176e-01,5.390000000000000000e+02
-5.449653754346081769e+01,-5.684906803926787688e+01,4.772634882169131743e+01,1.725217710987217288e+02,4.072756967122040805e+01,1.425910696114824532e+02,4.582921792029037533e+01,4.560486814712021442e+01,9.408499717712402344e+00,-1.300361871719360352e+00,1.147378161549568176e-01,5.400000000000000000e+02
-5.541300171989996670e+01,-5.861765708092434579e+01,4.766915953829266073e+01,1.730785818529839162e+02,4.389428097474319657e+01,1.435793684849468264e+02,4.403374740775052487e+01,4.834452779583989468e+01,9.408499717712402344e+00,-1.338607788085937500e+00,1.147378161549568176e-01,5.410000000000000000e+02
-5.578342296264327160e+01,-5.962938632594614319e+01,4.779440374994010199e+01,1.736072230503032188e+02,4.557274117450469930e+01,1.442078382717263594e+02,4.197490942471267772e+01,5.083819539252999675e+01,9.408499717712402344e+00,-1.338607788085937500e+00,1.147378161549568176e-01,5.420000000000000000e+02
-5.507198212056709963e+01,-5.892492816812955425e+01,4.815141977409530227e+01,1.737849145633017542e+02,4.518454144283805363e+01,1.444615905633108923e+02,4.036115013827384246e+01,5.223176779523237201e+01,9.408499717712402344e+00,-1.338607788085937500e+00,1.147378161549568176e-01,5.430000000000000000e+02
-5.349530989940285508e+01,-5.667685671407207337e+01,4.835301137721535270e+01,1.734540761033895251e+02,4.314265998000973923e+01,1.445617948187646107e+02,3.936262976478974451e+01,5.207498880915045447e+01,9.408499717712402344e+00,-1.338607788085937500e+00,1.147378161549568176e-01,5.440000000000000000e+02
-5.195978066064799350e+01,-5.419273888885390988e+01,4.795747930126526626e+01,1.728204305069448310e+02,4.059350921872282925e+01,1.446126997435840167e+02,3.879569381036708364e+01,5.066325083088486281e+01,9.408499717712402344e+00,-1.338607788085937500e+00,1.147378161549568176e-01,5.450000000000000000e+02
-5.140173662009783584e+01,-5.299066685637444607e+01,4.695339817877447786e+01,1.722691620000787225e+02,3.875742288212131825e+01,1.444688988106991019e+02,3.850289234530555404e+01,4.889862509217437037e+01,9.408499717712402344e+00,-1.338607788085937500e+00,1.147378161549568176e-01,5.460000000000000000e+02
-5.201625843947113026e+01,-5.365636232071756240e+01,4.586368599060460838e+01,1.719567665777049115e+02,3.828908967281495279e+01,1.439409741175513773e+02,3.848035837243151036e+01,4.778440456603220809e+01,9.408499717712402344e+00,-1.338607788085937500e+00,1.147378161549568176e-01,5.470000000000000000e+02
-5.306214415487283986e+01,-5.540631288549775491e+01,4.534629420190594828e+01,1.716045884704162745e+02,3.900141938439264777e+01,1.430608295559723047e+02,3.868133749806565902e+01,4.786890632664471923e+01,9.408499717712402344e+00,-1.338607788085937500e+00,1.147378161549568176e-01,5.480000000000000000e+02
-5.345575428704796650e+01,-5.671813587364886189e+01,4.565341682488724473e+01,1.707424315110529278e+02,4.005539851600769907e+01,1.420725499051986844e+02,3.882871708460970694e+01,4.894498006411231472e+01,9.408499717712402344e+00,-1.338607788085937500e+00,1.147378161549568176e-01,5.490000000000000000e+02
-5.264406685012181697e+01,-5.650817011966319114e+01,4.642536944306357327e+01,1.691730836502392776e+02,4.046051897096094763e+01,1.411450888264389505e+02,3.852889030793539860e+01,5.015907270985280775e+01,9.408499717712402344e+00,-1.338607788085937500e+00,1.147378161549568176e-01,5.500000000000000000e+02
-5.099568549634113879e+01,-5.492137088045001292e+01,4.696682743080054934e+01,1.671801926010484749e+02,3.960926252852095786e+01,1.401634657483446063e+02,3.760022058739650674e+01,5.050113300753855583e+01,9.408499717712402344e+00,-1.338607788085937500e+00,1.147378161549568176e-01,5.510000000000000000e+02
-4.939862778433780477e+01,-5.313507614087666298e+01,4.674099901474255603e+01,1.652592545072566281e+02,3.759418466359056765e+01,1.388940925860733842e+02,3.626140520174249104e+01,4.944408451211984357e+01,9.408499717712402344e+00,-1.338607788085937500e+00,1.147378161549568176e-01,5.520000000000000000e+02
-4.849073154533380148e+01,-5.237431864969767048e+01,4.567825555555918982e+01,1.636472216312868113e+02,3.513326175758083991e+01,1.373585744689735293e+02,3.496562630968310259e+01,4.732992905111950677e+01,9.408499717712402344e+00,-1.338607788085937500e+00,1.147378161549568176e-01,5.530000000000000000e+02
-4.824141753237836383e+01,-5.294991814848253853e+01,4.413060508569014928e+01,1.621734799276928243e+02,3.314941617545264307e+01,1.359893888134556619e+02,3.406277511358985066e+01,4.520705179227843473e+01,9.408499717712402344e+00,-1.338607788085937500e+00,1.147378161549568176e-01,5.540000000000000000e+02
-4.820154390453444648e+01,-5.406744255150988465e+01,4.262382698669171077e+01,1.606302744281110790e+02,3.229133266691133031e+01,1.353463811984729546e+02,3.364960714474000270e+01,4.419585651457600761e+01,9.408499717712402344e+00,-1.338607788085937500e+00,1.147378161549568176e-01,5.550000000000000000e+02
-4.807975641518896737e+01,-5.452073173226017389e+01,4.164059275648924086e+01,1.592858069887497550e+02,3.273081973145963275e+01,1.356624747575478978e+02,3.372109408471987990e+01,4.484428934715288051e+01,9.408499717712402344e+00,-1.338607788085937500e+00,1.147378161549568176e-01,5.560000000000000000e+02
-4.802581510254276509e+01,-5.367973121814065962e+01,4.151804417453149654e+01,1.589256626512778894e+02,3.432183367378820549e+01,1.366882819994716556e+02,3.435643687183983275e+01,4.694757455073340680e+01,9.408499717712402344e+00,-1.338607788085937500e+00,1.147378161549568176e-01,5.570000000000000000e+02
-4.836275770703377930e+01,-5.196213809935397876e+01,4.238250232231894188e+01,1.602138369475560467e+02,3.685716942185717926e+01,1.379590790838246903e+02,3.564200344619257521e+01,4.988249619216367137e+01,9.408499717712402344e+00,-1.338607788085937500e+00,1.147378161549568176e-01,5.580000000000000000e+02
-4.908777127060329803e+01,-5.042971890817807434e+01,4.406885336439245293e+01,1.629109127350766357e+02,4.011338118616004067e+01,1.391726698981910886e+02,3.739207940104006411e+01,5.305772827055443486e+01,9.408499717712402344e+00,-1.338607788085937500e+00,1.147378161549568176e-01,5.590000000000000000e+02
-4.967143709410174779e+01,-4.987874578909213596e+01,4.612230306454330275e+01,1.657692642572037585e+02,4.369052448304682912e+01,1.403109585800484638e+02,3.905553324233642343e+01,5.608293549975314818e+01,9.408499717712402344e+00,-1.338607788085937500e+00,1.147378161549568176e-01,5.600000000000000000e+02
-4.936242700900038471e+01,-5.018650607684412535e+01,4.799582928268137039e+01,1.673702970889989956e+02,4.698050315409454925e+01,1.414833137926289055e+02,4.006210014049611345e+01,5.866547044915932929e+01,9.408499717712402344e+00,-1.338607788085937500e+00,1.147378161549568176e-01,5.610000000000000000e+02
-4.773049223074758629e+01,-5.044284418169445416e+01,4.935404638133513799e+01,1.672574270423810958e+02,4.948217456931342895e+01,1.427559272049693391e+02,4.034929429898966191e+01,6.055375843438014272e+01,9.408499717712402344e+00,-1.338607788085937500e+00,1.147378161549568176e-01,5.620000000000000000e+02
-4.499168027544419601e+01,-4.971436884969352832e+01,5.022556528442873969e+01,1.663190865432588907e+02,5.119708678607094043e+01,1.441279668103852600e+02,4.048244266966958094e+01,6.169744464530231198e+01,9.408499717712402344e+00,-1.338607788085937500e+00,1.147378161549568176e-01,5.630000000000000000e+02
-4.189392001562100631e+01,-4.779991444452662108e+01,5.083770456112051761e+01,1.660047786708910280e+02,5.262465852157583868e+01,1.455549628595508693e+02,4.110443828440384095e+01,6.241851021917682374e+01,9.408499717712402344e+00,-1.338607788085937500e+00,1.147378161549568176e-01,5.640000000000000000e+02
-3.929104348706368910e+01,-4.536268265528633492e+01,5.129191209888358571e+01,1.670684236111446808e+02,5.423241373216114880e+01,1.468870103467852459e+02,4.218573605730125564e+01,6.328474018589440675e+01,9.408499717712402344e+00,-1.338607788085937500e+00,1.147378161549568176e-01,5.650000000000000000e+02
-3.771739169645843504e+01,-4.337839628523215652e+01,5.143640502621929045e+01,1.689961926689175016e+02,5.587854308019086602e+01,1.477965392209225683e+02,4.286598827501802589e+01,6.468804492789786309e+01,9.446745872497558594e+00,-1.223870038986206055e+00,7.649187743663787842e-02,5.660000000000000000e+02
-3.719293643550008710e+01,-4.241009697068147943e+01,5.110355697580234846e+01,1.706068143578886520e+02,5.683758968315305538e+01,1.479147076526205637e+02,4.218876414268379449e+01,6.652881689515379549e+01,9.446745872497558594e+00,-1.223870038986206055e+00,7.649187743663787842e-02,5.670000000000000000e+02
-3.729950552859008894e+01,-4.231571606080706260e+01,5.046509518922175630e+01,1.711628321892385429e+02,5.649167616362319677e+01,1.471676831869808666e+02,4.010767916848089953e+01,6.835710796786952415e+01,9.446745872497558594e+00,-1.223870038986206055e+00,7.649187743663787842e-02,5.680000000000000000e+02
-3.743213006275436783e+01,-4.257899229212489445e+01,5.007731896386940207e+01,1.708860567579686176e+02,5.504209283077398140e+01,1.459970577763560868e+02,3.776370995953584497e+01,6.985687388699079747e+01,9.446745872497558594e+00,-1.223870038986206055e+00,7.649187743663787842e-02,5.690000000000000000e+02
-3.709649649122911796e+01,-4.289542353349861514e+01,5.047030994252600067e+01,1.704616178901524108e+02,5.349867373744928045e+01,1.451497772677794273e+02,3.664814916517752863e+01,7.117192546181831858e+01,9.446745872497558594e+00,-1.223870038986206055e+00,7.649187743663787842e-02,5.700000000000000000e+02
-3.613337729678642063e+01,-4.344141665487768478e+01,5.164660813124646666e+01,1.701859930265964067e+02,5.289863007657186245e+01,1.451397873652240378e+02,3.734568622904225776e+01,7.272019599480881880e+01,9.446745872497558594e+00,-1.223870038986206055e+00,7.649187743663787842e-02,5.710000000000000000e+02
-3.476664873797017208e+01,-4.457638496814979590e+01,5.301493535349800368e+01,1.697039123804825067e+02,5.348372416653000982e+01,1.458626381165377097e+02,3.901689696711400757e+01,7.468306917435984360e+01,9.446745872497558594e+00,-1.223870038986206055e+00,7.649187743663787842e-02,5.720000000000000000e+02
-3.345402720764650439e+01,-4.627899068322585663e+01,5.387866015206782322e+01,1.685358096004820254e+02,5.460346655426656071e+01,1.467155226546747144e+02,4.012302321602692246e+01,7.670557802907751466e+01,9.446745872497558594e+00,-1.223870038986206055e+00,7.649187743663787842e-02,5.730000000000000000e+02
-3.265320600003724394e+01,-4.791053407940307807e+01,5.402700586864375509e+01,1.667222265076998156e+02,5.540341839820575842e+01,1.470977316658463678e+02,3.972405362846075150e+01,7.813180764022399671e+01,9.446745872497558594e+00,-1.223870038986206055e+00,7.649187743663787842e-02,5.740000000000000000e+02
-3.264497559159644879e+01,-4.861315512113105797e+01,5.385236895171510696e+01,1.648346511924464721e+02,5.561249789092471474e+01,1.468137073730758857e+02,3.816030983602831839e+01,7.855396352354000555e+01,9.446745872497558594e+00,-1.223870038986206055e+00,7.649187743663787842e-02,5.750000000000000000e+02
-3.349029735855037870e+01,-4.803765883863525232e+01,5.389153825977882661e+01,1.633923212276931736e+02,5.570382338554554735e+01,1.460592667147793691e+02,3.655576704080340278e+01,7.814778651104825258e+01,9.446745872497558594e+00,-1.223870038986206055e+00,7.649187743663787842e-02,5.760000000000000000e+02
-3.506936745033090119e+01,-4.672193186305412382e+01,5.425941766192772775e+01,1.624030247445989517e+02,5.633577654076725594e+01,1.451170264937427419e+02,3.571954252828436438e+01,7.750115613784873858e+01,9.446745872497558594e+00,-1.223870038986206055e+00,7.649187743663787842e-02,5.770000000000000000e+02
-3.709870733665229636e+01,-4.569194327640252595e+01,5.454107558124269417e+01,1.615518347251309024e+02,5.762888750644196989e+01,1.441122638522319903e+02,3.552323153470570105e+01,7.711957430715301598e+01,9.446745872497558594e+00,-1.223870038986206055e+00,7.649187743663787842e-02,5.780000000000000000e+02
-3.911106432262022281e+01,-4.556282689222825866e+01,5.420947458681985154e+01,1.607890629435314622e+02,5.893210330430156318e+01,1.430342391640078858e+02,3.525177502750375425e+01,7.706388555488774728e+01,9.446745872497558594e+00,-1.223870038986206055e+00,7.649187743663787842e-02,5.790000000000000000e+02
-4.050189622043217241e+01,-4.592160747513298702e+01,5.311779811677843099e+01,1.605991602802387206e+02,5.924278480498105637e+01,1.419100372090033488e+02,3.445062104791577440e+01,7.700672395716537721e+01,9.446745872497558594e+00,-1.223870038986206055e+00,7.649187743663787842e-02,5.800000000000000000e+02
-4.072897681071117404e+01,-4.559922201886911353e+01,5.160442320010042749e+01,1.615965030615698197e+02,5.791140565890964353e+01,1.409027170864355867e+02,3.338958651079519768e+01,7.660515730870247353e+01,9.446745872497558594e+00,-1.223870038986206055e+00,7.649187743663787842e-02,5.810000000000000000e+02
-3.960483455992471136e+01,-4.366984498114288726e+01,5.020000243455069722e+01,1.638589872803677281e+02,5.511669575310952496e+01,1.402389652445563115e+02,3.275431491657036531e+01,7.584668562881415710e+01,9.446745872497558594e+00,-1.223870038986206055e+00,7.649187743663787842e-02,5.820000000000000000e+02
-3.748905079293217568e+01,-4.035038900937070139e+01,4.929664051423605997e+01,1.667088527683663415e+02,5.182589342496066820e+01,1.400542328902592999e+02,3.298810664350639854e+01,7.511306923728261609e+01,9.446745872497558594e+00,-1.223870038986206055e+00,7.649187743663787842e-02,5.830000000000000000e+02
-3.522521642364881700e+01,-3.703495443159590650e+01,4.904105871990577725e+01,1.691769202480572858e+02,4.932578780153926346e+01,1.402990950758139661e+02,3.395359673500388453e+01,7.495835564882509061e+01,9.446745872497558594e+00,-1.223870038986206055e+00,7.649187743663787842e-02,5.840000000000000000e+02
-3.379080550314210996e+01,-3.537887596301879967e+01,4.939743317947068135e+01,1.707019787058088696e+02,4.862175693011522526e+01,1.407758967192858108e+02,3.516613937330112094e+01,7.580244450865211547e+01,9.446745872497558594e+00,-1.223870038986206055e+00,7.649187743663787842e-02,5.850000000000000000e+02
-3.380396212407140411e+01,-3.610668005543629988e+01,5.020153293418115936e+01,1.714338304110460740e+02,5.001003576715447707e+01,1.412759989541482355e+02,3.627614227589583606e+01,7.774590782927043620e+01,9.446745872497558594e+00,-1.223870038986206055e+00,7.649187743663787842e-02,5.860000000000000000e+02
-3.513665290365679539e+01,-3.843702895001842990e+01,5.118418432282851427e+01,1.719363920011310256e+02,5.299823506931352313e+01,1.417183602604418411e+02,3.731504566812509438e+01,8.057334096706472337e+01,9.446745872497558594e+00,-1.223870038986206055e+00,7.649187743663787842e-02,5.870000000000000000e+02
-3.686570129331084900e+01,-4.052909652108792216e+01,5.212145644076554163e+01,1.726641041044422309e+02,5.658617332019639434e+01,1.421943693909925059e+02,3.854455678897647886e+01,8.391054603114025667e+01,9.446745872497558594e+00,-1.223870038986206055e+00,7.649187743663787842e-02,5.880000000000000000e+02
-3.768564954245266563e+01,-4.063978232728004514e+01,5.309891721467101888e+01,1.737299053116621508e+02,5.979120819318268332e+01,1.428791385611984879e+02,4.011784816190083802e+01,8.743910298254195368e+01,9.446745872497558594e+00,-1.223870038986206055e+00,7.649187743663787842e-02,5.890000000000000000e+02
-3.665512945737646078e+01,-3.822624185281711107e+01,5.459178205529133265e+01,1.750922193910337228e+02,6.216059527097604587e+01,1.438543985380601953e+02,4.186439129344034882e+01,9.104589485647738911e+01,9.446745872497558594e+00,-1.223870038986206055e+00,7.649187743663787842e-02,5.900000000000000000e+02
-3.383845667350215081e+01,-3.427313119317113888e+01,5.711313241801326512e+01,1.768434201533273153e+02,6.396175490542373154e+01,1.449848622978461208e+02,4.335181586391991004e+01,9.480667829993399209e+01,9.446745872497558594e+00,-1.223870038986206055e+00,7.649187743663787842e-02,5.910000000000000000e+02
-3.033113924657845928e+01,-3.062809922739506874e+01,6.064290976304982905e+01,1.792188196215829521e+02,6.587512742595572490e+01,1.459582113510186900e+02,4.417511609237590164e+01,9.878360034859360894e+01,9.446745872497558594e+00,-1.223870038986206055e+00,7.649187743663787842e-02,5.920000000000000000e+02
-2.752933030404528836e+01,-2.878536437577349716e+01,6.441691955513852008e+01,1.822772919709568669e+02,6.834680337962345220e+01,1.464569106647613808e+02,4.427955965839282726e+01,1.027599652029784920e+02,9.523238182067871094e+00,-1.338607788085937500e+00,1.529837548732757568e-01,5.930000000000000000e+02
-2.614762040099776641e+01,-2.898160094315608148e+01,6.737718705291081278e+01,1.855973213521938305e+02,7.108420899790144176e+01,1.463313681909858133e+02,4.405284749133534206e+01,1.061416589921755076e+02,9.523238182067871094e+00,-1.338607788085937500e+00,1.529837548732757568e-01,5.940000000000000000e+02
-2.580944360819557915e+01,-3.027614603673282545e+01,6.889428647411295970e+01,1.883608902322084759e+02,7.313802744506756426e+01,1.456495521279066452e+02,4.401879128894870519e+01,1.081851641223038314e+02,9.523238182067871094e+00,-1.338607788085937500e+00,1.529837548732757568e-01,5.950000000000000000e+02
-2.561121368934982456e+01,-3.151789245217514690e+01,6.904808488094568020e+01,1.898436108140085707e+02,7.357766116820857860e+01,1.446259661676012911e+02,4.426881616940590902e+01,1.084699949780115276e+02,9.523238182067871094e+00,-1.338607788085937500e+00,1.529837548732757568e-01,5.960000000000000000e+02
-2.515504505245189648e+01,-3.234330579367815517e+01,6.820555353573581669e+01,1.899101868592842948e+02,7.222591210269092699e+01,1.435125620826438535e+02,4.412123457198322285e+01,1.072753516847042192e+02,9.523238182067871094e+00,-1.338607788085937500e+00,1.529837548732757568e-01,5.970000000000000000e+02
-2.502834414447715972e+01,-3.328415923222019046e+01,6.644136434838219429e+01,1.890634692884486867e+02,6.980278932411602000e+01,1.424996236721126479e+02,4.249644676548632560e+01,1.055331424161995528e+02,9.523238182067871094e+00,-1.338607788085937500e+00,1.529837548732757568e-01,5.980000000000000000e+02
-2.618808357978923596e+01,-3.490018238400443806e+01,6.354111465413370752e+01,1.880018825993320206e+02,6.735152743671278586e+01,1.416431892635009717e+02,3.890449396613257704e+01,1.043323073073333944e+02,9.523238182067871094e+00,-1.338607788085937500e+00,1.529837548732757568e-01,5.990000000000000000e+02
-2.879818912524569896e+01,-3.683526327685467550e+01,5.965927533014109940e+01,1.870974145740910899e+02,6.547554174872129806e+01,1.408433484981942456e+02,3.425958052218993544e+01,1.043082927765244676e+02,9.523238182067871094e+00,-1.338607788085937500e+00,1.529837548732757568e-01,6.000000000000000000e+02
-3.169766193838586332e+01,-3.784941692637039523e+01,5.586278439695888665e+01,1.862664239141304279e+02,6.408928377952906885e+01,1.399186917750412249e+02,3.066099138077333919e+01,1.053539502090716269e+02,9.523238182067871094e+00,-1.338607788085937500e+00,1.529837548732757568e-01,6.010000000000000000e+02
-3.313640148502599914e+01,-3.692158505496627185e+01,5.378633163445556420e+01,1.852938404670931050e+02,6.286416935499437386e+01,1.387586626792181050e+02,3.009443208509401302e+01,1.068348354257905157e+02,9.523238182067871094e+00,-1.338607788085937500e+00,1.529837548732757568e-01,6.020000000000000000e+02
-3.216970162164216163e+01,-3.435790156402799767e+01,5.454043793751407065e+01,1.842088655900370213e+02,6.185331647747807438e+01,1.374297852242525551e+02,3.304973318254633341e+01,1.081076307725452352e+02,9.523238182067871094e+00,-1.338607788085937500e+00,1.529837548732757568e-01,6.030000000000000000e+02
-2.942085676236456493e+01,-3.172404185808409238e+01,5.784959077232997515e+01,1.833107658204098698e+02,6.164403486016453826e+01,1.361260938487394014e+02,3.822858988791995216e+01,1.089557374076794076e+02,9.523238182067871094e+00,-1.338607788085937500e+00,1.529837548732757568e-01,6.040000000000000000e+02
-2.652280027423330466e+01,-3.055326228179183090e+01,6.223513327054388355e+01,1.828657642337493598e+02,6.288402643377776258e+01,1.350018232940856251e+02,4.355923835012072232e+01,1.096733896461737459e+02,9.523238182067871094e+00,-1.338607788085937500e+00,1.529837548732757568e-01,6.050000000000000000e+02
-2.480429564232690609e+01,-3.104977039306322695e+01,6.605501589668347151e+01,1.828785260302975075e+02,6.566548227725434117e+01,1.340837014806747902e+02,4.755839549486699980e+01,1.108105584189870569e+02,9.523238182067871094e+00,-1.338607788085937500e+00,1.529837548732757568e-01,6.060000000000000000e+02
-2.444844506789013394e+01,-3.206526996562024578e+01,6.842296406312743784e+01,1.832076365938773961e+02,6.934265849558141781e+01,1.333677955494349590e+02,4.987140230133809382e+01,1.127689444111238117e+02,9.523238182067871094e+00,-1.338607788085937500e+00,1.529837548732757568e-01,6.070000000000000000e+02
-2.477883729814129765e+01,-3.236473432254570071e+01,6.928069388873336720e+01,1.838289361271963571e+02,7.288514945159113267e+01,1.329615436733001843e+02,5.075966132182657020e+01,1.154729406754449883e+02,9.523238182067871094e+00,-1.338607788085937500e+00,1.529837548732757568e-01,6.080000000000000000e+02
-2.516031087658120668e+01,-3.189673927316107438e+01,6.885723977806992480e+01,1.848439471142337425e+02,7.542719797396784998e+01,1.330606722285228898e+02,5.036474336689934717e+01,1.183120681280088320e+02,9.523238182067871094e+00,-1.338607788085937500e+00,1.529837548732757568e-01,6.090000000000000000e+02
-2.549446693058052915e+01,-3.178087560620770091e+01,6.730613285610888852e+01,1.861494950081323623e+02,7.662551739786067628e+01,1.337281961936823791e+02,4.864597436998883495e+01,1.204258242817559221e+02,9.523238182067871094e+00,-1.338607788085937500e+00,1.529837548732757568e-01,6.100000000000000000e+02
-2.590937830584880430e+01,-3.305242879550496582e+01,6.491630329701729352e+01,1.871790131841771654e+02,7.674189087966442457e+01,1.347269403743630392e+02,4.596127070567308692e+01,1.212191991871113714e+02,9.523238182067871094e+00,-1.338607788085937500e+00,1.529837548732757568e-01,6.110000000000000000e+02
-2.621520511023118161e+01,-3.548147856268406031e+01,6.247336494903720450e+01,1.871516445830202429e+02,7.653446239530967432e+01,1.356323266381659778e+02,4.342854590293427464e+01,1.207836361815607233e+02,9.523238182067871094e+00,-1.338607788085937500e+00,1.529837548732757568e-01,6.120000000000000000e+02
-2.591676824021851644e+01,-3.767132109262820450e+01,6.109971584123195498e+01,1.857371354164424702e+02,7.697696689289296046e+01,1.361514718065445777e+02,4.243846688008488854e+01,1.198734602275217185e+02,9.523238182067871094e+00,-1.338607788085937500e+00,1.529837548732757568e-01,6.130000000000000000e+02
-2.484407389831176260e+01,-3.831529409777067485e+01,6.148483941782978945e+01,1.835249758331046905e+02,7.878550955814716872e+01,1.363331543863168918e+02,4.368225025832362007e+01,1.193787083903152961e+02,9.523238182067871094e+00,-1.338607788085937500e+00,1.529837548732757568e-01,6.140000000000000000e+02
-2.364301779936067760e+01,-3.734128766636058572e+01,6.319139236187402275e+01,1.817686652439660975e+02,8.191247557308088290e+01,1.364509993118990678e+02,4.666277245301898802e+01,1.196691084281301301e+02,9.523238182067871094e+00,-1.338607788085937500e+00,1.529837548732757568e-01,6.150000000000000000e+02
-2.341716222569084493e+01,-3.583912846654129680e+01,6.478575067404017318e+01,1.815436768610670697e+02,8.539357906276563881e+01,1.366924936578216148e+02,5.018044900628956384e+01,1.203308690545600257e+02,9.523238182067871094e+00,-1.338607788085937500e+00,1.529837548732757568e-01,6.160000000000000000e+02
-2.470980896707260399e+01,-3.490577817364101065e+01,6.480140660211691284e+01,1.830240254785021534e+02,8.781124965220078593e+01,1.369871065048209857e+02,5.327895961166359484e+01,1.204964508635166567e+02,9.523238182067871094e+00,-1.338607788085937500e+00,1.529837548732757568e-01,6.170000000000000000e+02
-2.679685311061984976e+01,-3.460375631439819699e+01,6.275877130481967470e+01,1.854639826779093710e+02,8.813106670637353091e+01,1.371198646388656925e+02,5.571154853149346309e+01,1.194462376157462131e+02,9.523238182067871094e+00,-1.338607788085937500e+00,1.529837548732757568e-01,6.180000000000000000e+02
