F3,F4,C3,C4,P3,P4,Cz,Pz,Accel_x,Accel_y,Accel_z,Sample
-3.637978807091712952e-11,-3.547029336914420128e-11,-2.364686224609613419e-11,-4.001776687800884247e-11,-3.365130396559834480e-11,-7.275957614183425903e-11,-4.001776687800884247e-11,-1.818989403545856476e-11,9.484992027282714844e+00,-7.649186849594116211e-01,-1.376853704452514648e+00,2.260000000000000000e+02
-6.966319802705584152e+00,-5.039773887876435765e+00,-1.786387708149050013e+00,-6.752225150294179912e-01,-8.791208374116649793e+00,-8.491009415345615707e+00,8.765007821966719348e-01,1.438544282555085374e+00,9.484992027282714844e+00,-7.649186849594116211e-01,-1.376853704452514648e+00,2.270000000000000000e+02
-1.235037357447345130e+01,-1.079081337881416403e+01,-1.379514691247095470e+00,-2.746414704972266918e+00,-1.783543153587015695e+01,-1.822638170857953810e+01,1.163574742947275809e+00,1.723057504515963956e+00,9.484992027282714844e+00,-7.649186849594116211e-01,-1.376853704452514648e+00,2.280000000000000000e+02
-1.589574304974121333e+01,-1.760703241785449791e+01,1.455037999691739969e+00,-6.660385184656661295e+00,-2.703335441078525037e+01,-2.923930340162678476e+01,4.328823432997523923e-01,3.878732062121343915e-01,9.408499717712402344e+00,-7.649186849594116211e-01,-1.338607788085937500e+00,2.290000000000000000e+02
-1.878780160938640620e+01,-2.533387909533666971e+01,4.839558108453275054e+00,-1.171668818097168696e+01,-3.595520531880538329e+01,-4.036071174002972839e+01,-1.361859114625985967e+00,-2.026851576443732483e+00,9.408499717712402344e+00,-7.649186849594116211e-01,-1.338607788085937500e+00,2.300000000000000000e+02
-2.251797791643457458e+01,-3.341019662808685098e+01,6.511214497265427781e+00,-1.670865464659891586e+01,-4.421208751464655506e+01,-5.038246433921631251e+01,-3.771737907878559781e+00,-4.252443652652800665e+00,9.408499717712402344e+00,-7.649186849594116211e-01,-1.338607788085937500e+00,2.310000000000000000e+02
-2.763413458783088572e+01,-4.111832463458540587e+01,5.735121655120565265e+00,-2.081783310408263787e+01,-5.181924660750792100e+01,-5.916889967266070016e+01,-6.111958921484074381e+00,-5.087797358696661831e+00,9.408499717712402344e+00,-7.649186849594116211e-01,-1.338607788085937500e+00,2.320000000000000000e+02
-3.353540346253612370e+01,-4.786195115247301146e+01,3.681731555913756893e+00,-2.405714431640717521e+01,-5.920485827964785130e+01,-6.764811856260075729e+01,-8.004824058642952878e+00,-4.240608212347069639e+00,9.408499717712402344e+00,-7.649186849594116211e-01,-1.338607788085937500e+00,2.330000000000000000e+02
-3.937868091430027562e+01,-5.341618163393832219e+01,2.141893217148208350e+00,-2.704948964054710814e+01,-6.688514325518463011e+01,-7.683555948871162400e+01,-9.707476777929514355e+00,-2.598015574148121232e+00,9.408499717712402344e+00,-7.649186849594116211e-01,-1.338607788085937500e+00,2.340000000000000000e+02
-4.504304219166260737e+01,-5.809379926874680677e+01,2.006127749286861217e+00,-3.046595387244997255e+01,-7.510409929518027639e+01,-8.695943770613666857e+01,-1.179062170982342650e+01,-1.625587660342716845e+00,9.408499717712402344e+00,-7.649186849594116211e-01,-1.338607788085937500e+00,2.350000000000000000e+02
-5.111143995083511982e+01,-6.269726170489502692e+01,2.942785822194309731e+00,-3.458434193070024776e+01,-8.368988473691752006e+01,-9.746924220900109503e+01,-1.436660552277771785e+01,-2.251592430488926766e+00,9.408499717712402344e+00,-7.649186849594116211e-01,-1.338607788085937500e+00,2.360000000000000000e+02
-5.791584060298191616e+01,-6.814953142106696760e+01,4.313723986902914476e+00,-3.920733050330181868e+01,-9.217809119636513060e+01,-1.077130147609505002e+02,-1.664550458555459045e+01,-4.085711671292301617e+00,9.408499717712402344e+00,-7.649186849594116211e-01,-1.338607788085937500e+00,2.370000000000000000e+02
-6.469124757217468868e+01,-7.491750006283655239e+01,6.127506656879631919e+00,-4.386419780734377127e+01,-1.000682193523161914e+02,-1.174804184665072171e+02,-1.739670242925058119e+01,-5.659943991580803413e+00,9.408499717712402344e+00,-7.649186849594116211e-01,-1.338607788085937500e+00,2.380000000000000000e+02
-6.982581304882205586e+01,-8.260543362209136831e+01,8.978528249012924789e+00,-4.809727574867793010e+01,-1.070638720635279242e+02,-1.269580821440731597e+02,-1.602690051297668106e+01,-5.577643794927098497e+00,9.408499717712402344e+00,-7.649186849594116211e-01,-1.338607788085937500e+00,2.390000000000000000e+02
-7.211056310416461201e+01,-9.011362764097611944e+01,1.312903391439795087e+01,-5.168014533410041622e+01,-1.131886926109245906e+02,-1.363563919452953996e+02,-1.329365291377325775e+01,-3.648728268079139525e+00,9.408499717712402344e+00,-7.649186849594116211e-01,-1.338607788085937500e+00,2.400000000000000000e+02
-7.188775099097620114e+01,-9.636635545619901677e+01,1.782345870559129253e+01,-5.469337823782643682e+01,-1.187257166277222495e+02,-1.457073749144383328e+02,-1.091135925598337053e+01,-1.043342253331502434e+00,9.408499717712402344e+00,-7.649186849594116211e-01,-1.338607788085937500e+00,2.410000000000000000e+02
-7.102538682008162141e+01,-1.010782389936930485e+02,2.161392623160736548e+01,-5.744970681924860401e+01,-1.240432903059381715e+02,-1.549761414274007620e+02,-1.033897522626193677e+01,6.592769515737018082e-01,9.408499717712402344e+00,-7.649186849594116211e-01,-1.338607788085937500e+00,2.420000000000000000e+02
-7.169175848305712861e+01,-1.048909498815246479e+02,2.336266878068818187e+01,-6.031570489034038474e+01,-1.294535959286731668e+02,-1.642019724069823496e+02,-1.182048303380543075e+01,6.618641812428904814e-01,9.408499717712402344e+00,-7.649186849594116211e-01,-1.338607788085937500e+00,2.430000000000000000e+02
-7.495576014894322725e+01,-1.087003948956671593e+02,2.289354419958726794e+01,-6.353017259035368625e+01,-1.352192949075197248e+02,-1.734360957053322636e+02,-1.448834660825013998e+01,-6.776476369313968462e-01,9.408499717712402344e+00,-7.649186849594116211e-01,-1.338607788085937500e+00,2.440000000000000000e+02
-8.034055826036819781e+01,-1.127441701648631351e+02,2.070122436373003438e+01,-6.711424759118835937e+01,-1.416645185034949463e+02,-1.825854389444475601e+02,-1.733794035692062607e+01,-2.574794274719351961e+00,9.408499717712402344e+00,-7.649186849594116211e-01,-1.338607788085937500e+00,2.450000000000000000e+02
-8.658169501074917207e+01,-1.163109727565924914e+02,1.716782432600302855e+01,-7.087417258133700670e+01,-1.491699253528777263e+02,-1.914060563588509467e+02,-2.007943468533176201e+01,-4.825717659702604578e+00,9.408499717712402344e+00,-7.649186849594116211e-01,-1.338607788085937500e+00,2.460000000000000000e+02
-9.279712685725553456e+01,-1.184346674620055637e+02,1.224855383204339887e+01,-7.445103039160039771e+01,-1.579211552241877143e+02,-1.996980182279530709e+02,-2.308708682416818192e+01,-7.993730543394121923e+00,9.408499717712402344e+00,-7.649186849594116211e-01,-1.338607788085937500e+00,2.470000000000000000e+02
-9.900714946894004242e+01,-1.190114101052740807e+02,6.039436317564650381e+00,-7.740115662400239671e+01,-1.675678712459639428e+02,-2.074746190205451057e+02,-2.659998753962645424e+01,-1.252811699395078904e+01,9.408499717712402344e+00,-7.649186849594116211e-01,-1.338607788085937500e+00,2.480000000000000000e+02
-1.056392853003253549e+02,-1.192895021299354994e+02,-4.068549704725228366e-01,-7.933770513868785201e+01,-1.771605236291452456e+02,-2.148995767125870771e+02,-3.005318160843216901e+01,-1.771610537616288639e+01,9.408499717712402344e+00,-7.649186849594116211e-01,-1.338607788085937500e+00,2.490000000000000000e+02
-1.126075953389918141e+02,-1.211484241271209612e+02,-5.069490438352659112e+00,-8.011153571944760188e+01,-1.855487527755294650e+02,-2.220482772302739249e+02,-3.224959015171134524e+01,-2.163533772907794628e+01,9.408499717712402344e+00,-7.649186849594116211e-01,-1.338607788085937500e+00,2.500000000000000000e+02
-1.189267369669250911e+02,-1.256656701961783256e+02,-6.080958637133335287e+00,-7.992833778312979121e+01,-1.919973361123584255e+02,-2.287470144731369146e+02,-3.226415378016190516e+01,-2.237117844684962620e+01,9.408499717712402344e+00,-7.649186849594116211e-01,-1.338607788085937500e+00,2.510000000000000000e+02
-1.233106231519277571e+02,-1.322025970552722356e+02,-3.167523730713583063e+00,-7.930735440189891960e+01,-1.965654291914670466e+02,-2.346903703428215522e+02,-3.031795932731984067e+01,-1.953332837529069366e+01,9.408499717712402344e+00,-7.649186849594116211e-01,-1.338607788085937500e+00,2.520000000000000000e+02
-1.252522478385681097e+02,-1.388508627184892248e+02,1.896703821925257216e+00,-7.888689353709469287e+01,-1.999644727768718440e+02,-2.397584855982167937e+02,-2.786239113996089145e+01,-1.472421177960177374e+01,9.408499717712402344e+00,-7.649186849594116211e-01,-1.338607788085937500e+00,2.530000000000000000e+02
-1.256028509315983683e+02,-1.439033617230188611e+02,6.364449181910003972e+00,-7.920861003232221265e+01,-2.030620099936850238e+02,-2.442749590489784168e+02,-2.676279344432441576e+01,-1.050673227863990178e+01,9.408499717712402344e+00,-8.031646609306335449e-01,-1.376853704452514648e+00,2.540000000000000000e+02
-1.260725437875362331e+02,-1.471166364471469024e+02,8.324984252982631006e+00,-8.060791299063657789e+01,-2.064340284007175796e+02,-2.489721026744873598e+02,-2.815979077871725167e+01,-8.735123695620586659e+00,9.408499717712402344e+00,-8.031646609306335449e-01,-1.376853704452514648e+00,2.550000000000000000e+02
-1.280099659376123782e+02,-1.497318995731989162e+02,7.808173871464532567e+00,-8.320869980238512653e+01,-2.102334134579377860e+02,-2.546289379669951813e+02,-3.179939594551979098e+01,-9.584923921921017609e+00,9.408499717712402344e+00,-8.031646609306335449e-01,-1.376853704452514648e+00,2.560000000000000000e+02
-1.314853398298287175e+02,-1.533459617734665699e+02,6.345612217135567334e+00,-8.694995668028423097e+01,-2.143649462883013257e+02,-2.616083012176522971e+02,-3.629577263527198738e+01,-1.192031534149282379e+01,9.408499717712402344e+00,-8.031646609306335449e-01,-1.376853704452514648e+00,2.570000000000000000e+02
-1.354491690341205867e+02,-1.586793604195304397e+02,5.498845998086835607e+00,-9.159325053437896713e+01,-2.187427176749779392e+02,-2.696073242825277703e+02,-4.011245821219199570e+01,-1.444375429279170930e+01,9.408499717712402344e+00,-8.031646609306335449e-01,-1.376853704452514648e+00,2.580000000000000000e+02
-1.387811788939179678e+02,-1.652199975236576392e+02,5.682873720565567055e+00,-9.673997549926662032e+01,-2.234364738866288462e+02,-2.778208319423429202e+02,-4.254801442668485834e+01,-1.655402535331495528e+01,9.408499717712402344e+00,-8.031646609306335449e-01,-1.376853704452514648e+00,2.590000000000000000e+02
-1.412687779527477687e+02,-1.718204317423351313e+02,6.188737230535025446e+00,-1.018812110291537465e+02,-2.286347699179905248e+02,-2.854161731844142196e+02,-4.401321015727307895e+01,-1.835536745950412296e+01,9.408499717712402344e+00,-8.031646609306335449e-01,-1.376853704452514648e+00,2.600000000000000000e+02
-1.436724764604496158e+02,-1.775194890289994873e+02,6.132293810065675643e+00,-1.064584921606938224e+02,-2.344609516477721627e+02,-2.919764790776325754e+02,-4.544091878591871136e+01,-2.012254591696728312e+01,9.408499717712402344e+00,-8.031646609306335449e-01,-1.376853704452514648e+00,2.610000000000000000e+02
-1.469166360292360878e+02,-1.819075650607278476e+02,5.279591096199510503e+00,-1.099472792182723424e+02,-2.407922806752399083e+02,-2.976037979594620992e+02,-4.738397929740403924e+01,-2.190029523055591198e+01,9.408499717712402344e+00,-8.031646609306335449e-01,-1.376853704452514648e+00,2.620000000000000000e+02
-1.512259606284565052e+02,-1.849917129040727559e+02,4.055332962269403652e+00,-1.119924168950419698e+02,-2.472311367022148261e+02,-3.026482409255850143e+02,-4.958546736721564230e+01,-2.353714612232579384e+01,9.408499717712402344e+00,-8.031646609306335449e-01,-1.376853704452514648e+00,2.630000000000000000e+02
-1.559817009749008321e+02,-1.869837899058989024e+02,2.968836571060819551e+00,-1.126097543242067331e+02,-2.532879902795148155e+02,-3.073542058020530021e+02,-5.135038681311561959e+01,-2.490237710467954457e+01,9.408499717712402344e+00,-8.031646609306335449e-01,-1.376853704452514648e+00,2.640000000000000000e+02
-1.603164935812924341e+02,-1.882803340506316090e+02,2.198009571648981364e+00,-1.123232040791435793e+02,-2.586308609057136891e+02,-3.117320420985606688e+02,-5.227832018505023370e+01,-2.592108166237449041e+01,9.408499717712402344e+00,-8.031646609306335449e-01,-1.376853704452514648e+00,2.650000000000000000e+02
-1.638081328121816114e+02,-1.894636016007639228e+02,1.691871369221189525e+00,-1.120234077468549003e+02,-2.631834841365762259e+02,-3.157083276142602699e+02,-5.261112096418082729e+01,-2.643956444701052533e+01,9.408499717712402344e+00,-8.031646609306335449e-01,-1.376853704452514648e+00,2.660000000000000000e+02
-1.666972374646284152e+02,-1.910707172483425893e+02,1.408174570041410334e+00,-1.125262546688945804e+02,-2.670522745119360479e+02,-3.193646201953815762e+02,-5.291643309230767045e+01,-2.626335198082551869e+01,9.408499717712402344e+00,-8.031646609306335449e-01,-1.376853704452514648e+00,2.670000000000000000e+02
-1.696037223472485493e+02,-1.932452344340440504e+02,1.204489330591513863e+00,-1.141168597242512988e+02,-2.704542133319478125e+02,-3.230209186858292014e+02,-5.353180509690173494e+01,-2.550421415206665188e+01,9.408499717712402344e+00,-8.031646609306335449e-01,-1.376853704452514648e+00,2.680000000000000000e+02
-1.731342562239683502e+02,-1.956748055876109902e+02,4.935192323073351872e-01,-1.164728473076411319e+02,-2.737992639558647170e+02,-3.271107611470742995e+02,-5.440301832030172591e+01,-2.491790019321479122e+01,9.408499717712402344e+00,-8.031646609306335449e-01,-1.376853704452514648e+00,2.690000000000000000e+02
-1.776615685085821497e+02,-1.979948003088970836e+02,-1.724043871437515918e+00,-1.190669246319775993e+02,-2.777910644944145133e+02,-3.319771360689219364e+02,-5.543869999342314259e+01,-2.574209721462329981e+01,9.408499717712402344e+00,-8.031646609306335449e-01,-1.376853704452514648e+00,2.700000000000000000e+02
-1.831795613356684953e+02,-2.002816348903484140e+02,-6.092050505958468420e+00,-1.216611883858408873e+02,-2.831899559140365454e+02,-3.377158643669931735e+02,-5.682194407950828463e+01,-2.892412812249904164e+01,9.408499717712402344e+00,-8.031646609306335449e-01,-1.376853704452514648e+00,2.710000000000000000e+02
-1.891421818842368339e+02,-2.030801593739415694e+02,-1.197294637082404734e+01,-1.244054999786999360e+02,-2.901902902292790714e+02,-3.441151978572834196e+02,-5.878359230858040974e+01,-3.425483101275494846e+01,9.408499717712402344e+00,-8.031646609306335449e-01,-1.376853704452514648e+00,2.720000000000000000e+02
-1.944802979178216447e+02,-2.068450305232317987e+02,-1.738533591890018215e+01,-1.274422012718982842e+02,-2.979028775079182196e+02,-3.506712718163885256e+02,-6.103142309348595518e+01,-4.014080858304578214e+01,9.408499717712402344e+00,-8.031646609306335449e-01,-1.376853704452514648e+00,2.730000000000000000e+02
-1.980672034470594554e+02,-2.113244211472579082e+02,-2.012894097565276752e+01,-1.304507197762727628e+02,-3.045669962508009121e+02,-3.566773468820138078e+02,-6.255931466216816261e+01,-4.430150813003547228e+01,9.408499717712402344e+00,-8.031646609306335449e-01,-1.376853704452514648e+00,2.740000000000000000e+02
-1.995057380912826375e+02,-2.155488716969398411e+02,-1.926161678530479548e+01,-1.326743496654617047e+02,-3.085626779912890925e+02,-3.614287560135871900e+02,-6.227547203428730427e+01,-4.499034980756050572e+01,9.408499717712402344e+00,-8.031646609306335449e-01,-1.376853704452514648e+00,2.750000000000000000e+02
-1.995711159494517233e+02,-2.185065432549477009e+02,-1.563258574998098993e+01,-1.334934219728356766e+02,-3.094927326878287204e+02,-3.645228027599141569e+02,-5.999156389840482007e+01,-4.198408550772410308e+01,9.408499717712402344e+00,-8.031646609306335449e-01,-1.376853704452514648e+00,2.760000000000000000e+02
-1.997240899359749164e+02,-2.199105018991645011e+02,-1.102246573546335640e+01,-1.330535103569013700e+02,-3.084071883108804286e+02,-3.661229655883803389e+02,-5.680904229402131023e+01,-3.677030866071481796e+01,9.408499717712402344e+00,-8.031646609306335449e-01,-1.376853704452514648e+00,2.770000000000000000e+02
-2.009320085123185891e+02,-2.203750095607615549e+02,-6.761293640830444929e+00,-1.323803677539372075e+02,-3.069804587494500083e+02,-3.670270030915926327e+02,-5.443519437822351392e+01,-3.188076832404885863e+01,9.408499717712402344e+00,-8.031646609306335449e-01,-1.376853704452514648e+00,2.780000000000000000e+02
-2.028091765508602293e+02,-2.208900848913490336e+02,-3.119199645042044722e+00,-1.328483378144806011e+02,-3.063939590807240165e+02,-3.684372754572241320e+02,-5.398860641978080821e+01,-2.976387511836946942e+01,9.408499717712402344e+00,-8.031646609306335449e-01,-1.376853704452514648e+00,2.790000000000000000e+02
-2.039547629522098759e+02,-2.221122329883119164e+02,1.030765411860556924e-01,-1.353927162603340548e+02,-3.068741175373147598e+02,-3.714647042912502002e+02,-5.536018812305610481e+01,-3.173090229399667805e+01,9.408499717712402344e+00,-8.031646609306335449e-01,-1.376853704452514648e+00,2.800000000000000000e+02
-2.032971950081314390e+02,-2.240748340846071187e+02,2.581376604435263289e+00,-1.400105568943877188e+02,-3.081303413046684909e+02,-3.765657172297133002e+02,-5.764865557119765072e+01,-3.744426052670678473e+01,9.408499717712402344e+00,-7.649186849594116211e-01,-1.376853704452514648e+00,2.810000000000000000e+02
-2.012510947991004286e+02,-2.264436175668838587e+02,3.220101288485693658e+00,-1.458037354296288868e+02,-3.100711944834379210e+02,-3.832240447810040678e+02,-6.015184977475428241e+01,-4.517192845212593966e+01,9.408499717712402344e+00,-7.649186849594116211e-01,-1.376853704452514648e+00,2.820000000000000000e+02
-1.995941868681411506e+02,-2.289553684615871134e+02,9.629238831284965272e-01,-1.514513192015360801e+02,-3.130138854230217476e+02,-3.901280304161959975e+02,-6.290592699538365196e+01,-5.265308481846477662e+01,9.408499717712402344e+00,-7.649186849594116211e-01,-1.376853704452514648e+00,2.830000000000000000e+02
-2.001171896033742996e+02,-2.315987236677028704e+02,-4.106642474925592978e+00,-1.557842766313106040e+02,-3.172107728069299810e+02,-3.957938580639311112e+02,-6.626915505486840630e+01,-5.805320575590849330e+01,9.408499717712402344e+00,-7.649186849594116211e-01,-1.376853704452514648e+00,2.840000000000000000e+02
-2.032074587917286408e+02,-2.344283133932954115e+02,-1.039220227516671002e+01,-1.581697774463800670e+02,-3.222163181479472769e+02,-3.992524406103548245e+02,-7.001614050279886214e+01,-6.043812360426045416e+01,9.408499717712402344e+00,-7.649186849594116211e-01,-1.376853704452514648e+00,2.850000000000000000e+02
-2.075617334964558722e+02,-2.372699358825570926e+02,-1.546769137380579195e+01,-1.585701957373212281e+02,-3.267538695022499269e+02,-4.003532527878614928e+02,-7.290277230130959651e+01,-5.962367749193481359e+01,9.408499717712402344e+00,-7.649186849594116211e-01,-1.376853704452514648e+00,2.860000000000000000e+02
-2.112001039784099703e+02,-2.396496510755314375e+02,-1.731736467934342727e+01,-1.573376631166947845e+02,-3.292924490648474602e+02,-3.995675488146221142e+02,-7.324882907330902526e+01,-5.581678294477114832e+01,9.408499717712402344e+00,-7.649186849594116211e-01,-1.376853704452514648e+00,2.870000000000000000e+02
-2.128524325696930646e+02,-2.410638780289850729e+02,-1.534579126080006972e+01,-1.549725563798392614e+02,-3.289711888228075622e+02,-3.976057755662204727e+02,-7.018506149322320198e+01,-4.961450819202400453e+01,9.408499717712402344e+00,-7.649186849594116211e-01,-1.376853704452514648e+00,2.880000000000000000e+02
-2.125904659169244724e+02,-2.414063209127710934e+02,-1.062824936946958587e+01,-1.520417210865559809e+02,-3.262397648884755199e+02,-3.952345388238933310e+02,-6.457504596471494551e+01,-4.238407882913361391e+01,9.408499717712402344e+00,-7.649186849594116211e-01,-1.376853704452514648e+00,2.890000000000000000e+02
-2.113753720132235685e+02,-2.412115619456045579e+02,-5.334510144845125978e+00,-1.492522225761799746e+02,-3.227484906998557790e+02,-3.933368007942432314e+02,-5.882419586755031560e+01,-3.637643738139695415e+01,9.408499717712402344e+00,-7.649186849594116211e-01,-1.376853704452514648e+00,2.900000000000000000e+02
-2.101365432930667794e+02,-2.414537977712840302e+02,-1.609930911664150699e+00,-1.474529892250559442e+02,-3.204651128564136116e+02,-3.928775335600769267e+02,-5.559517808834698371e+01,-3.390471872732393877e+01,9.408499717712402344e+00,-7.649186849594116211e-01,-1.376853704452514648e+00,2.910000000000000000e+02
-2.092425098108881230e+02,-2.429400083024722790e+02,-4.454061339008603682e-01,-1.473466933649401653e+02,-3.205048804801260758e+02,-3.945052568326251503e+02,-5.624688186085768393e+01,-3.581058434621854758e+01,9.408499717712402344e+00,-7.649186849594116211e-01,-1.376853704452514648e+00,2.920000000000000000e+02
-2.086939294260129145e+02,-2.457052729248706555e+02,-1.207667077365385921e+00,-1.490244242784876860e+02,-3.224742317004732968e+02,-3.980347508438719615e+02,-6.007424631321600828e+01,-4.047851181554528921e+01,9.408499717712402344e+00,-7.649186849594116211e-01,-1.376853704452514648e+00,2.930000000000000000e+02
-2.086172095532598405e+02,-2.488935500675941057e+02,-2.237174586058927162e+00,-1.517398600788883414e+02,-3.248656707383415778e+02,-4.023741459401719567e+02,-6.486358571373170889e+01,-4.458079475225861188e+01,9.408499717712402344e+00,-7.649186849594116211e-01,-1.376853704452514648e+00,2.940000000000000000e+02
-2.094146070216746693e+02,-2.512877835707919303e+02,-2.207492893104245013e+00,-1.542452750133861628e+02,-3.262871879082891837e+02,-4.061569211205664942e+02,-6.833519886593785486e+01,-4.534777973371262760e+01,9.408499717712402344e+00,-7.649186849594116211e-01,-1.376853704452514648e+00,2.950000000000000000e+02
-2.113820272860922387e+02,-2.521308666663373970e+02,-1.233029402101692540e+00,-1.555405016012725810e+02,-3.265891919860498547e+02,-4.086525906512717938e+02,-6.943009062807209375e+01,-4.265707114584972715e+01,9.408499717712402344e+00,-7.649186849594116211e-01,-1.376853704452514648e+00,2.960000000000000000e+02
-2.142301720000034493e+02,-2.516015708453588786e+02,-7.698230539763244451e-01,-1.554634151707382443e+02,-3.269454733101712236e+02,-4.101752353010775778e+02,-6.859976342196932819e+01,-3.914427259252624935e+01,9.408499717712402344e+00,-7.649186849594116211e-01,-1.376853704452514648e+00,2.970000000000000000e+02
-2.170841129749708216e+02,-2.505843870088333460e+02,-2.305594661075474505e+00,-1.546472014985297392e+02,-3.288033808907224511e+02,-4.116454698400797270e+02,-6.708873907886504639e+01,-3.813219674126980863e+01,9.408499717712402344e+00,-7.649186849594116211e-01,-1.376853704452514648e+00,2.980000000000000000e+02
-2.190698090632745334e+02,-2.499808433198404600e+02,-5.943627505634367481e+00,-1.539207414531642826e+02,-3.325913095393881349e+02,-4.137358889222030029e+02,-6.595514611350495215e+01,-4.106606134883634240e+01,9.408499717712402344e+00,-7.649186849594116211e-01,-1.376853704452514648e+00,2.990000000000000000e+02
-2.199848016444258292e+02,-2.501855466081422037e+02,-1.014944497301644333e+01,-1.537251409476930348e+02,-3.372974840325985042e+02,-4.163841257992947931e+02,-6.564164760737708093e+01,-4.659485701478160991e+01,9.408499717712402344e+00,-7.649186849594116211e-01,-1.376853704452514648e+00,3.000000000000000000e+02
-2.204025755442036143e+02,-2.511121259920837474e+02,-1.288867421679492509e+01,-1.540390821467685782e+02,-3.412356264230231773e+02,-4.190338116797337307e+02,-6.623236530698773095e+01,-5.192876590434309492e+01,9.408499717712402344e+00,-7.649186849594116211e-01,-1.376853704452514648e+00,3.010000000000000000e+02
-2.210679312043258733e+02,-2.525792500686136464e+02,-1.312929778983266260e+01,-1.547559538571772464e+02,-3.432674032024591497e+02,-4.212483675563150882e+02,-6.784353451995161777e+01,-5.510268637297849637e+01,9.408499717712402344e+00,-7.649186849594116211e-01,-1.376853704452514648e+00,3.020000000000000000e+02
-2.221485757228222155e+02,-2.545501689100428848e+02,-1.140345168240492058e+01,-1.560312348389627459e+02,-3.434520852845262198e+02,-4.230726042039887034e+02,-7.057640028097648610e+01,-5.614660608188114566e+01,9.408499717712402344e+00,-7.649186849594116211e-01,-1.376853704452514648e+00,3.030000000000000000e+02
-2.230671743162506573e+02,-2.569760442019248785e+02,-9.062261705570790582e+00,-1.582054327433986600e+02,-3.427133685810845236e+02,-4.248696008019035162e+02,-7.405271523818419155e+01,-5.638641403389999596e+01,9.408499717712402344e+00,-7.649186849594116211e-01,-1.376853704452514648e+00,3.040000000000000000e+02
-2.230910226845346642e+02,-2.595006808768065412e+02,-7.072559354819759392e+00,-1.613934845206097179e+02,-3.419886310138776935e+02,-4.269020164579762877e+02,-7.714766701698738416e+01,-5.686396520441667235e+01,9.408499717712402344e+00,-7.649186849594116211e-01,-1.376853704452514648e+00,3.050000000000000000e+02
-2.221284930713603671e+02,-2.614665568759493226e+02,-5.499001822395598538e+00,-1.651845847797757187e+02,-3.416467357706364965e+02,-4.290883116099854533e+02,-7.845547648815579578e+01,-5.749072327117949044e+01,9.408499717712402344e+00,-7.649186849594116211e-01,-1.376853704452514648e+00,3.060000000000000000e+02
-2.209594048555076142e+02,-2.623059388344868239e+02,-3.992806341506593526e+00,-1.687673971154981700e+02,-3.415508483562864512e+02,-4.310939276978582484e+02,-7.729600125578463121e+01,-5.756399790200339339e+01,9.408499717712402344e+00,-7.649186849594116211e-01,-1.376853704452514648e+00,3.070000000000000000e+02
-2.206600535813076931e+02,-2.619482011673546822e+02,-2.577345265687768006e+00,-1.713754238174304874e+02,-3.415129515864479117e+02,-4.325845297095394244e+02,-7.442521513784811305e+01,-5.684137446918327896e+01,9.408499717712402344e+00,-7.649186849594116211e-01,-1.376853704452514648e+00,3.080000000000000000e+02
-2.217292230658969174e+02,-2.608380310242705491e+02,-1.823047131754719885e+00,-1.726523804710543573e+02,-3.416086066472220182e+02,-4.333825030968412193e+02,-7.171875785050303875e+01,-5.595253250309463056e+01,9.408499717712402344e+00,-7.649186849594116211e-01,-1.376853704452514648e+00,3.090000000000000000e+02
-2.236784734798279715e+02,-2.595633724705398890e+02,-2.266540234452463665e+00,-1.726656578823583459e+02,-3.420810369073342372e+02,-4.334577458738915539e+02,-7.094994402170880221e+01,-5.578991293085823600e+01,9.408499717712402344e+00,-7.649186849594116211e-01,-1.376853704452514648e+00,3.100000000000000000e+02
-2.254052998709020130e+02,-2.584811155532424891e+02,-3.754854993037838540e+00,-1.716642124702275396e+02,-3.429894610752854760e+02,-4.328550410817248348e+02,-7.258746113486654394e+01,-5.661078661865622053e+01,9.408499717712402344e+00,-7.649186849594116211e-01,-1.376853704452514648e+00,3.110000000000000000e+02
-2.259894832303502881e+02,-2.576738620556131991e+02,-5.433478014297293157e+00,-1.698869887243438370e+02,-3.439729984782808287e+02,-4.316646777551551395e+02,-7.555425656315537708e+01,-5.778817924880365808e+01,9.446745872497558594e+00,-8.031646609306335449e-01,-1.376853704452514648e+00,3.120000000000000000e+02
-2.252562179538472265e+02,-2.571725343800743531e+02,-6.392979776200945707e+00,-1.676011126383194778e+02,-3.443918183036875007e+02,-4.300454273863424532e+02,-7.809404888454446336e+01,-5.837552927695492144e+01,9.446745872497558594e+00,-8.031646609306335449e-01,-1.376853704452514648e+00,3.130000000000000000e+02
-2.237175877040759815e+02,-2.570887117363735115e+02,-6.283190876027788363e+00,-1.652242913202329646e+02,-3.437424508301892274e+02,-4.282216464273990368e+02,-7.896070356566860937e+01,-5.781384770051022315e+01,9.446745872497558594e+00,-8.031646609306335449e-01,-1.376853704452514648e+00,3.140000000000000000e+02
-2.220469086439652528e+02,-2.574683790436494064e+02,-5.284720717684876945e+00,-1.632559874248728420e+02,-3.419968809656866142e+02,-4.263987527803070634e+02,-7.795525428648920752e+01,-5.610141198399730911e+01,9.446745872497558594e+00,-8.031646609306335449e-01,-1.376853704452514648e+00,3.150000000000000000e+02
-2.205676665533190999e+02,-2.580756107100206691e+02,-3.587226936134925381e+00,-1.619590266491258035e+02,-3.395680303598725800e+02,-4.246358959225705121e+02,-7.553409461636817923e+01,-5.344966659746194182e+01,9.446745872497558594e+00,-8.031646609306335449e-01,-1.376853704452514648e+00,3.160000000000000000e+02
-2.191563989621808446e+02,-2.584423603061750896e+02,-1.072968753416489562e+00,-1.610838897841318840e+02,-3.369473466680604474e+02,-4.227946584244330097e+02,-7.211056321109481360e+01,-4.999910731731904434e+01,9.446745872497558594e+00,-8.031646609306335449e-01,-1.376853704452514648e+00,3.170000000000000000e+02
-2.175773454968272063e+02,-2.582251119783352351e+02,2.352864648798004055e+00,-1.600115702251233643e+02,-3.343899894874524534e+02,-4.206734127868642190e+02,-6.787998488147263743e+01,-4.599756620201901569e+01,9.446745872497558594e+00,-8.031646609306335449e-01,-1.376853704452514648e+00,3.180000000000000000e+02
-2.159012601626508285e+02,-2.575372432417570963e+02,6.126684050787616798e+00,-1.583204123151683689e+02,-3.319629154530853157e+02,-4.182787318646621770e+02,-6.329605652940472282e+01,-4.218799818365107512e+01,9.446745872497558594e+00,-8.031646609306335449e-01,-1.376853704452514648e+00,3.190000000000000000e+02
-2.146068275805125722e+02,-2.568935435339768105e+02,8.877990761073192516e+00,-1.563301303604905570e+02,-3.298776929578187946e+02,-4.160270092082076872e+02,-5.951340691488690027e+01,-3.981249774966534005e+01,9.446745872497558594e+00,-8.031646609306335449e-01,-1.376853704452514648e+00,3.200000000000000000e+02
-2.142218635742256083e+02,-2.567750320967601283e+02,9.160553933654455250e+00,-1.550780010903220045e+02,-3.286795786105035972e+02,-4.146386842814463307e+02,-5.803582399979632100e+01,-4.000748973732663671e+01,9.446745872497558594e+00,-8.031646609306335449e-01,-1.376853704452514648e+00,3.210000000000000000e+02
-2.147708978509858753e+02,-2.572183641972254122e+02,6.562897571700659682e+00,-1.556183841442322091e+02,-3.289674776722676484e+02,-4.147093012378745698e+02,-5.963342544844431359e+01,-4.302271498159939256e+01,9.446745872497558594e+00,-8.031646609306335449e-01,-1.376853704452514648e+00,3.220000000000000000e+02
-2.155320314283318339e+02,-2.578179718120980510e+02,2.231236314166608281e+00,-1.581591002562481663e+02,-3.308237043062692351e+02,-4.162525741987531092e+02,-6.347978155757903096e+01,-4.794848774880631481e+01,9.446745872497558594e+00,-8.031646609306335449e-01,-1.376853704452514648e+00,3.230000000000000000e+02
-2.154366549841255392e+02,-2.581321977718187100e+02,-1.704161755327845640e+00,-1.617651361407067725e+02,-3.335150644365756420e+02,-4.186108455595475561e+02,-6.743662525226068283e+01,-5.320383076053713012e+01,9.446745872497558594e+00,-8.031646609306335449e-01,-1.376853704452514648e+00,3.240000000000000000e+02
-2.138853056747409482e+02,-2.580863298374197825e+02,-3.345947232687422002e+00,-1.649125698192558502e+02,-3.358213771916481960e+02,-4.208487452178660533e+02,-6.941350999828443946e+01,-5.736449220564065854e+01,9.446745872497558594e+00,-8.031646609306335449e-01,-1.376853704452514648e+00,3.250000000000000000e+02
-2.112876639805494960e+02,-2.579627737639395377e+02,-1.925044365138546709e+00,-1.664532436252925436e+02,-3.367425622446421016e+02,-4.223084291977232851e+02,-6.870503355664163792e+01,-5.967995632800307249e+01,9.446745872497558594e+00,-8.031646609306335449e-01,-1.376853704452514648e+00,3.260000000000000000e+02
-2.087993558805953853e+02,-2.579874687265340185e+02,2.173136061787431572e+00,-1.662257550779980875e+02,-3.359802564149784985e+02,-4.228647069114390433e+02,-6.620818114033386337e+01,-6.003035209969698371e+01,9.446745872497558594e+00,-8.031646609306335449e-01,-1.376853704452514648e+00,3.270000000000000000e+02
-2.073876254693755072e+02,-2.579052685043870952e+02,7.971134885146625493e+00,-1.648759811137408633e+02,-3.338307781297498877e+02,-4.227062704533509532e+02,-6.342167177421185897e+01,-5.859657545704010317e+01,9.446745872497558594e+00,-8.031646609306335449e-01,-1.376853704452514648e+00,3.280000000000000000e+02
-2.070123447049994638e+02,-2.569647411814909788e+02,1.436805405145094028e+01,-1.631264010600031042e+02,-3.307337909714497073e+02,-4.219095798068402701e+02,-6.120595896038742012e+01,-5.566923843325173493e+01,9.446745872497558594e+00,-8.031646609306335449e-01,-1.376853704452514648e+00,3.290000000000000000e+02
-2.066820283035451666e+02,-2.543754536379996125e+02,2.020290975185025673e+01,-1.611458524641435588e+02,-3.270034195452590211e+02,-4.202337804749439556e+02,-5.938804881894111531e+01,-5.170084225290361246e+01,9.446745872497558594e+00,-8.031646609306335449e-01,-1.376853704452514648e+00,3.300000000000000000e+02
-2.053829771350408464e+02,-2.499152944042477316e+02,2.421758055990892444e+01,-1.585365475012116576e+02,-3.229557291174488682e+02,-4.173268275571127788e+02,-5.742730146979567962e+01,-4.738163662598424253e+01,9.446745872497558594e+00,-8.031646609306335449e-01,-1.376853704452514648e+00,3.310000000000000000e+02
-2.030669626716099856e+02,-2.442470328764597411e+02,2.537615222793863268e+01,-1.549154219719137018e+02,-3.191379736462475876e+02,-4.131471961766126242e+02,-5.536858206012902883e+01,-4.351775021603737059e+01,9.446745872497558594e+00,-8.031646609306335449e-01,-1.376853704452514648e+00,3.320000000000000000e+02
-2.007945356326824822e+02,-2.387147817247868034e+02,2.351175145373281339e+01,-1.505618608330847792e+02,-3.162431425391282573e+02,-4.082234526646179802e+02,-5.411322487493589506e+01,-4.074895836178916397e+01,9.484992027282714844e+00,-8.031646609306335449e-01,-1.338607788085937500e+00,3.330000000000000000e+02
-1.998708935577180910e+02,-2.347322091478802122e+02,1.972581362174446440e+01,-1.465332773680455603e+02,-3.146637158373912371e+02,-4.035150754848115184e+02,-5.473012474102665692e+01,-3.933835116728130288e+01,9.484992027282714844e+00,-8.031646609306335449e-01,-1.338607788085937500e+00,3.340000000000000000e+02
-2.007214175781415406e+02,-2.331093243948080271e+02,1.602560301279709165e+01,-1.440729596890411131e+02,-3.141072954559848540e+02,-3.999416840668196755e+02,-5.741599384580842980e+01,-3.917131233472082386e+01,9.484992027282714844e+00,-8.031646609306335449e-01,-1.338607788085937500e+00,3.350000000000000000e+02
-2.024891147981977610e+02,-2.336924584457582341e+02,1.430421565077915602e+01,-1.437293653950904400e+02,-3.137232779689840072e+02,-3.978813176969649703e+02,-6.101962070844729169e+01,-3.987117072293676756e+01,9.484992027282714844e+00,-8.031646609306335449e-01,-1.338607788085937500e+00,3.360000000000000000e+02
-2.036822060015683746e+02,-2.355062031849641926e+02,1.535937899288239805e+01,-1.449123564994914659e+02,-3.127251152168207682e+02,-3.969741690878488498e+02,-6.359041555448027339e+01,-4.089304245571622687e+01,9.484992027282714844e+00,-8.031646609306335449e-01,-1.338607788085937500e+00,3.370000000000000000e+02
-2.032970148511054731e+02,-2.373056684533721068e+02,1.860739706491074230e+01,-1.463286063107567543e+02,-3.110237582137459640e+02,-3.963970338141534739e+02,-6.361410227644387305e+01,-4.162246863773441419e+01,9.484992027282714844e+00,-8.031646609306335449e-01,-1.338607788085937500e+00,3.380000000000000000e+02
-2.014755938984402519e+02,-2.381999029811379955e+02,2.259462056577694966e+01,-1.469931511319116453e+02,-3.093064854466846896e+02,-3.954391950760868895e+02,-6.105282645301520006e+01,-4.158902944793828738e+01,9.484992027282714844e+00,-8.031646609306335449e-01,-1.338607788085937500e+00,3.390000000000000000e+02
-1.992228065230481207e+02,-2.379594484901515443e+02,2.584070509165906060e+01,-1.469378444909043537e+02,-3.084423142307471153e+02,-3.939541303057917503e+02,-5.741408317647085369e+01,-4.074874747654541807e+01,9.484992027282714844e+00,-8.031646609306335449e-01,-1.338607788085937500e+00,3.400000000000000000e+02
-1.975325806654294638e+02,-2.368639355776693947e+02,2.743593923601679307e+01,-1.469365473087617602e+02,-3.086860423457139859e+02,-3.923136006119293597e+02,-5.476384632826261623e+01,-3.959227107654032807e+01,9.484992027282714844e+00,-8.031646609306335449e-01,-1.338607788085937500e+00,3.410000000000000000e+02
-1.967150607377562892e+02,-2.352994431833408839e+02,2.715801314968348379e+01,-1.474747085402505036e+02,-3.093528570332051686e+02,-3.908868913510815446e+02,-5.436832646408322489e+01,-3.883824948374808628e+01,9.484992027282714844e+00,-8.031646609306335449e-01,-1.338607788085937500e+00,3.420000000000000000e+02
-1.964236889718474686e+02,-2.334907391832305166e+02,2.526485395484053242e+01,-1.479902322075756729e+02,-3.092957265185905271e+02,-3.895295221294177281e+02,-5.595602723480942586e+01,-3.885709192414833524e+01,9.484992027282714844e+00,-8.031646609306335449e-01,-1.338607788085937500e+00,3.430000000000000000e+02
-1.961916572411663537e+02,-2.315788516724860528e+02,2.225994255372700081e+01,-1.472326303388338147e+02,-3.078279687320811036e+02,-3.876124966152780189e+02,-5.811690180623998003e+01,-3.932408609351807627e+01,9.484992027282714844e+00,-8.031646609306335449e-01,-1.338607788085937500e+00,3.440000000000000000e+02
-1.958799862097550886e+02,-2.298737211465326027e+02,1.879642405646848147e+01,-1.445037897328862755e+02,-3.052989279531914235e+02,-3.846315253166591219e+02,-5.945122654734211665e+01,-3.947015875630927439e+01,9.484992027282714844e+00,-8.031646609306335449e-01,-1.338607788085937500e+00,3.450000000000000000e+02
-1.956349254703196721e+02,-2.289042749097980050e+02,1.566418642328972055e+01,-1.405800631817783142e+02,-3.027933171701686206e+02,-3.808282589315285804e+02,-5.950154620421608342e+01,-3.878122706793658381e+01,9.484992027282714844e+00,-8.031646609306335449e-01,-1.338607788085937500e+00,3.460000000000000000e+02
-1.955081411206949724e+02,-2.290989467563183553e+02,1.369618536896518890e+01,-1.373230327068688439e+02,-3.012095533670069472e+02,-3.771860568732759020e+02,-5.876905912704455659e+01,-3.751813469404777379e+01,9.484992027282714844e+00,-8.031646609306335449e-01,-1.338607788085937500e+00,3.470000000000000000e+02
-1.952181454899088067e+02,-2.303616102968378527e+02,1.349540159931689232e+01,-1.362463766460152783e+02,-3.005771267850905133e+02,-3.747489021332955872e+02,-5.798441274940955736e+01,-3.654687174491130008e+01,9.484992027282714844e+00,-8.031646609306335449e-01,-1.338607788085937500e+00,3.480000000000000000e+02
-1.943393669519724654e+02,-2.320069191576819776e+02,1.508183974719452181e+01,-1.373519079446912201e+02,-3.002414723983076783e+02,-3.738581001831446429e+02,-5.744215838701063603e+01,-3.662208125345796361e+01,9.484992027282714844e+00,-8.031646609306335449e-01,-1.338607788085937500e+00,3.490000000000000000e+02
-1.927351436645450349e+02,-2.332195234272211337e+02,1.770865618231141525e+01,-1.393057306738581929e+02,-2.996999756221634925e+02,-3.739815606866102371e+02,-5.703856483562162794e+01,-3.782099341623802502e+01,9.484992027282714844e+00,-8.031646609306335449e-01,-1.338607788085937500e+00,3.500000000000000000e+02
-1.907728320073504165e+02,-2.336706797351317846e+02,2.007406383368947900e+01,-1.407061740721185288e+02,-2.992109566328833807e+02,-3.742373716581539611e+02,-5.684625232508483350e+01,-3.968161082308290588e+01,9.484992027282714844e+00,-8.031646609306335449e-01,-1.338607788085937500e+00,3.510000000000000000e+02
-1.890768014260795553e+02,-2.337061571661979542e+02,2.092869556034258949e+01,-1.411692094933607677e+02,-2.995187268444635720e+02,-3.740877196660035224e+02,-5.748325574847797270e+01,-4.187745314722485546e+01,9.484992027282714844e+00,-8.031646609306335449e-01,-1.338607788085937500e+00,3.520000000000000000e+02
-1.880373923064739756e+02,-2.338785968191356233e+02,1.976108171671728542e+01,-1.412493173573143395e+02,-3.009759192170433835e+02,-3.735999809729536310e+02,-5.976984228319804515e+01,-4.469505350983820335e+01,9.484992027282714844e+00,-8.031646609306335449e-01,-1.338607788085937500e+00,3.530000000000000000e+02
-1.875271999155105505e+02,-2.342532955839953956e+02,1.712953461618303663e+01,-1.414705792444024155e+02,-3.029706525991938406e+02,-3.731389789256572840e+02,-6.391671797960589174e+01,-4.872100904441947478e+01,9.484992027282714844e+00,-8.031646609306335449e-01,-1.338607788085937500e+00,3.540000000000000000e+02
-1.870747798061845515e+02,-2.341939440968151303e+02,1.440464169801020944e+01,-1.415998910638488724e+02,-3.042469336233530157e+02,-3.728695275582151680e+02,-6.900505080715220174e+01,-5.394218178482412895e+01,9.484992027282714844e+00,-8.031646609306335449e-01,-1.338607788085937500e+00,3.550000000000000000e+02
-1.863149620487997709e+02,-2.329136779132120409e+02,1.306598501001485602e+01,-1.409135076517638936e+02,-3.038033915526707460e+02,-3.725252612225724533e+02,-7.328928812487174582e+01,-5.913043525158116154e+01,9.484992027282714844e+00,-8.031646609306335449e-01,-1.338607788085937500e+00,3.560000000000000000e+02
-1.852830645766265434e+02,-2.303210173827950484e+02,1.399000565915434890e+01,-1.390656454153221375e+02,-3.014984100726280758e+02,-3.715689256186481089e+02,-7.511990524981206363e+01,-6.221195955000609956e+01,9.484992027282714844e+00,-8.031646609306335449e-01,-1.338607788085937500e+00,3.570000000000000000e+02
-1.843195808430986062e+02,-2.273510745425191999e+02,1.711803152993229560e+01,-1.365656861779727933e+02,-2.978884565194468905e+02,-3.695590283837984771e+02,-7.379408912574842816e+01,-6.146928148211031839e+01,9.408499717712402344e+00,-8.414105772972106934e-01,-1.376853704452514648e+00,3.580000000000000000e+02
-1.836933582184333318e+02,-2.253778360320150114e+02,2.160261718249978458e+01,-1.343471772453605126e+02,-2.936215378799424798e+02,-3.664404620408631672e+02,-6.975739104252932066e+01,-5.666824453485389768e+01,9.408499717712402344e+00,-8.414105772972106934e-01,-1.376853704452514648e+00,3.590000000000000000e+02
-1.832901755535882558e+02,-2.251457016493211540e+02,2.623809511458830457e+01,-1.329176572534626075e+02,-2.890692638874788827e+02,-3.626010744609498033e+02,-6.417463024795779347e+01,-4.926402129367897942e+01,9.408499717712402344e+00,-8.414105772972106934e-01,-1.376853704452514648e+00,3.600000000000000000e+02
-1.826504518300437212e+02,-2.261383885884047231e+02,2.990469973328004016e+01,-1.319793694313475498e+02,-2.844725482709667403e+02,-3.586898476349324483e+02,-5.833863976984162036e+01,-4.161333362638788458e+01,9.408499717712402344e+00,-8.414105772972106934e-01,-1.376853704452514648e+00,3.610000000000000000e+02
-1.813433626822869655e+02,-2.269439462169649460e+02,3.188026319935852371e+01,-1.308579259884035082e+02,-2.802644042949490313e+02,-3.553136100360054570e+02,-5.333788331003290750e+01,-3.586163322990319102e+01,9.408499717712402344e+00,-8.414105772972106934e-01,-1.376853704452514648e+00,3.620000000000000000e+02
-1.793986769064929376e+02,-2.263256303333822643e+02,3.199435708738008088e+01,-1.292375577424803623e+02,-2.771060172661631213e+02,-3.527956014016283461e+02,-5.002544359055548284e+01,-3.323306713561635206e+01,9.408499717712402344e+00,-8.414105772972106934e-01,-1.376853704452514648e+00,3.630000000000000000e+02
-1.774369346990512213e+02,-2.240990966858486217e+02,3.063292248818618191e+01,-1.274333392165918895e+02,-2.755444697604677913e+02,-3.511181545229137555e+02,-4.900025811952866661e+01,-3.389729668946222318e+01,9.408499717712402344e+00,-8.414105772972106934e-01,-1.376853704452514648e+00,3.640000000000000000e+02
-1.763342482240670961e+02,-2.211257344032652554e+02,2.859424143104195082e+01,-1.259854494402843557e+02,-2.756199825301576993e+02,-3.500344157961415021e+02,-5.036620167630303513e+01,-3.711310383191164419e+01,9.408499717712402344e+00,-8.414105772972106934e-01,-1.376853704452514648e+00,3.650000000000000000e+02
-1.765882937744669334e+02,-2.185292945577803039e+02,2.682252420011150207e+01,-1.250709700931284942e+02,-2.767595941707190832e+02,-3.492182609143135323e+02,-5.340495226292659936e+01,-4.141751477721561514e+01,9.408499717712402344e+00,-8.414105772972106934e-01,-1.376853704452514648e+00,3.660000000000000000e+02
-1.778321510042471800e+02,-2.168812994341316198e+02,2.610468245190793368e+01,-1.243698144488221260e+02,-2.779930344032829908e+02,-3.483330716066998320e+02,-5.658286857047175999e+01,-4.498357522514083939e+01,9.408499717712402344e+00,-8.414105772972106934e-01,-1.376853704452514648e+00,3.670000000000000000e+02
-1.789104258645608070e+02,-2.160119543081182201e+02,2.684545560150161236e+01,-1.234998627532620503e+02,-2.783279960632000893e+02,-3.470510364266692704e+02,-5.817420037174383651e+01,-4.632221799928936434e+01,9.408499717712402344e+00,-8.414105772972106934e-01,-1.376853704452514648e+00,3.680000000000000000e+02
-1.785422572952952578e+02,-2.154444364832135079e+02,2.900710019562575326e+01,-1.225319073154323632e+02,-2.771123213091609614e+02,-3.451481263888949798e+02,-5.724652687815114405e+01,-4.509337119189262921e+01,9.408499717712402344e+00,-8.414105772972106934e-01,-1.376853704452514648e+00,3.690000000000000000e+02
-1.761458037666965311e+02,-2.149001152965954589e+02,3.218332508571870676e+01,-1.220113764787788568e+02,-2.742828948199500019e+02,-3.426761134883388422e+02,-5.429511300366266369e+01,-4.237696698915237903e+01,9.408499717712402344e+00,-8.414105772972106934e-01,-1.376853704452514648e+00,3.700000000000000000e+02
-1.722285915968142262e+02,-2.143727871798701017e+02,3.570930493393086635e+01,-1.224233622922633913e+02,-2.703895586311177794e+02,-3.400111964442003227e+02,-5.092768178283097313e+01,-3.994855875713028581e+01,9.408499717712402344e+00,-8.414105772972106934e-01,-1.376853704452514648e+00,3.710000000000000000e+02
-1.680488816637548553e+02,-2.138138758925500724e+02,3.879162902494954324e+01,-1.236094578693134736e+02,-2.662929365400980259e+02,-3.375924296960579341e+02,-4.870914451389000988e+01,-3.895050768860130574e+01,9.408499717712402344e+00,-8.414105772972106934e-01,-1.376853704452514648e+00,3.720000000000000000e+02
-1.648235524232410398e+02,-2.128965891234889796e+02,4.074372656496439049e+01,-1.247143891095984145e+02,-2.626540137747188055e+02,-3.354873854822644716e+02,-4.802683115209015341e+01,-3.903281520455766440e+01,9.408499717712402344e+00,-8.414105772972106934e-01,-1.376853704452514648e+00,3.730000000000000000e+02
-1.630729094994269417e+02,-2.111937056491094609e+02,4.133790529805048664e+01,-1.247559543750155626e+02,-2.595667361976893517e+02,-3.332008887315816992e+02,-4.790210663786695022e+01,-3.876409783493272698e+01,9.408499717712402344e+00,-8.414105772972106934e-01,-1.376853704452514648e+00,3.740000000000000000e+02
-1.625019399451498430e+02,-2.085949019444752821e+02,4.107263907821675275e+01,-1.233414562321927406e+02,-2.566382663540284739e+02,-3.300159541470534350e+02,-4.691260708436334426e+01,-3.700645998567790684e+01,9.408499717712402344e+00,-8.414105772972106934e-01,-1.376853704452514648e+00,3.750000000000000000e+02
-1.623756219441474968e+02,-2.055078229691253000e+02,4.100320671399219918e+01,-1.209295939747976263e+02,-2.534788555221753086e+02,-3.256614015161321731e+02,-4.445719983512287854e+01,-3.405002556725173690e+01,9.408499717712402344e+00,-8.414105772972106934e-01,-1.376853704452514648e+00,3.760000000000000000e+02
-1.620289989322067186e+02,-2.025930669611070698e+02,4.201062135924905760e+01,-1.184399167136093638e+02,-2.501771591329802504e+02,-3.207009167469745989e+02,-4.130433496561624906e+01,-3.146271582525662325e+01,9.408499717712402344e+00,-8.414105772972106934e-01,-1.376853704452514648e+00,3.770000000000000000e+02
-1.611739217245394684e+02,-2.002534959875359846e+02,4.393082338794943098e+01,-1.165595017294424451e+02,-2.473186336756887158e+02,-3.162178787274278875e+02,-3.898366049220203422e+01,-3.075848383161985566e+01,9.408499717712402344e+00,-8.414105772972106934e-01,-1.376853704452514648e+00,3.780000000000000000e+02
-1.599050210242926369e+02,-1.983524901558589590e+02,4.535465435336493556e+01,-1.153080095048351268e+02,-2.454967057995108917e+02,-3.129919272293909671e+02,-3.854405944849975185e+01,-3.204484909020084160e+01,9.408499717712402344e+00,-8.414105772972106934e-01,-1.376853704452514648e+00,3.790000000000000000e+02
-1.584964457344581206e+02,-1.963954581528410017e+02,4.457746779981960117e+01,-1.141384730242580190e+02,-2.446991980146603964e+02,-3.108422403321505953e+02,-3.967651133026436128e+01,-3.379844833410982119e+01,9.408499717712402344e+00,-8.414105772972106934e-01,-1.376853704452514648e+00,3.800000000000000000e+02
-1.571307850746691201e+02,-1.939778238871783742e+02,4.119071535774105541e+01,-1.124107151323992184e+02,-2.440711703363954257e+02,-3.087076395336284804e+02,-4.085603054079933827e+01,-3.392166854687195610e+01,9.408499717712402344e+00,-8.414105772972106934e-01,-1.376853704452514648e+00,3.810000000000000000e+02
-1.556991891458542341e+02,-1.911007094398246409e+02,3.699760913191050804e+01,-1.098489794630083907e+02,-2.422913197327807211e+02,-3.054353578577160988e+02,-4.035872035588351991e+01,-3.119678980902165222e+01,9.408499717712402344e+00,-8.414105772972106934e-01,-1.376853704452514648e+00,3.820000000000000000e+02
-1.538222977458249261e+02,-1.881581073521188046e+02,3.518794463259098393e+01,-1.067199002761572046e+02,-2.383776290435787359e+02,-3.006867032316358745e+02,-3.742590749280043383e+01,-2.606550665633108110e+01,9.408499717712402344e+00,-8.414105772972106934e-01,-1.376853704452514648e+00,3.830000000000000000e+02
-1.511373951493785626e+02,-1.856936422252806551e+02,3.809992022396954781e+01,-1.037136737603455003e+02,-2.324210501084112366e+02,-2.952817011718179856e+02,-3.280334949910547948e+01,-2.031753869713486438e+01,9.408499717712402344e+00,-8.414105772972106934e-01,-1.376853704452514648e+00,3.840000000000000000e+02
-1.476853881384399756e+02,-1.841265618559341419e+02,4.526801152140171780e+01,-1.016352450208974005e+02,-2.257240277040741603e+02,-2.907250021777551865e+02,-2.833170028748281766e+01,-1.607087935275740165e+01,9.408499717712402344e+00,-7.266727685928344727e-01,-1.415099620819091797e+00,3.850000000000000000e+02
-1.440715223715910724e+02,-1.835560217957022360e+02,5.343753553284886948e+01,-1.010235047178875902e+02,-2.201602605109012529e+02,-2.882472298242978468e+02,-2.585816636123240642e+01,-1.475392016751993651e+01,9.408499717712402344e+00,-7.266727685928344727e-01,-1.415099620819091797e+00,3.860000000000000000e+02
-1.411978469147386477e+02,-1.836652859438886480e+02,5.868571852320155813e+01,-1.018458546700439911e+02,-2.171037969658432303e+02,-2.880228990251239338e+02,-2.614715954223720473e+01,-1.658569498609836046e+01,9.408499717712402344e+00,-7.266727685928344727e-01,-1.415099620819091797e+00,3.870000000000000000e+02
-1.397111472028655044e+02,-1.837836164590521548e+02,5.899698624632310384e+01,-1.034596811718333811e+02,-2.166482724667555431e+02,-2.890977560006472231e+02,-2.848859914210606803e+01,-2.065648932170620355e+01,9.408499717712402344e+00,-7.266727685928344727e-01,-1.415099620819091797e+00,3.880000000000000000e+02
-1.395882049085623748e+02,-1.831782529897575387e+02,5.527258292481337776e+01,-1.049279108441287462e+02,-2.176787625052338626e+02,-2.900390796578662957e+02,-3.126131081402945711e+01,-2.545315917526295380e+01,9.408499717712402344e+00,-7.266727685928344727e-01,-1.415099620819091797e+00,3.890000000000000000e+02
-1.401897500860200125e+02,-1.814969014214061644e+02,5.013147662352866973e+01,-1.055251149032171725e+02,-2.187275812642037636e+02,-2.898006375889426636e+02,-3.304199889612891639e+01,-2.954144743679376006e+01,9.408499717712402344e+00,-7.266727685928344727e-01,-1.415099620819091797e+00,3.900000000000000000e+02
-1.407101105936005752e+02,-1.790570070973258225e+02,4.572892433118659028e+01,-1.050743930351088693e+02,-2.189106677016648064e+02,-2.881748493319103090e+02,-3.344899561316833569e+01,-3.207027434700239610e+01,9.408499717712402344e+00,-7.266727685928344727e-01,-1.415099620819091797e+00,3.910000000000000000e+02
-1.406283632445656622e+02,-1.766959659984343034e+02,4.244977971879416145e+01,-1.038742280910296358e+02,-2.182156029571683575e+02,-2.855955299445042783e+02,-3.314143219854804556e+01,-3.288692364437702054e+01,9.408499717712402344e+00,-7.266727685928344727e-01,-1.415099620819091797e+00,3.920000000000000000e+02
-1.398496900656787147e+02,-1.752290271471645156e+02,3.930172706334406030e+01,-1.023489740938944124e+02,-2.170516228439557835e+02,-2.826089757109766651e+02,-3.309305967819136640e+01,-3.231414807058604310e+01,9.408499717712402344e+00,-7.266727685928344727e-01,-1.415099620819091797e+00,3.930000000000000000e+02
-1.385502202900220254e+02,-1.749239394254636863e+02,3.525372002214544409e+01,-1.007893037625967736e+02,-2.156403768262061931e+02,-2.795409609839325640e+02,-3.382398277543916265e+01,-3.086269388830214666e+01,9.408499717712402344e+00,-7.266727685928344727e-01,-1.415099620819091797e+00,3.940000000000000000e+02
-1.369566039959572663e+02,-1.754148943788052293e+02,3.016209998369822642e+01,-9.939057569077476728e+01,-2.138704726158700851e+02,-2.765670715410951743e+02,-3.519677890200318870e+01,-2.910923146413369977e+01,9.408499717712402344e+00,-7.266727685928344727e-01,-1.415099620819091797e+00,3.950000000000000000e+02
-1.352521229889011920e+02,-1.760780434367943599e+02,2.463093822150813139e+01,-9.840813995753251220e+01,-2.116703064361645374e+02,-2.739144729339564037e+02,-3.677758658907055178e+01,-2.768696373478087480e+01,9.408499717712402344e+00,-7.266727685928344727e-01,-1.415099620819091797e+00,3.960000000000000000e+02
-1.336021198844157425e+02,-1.764627077797429138e+02,1.926974112863808841e+01,-9.810701150140630489e+01,-2.093919278690291321e+02,-2.718235182114490271e+02,-3.826753445482790994e+01,-2.713366442112192090e+01,9.408499717712402344e+00,-7.266727685928344727e-01,-1.415099620819091797e+00,3.970000000000000000e+02
-1.321657812764892697e+02,-1.763621942546010359e+02,1.423517263128678678e+01,-9.845875315846456033e+01,-2.077185317666981064e+02,-2.702773674138393289e+02,-3.957430681584560261e+01,-2.751567700813711781e+01,9.408499717712402344e+00,-7.266727685928344727e-01,-1.415099620819091797e+00,3.980000000000000000e+02
-1.310353665910577092e+02,-1.755470956869107795e+02,9.391251612046289665e+00,-9.892626714523544251e+01,-2.071526995805272691e+02,-2.688778481966085110e+02,-4.056870932867786905e+01,-2.816351513006225105e+01,9.408499717712402344e+00,-7.266727685928344727e-01,-1.415099620819091797e+00,3.990000000000000000e+02
-1.301654254807724556e+02,-1.735812639060250149e+02,4.687185211517999051e+00,-9.868591534082406724e+01,-2.075924258037314303e+02,-2.671375091932256964e+02,-4.091288343433006958e+01,-2.796806564688449726e+01,9.408499717712402344e+00,-7.266727685928344727e-01,-1.415099620819091797e+00,4.000000000000000000e+02
-1.293844517360762438e+02,-1.700600075465617920e+02,2.463600316809788637e-01,-9.720203915637966929e+01,-2.083996072336869929e+02,-2.649570907938987148e+02,-4.021105787719807267e+01,-2.620829254698423938e+01,9.408499717712402344e+00,-7.266727685928344727e-01,-1.415099620819091797e+00,4.010000000000000000e+02
-1.284913840678036649e+02,-1.651300643987301555e+02,-3.854593720771617882e+00,-9.464210687613740447e+01,-2.088700706746640208e+02,-2.627536268291073611e+02,-3.832439477822708795e+01,-2.323890985336765880e+01,9.408499717712402344e+00,-7.266727685928344727e-01,-1.415099620819091797e+00,4.020000000000000000e+02
-1.273687376121238231e+02,-1.597761049444786750e+02,-7.729224252663470907e+00,-9.171579249292085478e+01,-2.086577576323938956e+02,-2.610182464612689728e+02,-3.552925532683138954e+01,-2.030567376326916929e+01,9.408499717712402344e+00,-7.266727685928344727e-01,-1.415099620819091797e+00,4.030000000000000000e+02
-1.260402662072979183e+02,-1.554689586786250857e+02,-1.148908273031383942e+01,-8.907140535250437097e+01,-2.078005547040893362e+02,-2.597036713386607971e+02,-3.240413598076088419e+01,-1.849739190987338588e+01,9.408499717712402344e+00,-7.266727685928344727e-01,-1.415099620819091797e+00,4.040000000000000000e+02
-1.246359923208033251e+02,-1.533233074077515994e+02,-1.491618416764026733e+01,-8.681083288877994164e+01,-2.063963574249696649e+02,-2.580661288563437665e+02,-2.959226889296087393e+01,-1.772166782091471759e+01,9.408499717712402344e+00,-7.266727685928344727e-01,-1.415099620819091797e+00,4.050000000000000000e+02
-1.232845858616124133e+02,-1.534077945444137185e+02,-1.744826143926002260e+01,-8.456452219083166710e+01,-2.042927979264663918e+02,-2.551795134633407542e+02,-2.763922996119435993e+01,-1.671725759251989984e+01,9.408499717712402344e+00,-7.266727685928344727e-01,-1.415099620819091797e+00,4.060000000000000000e+02
-1.219894809586537576e+02,-1.547409337868652983e+02,-1.863008406468588873e+01,-8.200605258502719153e+01,-2.011191399786832790e+02,-2.506839666261566890e+02,-2.690736216416416937e+01,-1.420343467059728937e+01,9.408499717712402344e+00,-7.266727685928344727e-01,-1.415099620819091797e+00,4.070000000000000000e+02
-1.205805331618137188e+02,-1.559525167840265567e+02,-1.865927270547172157e+01,-7.927119107851422086e+01,-1.966834931391661030e+02,-2.451262029086999519e+02,-2.746212873914328156e+01,-1.015082071047481804e+01,9.408499717712402344e+00,-7.266727685928344727e-01,-1.415099620819091797e+00,4.080000000000000000e+02
-1.187950842652071515e+02,-1.560681682886684030e+02,-1.845001273238995054e+01,-7.686192518666894102e+01,-1.913933439941081360e+02,-2.396299239224513258e+02,-2.892863743705424895e+01,-5.958129383253208289e+00,9.408499717712402344e+00,-7.266727685928344727e-01,-1.415099620819091797e+00,4.090000000000000000e+02
-1.164698055308713265e+02,-1.548619338452347165e+02,-1.903660704237609025e+01,-7.515910827632137625e+01,-1.862782135812308297e+02,-2.352135579555488221e+02,-3.050599214122416925e+01,-3.328892177346915560e+00,9.408499717712402344e+00,-7.266727685928344727e-01,-1.415099620819091797e+00,4.100000000000000000e+02
-1.137259187637910145e+02,-1.526564198587759620e+02,-2.077511638065925581e+01,-7.406280329393871398e+01,-1.824850804832058202e+02,-2.322869312520924723e+02,-3.129558705928002382e+01,-2.894153458747950936e+00,9.408499717712402344e+00,-7.266727685928344727e-01,-1.415099620819091797e+00,4.110000000000000000e+02
-1.109886391068121156e+02,-1.498981998167093934e+02,-2.305592026243562032e+01,-7.313338028269436109e+01,-1.805633888382742498e+02,-2.305959268818451164e+02,-3.079713778905056643e+01,-3.842547599388126400e+00,9.408499717712402344e+00,-7.266727685928344727e-01,-1.415099620819091797e+00,4.120000000000000000e+02
-1.087898444428515177e+02,-1.469113278075396920e+02,-2.483827670314371971e+01,-7.209336016907946032e+01,-1.801218980792168622e+02,-2.295172203152515067e+02,-2.921496107850475710e+01,-4.839372128703189446e+00,9.408499717712402344e+00,-7.266727685928344727e-01,-1.415099620819091797e+00,4.130000000000000000e+02
-1.074589462332921812e+02,-1.439115582621177509e+02,-2.557666199302684618e+01,-7.115528416019219549e+01,-1.801712391234239021e+02,-2.284250843988256747e+02,-2.731460068952969777e+01,-5.285225551540179367e+00,9.408499717712402344e+00,-7.266727685928344727e-01,-1.415099620819091797e+00,4.140000000000000000e+02
-1.069170046081476357e+02,-1.410587011308175533e+02,-2.572366495046526325e+01,-7.079816663205747318e+01,-1.798858904625037667e+02,-2.269302387754087249e+02,-2.592971834881882387e+01,-5.705697175678778876e+00,9.408499717712402344e+00,-7.266727685928344727e-01,-1.415099620819091797e+00,4.150000000000000000e+02
-1.067271417011970698e+02,-1.383745224347001113e+02,-2.634145929430542310e+01,-7.116397275624922258e+01,-1.791455183873886199e+02,-2.249454978902781477e+02,-2.549480961156814374e+01,-6.999911457425696426e+00,9.484992027282714844e+00,-8.414105772972106934e-01,-1.376853704452514648e+00,4.160000000000000000e+02
-1.063811794135021955e+02,-1.356422947550629488e+02,-2.815353379618932195e+01,-7.167435627223630945e+01,-1.784192293580190380e+02,-2.226112728293146574e+02,-2.591335533234860122e+01,-9.395791415473468078e+00,9.484992027282714844e+00,-8.414105772972106934e-01,-1.376853704452514648e+00,4.170000000000000000e+02
-1.056293473785933656e+02,-1.325310183465771843e+02,-3.088657044850560851e+01,-7.133953301939664016e+01,-1.781879767256423293e+02,-2.201582107624990385e+02,-2.676814410519295961e+01,-1.216858785600948067e+01,9.484992027282714844e+00,-8.414105772972106934e-01,-1.376853704452514648e+00,4.180000000000000000e+02
-1.046161453841605180e+02,-1.289676713507574277e+02,-3.348135677563141144e+01,-6.958721696966586023e+01,-1.785048627293683694e+02,-2.177964640425825564e+02,-2.763968266674964980e+01,-1.433023222501492455e+01,9.484992027282714844e+00,-8.414105772972106934e-01,-1.376853704452514648e+00,4.190000000000000000e+02
-1.037188349187554195e+02,-1.254299450284061095e+02,-3.495577471944829995e+01,-6.687650403726684090e+01,-1.790461590412983242e+02,-2.156692947086567074e+02,-2.830071075657019719e+01,-1.547863168357298491e+01,9.484992027282714844e+00,-8.414105772972106934e-01,-1.376853704452514648e+00,4.200000000000000000e+02
-1.032010239774494949e+02,-1.227750317369836921e+02,-3.513811833441354793e+01,-6.446278971894389542e+01,-1.794481378859986762e+02,-2.138460213981497873e+02,-2.872052053005018024e+01,-1.591527923531134547e+01,9.484992027282714844e+00,-8.414105772972106934e-01,-1.376853704452514648e+00,4.210000000000000000e+02
-1.029733547654282120e+02,-1.216265112727639917e+02,-3.467498400849058271e+01,-6.342691634285120017e+01,-1.794884920567481004e+02,-2.123144560442997317e+02,-2.896338920167727338e+01,-1.601520530084826532e+01,9.484992027282714844e+00,-8.414105772972106934e-01,-1.376853704452514648e+00,4.220000000000000000e+02
-1.026597176482450777e+02,-1.217977794389544215e+02,-3.439336284545493072e+01,-6.378473315551264022e+01,-1.789593232340371287e+02,-2.109585707356500279e+02,-2.905789230518098520e+01,-1.561501205399372338e+01,9.484992027282714844e+00,-8.414105772972106934e-01,-1.376853704452514648e+00,4.230000000000000000e+02
-1.018831950174151189e+02,-1.222901474295470052e+02,-3.462393844174175683e+01,-6.446178840209358896e+01,-1.775191183707390792e+02,-2.095660044932178607e+02,-2.886437476303217409e+01,-1.412528617817247323e+01,9.484992027282714844e+00,-8.414105772972106934e-01,-1.376853704452514648e+00,4.240000000000000000e+02
-1.004890772254486819e+02,-1.219316645553933540e+02,-3.501819510738482677e+01,-6.415924145985400173e+01,-1.748340111503284788e+02,-2.078997631780725897e+02,-2.800367636391865744e+01,-1.125360882643144578e+01,9.484992027282714844e+00,-8.414105772972106934e-01,-1.376853704452514648e+00,4.250000000000000000e+02
-9.851714460109838001e+01,-1.201448524427491975e+02,-3.490369707935974475e+01,-6.234389650323873866e+01,-1.709118606500478563e+02,-2.057898203369036310e+02,-2.597010593690492897e+01,-7.541060676316419631e+00,9.484992027282714844e+00,-8.414105772972106934e-01,-1.376853704452514648e+00,4.260000000000000000e+02
-9.603760265774940308e+01,-1.172315784701102075e+02,-3.382249472340458851e+01,-5.953986614772566099e+01,-1.662576717030096916e+02,-2.031899336033220607e+02,-2.250458920443725219e+01,-4.133874602048763336e+00,9.484992027282714844e+00,-8.414105772972106934e-01,-1.376853704452514648e+00,4.270000000000000000e+02
-9.313101550643614246e+01,-1.140007314415281598e+02,-3.189687533346932469e+01,-5.679320190269754676e+01,-1.616638356103367187e+02,-2.002059672841405700e+02,-1.804369836636556101e+01,-2.004359749688774173e+00,9.484992027282714844e+00,-8.414105772972106934e-01,-1.376853704452514648e+00,4.280000000000000000e+02
-9.010306551695384769e+01,-1.111167500847609517e+02,-2.987686071341659044e+01,-5.489648864990658694e+01,-1.578412265647821187e+02,-1.971193400000465772e+02,-1.382812829163685819e+01,-1.376066866340579509e+00,9.484992027282714844e+00,-8.414105772972106934e-01,-1.376853704452514648e+00,4.290000000000000000e+02
-8.765199881515832203e+01,-1.087139421300594222e+02,-2.887540199403110819e+01,-5.403015953176645780e+01,-1.552298314329036657e+02,-1.943635633034778039e+02,-1.138298326836456908e+01,-1.837354929971297679e+00,9.484992027282714844e+00,-8.414105772972106934e-01,-1.376853704452514648e+00,4.300000000000000000e+02
-8.663297256371697586e+01,-1.065180202582214406e+02,-2.984543121283945766e+01,-5.394228779760942416e+01,-1.540372797790996628e+02,-1.923571768125871131e+02,-1.157935488627504128e+01,-2.862783345159868986e+00,9.484992027282714844e+00,-8.414105772972106934e-01,-1.376853704452514648e+00,4.310000000000000000e+02
-8.743807451172074252e+01,-1.042722558554487478e+02,-3.294510922212930382e+01,-5.427824291027309300e+01,-1.542388101221099532e+02,-1.911964628491728035e+02,-1.393216283485935492e+01,-4.104226600587480789e+00,9.484992027282714844e+00,-8.414105772972106934e-01,-1.376853704452514648e+00,4.320000000000000000e+02
-8.950314975336164025e+01,-1.020829609141994752e+02,-3.715229610604728805e+01,-5.470534959396627528e+01,-1.553986809393727526e+02,-1.904340737526626981e+02,-1.673643392787857920e+01,-5.204794685058686809e+00,9.484992027282714844e+00,-8.414105772972106934e-01,-1.376853704452514648e+00,4.330000000000000000e+02
-9.148146148247792553e+01,-1.004239046987004258e+02,-4.055629176982210993e+01,-5.486219251835791511e+01,-1.565560946304112804e+02,-1.892344516418506828e+02,-1.802731863469148266e+01,-5.531926052235803581e+00,9.484992027282714844e+00,-8.414105772972106934e-01,-1.376853704452514648e+00,4.340000000000000000e+02
-9.207705391424815389e+01,-9.980379621924544153e+01,-4.138744114574114974e+01,-5.439631069870529245e+01,-1.565378124142102934e+02,-1.869280864487668623e+02,-1.670796785150560027e+01,-4.380339402076742772e+00,9.484992027282714844e+00,-8.414105772972106934e-01,-1.376853704452514648e+00,4.350000000000000000e+02
-9.090589007256312470e+01,-1.003123694337482448e+02,-3.923015321989987569e+01,-5.317138319331479579e+01,-1.546739609467613263e+02,-1.835692865606692976e+02,-1.309731183079975381e+01,-1.645552545831833413e+00,9.484992027282714844e+00,-8.414105772972106934e-01,-1.376853704452514648e+00,4.360000000000000000e+02
-8.868291495377479805e+01,-1.013373164972663290e+02,-3.551092855128376868e+01,-5.141887314899759076e+01,-1.513735560654927212e+02,-1.799822343895311860e+02,-8.632496237531540828e+00,1.703333480794753996e+00,9.446745872497558594e+00,-7.649186849594116211e-01,-1.415099620819091797e+00,4.370000000000000000e+02
-8.662460423035076928e+01,-1.017048397464586742e+02,-3.274159240921449054e+01,-4.960240112388964917e+01,-1.479836446031636115e+02,-1.771824877399562865e+02,-5.058865150790325060e+00,4.014993090429470612e+00,9.446745872497558594e+00,-7.649186849594116211e-01,-1.415099620819091797e+00,4.380000000000000000e+02
-8.560241758087090602e+01,-1.002713093239431146e+02,-3.291341660805574065e+01,-4.806427431245447224e+01,-1.459260086763874824e+02,-1.756313696456400066e+02,-3.641694470664788241e+00,4.081848604507285927e+00,9.446745872497558594e+00,-7.649186849594116211e-01,-1.415099620819091797e+00,4.390000000000000000e+02
-8.569731580090592615e+01,-9.666562148789307685e+01,-3.615404433198432343e+01,-4.679192364642267421e+01,-1.457659992329686247e+02,-1.749607661048626142e+02,-4.719841762431769894e+00,2.081971285376084779e+00,9.446745872497558594e+00,-7.649186849594116211e-01,-1.415099620819091797e+00,4.400000000000000000e+02
-8.638084962081893536e+01,-9.168147974346561568e+01,-4.065087031370103432e+01,-4.554222124546504347e+01,-1.469464408679095868e+02,-1.743846283719585699e+02,-7.662524232063105956e+00,-5.541289346449502773e-01,9.446745872497558594e+00,-7.649186849594116211e-01,-1.415099620819091797e+00,4.410000000000000000e+02
-8.702076219764126108e+01,-8.697101614493340094e+01,-4.390685524321406774e+01,-4.420600551390407418e+01,-1.483467223967245445e+02,-1.733930692540529890e+02,-1.119861959528998341e+01,-2.309931148496843889e+00,9.446745872497558594e+00,-7.649186849594116211e-01,-1.415099620819091797e+00,4.420000000000000000e+02
-8.725119208272099058e+01,-8.418441994089516811e+01,-4.436704687612223097e+01,-4.305169756826353478e+01,-1.491284302885983379e+02,-1.721011567426166948e+02,-1.404404691315812670e+01,-2.768001131202026954e+00,9.446745872497558594e+00,-7.649186849594116211e-01,-1.415099620819091797e+00,4.430000000000000000e+02
-8.700874033881973446e+01,-8.412985789415165527e+01,-4.220947774041019329e+01,-4.259513464968040353e+01,-1.491456994240438689e+02,-1.709838007629327876e+02,-1.558071484850052002e+01,-2.760661778878329642e+00,9.446745872497558594e+00,-7.649186849594116211e-01,-1.415099620819091797e+00,4.440000000000000000e+02
-8.635791962953771872e+01,-8.648973053543227252e+01,-3.882537111567603461e+01,-4.317653272595862290e+01,-1.486620736885693077e+02,-1.703096392144311721e+02,-1.614934548167730100e+01,-3.401081261832814562e+00,9.446745872497558594e+00,-7.649186849594116211e-01,-1.415099620819091797e+00,4.450000000000000000e+02
-8.533382345412246650e+01,-9.017789038304454152e+01,-3.559305191877547259e+01,-4.460878005406402735e+01,-1.477883169601054760e+02,-1.698502344097960304e+02,-1.666866250462794596e+01,-4.962571655679312244e+00,9.446745872497558594e+00,-7.649186849594116211e-01,-1.415099620819091797e+00,4.460000000000000000e+02
-8.392814474081205844e+01,-9.395815010095316211e+01,-3.303887898932066491e+01,-4.622657683111992810e+01,-1.462770988400793613e+02,-1.691330138015969169e+02,-1.782889805210470513e+01,-6.671634020131932630e+00,9.446745872497558594e+00,-7.649186849594116211e-01,-1.415099620819091797e+00,4.470000000000000000e+02
-8.217843051299450963e+01,-9.686379169245492449e+01,-3.096873855260923847e+01,-4.735410047742698225e+01,-1.439102578231600091e+02,-1.679744214499519330e+02,-1.953622832446490065e+01,-7.546806797710814863e+00,9.446745872497558594e+00,-7.649186849594116211e-01,-1.415099620819091797e+00,4.480000000000000000e+02
-8.024466867719229413e+01,-9.830613938170040456e+01,-2.916942485674962882e+01,-4.785942570897123005e+01,-1.410520761892003065e+02,-1.667601862030496704e+02,-2.108396726112141550e+01,-7.395551372009322222e+00,9.446745872497558594e+00,-7.649186849594116211e-01,-1.415099620819091797e+00,4.490000000000000000e+02
-7.834715754226340323e+01,-9.805088300351053476e+01,-2.780539559536146044e+01,-4.831964982693580168e+01,-1.386809267466578603e+02,-1.661650841115538242e+02,-2.182076530493259270e+01,-6.968309272045416947e+00,9.446745872497558594e+00,-7.649186849594116211e-01,-1.415099620819091797e+00,4.500000000000000000e+02
-7.657702889784991385e+01,-9.623937821094250467e+01,-2.709872793407248537e+01,-4.957918565572526859e+01,-1.376905151634623508e+02,-1.665218585013108168e+02,-2.162468397586508218e+01,-7.152177005259318321e+00,9.446745872497558594e+00,-7.649186849594116211e-01,-1.415099620819091797e+00,4.510000000000000000e+02
-7.476383812833068987e+01,-9.340595188817360395e+01,-2.678770413139227458e+01,-5.198181514642783441e+01,-1.380410792639650026e+02,-1.674095263296917437e+02,-2.077760220718209894e+01,-8.064343032703845893e+00,9.446745872497558594e+00,-7.649186849594116211e-01,-1.415099620819091797e+00,4.520000000000000000e+02
-7.261982616358318410e+01,-9.031007945658939207e+01,-2.617168629527509438e+01,-5.491609198029118488e+01,-1.386336746024635431e+02,-1.678813011917613949e+02,-1.954876644024420784e+01,-8.971126967987629541e+00,9.446745872497558594e+00,-7.649186849594116211e-01,-1.415099620819091797e+00,4.530000000000000000e+02
-7.014947178348666057e+01,-8.758678401341921926e+01,-2.488093993334427978e+01,-5.714323979797018183e+01,-1.381750260677067672e+02,-1.671854876825968859e+02,-1.807895758753488735e+01,-9.082870780290249968e+00,9.446745872497558594e+00,-7.649186849594116211e-01,-1.415099620819091797e+00,4.540000000000000000e+02
-6.795752438185013489e+01,-8.546484119500064480e+01,-2.355329201937297512e+01,-5.772940541423213290e+01,-1.363087349833049302e+02,-1.653579713235735653e+02,-1.668035678455134985e+01,-8.377827608568850337e+00,9.446745872497558594e+00,-7.649186849594116211e-01,-1.415099620819091797e+00,4.550000000000000000e+02
-6.700968239286953576e+01,-8.379893893695839324e+01,-2.350698443357896394e+01,-5.681136259661934673e+01,-1.339211077905652019e+02,-1.631377037245256361e+02,-1.600996114116537683e+01,-7.595781640696486647e+00,9.446745872497558594e+00,-7.649186849594116211e-01,-1.415099620819091797e+00,4.560000000000000000e+02
-6.785344699414736169e+01,-8.237861463968647513e+01,-2.548191733690350702e+01,-5.548497122610433507e+01,-1.322606533637549546e+02,-1.612644696285597092e+02,-1.662272606990427448e+01,-7.403919706501483233e+00,9.446745872497558594e+00,-7.649186849594116211e-01,-1.415099620819091797e+00,4.570000000000000000e+02
-6.990775947047063710e+01,-8.120725534716279981e+01,-2.862661566063434293e+01,-5.485993421423791006e+01,-1.316862195570756739e+02,-1.598084102248112686e+02,-1.819502470590396115e+01,-7.575320764134630735e+00,9.446745872497558594e+00,-7.649186849594116211e-01,-1.415099620819091797e+00,4.580000000000000000e+02
-7.153936714174369627e+01,-8.048489124811840156e+01,-3.084927707675092279e+01,-5.509169842498295111e+01,-1.312568154929399498e+02,-1.581525912701108609e+02,-1.931139846653650238e+01,-7.008126086295078494e+00,9.446745872497558594e+00,-7.649186849594116211e-01,-1.415099620819091797e+00,4.590000000000000000e+02
-7.105197198479231702e+01,-8.033330978228786989e+01,-3.037893231003999972e+01,-5.525152183562431674e+01,-1.295832931553413800e+02,-1.556139915992571332e+02,-1.832539238392382686e+01,-4.612255881586179385e+00,9.446745872497558594e+00,-7.649186849594116211e-01,-1.415099620819091797e+00,4.600000000000000000e+02
-6.786637814679943403e+01,-8.053557790043873865e+01,-2.716055530840753818e+01,-5.414893063696490572e+01,-1.261196357241738042e+02,-1.520776866791429711e+02,-1.470554686149262125e+01,-2.862419417911041819e-01,9.446745872497558594e+00,-7.649186849594116211e-01,-1.415099620819091797e+00,4.610000000000000000e+02
-6.293683014645284857e+01,-8.053793241721473350e+01,-2.282845254718085926e+01,-5.138265704291552538e+01,-1.216812178157647395e+02,-1.480699399238342266e+02,-9.651625319001368553e+00,4.826029398622267763e+00,9.446745872497558594e+00,-8.414105772972106934e-01,-1.338607788085937500e+00,4.620000000000000000e+02
-5.810028988162116548e+01,-7.971628525051210090e+01,-1.934844347057082814e+01,-4.772385865191290577e+01,-1.177796805799075628e+02,-1.443088429815584277e+02,-5.324701927888327191e+00,8.973274273293554870e+00,9.446745872497558594e+00,-8.414105772972106934e-01,-1.338607788085937500e+00,4.630000000000000000e+02
-5.495082635025732998e+01,-7.770708239437794873e+01,-1.764375011137190086e+01,-4.455449833563352513e+01,-1.154796595433103903e+02,-1.412548157029227696e+02,-3.300767009825676723e+00,1.081027529989160030e+01,9.446745872497558594e+00,-8.414105772972106934e-01,-1.338607788085937500e+00,4.640000000000000000e+02
-5.410418389042979470e+01,-7.459573645735827085e+01,-1.737214258552080537e+01,-4.289562635505808430e+01,-1.147967531633585168e+02,-1.390499201074230768e+02,-3.558245054796316253e+00,1.009521976659857501e+01,9.446745872497558594e+00,-8.414105772972106934e-01,-1.338607788085937500e+00,4.650000000000000000e+02
-5.519468293866134445e+01,-7.088085816181205701e+01,-1.775201362596408217e+01,-4.281353501490457347e+01,-1.149766010728162655e+02,-1.377079332194653034e+02,-4.769677613131761973e+00,7.713540700173325604e+00,9.446745872497558594e+00,-8.414105772972106934e-01,-1.338607788085937500e+00,4.660000000000000000e+02
-5.728103521389152775e+01,-6.726946647808722446e+01,-1.836426533828989704e+01,-4.357876009396431982e+01,-1.151647913385177162e+02,-1.371560540735940776e+02,-5.473016708451268642e+00,5.127892066847834940e+00,9.446745872497558594e+00,-8.414105772972106934e-01,-1.338607788085937500e+00,4.670000000000000000e+02
-5.923210017669020999e+01,-6.439479198228377754e+01,-1.916217626621505588e+01,-4.431763606327740490e+01,-1.148457148191728265e+02,-1.370493443538889551e+02,-5.048462581322155529e+00,3.609494789018754091e+00,9.446745872497558594e+00,-8.414105772972106934e-01,-1.338607788085937500e+00,4.680000000000000000e+02
-6.003119025183104895e+01,-6.257050779115047590e+01,-1.996504950949884005e+01,-4.458407767974586022e+01,-1.139042465213019568e+02,-1.367060070778620684e+02,-3.832709038894336118e+00,3.630964711566093683e+00,9.446745872497558594e+00,-8.414105772972106934e-01,-1.338607788085937500e+00,4.690000000000000000e+02
-5.915240126360276918e+01,-6.169874774668051032e+01,-2.027745101012442319e+01,-4.447637060619354088e+01,-1.125621652847939913e+02,-1.354558754656263773e+02,-2.574827993289773076e+00,4.696192415793120745e+00,9.446745872497558594e+00,-8.414105772972106934e-01,-1.338607788085937500e+00,4.700000000000000000e+02
-5.693334182410035282e+01,-6.140407523249177757e+01,-1.975951363013882656e+01,-4.434941500718241514e+01,-1.113242290897351268e+02,-1.331755509287390851e+02,-1.899674476068867079e+00,5.705029959181501908e+00,9.446745872497558594e+00,-8.414105772972106934e-01,-1.338607788085937500e+00,4.710000000000000000e+02
-5.454370383760692675e+01,-6.133112252860655644e+01,-1.876631037242100319e+01,-4.444754042750309964e+01,-1.107926497713992831e+02,-1.304416814695828180e+02,-2.158332644616848484e+00,5.679545991225722901e+00,9.446745872497558594e+00,-8.414105772972106934e-01,-1.338607788085937500e+00,4.720000000000000000e+02
-5.330447545697666101e+01,-6.138681508694230615e+01,-1.820592108023674882e+01,-4.474570613646892525e+01,-1.112556349186058924e+02,-1.280453069419327221e+02,-3.488261924027028726e+00,4.435479528032601593e+00,9.446745872497558594e+00,-8.414105772972106934e-01,-1.338607788085937500e+00,4.730000000000000000e+02
-5.374814639642772818e+01,-6.171186434813625965e+01,-1.871188398785011486e+01,-4.505069895773704047e+01,-1.122940162330721705e+02,-1.262749978535862283e+02,-5.728737880729113385e+00,2.797447159186503995e+00,9.446745872497558594e+00,-8.414105772972106934e-01,-1.338607788085937500e+00,4.740000000000000000e+02
-5.521896852021700397e+01,-6.237962711692171069e+01,-1.992982869970774118e+01,-4.519417971165421477e+01,-1.128294424666496525e+02,-1.246728570037730606e+02,-8.197762306793720199e+00,2.205623121447388257e+00,9.446745872497558594e+00,-8.414105772972106934e-01,-1.338607788085937500e+00,4.750000000000000000e+02
-5.641874506529711653e+01,-6.308907666532923031e+01,-2.065941172191537589e+01,-4.512087595242837779e+01,-1.117202524884605737e+02,-1.225170783568578372e+02,-9.709903604049031856e+00,3.917577553238515975e+00,9.446745872497558594e+00,-8.414105772972106934e-01,-1.338607788085937500e+00,4.760000000000000000e+02
-5.642365950955013432e+01,-6.317907394482062955e+01,-1.973297657750799772e+01,-4.481753097003775110e+01,-1.085060592373115469e+02,-1.195589509122432901e+02,-9.118957459903185736e+00,8.236755228619358604e+00,9.446745872497558594e+00,-8.414105772972106934e-01,-1.338607788085937500e+00,4.770000000000000000e+02
-5.525015525871594946e+01,-6.203056543250340837e+01,-1.685048553418482697e+01,-4.420011877308934345e+01,-1.037540309023370355e+02,-1.163223195197601854e+02,-6.152270203638181556e+00,1.416244440264244986e+01,9.446745872497558594e+00,-8.414105772972106934e-01,-1.338607788085937500e+00,4.780000000000000000e+02
-5.350803579403941512e+01,-5.954851233550402867e+01,-1.271030615306608524e+01,-4.309969321202265746e+01,-9.878131524975901812e+01,-1.137173071755864839e+02,-1.854096779023620911e+00,1.966823846018723998e+01,9.446745872497558594e+00,-8.414105772972106934e-01,-1.338607788085937500e+00,4.790000000000000000e+02
-5.162388186036696425e+01,-5.629684996616333592e+01,-8.484540118783570506e+00,-4.137789062828096576e+01,-9.499204259972862019e+01,-1.123620143909756735e+02,1.893653573608617080e+00,2.256208415389710353e+01,9.446745872497558594e+00,-8.414105772972106934e-01,-1.338607788085937500e+00,4.800000000000000000e+02
-4.948322178692160378e+01,-5.311759629446214603e+01,-5.180141389214668379e+00,-3.905727144125103223e+01,-9.322726030460125912e+01,-1.121764766581150070e+02,3.599330543731866783e+00,2.160962105487260487e+01,9.446745872497558594e+00,-8.414105772972106934e-01,-1.338607788085937500e+00,4.810000000000000000e+02
-4.678849627515251086e+01,-5.052746124823784157e+01,-3.304372121983760735e+00,-3.633668353517782634e+01,-9.342144032893315853e+01,-1.124744513878804355e+02,3.250553991533706721e+00,1.733394720938258615e+01,9.446745872497558594e+00,-8.414105772972106934e-01,-1.338607788085937500e+00,4.820000000000000000e+02
-4.363690014829239772e+01,-4.841058017824457238e+01,-2.842749159496634093e+00,-3.349852112311896235e+01,-9.470267215027115526e+01,-1.123731043864486310e+02,2.325553699333340774e+00,1.188269845320451168e+01,9.446745872497558594e+00,-8.414105772972106934e-01,-1.338607788085937500e+00,4.830000000000000000e+02
-4.061202079339386728e+01,-4.626121154004772507e+01,-3.345198693253905731e+00,-3.079824396370099748e+01,-9.589873554557107127e+01,-1.111991707611746278e+02,2.609558552264616083e+00,7.840485133394622608e+00,9.446745872497558594e+00,-8.414105772972106934e-01,-1.338607788085937500e+00,4.840000000000000000e+02
-3.830341876170996329e+01,-4.374686144374686592e+01,-4.065388972292112157e+00,-2.840728198904707824e+01,-9.621983573795750999e+01,-1.087197427226890341e+02,4.719720121470800223e+00,6.662282956419403490e+00,9.446745872497558594e+00,-8.414105772972106934e-01,-1.338607788085937500e+00,4.850000000000000000e+02
-3.684952625406549487e+01,-4.110004509415307439e+01,-4.243427201234453605e+00,-2.640402115567212604e+01,-9.569733858437143681e+01,-1.051908008436887485e+02,7.570629571342578856e+00,7.840349430738569936e+00,9.446745872497558594e+00,-8.414105772972106934e-01,-1.338607788085937500e+00,4.860000000000000000e+02
-3.604356315224208629e+01,-3.902141795824377368e+01,-3.505916565905181415e+00,-2.478220865332014000e+01,-9.500901874175724515e+01,-1.012445872533776310e+02,9.259627774054933980e+00,9.481641883209704247e+00,9.446745872497558594e+00,-8.414105772972106934e-01,-1.338607788085937500e+00,4.870000000000000000e+02
-3.581978702151513971e+01,-3.821497704860098565e+01,-2.096749465999891981e+00,-2.348595528273676791e+01,-9.475147746796756110e+01,-9.763799894216958819e+01,8.646578025013695878e+00,9.899864438020358648e+00,9.446745872497558594e+00,-8.414105772972106934e-01,-1.338607788085937500e+00,4.880000000000000000e+02
-3.642426902891111240e+01,-3.894313859365456665e+01,-6.213730326644508750e-01,-2.248252788308423078e+01,-9.471475263097613606e+01,-9.493701631184171674e+01,6.308317890373928094e+00,8.953093813639952714e+00,9.446745872497558594e+00,-8.031646609306335449e-01,-1.376853704452514648e+00,4.890000000000000000e+02
-3.792565496043039275e+01,-4.087693689992761392e+01,6.056325193947031948e-01,-2.181885774395959743e+01,-9.379541342193169839e+01,-9.329503505202001179e+01,4.099941282042664170e+00,8.052170112272051483e+00,9.446745872497558594e+00,-8.031646609306335449e-01,-1.376853704452514648e+00,4.900000000000000000e+02
-3.956504060246811605e+01,-4.323033602205259740e+01,2.061094493482414691e+00,-2.158028749294658155e+01,-9.069243442431161384e+01,-9.246235859898570197e+01,3.771169052931099941e+00,8.900410162047592166e+00,9.446745872497558594e+00,-8.031646609306335449e-01,-1.376853704452514648e+00,4.910000000000000000e+02
-3.982335431022215744e+01,-4.503023906530256681e+01,4.814761852997889946e+00,-2.175245855799585115e+01,-8.487843463722151682e+01,-9.201282627891328048e+01,5.821045743487502477e+00,1.207856414201842199e+01,9.446745872497558594e+00,-8.031646609306335449e-01,-1.376853704452514648e+00,4.920000000000000000e+02
-3.746207172533695484e+01,-4.543938974203479120e+01,9.622189722382927357e+00,-2.213577053328867805e+01,-7.712311686522707532e+01,-9.163932748469323997e+01,9.410148737382314721e+00,1.663282344233971344e+01,9.446745872497558594e+00,-8.031646609306335449e-01,-1.376853704452514648e+00,4.930000000000000000e+02
-3.272524040131133916e+01,-4.411590724106531525e+01,1.596644232863195612e+01,-2.245953063009528705e+01,-6.921522279740224803e+01,-9.133031671386720518e+01,1.315562657736131769e+01,2.085736022566720749e+01,9.446745872497558594e+00,-8.031646609306335449e-01,-1.376853704452514648e+00,4.940000000000000000e+02
-2.752614158482163020e+01,-4.147504846494734920e+01,2.191156404361299792e+01,-2.261493975512075849e+01,-6.312006287854228503e+01,-9.130797755665457771e+01,1.598664363472255445e+01,2.348827496194428477e+01,9.446745872497558594e+00,-8.031646609306335449e-01,-1.376853704452514648e+00,4.950000000000000000e+02
-2.426163936261821163e+01,-3.862202606668006410e+01,2.508441844241929175e+01,-2.274423983253518600e+01,-6.012350533187282053e+01,-9.176374776013972223e+01,1.743794474305570930e+01,2.434835673226359631e+01,9.446745872497558594e+00,-8.031646609306335449e-01,-1.376853704452514648e+00,4.960000000000000000e+02
-2.413597934227982478e+01,-3.685273037932142870e+01,2.423053906807319891e+01,-2.304272408249494219e+01,-6.039344311967511203e+01,-9.257954077249041802e+01,1.745277921408194288e+01,2.409120826363607648e+01,9.446745872497558594e+00,-8.031646609306335449e-01,-1.376853704452514648e+00,4.970000000000000000e+02
-2.636543121325883021e+01,-3.697145602742261872e+01,2.023574393055400833e+01,-2.347347346603601181e+01,-6.308127117433969033e+01,-9.327683259458740395e+01,1.617580391754313496e+01,2.346232416927875875e+01,9.446745872497558594e+00,-8.031646609306335449e-01,-1.376853704452514648e+00,4.980000000000000000e+02
-2.887769733878440093e+01,-3.890431961710532960e+01,1.577556074765675476e+01,-2.375590236182483750e+01,-6.681937443408787658e+01,-9.329517012057863212e+01,1.400126015305647798e+01,2.272996884942756424e+01,9.446745872497558594e+00,-8.031646609306335449e-01,-1.376853704452514648e+00,4.990000000000000000e+02
-2.984473121227233605e+01,-4.188268647169900305e+01,1.371542801134273759e+01,-2.370423877532175538e+01,-7.033180174462779632e+01,-9.242535254480435469e+01,1.167834076455028480e+01,2.164089420718232759e+01,9.446745872497558594e+00,-8.031646609306335449e-01,-1.376853704452514648e+00,5.000000000000000000e+02
-2.881714918768125244e+01,-4.497048121977161372e+01,1.532233579801140877e+01,-2.355114846637729897e+01,-7.285705922728880068e+01,-9.101755997422026212e+01,1.013840973624724029e+01,1.983283308175896309e+01,9.446745872497558594e+00,-8.031646609306335449e-01,-1.376853704452514648e+00,5.010000000000000000e+02
-2.672776938870458707e+01,-4.742942548488861121e+01,1.955528267766999306e+01,-2.381067332479437937e+01,-7.419169928506289580e+01,-8.971036711014028242e+01,1.002202061803836841e+01,1.735456090917455185e+01,9.446745872497558594e+00,-8.031646609306335449e-01,-1.376853704452514648e+00,5.020000000000000000e+02
-2.501935533532105183e+01,-4.870655246683907080e+01,2.394487770871944576e+01,-2.471635066630494748e+01,-7.442234269811388003e+01,-8.886314009416332738e+01,1.125447936820557970e+01,1.491372247527016270e+01,9.446745872497558594e+00,-8.031646609306335449e-01,-1.376853704452514648e+00,5.030000000000000000e+02
-2.467332350143033182e+01,-4.831155966105836796e+01,2.641908385659098712e+01,-2.578726353345575717e+01,-7.361412153315029627e+01,-8.818227092704705683e+01,1.307865246663982361e+01,1.364929865050009994e+01,9.446745872497558594e+00,-8.031646609306335449e-01,-1.376853704452514648e+00,5.040000000000000000e+02
-2.572717358662589504e+01,-4.600049873117251309e+01,2.669816716231741793e+01,-2.605573575668017838e+01,-7.174014470596205229e+01,-8.692631244882227293e+01,1.457547044730017660e+01,1.447684931364233307e+01,9.446745872497558594e+00,-8.031646609306335449e-01,-1.376853704452514648e+00,5.050000000000000000e+02
-2.739176173678561099e+01,-4.223863302409716880e+01,2.621707300731395662e+01,-2.485854364511908443e+01,-6.889391538205501320e+01,-8.456646469369775332e+01,1.527732837003281929e+01,1.739158513697640274e+01,9.446745872497558594e+00,-8.031646609306335449e-01,-1.376853704452514648e+00,5.060000000000000000e+02
-2.855622187894567787e+01,-3.836550157592955657e+01,2.671154066280638517e+01,-2.247128958397308907e+01,-6.553000041124380459e+01,-8.132298245460668795e+01,1.541689671371028680e+01,2.128884908826034916e+01,9.446745872497558594e+00,-8.031646609306335449e-01,-1.376853704452514648e+00,5.070000000000000000e+02
-2.843175674468636771e+01,-3.599607889494922119e+01,2.867033073213406169e+01,-1.997170511685141037e+01,-6.245422277894115837e+01,-7.810770164081361600e+01,1.564614960732245663e+01,2.455273182070069993e+01,9.446745872497558594e+00,-8.031646609306335449e-01,-1.376853704452514648e+00,5.080000000000000000e+02
-2.702123160821075487e+01,-3.592211816976973182e+01,3.096529561708921108e+01,-1.842136053965100473e+01,-6.048407378720520455e+01,-7.590828168657884589e+01,1.649641197441569318e+01,2.605925159024839388e+01,9.446745872497558594e+00,-8.031646609306335449e-01,-1.376853704452514648e+00,5.090000000000000000e+02
-2.507195449305051227e+01,-3.744053463303261253e+01,3.195787977873129648e+01,-1.808825472702285708e+01,-5.998540441168606208e+01,-7.513262495221999870e+01,1.800357665563578990e+01,2.582770907726789034e+01,9.446745872497558594e+00,-8.031646609306335449e-01,-1.376853704452514648e+00,5.100000000000000000e+02
-2.341733463868507670e+01,-3.882843654528198840e+01,3.109483773961383690e+01,-1.835669927745063035e+01,-6.060186500147662514e+01,-7.542373336682845775e+01,1.975138797441557870e+01,2.482613407812126383e+01,9.446745872497558594e+00,-8.031646609306335449e-01,-1.376853704452514648e+00,5.110000000000000000e+02
-2.216755340775171135e+01,-3.867710644339422288e+01,2.954337628081495382e+01,-1.832013058645333103e+01,-6.139019063123288333e+01,-7.601368833539305570e+01,2.121908934737533059e+01,2.416377777050340114e+01,9.446745872497558594e+00,-8.031646609306335449e-01,-1.376853704452514648e+00,5.120000000000000000e+02
-2.053130030031877595e+01,-3.697270434708036646e+01,2.925122140262072890e+01,-1.749808762650616245e+01,-6.133986349008324623e+01,-7.627068979963178208e+01,2.209451370715592589e+01,2.439330648555261405e+01,9.446745872497558594e+00,-8.031646609306335449e-01,-1.376853704452514648e+00,5.130000000000000000e+02
-1.759182832953871412e+01,-3.498951994328274395e+01,3.125249086409647248e+01,-1.610129934992039580e+01,-5.998553976141568000e+01,-7.600420946371406217e+01,2.234458930468650806e+01,2.543675288655248323e+01,9.446745872497558594e+00,-8.031646609306335449e-01,-1.376853704452514648e+00,5.140000000000000000e+02
-1.341745442951332734e+01,-3.412123799695791604e+01,3.473926779040937163e+01,-1.472935590830513775e+01,-5.771519496551377415e+01,-7.536202199023864523e+01,2.210867284040011782e+01,2.696239846633289972e+01,9.446745872497558594e+00,-8.031646609306335449e-01,-1.376853704452514648e+00,5.150000000000000000e+02
-9.391961833763275536e+00,-3.471356713618945378e+01,3.772076055082231960e+01,-1.384631965253186081e+01,-5.552100895274020331e+01,-7.449805230547303836e+01,2.162708312314867953e+01,2.865679784292319709e+01,9.446745872497558594e+00,-8.031646609306335449e-01,-1.376853704452514648e+00,5.160000000000000000e+02
-7.279898922412257889e+00,-3.588565121224314680e+01,3.863629872646743024e+01,-1.346164168076063561e+01,-5.432630794604438051e+01,-7.334920608953825649e+01,2.126547848648397121e+01,3.014028198937728575e+01,9.446745872497558594e+00,-8.031646609306335449e-01,-1.376853704452514648e+00,5.170000000000000000e+02
-7.813685327680786941e+00,-3.637540594957215490e+01,3.743882587922962557e+01,-1.320979958170607915e+01,-5.438305505772996185e+01,-7.173635149840060876e+01,2.145460214001877830e+01,3.082840978382375852e+01,9.446745872497558594e+00,-8.031646609306335449e-01,-1.376853704452514648e+00,5.180000000000000000e+02
-1.013674458688319646e+01,-3.555479913869169195e+01,3.523500833640991914e+01,-1.270943582383711146e+01,-5.520960867191251964e+01,-6.969303721370124549e+01,2.240064327003892686e+01,3.014504307215167955e+01,9.446745872497558594e+00,-8.031646609306335449e-01,-1.376853704452514648e+00,5.190000000000000000e+02
-1.262745193162754731e+01,-3.375249252932007948e+01,3.299441952161919289e+01,-1.191070942542637567e+01,-5.609877139485456610e+01,-6.770279596313730508e+01,2.372216652409565540e+01,2.798807421863716627e+01,9.484992027282714844e+00,-8.031646609306335449e-01,-1.338607788085937500e+00,5.200000000000000000e+02
-1.425699167811671941e+01,-3.177587812180206583e+01,3.069926513991822503e+01,-1.117245870856686452e+01,-5.672738772910179250e+01,-6.656138833751379025e+01,2.442996128038862480e+01,2.489187223036685737e+01,9.484992027282714844e+00,-8.031646609306335449e-01,-1.338607788085937500e+00,5.210000000000000000e+02
-1.513255499811202753e+01,-3.023460104132027482e+01,2.776414664085564254e+01,-1.100168662077999215e+01,-5.732473544781737473e+01,-6.688535810331859466e+01,2.347841223558839374e+01,2.156614796141479928e+01,9.484992027282714844e+00,-8.031646609306335449e-01,-1.338607788085937500e+00,5.220000000000000000e+02
-1.580130769675770352e+01,-2.927062071802561150e+01,2.421609550294147084e+01,-1.164223260828657658e+01,-5.829456692780468074e+01,-6.862431992543361048e+01,2.058759476797513344e+01,1.825289654914240600e+01,9.484992027282714844e+00,-8.031646609306335449e-01,-1.338607788085937500e+00,5.230000000000000000e+02
-1.621999570254502032e+01,-2.875692200870867055e+01,2.135038089887075330e+01,-1.282441194904413351e+01,-5.967646059356798105e+01,-7.098497947714236034e+01,1.667605139972920369e+01,1.470433295926272876e+01,9.484992027282714844e+00,-8.031646609306335449e-01,-1.338607788085937500e+00,5.240000000000000000e+02
-1.560789644675878662e+01,-2.857412455016174135e+01,2.108372493086699251e+01,-1.388189759490478536e+01,-6.092882423696073602e+01,-7.285880636291062729e+01,1.346889338054324980e+01,1.097370949967194065e+01,9.484992027282714844e+00,-8.031646609306335449e-01,-1.338607788085937500e+00,5.250000000000000000e+02
-1.334713456147937904e+01,-2.865599072452778273e+01,2.451548248003200570e+01,-1.415676968444086015e+01,-6.119617095704143139e+01,-7.344002884167548473e+01,1.250365472263410993e+01,8.182340882997095832e+00,9.484992027282714844e+00,-8.031646609306335449e-01,-1.338607788085937500e+00,5.260000000000000000e+02
-9.877832150539006761e+00,-2.887141799806386189e+01,3.098239296912925056e+01,-1.337865585081999598e+01,-5.981792384251593830e+01,-7.258013999502600200e+01,1.425045836703088753e+01,8.188078076224655888e+00,9.484992027282714844e+00,-8.031646609306335449e-01,-1.338607788085937500e+00,5.270000000000000000e+02
-6.530054268335788947e+00,-2.898862457391192038e+01,3.840203420097850540e+01,-1.174673213726964605e+01,-5.673655574904887544e+01,-7.069281271570798708e+01,1.794623574114257281e+01,1.208887789093023457e+01,9.484992027282714844e+00,-8.031646609306335449e-01,-1.338607788085937500e+00,5.280000000000000000e+02
-4.401440471259775222e+00,-2.879437974879965623e+01,4.455506957105808397e+01,-9.700958988764341484e+00,-5.259077260816320631e+01,-6.839177710711373948e+01,2.217309119573633325e+01,1.884412950175442347e+01,9.484992027282714844e+00,-8.031646609306335449e-01,-1.338607788085937500e+00,5.290000000000000000e+02
-3.419782239473533991e+00,-2.819613213000934593e+01,4.827010699726270104e+01,-7.605564743679224193e+00,-4.845118675580670242e+01,-6.616741061495667964e+01,2.570923660587800441e+01,2.552180531399903884e+01,9.484992027282714844e+00,-8.031646609306335449e-01,-1.338607788085937500e+00,5.300000000000000000e+02
-2.536777625542072201e+00,-2.714062825884184349e+01,4.974824215684861883e+01,-5.583191812194854720e+00,-4.528714022516714977e+01,-6.425553146191077758e+01,2.809858418465864816e+01,2.929024078157340227e+01,9.484992027282714844e+00,-8.031646609306335449e-01,-1.338607788085937500e+00,5.310000000000000000e+02
-8.147407249739444524e-01,-2.546025523892649289e+01,5.005142422014569092e+01,-3.565105876221423387e+00,-4.341998997417249484e+01,-6.266126341326116744e+01,2.966886300819078315e+01,2.953615893451819829e+01,9.484992027282714844e+00,-8.031646609306335449e-01,-1.338607788085937500e+00,5.320000000000000000e+02
1.705880595201961114e+00,-2.292510541202136665e+01,5.030475869703604985e+01,-1.464086805776787514e+00,-4.233891549694271816e+01,-6.126476532817287080e+01,3.108945400034008344e+01,2.818654959708192109e+01,9.484992027282714844e+00,-8.031646609306335449e-01,-1.338607788085937500e+00,5.330000000000000000e+02
4.174855948936510686e+00,-1.955587331713741150e+01,5.114262482046069636e+01,6.773481735126551939e-01,-4.109883594585699029e+01,-5.996387649187818170e+01,3.279815449777470349e+01,2.789158978883824602e+01,9.484992027282714844e+00,-8.031646609306335449e-01,-1.338607788085937500e+00,5.340000000000000000e+02
5.828915163509009290e+00,-1.591504193805167233e+01,5.256035201310760385e+01,2.645397257185777562e+00,-3.908050524777854662e+01,-5.880546001529455680e+01,3.465840946166099457e+01,2.970687931769771239e+01,9.484992027282714844e+00,-8.031646609306335449e-01,-1.338607788085937500e+00,5.350000000000000000e+02
6.639412095883926668e+00,-1.298512676002155786e+01,5.408286398348764124e+01,4.147633184687947505e+00,-3.649349645694701394e+01,-5.798662498771000173e+01,3.608780339931809067e+01,3.237752301723548953e+01,9.484992027282714844e+00,-8.031646609306335449e-01,-1.338607788085937500e+00,5.360000000000000000e+02
7.106632085585715686e+00,-1.159599509913186921e+01,5.512325399037354146e+01,5.006201831040016259e+00,-3.415164940469458088e+01,-5.765531914930215862e+01,3.659516878937574802e+01,3.377800556879265059e+01,9.484992027282714844e+00,-8.031646609306335449e-01,-1.338607788085937500e+00,5.370000000000000000e+02
7.543638149361413525e+00,-1.182956362103959691e+01,5.538856506969841575e+01,5.339321458135145804e+00,-3.272092192742456973e+01,-5.766107250550749086e+01,3.633271257068417981e+01,3.300569302269695982e+01,9.484992027282714844e+00,-8.031646609306335449e-01,-1.338607788085937500e+00,5.380000000000000000e+02
7.685401949986044201e+00,-1.291344478886230718e+01,5.512419944314115128e+01,5.583666293624446553e+00,-3.216497238323154306e+01,-5.753841056883811689e+01,3.617307415196819420e+01,3.109966619169563273e+01,9.484992027282714844e+00,-8.031646609306335449e-01,-1.338607788085937500e+00,5.390000000000000000e+02
7.035440542864307645e+00,-1.371795417283965435e+01,5.498544292660790234e+01,6.272431825328567356e+00,-3.191842387544147641e+01,-5.683584345047256647e+01,3.713306279229982465e+01,2.980949012957353261e+01,9.484992027282714844e+00,-8.031646609306335449e-01,-1.338607788085937500e+00,5.400000000000000000e+02
5.547503655712262116e+00,-1.347289793910385924e+01,5.556593883431423819e+01,7.663498511134093860e+00,-3.156188092336606132e+01,-5.554599087476071873e+01,3.950909591408799315e+01,2.975896387229022366e+01,9.408499717712402344e+00,-8.031646609306335449e-01,-1.338607788085937500e+00,5.410000000000000000e+02
3.908196325923199765e+00,-1.218336599457961711e+01,5.692905708739453985e+01,9.477894146511971485e+00,-3.124039678047120105e+01,-5.421067188229062594e+01,4.243079430861598667e+01,2.986146594773708784e+01,9.408499717712402344e+00,-8.031646609306335449e-01,-1.338607788085937500e+00,5.420000000000000000e+02
3.095981852320164762e+00,-1.052021697378495446e+01,5.856785451351424854e+01,1.097943973349538282e+01,-3.137535359950197744e+01,-5.354552301433977846e+01,4.429392642560605964e+01,2.852619665933389115e+01,9.408499717712402344e+00,-8.031646609306335449e-01,-1.338607788085937500e+00,5.430000000000000000e+02
3.610360210799171909e+00,-9.358473546680215804e+00,5.988714446927679091e+01,1.140614416918288043e+01,-3.199960053646100278e+01,-5.387313309203091194e+01,4.386362206169087585e+01,2.542548917437670752e+01,9.408499717712402344e+00,-8.031646609306335449e-01,-1.338607788085937500e+00,5.440000000000000000e+02
5.092087893224743311e+00,-9.287758089431918052e+00,6.081414859950473328e+01,1.049371299461563467e+01,-3.244893646443233592e+01,-5.484368251543310180e+01,4.128458774749697113e+01,2.211746785593322784e+01,9.408499717712402344e+00,-8.031646609306335449e-01,-1.338607788085937500e+00,5.450000000000000000e+02
6.679878964126146457e+00,-1.031141087760624941e+01,6.198116477303119609e+01,8.728848989680045634e+00,-3.176835295987984864e+01,-5.566631629221774347e+01,3.823462158703478053e+01,2.096896854956230527e+01,9.408499717712402344e+00,-8.031646609306335449e-01,-1.338607788085937500e+00,5.460000000000000000e+02
7.755457647263938270e+00,-1.179108301524684066e+01,6.425370719673355779e+01,7.140635473279871803e+00,-2.944576581424098549e+01,-5.563567896281165304e+01,3.703189979905346263e+01,2.338272250411228015e+01,9.408499717712402344e+00,-8.031646609306335449e-01,-1.338607788085937500e+00,5.470000000000000000e+02
8.362011827513015305e+00,-1.265763684778175957e+01,6.792145371643891849e+01,6.737204417529937928e+00,-2.581246124184508517e+01,-5.454017381547510013e+01,3.920642154853521788e+01,2.882890887047324213e+01,9.408499717712402344e+00,-8.031646609306335449e-01,-1.338607788085937500e+00,5.480000000000000000e+02
8.910777305297415296e+00,-1.188330407389730681e+01,7.221363624315745255e+01,7.950754905242320092e+00,-2.182013825413105224e+01,-5.269272930182614800e+01,4.444494009245590860e+01,3.532039118820557633e+01,9.408499717712402344e+00,-8.031646609306335449e-01,-1.338607788085937500e+00,5.490000000000000000e+02
9.500522810498296167e+00,-9.064705478755968215e+00,7.560185279876259301e+01,1.046156517833242106e+01,-1.846489268743061984e+01,-5.064228797099258372e+01,5.062134425644580915e+01,4.072816472204976890e+01,9.408499717712402344e+00,-8.031646609306335449e-01,-1.338607788085937500e+00,5.500000000000000000e+02
9.574570063699866296e+00,-4.785781963503723091e+00,7.673145020711945108e+01,1.350162105340859853e+01,-1.632156994953402318e+01,-4.881265172631992755e+01,5.496237869281412713e+01,4.386117814206409093e+01,9.408499717712402344e+00,-8.031646609306335449e-01,-1.338607788085937500e+00,5.510000000000000000e+02
8.342183213549105858e+00,-4.422458808194278390e-01,7.531996367901410849e+01,1.638658528744781506e+01,-1.540615408043413481e+01,-4.729778176700256154e+01,5.566653223579214682e+01,4.472545656070906261e+01,9.408499717712402344e+00,-8.031646609306335449e-01,-1.338607788085937500e+00,5.520000000000000000e+02
5.650195462743795360e+00,2.452461322303861380e+00,7.236076817367393232e+01,1.883689216068432870e+01,-1.530873258006977267e+01,-4.593242675792498630e+01,5.293900977178327594e+01,4.412087095230162959e+01,9.408499717712402344e+00,-8.031646609306335449e-01,-1.338607788085937500e+00,5.530000000000000000e+02
2.496424632785419817e+00,3.064169224101533473e+00,6.950788553922757274e+01,2.087164860963821411e+01,-1.544793472637957166e+01,-4.456489190078173124e+01,4.876824939937432646e+01,4.306805577945760888e+01,9.408499717712402344e+00,-8.031646609306335449e-01,-1.338607788085937500e+00,5.540000000000000000e+02
5.839462690082655172e-01,1.586209290842816699e+00,6.810981915479624149e+01,2.245061694729793089e+01,-1.536769546128016373e+01,-4.332503982616162830e+01,4.559043094087064674e+01,4.235163950703463343e+01,9.408499717712402344e+00,-8.031646609306335449e-01,-1.338607788085937500e+00,5.550000000000000000e+02
1.152528598045137187e+00,-1.076410443100940029e+00,6.857251805437590519e+01,2.326925129988285335e+01,-1.498952269609253563e+01,-4.265425422156022250e+01,4.475407031844315497e+01,4.221956175590548810e+01,9.408499717712402344e+00,-8.031646609306335449e-01,-1.338607788085937500e+00,5.560000000000000000e+02
4.034861933469073847e+00,-3.961128644845302915e+00,7.041273117475429899e+01,2.296460191927599226e+01,-1.464240084126686270e+01,-4.300899338167437236e+01,4.584132739008691715e+01,4.230653550418082887e+01,9.408499717712402344e+00,-8.031646609306335449e-01,-1.338607788085937500e+00,5.570000000000000000e+02
7.746160900130234950e+00,-6.494608683659862436e+00,7.281110468248061807e+01,2.154568409621515457e+01,-1.477721894797923596e+01,-4.444357452195981750e+01,4.724399854387320374e+01,4.193455113960590097e+01,9.408499717712402344e+00,-8.031646609306335449e-01,-1.338607788085937500e+00,5.580000000000000000e+02
1.056134615530936571e+01,-8.443854063598337234e+00,7.514469874066980992e+01,1.961402476151488372e+01,-1.554071371364443621e+01,-4.643525836455592071e+01,4.747374783352188388e+01,4.073806344897730014e+01,9.408499717712402344e+00,-8.031646609306335449e-01,-1.338607788085937500e+00,5.590000000000000000e+02
1.168672170369336527e+01,-9.588404196938427049e+00,7.713549106653226772e+01,1.811565612199774478e+01,-1.656721586095409293e+01,-4.813675749966205331e+01,4.619647226247252547e+01,3.918193777968917857e+01,9.408499717712402344e+00,-8.031646609306335449e-01,-1.338607788085937500e+00,5.600000000000000000e+02
1.158183255422045477e+01,-9.583604677985022136e+00,7.865332045216473489e+01,1.780269882995889930e+01,-1.720641842875102157e+01,-4.886507211918433313e+01,4.429872484002316924e+01,3.842232552954828861e+01,9.408499717712402344e+00,-8.031646609306335449e-01,-1.338607788085937500e+00,5.610000000000000000e+02
1.127321643299637799e+01,-8.244444220759760356e+00,7.949190537746289920e+01,1.884100288050831296e+01,-1.702710018210927956e+01,-4.843806685376875976e+01,4.307899012781672354e+01,3.942416105746451649e+01,9.408499717712402344e+00,-8.031646609306335449e-01,-1.338607788085937500e+00,5.620000000000000000e+02
1.137471076706879103e+01,-5.987116759805758193e+00,7.938950912409836747e+01,2.083204137240318232e+01,-1.618270592178487277e+01,-4.714745013088577252e+01,4.326745031888822268e+01,4.197672049608081579e+01,9.408499717712402344e+00,-8.031646609306335449e-01,-1.338607788085937500e+00,5.630000000000000000e+02
1.169928303318192775e+01,-3.903388368404193898e+00,7.828292810167658899e+01,2.313956059646807262e+01,-1.531558672136088717e+01,-4.550318268825321866e+01,4.459804510428057256e+01,4.454555403047288564e+01,9.408499717712402344e+00,-8.031646609306335449e-01,-1.338607788085937500e+00,5.640000000000000000e+02
1.171200468472488865e+01,-3.210048933113284875e+00,7.653622233979331213e+01,2.521139722473708389e+01,-1.504832586610245926e+01,-4.400136464623574284e+01,4.614812582401464169e+01,4.529509388075803145e+01,9.408499717712402344e+00,-8.031646609306335449e-01,-1.338607788085937500e+00,5.650000000000000000e+02
1.123708095959682396e+01,-4.424172552123309288e+00,7.488855014974433288e+01,2.669207881370311952e+01,-1.547027395745863032e+01,-4.302400574079001672e+01,4.704340434412915783e+01,4.353517374654711602e+01,9.484992027282714844e+00,-7.266727685928344727e-01,-1.338607788085937500e+00,5.660000000000000000e+02
1.065340435154394072e+01,-6.941281391042139148e+00,7.410215451287604083e+01,2.738972257460591209e+01,-1.602808326334525191e+01,-4.277183099088688323e+01,4.693847198706862400e+01,4.035992678895308927e+01,9.484992027282714844e+00,-7.266727685928344727e-01,-1.338607788085937500e+00,5.670000000000000000e+02
1.042781297320107115e+01,-9.425682921833868022e+00,7.453813696656288812e+01,2.726189513492317928e+01,-1.591083334534778260e+01,-4.314595687115615874e+01,4.599299749075544241e+01,3.786742666918871691e+01,9.484992027282714844e+00,-7.266727685928344727e-01,-1.338607788085937500e+00,5.680000000000000000e+02
1.056375217945605982e+01,-1.071973960272589466e+01,7.599126793064715457e+01,2.648779589038531412e+01,-1.461323785059175862e+01,-4.367787415851853439e+01,4.456446530297580466e+01,3.761749749092359707e+01,9.484992027282714844e+00,-7.266727685928344727e-01,-1.338607788085937500e+00,5.690000000000000000e+02
1.062592385176685639e+01,-1.052134358096191136e+01,7.793638326381915249e+01,2.553430388056403899e+01,-1.222653015075775329e+01,-4.368026319667114876e+01,4.303478981548323645e+01,3.965614500178890012e+01,9.484992027282714844e+00,-7.266727685928344727e-01,-1.338607788085937500e+00,5.700000000000000000e+02
1.035492723427341843e+01,-9.311989477699171402e+00,8.000027129530644743e+01,2.508067745328844467e+01,-9.241485097589247744e+00,-4.260435000545658113e+01,4.192669623067195062e+01,4.287913272763398709e+01,9.484992027282714844e+00,-7.266727685928344727e-01,-1.338607788085937500e+00,5.710000000000000000e+02
1.018409873322707426e+01,-7.728830512753120274e+00,8.226554214387761021e+01,2.576230522843070503e+01,-6.075478045258932980e+00,-4.035719994202554517e+01,4.203032706916201278e+01,4.624249582296761218e+01,9.484992027282714844e+00,-7.266727685928344727e-01,-1.338607788085937500e+00,5.720000000000000000e+02
1.099949958485194657e+01,-6.057076038205195800e+00,8.513496043692430248e+01,2.783133656142308610e+01,-2.793622434212011285e+00,-3.733755190688498260e+01,4.413453172812478442e+01,4.955470793678978225e+01,9.484992027282714844e+00,-7.266727685928344727e-01,-1.338607788085937500e+00,5.730000000000000000e+02
1.327121034561059787e+01,-4.297368676910991780e+00,8.885980627400567755e+01,3.092922281025857956e+01,7.024303554480866296e-01,-3.417886259956867434e+01,4.836565404667817347e+01,5.311603631135039905e+01,9.484992027282714844e+00,-7.266727685928344727e-01,-1.338607788085937500e+00,5.740000000000000000e+02
1.640211341961730795e+01,-2.589127679342709598e+00,9.314272124042508949e+01,3.415349100869934773e+01,4.221053854578713072e+00,-3.141838943842412846e+01,5.368935754228004953e+01,5.670989546530836378e+01,9.484992027282714844e+00,-7.266727685928344727e-01,-1.338607788085937500e+00,5.750000000000000000e+02
1.899093551274017955e+01,-1.379716061863291543e+00,9.717205836793436902e+01,3.645888265219400637e+01,7.061377223622912425e+00,-2.931730317684014153e+01,5.817970985075044155e+01,5.913349737472162815e+01,9.484992027282714844e+00,-7.266727685928344727e-01,-1.338607788085937500e+00,5.760000000000000000e+02
1.980578979396341310e+01,-1.064780778193380684e+00,1.000449192889027472e+02,3.718754546994750854e+01,8.324301224474766059e+00,-2.788900016822844918e+01,6.006959623255534098e+01,5.889293967980302114e+01,9.484992027282714844e+00,-7.266727685928344727e-01,-1.338607788085937500e+00,5.770000000000000000e+02
1.855945433235683595e+01,-1.497487554959661793e+00,1.012100335054674360e+02,3.637171673974989972e+01,7.532414482198873884e+00,-2.704363173589263170e+01,5.885809204894030700e+01,5.547127803158582537e+01,9.484992027282714844e+00,-7.266727685928344727e-01,-1.338607788085937500e+00,5.780000000000000000e+02
1.581758856003943947e+01,-1.986530400117771933e+00,1.006327384537653415e+02,3.460496066662926751e+01,5.034603154899741639e+00,-2.670768915545886557e+01,5.560281161623788648e+01,4.997477395023452118e+01,9.484992027282714844e+00,-7.266727685928344727e-01,-1.338607788085937500e+00,5.790000000000000000e+02
1.228405898313394573e+01,-1.892682939354926930e+00,9.870461888575118792e+01,3.262575348046630097e+01,1.868568186760967365e+00,-2.683063329640754091e+01,5.217126531145186163e+01,4.453485979019751539e+01,9.484992027282714844e+00,-7.266727685928344727e-01,-1.338607788085937500e+00,5.800000000000000000e+02
8.317674132060346892e+00,-1.226392043830855982e+00,9.612173669223739125e+01,3.098694563672324875e+01,-7.627937383876997046e-01,-2.727699974322604248e+01,5.008120312759092485e+01,4.099378506581524562e+01,9.484992027282714844e+00,-7.266727685928344727e-01,-1.338607788085937500e+00,5.810000000000000000e+02
4.161322652948001632e+00,-5.913201666189706884e-01,9.380231251467739639e+01,3.003050001657175017e+01,-2.005840347599587403e+00,-2.771529030989586317e+01,4.979083068603540596e+01,3.995233540598019317e+01,9.484992027282714844e+00,-7.266727685928344727e-01,-1.338607788085937500e+00,5.820000000000000000e+02
4.619866775447007967e-01,-5.254377231085527455e-01,9.268897586762250285e+01,2.999437000282705412e+01,-1.624558752804659889e+00,-2.768792759022289829e+01,5.076778134527194197e+01,4.076397521719991346e+01,9.484992027282714844e+00,-7.266727685928344727e-01,-1.338607788085937500e+00,5.830000000000000000e+02
-1.715872916931402870e+00,-9.887145183129177894e-01,9.333085329736786662e+01,3.092667363219516119e+01,-3.028643442121392582e-02,-2.693791698854511196e+01,5.200067664495691133e+01,4.219039809712921851e+01,9.484992027282714844e+00,-7.266727685928344727e-01,-1.338607788085937500e+00,5.840000000000000000e+02
-1.595283266537080635e+00,-1.593869114853077917e+00,9.549761311188922264e+01,3.239367103112090263e+01,1.882912972490885295e+00,-2.577300562127857120e+01,5.247641125746486068e+01,4.306865098495109123e+01,9.484992027282714844e+00,-7.266727685928344727e-01,-1.338607788085937500e+00,5.850000000000000000e+02
5.657576357007201295e-01,-2.303225669453240698e+00,9.826534682368946960e+01,3.340154881483067584e+01,3.149121397800627165e+00,-2.506759967653852073e+01,5.149791383019510249e+01,4.267914466291949793e+01,9.484992027282714844e+00,-7.266727685928344727e-01,-1.338607788085937500e+00,5.860000000000000000e+02
3.502910270704887807e+00,-3.713067456348653650e+00,1.006581749575470894e+02,3.290842359309681342e+01,3.314958359094816842e+00,-2.571542603857960785e+01,4.898107085871561139e+01,4.094884346881372039e+01,9.484992027282714844e+00,-7.266727685928344727e-01,-1.338607788085937500e+00,5.870000000000000000e+02
5.813266991439377307e+00,-6.437083826227535610e+00,1.023560111146180134e+02,3.070021053333039163e+01,2.824758436243428150e+00,-2.786669230164261535e+01,4.570624716520796937e+01,3.858984536056050274e+01,9.484992027282714844e+00,-7.266727685928344727e-01,-1.338607788085937500e+00,5.880000000000000000e+02
6.864269772000625380e+00,-1.016537714096557465e+01,1.038211539144649578e+02,2.784880303433965310e+01,2.775629812995248358e+00,-3.062220677208824782e+01,4.319202766630769474e+01,3.694924409797749831e+01,9.484992027282714844e+00,-7.266727685928344727e-01,-1.338607788085937500e+00,5.890000000000000000e+02
6.931736402637397987e+00,-1.349250171757739736e+01,1.057103096670816740e+02,2.615135220561933238e+01,4.061928206958327792e+00,-3.256742959277471527e+01,4.295060679980269924e+01,3.732394766388097196e+01,9.484992027282714844e+00,-7.266727685928344727e-01,-1.338607788085937500e+00,5.900000000000000000e+02
6.595106717766611837e+00,-1.492670769902906613e+01,1.081424249954980041e+02,2.683664130463148467e+01,6.562229999904957367e+00,-3.278316040112258634e+01,4.545343253908868064e+01,3.998329840864789730e+01,9.484992027282714844e+00,-7.266727685928344727e-01,-1.338607788085937500e+00,5.910000000000000000e+02
6.119174558451049961e+00,-1.426195786735479487e+01,1.104976017282933753e+02,2.956399558703560615e+01,9.107107311978325015e+00,-3.151344410979800159e+01,4.957935639542301942e+01,4.364644409569700656e+01,9.484992027282714844e+00,-7.266727685928344727e-01,-1.338607788085937500e+00,5.920000000000000000e+02
5.423051888372356188e+00,-1.298037105180992512e+01,1.118555695690010907e+02,3.257755329218707629e+01,1.029453977657249197e+01,-2.995494387010694481e+01,5.308878528590503265e+01,4.601391302155570884e+01,9.561484336853027344e+00,-7.649186849594116211e-01,-1.300361871719360352e+00,5.930000000000000000e+02
4.497315772176079918e+00,-1.317207854505068099e+01,1.115994817835799040e+02,3.391511540874489583e+01,9.441834015247877687e+00,-2.940204062018528930e+01,5.389462220536006498e+01,4.513907194266721490e+01,9.561484336853027344e+00,-7.649186849594116211e-01,-1.300361871719360352e+00,5.940000000000000000e+02
3.646728282123149256e+00,-1.584924191455684195e+01,1.096669413297786377e+02,3.270625864370595082e+01,6.870616367203183472e+00,-3.047179848849555128e+01,5.127492439548041148e+01,4.068684811183993588e+01,9.561484336853027344e+00,-7.649186849594116211e-01,-1.300361871719360352e+00,5.950000000000000000e+02
3.214281749356814544e+00,-2.011218031470343703e+01,1.064279082649572956e+02,2.960566503314839792e+01,3.419388538990460802e+00,-3.291194850603278610e+01,4.623958071163178829e+01,3.418352596322984027e+01,9.561484336853027344e+00,-7.649186849594116211e-01,-1.300361871719360352e+00,5.960000000000000000e+02
3.114781544383731671e+00,-2.383981920349651773e+01,1.025334061289158853e+02,2.619842015388712753e+01,-1.827754123078193516e-01,-3.590519052466697758e+01,4.092310960405848164e+01,2.816916296900308225e+01,9.561484336853027344e+00,-7.649186849594116211e-01,-1.300361871719360352e+00,5.970000000000000000e+02
2.752740411855484126e+00,-2.521242771886500122e+01,9.888262064991067746e+01,2.399750397129173507e+01,-3.491780172622384271e+00,-3.847023536204142147e+01,3.748160460269173200e+01,2.491086052771424875e+01,9.561484336853027344e+00,-7.649186849594116211e-01,-1.300361871719360352e+00,5.980000000000000000e+02
1.494593956806056667e+00,-2.376498652898226283e+01,9.646428630787704606e+01,2.378308990161167458e+01,-6.130761875690950546e+00,-3.972581484169495525e+01,3.712366697102334001e+01,2.545551956723102194e+01,9.561484336853027344e+00,-7.649186849594116211e-01,-1.300361871719360352e+00,5.990000000000000000e+02
-7.222328839889087249e-01,-2.028787961658599670e+01,9.587158214673036127e+01,2.555104110166575992e+01,-7.674569484268431552e+00,-3.909698262887832243e+01,3.969851413528886042e+01,2.938964572402619524e+01,9.561484336853027344e+00,-7.649186849594116211e-01,-1.300361871719360352e+00,6.000000000000000000e+02
-3.210803443434997462e+00,-1.598801770004138234e+01,9.680333061149394780e+01,2.881595265153009677e+01,-7.895946150259987917e+00,-3.656793261663187877e+01,4.392817845317586034e+01,3.519011911483903532e+01,9.561484336853027344e+00,-7.649186849594116211e-01,-1.300361871719360352e+00,6.010000000000000000e+02
-4.944561264259391464e+00,-1.181290748210449237e+01,9.816091470709397981e+01,3.288824801112059504e+01,-7.060061579479224747e+00,-3.281865544765969389e+01,4.813124779043573653e+01,4.091073903867982153e+01,9.561484336853027344e+00,-7.649186849594116211e-01,-1.300361871719360352e+00,6.020000000000000000e+02
-5.185210945994185749e+00,-8.369577187095273985e+00,9.891202196249469125e+01,3.698608127642000909e+01,-5.806255671301187249e+00,-2.898608519406116102e+01,5.109889902108261595e+01,4.498154198430711403e+01,9.561484336853027344e+00,-7.649186849594116211e-01,-1.300361871719360352e+00,6.030000000000000000e+02
-3.830267910798283992e+00,-6.119095282716443762e+00,9.907687461423120112e+01,4.030249235872906866e+01,-4.610746070793538820e+00,-2.606982424689340405e+01,5.265000508005687152e+01,4.685253540948906448e+01,9.561484336853027344e+00,-7.649186849594116211e-01,-1.300361871719360352e+00,6.040000000000000000e+02
-1.292283519029297167e+00,-5.337477212346129818e+00,9.986377368530884269e+01,4.219021037742641056e+01,-3.348212354921997758e+00,-2.438231821152294287e+01,5.351184127185842954e+01,4.715617801244661678e+01,9.561484336853027344e+00,-7.649186849594116211e-01,-1.300361871719360352e+00,6.050000000000000000e+02
1.880843239345267648e+00,-5.821742204610927729e+00,1.026656556705856929e+02,4.244618060206266819e+01,-1.423500485099793877e+00,-2.347626855425914982e+01,5.459797974542016163e+01,4.721364044987421948e+01,9.561484336853027344e+00,-7.649186849594116211e-01,-1.300361871719360352e+00,6.060000000000000000e+02
5.279318395681912079e+00,-6.809503886219317792e+00,1.077144245198178396e+02,4.148659206888623885e+01,1.621919986515422352e+00,-2.259598797167200246e+01,5.620523717219839455e+01,4.812967847808249644e+01,9.561484336853027344e+00,-7.649186849594116211e-01,-1.300361871719360352e+00,6.070000000000000000e+02
8.596000367349915905e+00,-7.433400366331625264e+00,1.135768216876058432e+02,4.019411384603517945e+01,5.579988503242930165e+00,-2.127059809795173351e+01,5.774467039532464696e+01,5.009144731452397536e+01,9.561484336853027344e+00,-7.649186849594116211e-01,-1.300361871719360352e+00,6.080000000000000000e+02
1.141276060187010444e+01,-7.401530501796514727e+00,1.179723372171065421e+02,3.944437571187154390e+01,9.580315522209275514e+00,-1.958685080954455771e+01,5.822909692462417297e+01,5.236869072506669909e+01,9.561484336853027344e+00,-7.649186849594116211e-01,-1.300361871719360352e+00,6.090000000000000000e+02
1.313327797970487154e+01,-7.216756704034196446e+00,1.192593952969546081e+02,3.960473563231425942e+01,1.258035892259431421e+01,-1.800384792240220122e+01,5.712506056419078959e+01,5.395078100255341269e+01,9.561484336853027344e+00,-7.649186849594116211e-01,-1.300361871719360352e+00,6.100000000000000000e+02
1.327195381954516051e+01,-7.612965569798689103e+00,1.174169594187624170e+02,4.038724114579235902e+01,1.392707041434914572e+01,-1.695152058732492151e+01,5.487971561243830365e+01,5.424814142727700528e+01,9.561484336853027344e+00,-7.649186849594116211e-01,-1.300361871719360352e+00,6.110000000000000000e+02
1.192377425175436656e+01,-8.690305890504532726e+00,1.138220730892790016e+02,4.117594171595192165e+01,1.360786642692619353e+01,-1.656305400841301889e+01,5.269407717828289606e+01,5.330595587305651861e+01,9.561484336853027344e+00,-7.649186849594116211e-01,-1.300361871719360352e+00,6.120000000000000000e+02
9.960040456993738189e+00,-9.630882524314074544e+00,1.101171166521453415e+02,4.154486710226046853e+01,1.211618478846503422e+01,-1.669167590337019647e+01,5.170586033516519819e+01,5.149288068578243838e+01,9.561484336853027344e+00,-7.649186849594116211e-01,-1.300361871719360352e+00,6.130000000000000000e+02
8.608918084315519081e+00,-9.377178054674004670e+00,1.070802479426383798e+02,4.150412502179096919e+01,1.010105282775839441e+01,-1.709554109502278152e+01,5.219696139618463349e+01,4.908126284029276576e+01,9.561484336853027344e+00,-7.649186849594116211e-01,-1.300361871719360352e+00,6.140000000000000000e+02
