F3,F4,C3,C4,P3,P4,Cz,Pz,Accel_x,Accel_y,Accel_z,Sample
-5.547917680814862251e-11,-3.819877747446298599e-11,-2.364686224609613419e-11,-5.002220859751105309e-11,-4.820321919396519661e-11,-5.002220859751105309e-11,-3.637978807091712952e-11,-1.818989403545856476e-11,9.446745872497558594e+00,-8.414105772972106934e-01,-1.376853704452514648e+00,2.010000000000000000e+02
-1.381156227940755343e+01,-8.546308484015753493e+00,-5.557783491854024760e+00,-9.755521600115571346e+00,-2.030853764533640060e+01,-1.937644355388056283e+01,-1.164134206658400217e+01,-1.709811299513603444e+00,9.446745872497558594e+00,-8.414105772972106934e-01,-1.376853704452514648e+00,2.020000000000000000e+02
-2.455869812894889037e+01,-1.670440042646987422e+01,-8.569042591617289872e+00,-1.695098767965009756e+01,-3.593704227315356547e+01,-3.515949828949305811e+01,-1.832239674784341332e+01,-2.424013392841516179e+00,9.446745872497558594e+00,-8.414105772972106934e-01,-1.376853704452514648e+00,2.030000000000000000e+02
-3.162074691925226944e+01,-2.419715677458771097e+01,-8.461361571144152549e+00,-2.085890942228797940e+01,-4.588869608352797513e+01,-4.634781378670959384e+01,-1.869875491174934723e+01,-1.743407771356032754e+00,9.446745872497558594e+00,-8.414105772972106934e-01,-1.376853704452514648e+00,2.040000000000000000e+02
-3.682836387158658908e+01,-3.086367615440667578e+01,-6.705573012890454265e+00,-2.278935256286513322e+01,-5.314415184676090576e+01,-5.496397095975953562e+01,-1.549765878418020293e+01,-1.382771544540446484e-01,9.446745872497558594e+00,-8.414105772972106934e-01,-1.376853704452514648e+00,2.050000000000000000e+02
-4.220320583029115369e+01,-3.662231291531497845e+01,-5.101768741377782135e+00,-2.468592252227426798e+01,-6.159785533415106329e+01,-6.417694556262267724e+01,-1.275190815026144264e+01,1.214455840729897318e+00,9.446745872497558594e+00,-8.414105772972106934e-01,-1.376853704452514648e+00,2.060000000000000000e+02
-4.796374110147462488e+01,-4.154261765629235015e+01,-4.199112325439273263e+00,-2.765248381548917678e+01,-7.284907600547012407e+01,-7.596151550773083727e+01,-1.268771526782165893e+01,9.135928298919679946e-01,9.446745872497558594e+00,-8.414105772972106934e-01,-1.376853704452514648e+00,2.070000000000000000e+02
-5.286796129528920574e+01,-4.600525001964251715e+01,-3.382868448123190319e+00,-3.171453164012018533e+01,-8.572233930622314801e+01,-9.019988799759266840e+01,-1.496014899323381542e+01,-2.026315889250327018e+00,9.446745872497558594e+00,-8.031646609306335449e-01,-1.338607788085937500e+00,2.080000000000000000e+02
-5.628503656478187622e+01,-5.071843757499118510e+01,-2.173378862632489472e+00,-3.657950914765478956e+01,-9.825008811592306301e+01,-1.054875944451878240e+02,-1.818971990141835704e+01,-7.548425496444906457e+00,9.446745872497558594e+00,-8.031646609306335449e-01,-1.338607788085937500e+00,2.090000000000000000e+02
-5.953652037958181609e+01,-5.642256815992550401e+01,-1.065317416678226436e+00,-4.218101507159462926e+01,-1.095488917511838736e+02,-1.204241024729963101e+02,-2.162365886487987154e+01,-1.426933401013593539e+01,9.446745872497558594e+00,-8.031646609306335449e-01,-1.338607788085937500e+00,2.100000000000000000e+02
-6.495756100739072281e+01,-6.341206328505722922e+01,-1.001161467115707637e+00,-4.835749664752347599e+01,-1.198118877520237220e+02,-1.341999928084132989e+02,-2.526602826917041966e+01,-1.991474769081105478e+01,9.446745872497558594e+00,-8.031646609306335449e-01,-1.338607788085937500e+00,2.110000000000000000e+02
-7.368880471625197970e+01,-7.126379545469171717e+01,-2.262150563233262801e+00,-5.431022663577186904e+01,-1.291651118753234186e+02,-1.464355385524704616e+02,-2.897015506269690377e+01,-2.248335110282005189e+01,9.446745872497558594e+00,-8.031646609306335449e-01,-1.338607788085937500e+00,2.120000000000000000e+02
-8.452435813093870820e+01,-7.906112513064181258e+01,-4.140720275899184344e+00,-5.883535130331529217e+01,-1.372499186500308497e+02,-1.569701337407586834e+02,-3.206658331607377477e+01,-2.148936666906502069e+01,9.446745872497558594e+00,-8.031646609306335449e-01,-1.338607788085937500e+00,2.130000000000000000e+02
-9.494190811473617941e+01,-8.599006767280570784e+01,-5.697897639346592769e+00,-6.133553480026239413e+01,-1.440400541316375893e+02,-1.659774108348019581e+02,-3.406449701232213556e+01,-1.830749682401437894e+01,9.446745872497558594e+00,-8.031646609306335449e-01,-1.338607788085937500e+00,2.140000000000000000e+02
-1.031770651873139286e+02,-9.185585913810336933e+01,-6.623930050730450603e+00,-6.252484581392855034e+01,-1.505539226685223184e+02,-1.740838261198123291e+02,-3.539489113692161482e+01,-1.519808764748722751e+01,9.446745872497558594e+00,-8.031646609306335449e-01,-1.338607788085937500e+00,2.150000000000000000e+02
-1.093108456607196786e+02,-9.714216859714269958e+01,-7.228084889475212549e+00,-6.393008180614651792e+01,-1.581759226008080077e+02,-1.820921272891155240e+02,-3.705721427339722140e+01,-1.371345288693373732e+01,9.446745872497558594e+00,-8.031646609306335449e-01,-1.338607788085937500e+00,2.160000000000000000e+02
-1.145845550656240448e+02,-1.026107747806345287e+02,-7.736205323384638177e+00,-6.659723656201458653e+01,-1.671682756975387747e+02,-1.904842423795662398e+02,-3.945894882319225871e+01,-1.380428630272308510e+01,9.446745872497558594e+00,-8.031646609306335449e-01,-1.338607788085937500e+00,2.170000000000000000e+02
-1.199564863751820667e+02,-1.087674604282819928e+02,-7.867407018021367548e+00,-7.030961589210710372e+01,-1.761564575927386613e+02,-1.992331185579560042e+02,-4.182234296611477475e+01,-1.434255050856972957e+01,9.446745872497558594e+00,-8.031646609306335449e-01,-1.338607788085937500e+00,2.180000000000000000e+02
-1.253970667392623000e+02,-1.155589062669232590e+02,-7.188753847267435049e+00,-7.408489200446729228e+01,-1.833797033486507644e+02,-2.080998172350946334e+02,-4.293079601498175180e+01,-1.444527125154672831e+01,9.446745872497558594e+00,-8.031646609306335449e-01,-1.338607788085937500e+00,2.190000000000000000e+02
-1.303515915431098620e+02,-1.224269215179101593e+02,-5.730837069280823926e+00,-7.733993007424851385e+01,-1.884523612168850377e+02,-2.170066010653281410e+02,-4.243886822759213828e+01,-1.427583888480694441e+01,9.446745872497558594e+00,-8.031646609306335449e-01,-1.338607788085937500e+00,2.200000000000000000e+02
-1.345736715702141737e+02,-1.286144767800196860e+02,-4.072236965759657323e+00,-8.044198382612830756e+01,-1.927343562096421010e+02,-2.260347928369928923e+02,-4.131434214310684183e+01,-1.463525266607030062e+01,9.446745872497558594e+00,-8.031646609306335449e-01,-1.338607788085937500e+00,2.210000000000000000e+02
-1.384112082195961193e+02,-1.335477614065830494e+02,-2.819213756014505634e+00,-8.413095325112317369e+01,-1.979450503497919271e+02,-2.351545490069138395e+02,-4.097310731369634595e+01,-1.595139105578255112e+01,9.446745872497558594e+00,-8.031646609306335449e-01,-1.338607788085937500e+00,2.220000000000000000e+02
-1.424339264340051159e+02,-1.371258543020076104e+02,-2.162511699207243510e+00,-8.855810242403458687e+01,-2.045938635160855483e+02,-2.441546589297313403e+02,-4.208176524119153328e+01,-1.786364837349537993e+01,9.446745872497558594e+00,-8.031646609306335449e-01,-1.338607788085937500e+00,2.230000000000000000e+02
-1.469638234200047009e+02,-1.397767995647909629e+02,-2.019168681943483534e+00,-9.304068833820565487e+01,-2.119002815899229972e+02,-2.529307354468783160e+02,-4.423292029856202134e+01,-1.982186270108286408e+01,9.446745872497558594e+00,-8.031646609306335449e-01,-1.338607788085937500e+00,2.240000000000000000e+02
-1.519775884344153383e+02,-1.422368954009170920e+02,-2.467452979377412703e+00,-9.675888104808018397e+01,-2.191153196288569234e+02,-2.617197684937564190e+02,-4.663429055786673416e+01,-2.191027765717535658e+01,9.446745872497558594e+00,-8.031646609306335449e-01,-1.338607788085937500e+00,2.250000000000000000e+02
-1.573076527752054972e+02,-1.451728311970737195e+02,-3.809920276872617251e+00,-9.958402888079126569e+01,-2.265990291183697991e+02,-2.708421572997385738e+02,-4.892129487565398449e+01,-2.484213120009735576e+01,9.446745872497558594e+00,-8.031646609306335449e-01,-1.338607788085937500e+00,2.260000000000000000e+02
-1.628012003673475192e+02,-1.489033894452486493e+02,-6.115680026658992574e+00,-1.021551532063722334e+02,-2.353962256338982115e+02,-2.801542017010515337e+02,-5.127720053402663325e+01,-2.901679179387247132e+01,9.446745872497558594e+00,-8.031646609306335449e-01,-1.338607788085937500e+00,2.270000000000000000e+02
-1.682981348433395397e+02,-1.533985969797959115e+02,-8.804617475838767859e+00,-1.051808176079357509e+02,-2.458110806055210560e+02,-2.888967718660669561e+02,-5.395926210464494943e+01,-3.364254830773415961e+01,9.446745872497558594e+00,-8.031646609306335449e-01,-1.338607788085937500e+00,2.280000000000000000e+02
-1.735612065290370083e+02,-1.585006217793647920e+02,-1.083587453882910268e+01,-1.087629497783682382e+02,-2.565987885995746183e+02,-2.962778469915756432e+02,-5.690363829559782971e+01,-3.697272307814637315e+01,9.446745872497558594e+00,-8.031646609306335449e-01,-1.338607788085937500e+00,2.290000000000000000e+02
-1.783066568879521583e+02,-1.641188447434406044e+02,-1.139927734162483830e+01,-1.124342255466044662e+02,-2.656912341400002333e+02,-3.022606502570160956e+02,-5.979854495381778179e+01,-3.761019162406819305e+01,9.446745872497558594e+00,-8.031646609306335449e-01,-1.338607788085937500e+00,2.300000000000000000e+02
-1.823218781593882341e+02,-1.702121492959545321e+02,-1.046673502692283364e+01,-1.157828422490028970e+02,-2.717654504272486520e+02,-3.076874426893182317e+02,-6.239430995079783315e+01,-3.572652860265952768e+01,9.446745872497558594e+00,-8.031646609306335449e-01,-1.338607788085937500e+00,2.310000000000000000e+02
-1.855670726705729976e+02,-1.766187672008409209e+02,-8.727094198761278676e+00,-1.189497682903511304e+02,-2.751820278742043229e+02,-3.135433958203730072e+02,-6.463812271344158944e+01,-3.307329598726846598e+01,9.446745872497558594e+00,-8.031646609306335449e-01,-1.338607788085937500e+00,2.320000000000000000e+02
-1.882121875393499977e+02,-1.829626025038396619e+02,-7.057832653328205197e+00,-1.224747070544108283e+02,-2.775552106175655354e+02,-3.200990270698111999e+02,-6.657847223597673292e+01,-3.176659078595184837e+01,9.446745872497558594e+00,-8.031646609306335449e-01,-1.338607788085937500e+00,2.330000000000000000e+02
-1.906239658849299303e+02,-1.887556452901749253e+02,-6.039127507114699256e+00,-1.266771100479600136e+02,-2.805248159063257845e+02,-3.268259572906317771e+02,-6.828403531233607282e+01,-3.286404441292370393e+01,9.446745872497558594e+00,-8.031646609306335449e-01,-1.338607788085937500e+00,2.340000000000000000e+02
-1.932757661409386856e+02,-1.935849634246146707e+02,-5.790477403543263790e+00,-1.312007272967639437e+02,-2.848241858720402888e+02,-3.331209389022833420e+02,-6.987890152139425481e+01,-3.580875268042291282e+01,9.446745872497558594e+00,-8.031646609306335449e-01,-1.338607788085937500e+00,2.350000000000000000e+02
-1.965314873178126618e+02,-1.972101936968501832e+02,-6.026844825051284715e+00,-1.351549082012297731e+02,-2.901932329699375259e+02,-3.389844356338671787e+02,-7.150344281679826963e+01,-3.899100677845308383e+01,9.446745872497558594e+00,-8.031646609306335449e-01,-1.338607788085937500e+00,2.360000000000000000e+02
-2.003804232487655099e+02,-1.995583761878406222e+02,-6.172519264903712610e+00,-1.377481802511410933e+02,-2.958918669316581145e+02,-3.449225141530787369e+02,-7.308886361472968929e+01,-4.086047878393219435e+01,9.446745872497558594e+00,-8.031646609306335449e-01,-1.338607788085937500e+00,2.370000000000000000e+02
-2.043412864707356675e+02,-2.007647718977200384e+02,-5.554998206242999004e+00,-1.389038900715713680e+02,-3.012706622055079606e+02,-3.512632752362624160e+02,-7.418086621276324877e+01,-4.082378685295816467e+01,9.446745872497558594e+00,-8.031646609306335449e-01,-1.338607788085937500e+00,2.380000000000000000e+02
-2.077112981511804719e+02,-2.013241231115462142e+02,-3.756089541072014981e+00,-1.393898336057136476e+02,-3.060986408232411122e+02,-3.577494299726176905e+02,-7.416566572494048160e+01,-3.950429359813369956e+01,9.408499717712402344e+00,-8.414105772972106934e-01,-1.415099620819091797e+00,2.390000000000000000e+02
-2.100426012805824030e+02,-2.021492862018421874e+02,-9.506132064011580951e-01,-1.403532914788947892e+02,-3.106094483460610718e+02,-3.638971012239126139e+02,-7.283012066863875589e+01,-3.835115189615589770e+01,9.408499717712402344e+00,-8.414105772972106934e-01,-1.415099620819091797e+00,2.400000000000000000e+02
-2.114832726449608344e+02,-2.042737495348897028e+02,2.098315033515063988e+00,-1.425703113212211974e+02,-3.153006702178940941e+02,-3.696664389487186781e+02,-7.072443146472414810e+01,-3.882948332579780981e+01,9.408499717712402344e+00,-8.414105772972106934e-01,-1.415099620819091797e+00,2.410000000000000000e+02
-2.127106024517056539e+02,-2.082325581850668641e+02,4.495612469162551861e+00,-1.459207065107857488e+02,-3.205680000629185997e+02,-3.756087441338368080e+02,-6.888419952182312045e+01,-4.156282571478004684e+01,9.408499717712402344e+00,-8.414105772972106934e-01,-1.415099620819091797e+00,2.420000000000000000e+02
-2.145159103063638213e+02,-2.135721279942558795e+02,5.778281263796998246e+00,-1.494672750712898051e+02,-3.263678952730797391e+02,-3.822354848787749688e+02,-6.810672200895487549e+01,-4.588513296315159096e+01,9.408499717712402344e+00,-8.414105772972106934e-01,-1.415099620819091797e+00,2.430000000000000000e+02
-2.173752455118124089e+02,-2.190082306339504612e+02,6.083085630741152272e+00,-1.521140333379948970e+02,-3.321773367025220978e+02,-3.892838635053808503e+02,-6.848706719140045607e+01,-5.016634770896143891e+01,9.408499717712402344e+00,-8.414105772972106934e-01,-1.415099620819091797e+00,2.440000000000000000e+02
-2.212799970532701082e+02,-2.232605209489506706e+02,5.817153894347484311e+00,-1.533927458908610788e+02,-3.373173839589094314e+02,-3.957262074752516128e+02,-6.966559050981459222e+01,-5.282629031775149997e+01,9.408499717712402344e+00,-8.414105772972106934e-01,-1.415099620819091797e+00,2.450000000000000000e+02
-2.258198123707970808e+02,-2.259365920653690409e+02,5.280455000732217741e+00,-1.537708312283521082e+02,-3.413474474367967559e+02,-4.005748970166259824e+02,-7.142156985573728889e+01,-5.334467621559770123e+01,9.408499717712402344e+00,-8.414105772972106934e-01,-1.415099620819091797e+00,2.460000000000000000e+02
-2.303758105651622827e+02,-2.277264390252412340e+02,4.674899298116088175e+00,-1.542485974300334419e+02,-3.442103739912913625e+02,-4.037213437465493371e+02,-7.388946673793316222e+01,-5.249665038192824795e+01,9.408499717712402344e+00,-8.414105772972106934e-01,-1.415099620819091797e+00,2.470000000000000000e+02
-2.343430090340843890e+02,-2.297357668117042522e+02,4.402636228120172746e+00,-1.555880442358688924e+02,-3.461143817717711499e+02,-4.060217959075112049e+02,-7.713164601294511158e+01,-5.162816281045843425e+01,9.408499717712402344e+00,-8.414105772972106934e-01,-1.415099620819091797e+00,2.480000000000000000e+02
-2.373557610226275756e+02,-2.325206293098467540e+02,5.168818359961733222e+00,-1.577775832866609562e+02,-3.473652180580725144e+02,-4.085613227096191622e+02,-8.054840056174543861e+01,-5.155694396696799231e+01,9.408499717712402344e+00,-8.414105772972106934e-01,-1.415099620819091797e+00,2.490000000000000000e+02
-2.394440880457373169e+02,-2.356360612454909642e+02,7.592985052247513522e+00,-1.601036919795346876e+02,-3.483184021988399763e+02,-4.117826532255853635e+02,-8.287474858460655014e+01,-5.199150667605135823e+01,9.408499717712402344e+00,-8.414105772972106934e-01,-1.415099620819091797e+00,2.500000000000000000e+02
-2.410039294491630244e+02,-2.380515164629182436e+02,1.159782087232588310e+01,-1.617027322250264660e+02,-3.493877549788180659e+02,-4.152372824330304866e+02,-8.296539486221217885e+01,-5.190880966618760795e+01,9.408499717712402344e+00,-8.414105772972106934e-01,-1.415099620819091797e+00,2.510000000000000000e+02
-2.425522424515474995e+02,-2.390373115416123255e+02,1.618513348370561289e+01,-1.621437557570961872e+02,-3.509516030111371947e+02,-4.181065501111038429e+02,-8.076423595744108752e+01,-5.052068221911167711e+01,9.408499717712402344e+00,-8.414105772972106934e-01,-1.415099620819091797e+00,2.520000000000000000e+02
-2.444218879133118207e+02,-2.387528482878283285e+02,1.992888814159141475e+01,-1.616537176123151767e+02,-3.531700565597607238e+02,-4.199814343201169322e+02,-7.757746441366271029e+01,-4.800364781059215602e+01,9.408499717712402344e+00,-8.414105772972106934e-01,-1.415099620819091797e+00,2.530000000000000000e+02
-2.466195319032717634e+02,-2.381049796111406067e+02,2.186288853075075167e+01,-1.609212467722381916e+02,-3.559090078105223256e+02,-4.212315104488538964e+02,-7.533501344755040918e+01,-4.545332174251143442e+01,9.408499717712402344e+00,-8.414105772972106934e-01,-1.415099620819091797e+00,2.540000000000000000e+02
-2.489332796227522522e+02,-2.380829604069408560e+02,2.206616839465687008e+01,-1.606778971133039704e+02,-3.588754898940078419e+02,-4.227113071165349538e+02,-7.535557973703271273e+01,-4.417814232298587740e+01,9.408499717712402344e+00,-8.414105772972106934e-01,-1.415099620819091797e+00,2.550000000000000000e+02
-2.511590166643313751e+02,-2.391546815649448945e+02,2.149189309374878576e+01,-1.613185465401666079e+02,-3.618357014824173348e+02,-4.251042537349590020e+02,-7.753381952905465369e+01,-4.490695661747349732e+01,9.408499717712402344e+00,-8.414105772972106934e-01,-1.415099620819091797e+00,2.560000000000000000e+02
-2.532178006964363703e+02,-2.411439057328707349e+02,2.121388872751776944e+01,-1.627445771857237560e+02,-3.646943282165016171e+02,-4.284537889390949204e+02,-8.051411353142339067e+01,-4.743387780743341864e+01,9.408499717712402344e+00,-8.414105772972106934e-01,-1.415099620819091797e+00,2.570000000000000000e+02
-2.551001899498160128e+02,-2.435381594839145691e+02,2.166644929180256440e+01,-1.645027786447626568e+02,-3.674273631492524146e+02,-4.322387587808802891e+02,-8.268896607961414702e+01,-5.085934968635365294e+01,9.408499717712402344e+00,-8.414105772972106934e-01,-1.415099620819091797e+00,2.580000000000000000e+02
-2.567748703691122500e+02,-2.458569748499830894e+02,2.240925428912896678e+01,-1.661293844687397723e+02,-3.700364596283257015e+02,-4.358656374450833937e+02,-8.328445253908284940e+01,-5.418236546275284127e+01,9.408499717712402344e+00,-8.414105772972106934e-01,-1.415099620819091797e+00,2.590000000000000000e+02
-2.582067666333637135e+02,-2.477927335936060445e+02,2.252738869290806178e+01,-1.674598915208694052e+02,-3.726157513082994228e+02,-4.391251774412544364e+02,-8.278453978662992085e+01,-5.683033454871974754e+01,9.523238182067871094e+00,-8.031646609306335449e-01,-1.376853704452514648e+00,2.600000000000000000e+02
-2.594719947697108182e+02,-2.491521907055612246e+02,2.135426804610642648e+01,-1.686482615397303562e+02,-3.753814850583498810e+02,-4.422270587496150256e+02,-8.242849277737650482e+01,-5.879592091014137623e+01,9.523238182067871094e+00,-8.031646609306335449e-01,-1.376853704452514648e+00,2.610000000000000000e+02
-2.608063314919577351e+02,-2.498175448596316528e+02,1.902673148009171200e+01,-1.698729435197319617e+02,-3.784768989341778251e+02,-4.454327686539468232e+02,-8.317525280513564212e+01,-6.034136664318111798e+01,9.523238182067871094e+00,-8.031646609306335449e-01,-1.376853704452514648e+00,2.620000000000000000e+02
-2.624716286182142539e+02,-2.498432138238604239e+02,1.651194399094129039e+01,-1.710068653713296953e+02,-3.816658868980534862e+02,-4.486948644976955620e+02,-8.490368881686163149e+01,-6.155933597099283361e+01,9.523238182067871094e+00,-8.031646609306335449e-01,-1.376853704452514648e+00,2.630000000000000000e+02
-2.645269573830061063e+02,-2.495658844400486487e+02,1.505621118110843781e+01,-1.716005456860900722e+02,-3.842898561907353496e+02,-4.516747558078451448e+02,-8.645502461559317453e+01,-6.220359627003062997e+01,9.523238182067871094e+00,-8.031646609306335449e-01,-1.376853704452514648e+00,2.640000000000000000e+02
-2.667221931361535781e+02,-2.495218801490689202e+02,1.536655511003004904e+01,-1.712515898305757673e+02,-3.856890057332655033e+02,-4.540925083698435856e+02,-8.650984052423018511e+01,-6.196161056665073374e+01,9.523238182067871094e+00,-8.031646609306335449e-01,-1.376853704452514648e+00,2.650000000000000000e+02
-2.686562233495831151e+02,-2.501350443771378877e+02,1.706654761364166006e+01,-1.700476006620149292e+02,-3.857908928796675809e+02,-4.560028989841374596e+02,-8.465430749947563527e+01,-6.089966053549824210e+01,9.523238182067871094e+00,-8.031646609306335449e-01,-1.376853704452514648e+00,2.660000000000000000e+02
-2.701150822061782719e+02,-2.514081538698731038e+02,1.882238095876869011e+01,-1.686617482338560876e+02,-3.852850449968539124e+02,-4.576870808829494308e+02,-8.181473848964310491e+01,-5.958051792725655105e+01,9.523238182067871094e+00,-8.031646609306335449e-01,-1.376853704452514648e+00,2.670000000000000000e+02
-2.712877357204804412e+02,-2.529101138475931521e+02,1.910814703402115811e+01,-1.679820278519516705e+02,-3.851212817670182176e+02,-4.592843281809815608e+02,-7.968912393229993540e+01,-5.862981247145773978e+01,9.523238182067871094e+00,-8.031646609306335449e-01,-1.376853704452514648e+00,2.680000000000000000e+02
-2.726122763602464829e+02,-2.541056511491082119e+02,1.712472545410491875e+01,-1.685683186484725411e+02,-3.857179984057542015e+02,-4.605822693322662644e+02,-7.957725818267817885e+01,-5.813637682617627434e+01,9.523238182067871094e+00,-8.031646609306335449e-01,-1.376853704452514648e+00,2.690000000000000000e+02
-2.743102360923908236e+02,-2.547617526280658922e+02,1.323804830646304254e+01,-1.703595045824486078e+02,-3.866026693206941900e+02,-4.612256479877031552e+02,-8.148811124061739974e+01,-5.755400161243005641e+01,9.523238182067871094e+00,-8.031646609306335449e-01,-1.376853704452514648e+00,2.700000000000000000e+02
-2.759970914258715311e+02,-2.550677790286943036e+02,8.620872176151806343e+00,-1.727997500029910043e+02,-3.868518711276584554e+02,-4.611512264007363910e+02,-8.418148103316548259e+01,-5.631977446676785348e+01,9.523238182067871094e+00,-8.031646609306335449e-01,-1.376853704452514648e+00,2.710000000000000000e+02
-2.767901583941218178e+02,-2.553805495481047956e+02,4.355452443048534406e+00,-1.752098079729591973e+02,-3.859881893721511688e+02,-4.608131687427643328e+02,-8.608663791097114881e+01,-5.464570241065746359e+01,9.523238182067871094e+00,-8.031646609306335449e-01,-1.376853704452514648e+00,2.720000000000000000e+02
-2.759427246718150855e+02,-2.558380147358574277e+02,6.787037232866168779e-01,-1.770994397697390923e+02,-3.845576900796444306e+02,-4.609609145312689407e+02,-8.636713812992002204e+01,-5.362476181029410327e+01,9.523238182067871094e+00,-8.031646609306335449e-01,-1.376853704452514648e+00,2.730000000000000000e+02
-2.735415417130992637e+02,-2.561897252008914165e+02,-3.080450644115899195e+00,-1.782670753334803067e+02,-3.838584503265768717e+02,-4.621589440159222022e+02,-8.531476725225934388e+01,-5.438220593171058681e+01,9.523238182067871094e+00,-8.031646609306335449e-01,-1.376853704452514648e+00,2.740000000000000000e+02
-2.706436965593220521e+02,-2.559725906705607485e+02,-7.872191392179956893e+00,-1.787328062654498808e+02,-3.849922072202900836e+02,-4.644416651301337424e+02,-8.384488449547961864e+01,-5.695930666461117653e+01,9.523238182067871094e+00,-8.031646609306335449e-01,-1.376853704452514648e+00,2.750000000000000000e+02
-2.686538027219356763e+02,-2.548622166058247558e+02,-1.415324411273036276e+01,-1.786253144772290398e+02,-3.879826133276607152e+02,-4.673268345415201566e+02,-8.261592910981312343e+01,-5.999701591435257342e+01,9.523238182067871094e+00,-8.031646609306335449e-01,-1.376853704452514648e+00,2.760000000000000000e+02
-2.684151727784745844e+02,-2.529266000959962639e+02,-2.161586854759570997e+01,-1.780990799002779568e+02,-3.916729301168511483e+02,-4.701013482773195165e+02,-8.157115769854249265e+01,-6.162409125691920053e+01,9.523238182067871094e+00,-8.031646609306335449e-01,-1.376853704452514648e+00,2.770000000000000000e+02
-2.697594835275892819e+02,-2.506397169360978978e+02,-2.956653066536000551e+01,-1.772909027503767447e+02,-3.945180988129668549e+02,-4.721417804973798411e+02,-8.025327087560276595e+01,-6.082273438509673724e+01,9.523238182067871094e+00,-8.031646609306335449e-01,-1.376853704452514648e+00,2.780000000000000000e+02
-2.718216893745543530e+02,-2.486923464819899436e+02,-3.749220919512072214e+01,-1.762951102819752123e+02,-3.956445384477287917e+02,-4.730976679563042353e+02,-7.849105204611851150e+01,-5.807132075163713125e+01,9.523238182067871094e+00,-8.031646609306335449e-01,-1.376853704452514648e+00,2.790000000000000000e+02
-2.737273733214187814e+02,-2.477277158358845099e+02,-4.521562476859276103e+01,-1.751411752462970526e+02,-3.953219540142999904e+02,-4.729014845471108401e+02,-7.672696272335895173e+01,-5.472083585712323384e+01,9.523238182067871094e+00,-8.031646609306335449e-01,-1.376853704452514648e+00,2.800000000000000000e+02
-2.750022719084847722e+02,-2.480968482081819957e+02,-5.251921981004170448e+01,-1.737759732399324548e+02,-3.944774832099168407e+02,-4.716636932644406670e+02,-7.563799337927810029e+01,-5.171886718162227226e+01,9.523238182067871094e+00,-8.031646609306335449e-01,-1.376853704452514648e+00,2.810000000000000000e+02
-2.754666246922275832e+02,-2.496976431748340701e+02,-5.875332781260090087e+01,-1.720764159827908770e+02,-3.937220199581481666e+02,-4.695544004322078990e+02,-7.545011545936642960e+01,-4.885403060061946690e+01,9.523238182067871094e+00,-8.031646609306335449e-01,-1.376853704452514648e+00,2.820000000000000000e+02
-2.749831202004916122e+02,-2.519903214634939559e+02,-6.302834943718016802e+01,-1.699412631277250512e+02,-3.928043636721399707e+02,-4.667659692580630235e+02,-7.566371749456595808e+01,-4.515402159334792032e+01,9.523238182067871094e+00,-8.031646609306335449e-01,-1.376853704452514648e+00,2.830000000000000000e+02
-2.734915124725473561e+02,-2.542436884691499017e+02,-6.496260652056434992e+01,-1.674561302493174253e+02,-3.910030487564930581e+02,-4.635854889573430455e+02,-7.548451568234986553e+01,-4.001252819663670834e+01,9.523238182067871094e+00,-8.031646609306335449e-01,-1.376853704452514648e+00,2.840000000000000000e+02
-2.712916644346323665e+02,-2.559241901598908271e+02,-6.527744782498973564e+01,-1.650275229607491383e+02,-3.880585184473679874e+02,-4.604934810681490944e+02,-7.453578439008606438e+01,-3.400513250847848212e+01,9.446745872497558594e+00,-8.414105772972106934e-01,-1.376853704452514648e+00,2.850000000000000000e+02
-2.691068482932810184e+02,-2.569802395283958276e+02,-6.551418089928006339e+01,-1.633251711759475029e+02,-3.847076130270750127e+02,-4.581341521685118323e+02,-7.315654802348160501e+01,-2.870377289592715897e+01,9.446745872497558594e+00,-8.414105772972106934e-01,-1.376853704452514648e+00,2.860000000000000000e+02
-2.676555249825422607e+02,-2.577972574153953929e+02,-6.696341245187568347e+01,-1.629967233894270748e+02,-3.822730079867935729e+02,-4.570913350294753172e+02,-7.204664477662913669e+01,-2.571767445702585064e+01,9.446745872497558594e+00,-8.414105772972106934e-01,-1.376853704452514648e+00,2.870000000000000000e+02
-2.670787220604560162e+02,-2.588549358022697788e+02,-6.973470888525912414e+01,-1.643235717371736655e+02,-3.816962252788996466e+02,-4.575979734147446152e+02,-7.168152603088128672e+01,-2.577053249410892022e+01,9.446745872497558594e+00,-8.414105772972106934e-01,-1.376853704452514648e+00,2.880000000000000000e+02
-2.668348707674410889e+02,-2.603627715450854794e+02,-7.285031102945481507e+01,-1.670669852553133978e+02,-3.829272415390362312e+02,-4.593934941379902739e+02,-7.207664476871900661e+01,-2.846229973901188259e+01,9.446745872497558594e+00,-8.414105772972106934e-01,-1.376853704452514648e+00,2.890000000000000000e+02
-2.662443100040723039e+02,-2.621609289790269486e+02,-7.530705796432425814e+01,-1.706192070157187572e+02,-3.851693416239448879e+02,-4.618313913677607161e+02,-7.302563505848252134e+01,-3.272126229215530202e+01,9.446745872497558594e+00,-8.414105772972106934e-01,-1.376853704452514648e+00,2.900000000000000000e+02
-2.651838332880652160e+02,-2.639123630330457217e+02,-7.709922826323202116e+01,-1.743154089702804868e+02,-3.876326464264823244e+02,-4.641423767706892249e+02,-7.440937669531626852e+01,-3.745611404940996181e+01,9.446745872497558594e+00,-8.414105772972106934e-01,-1.376853704452514648e+00,2.910000000000000000e+02
-2.642482570356099814e+02,-2.653507704882584335e+02,-7.922785460680609049e+01,-1.776517235699948287e+02,-3.900275433073595650e+02,-4.656910305437702391e+02,-7.619522077338251620e+01,-4.192434739011207512e+01,9.446745872497558594e+00,-8.414105772972106934e-01,-1.376853704452514648e+00,2.920000000000000000e+02
-2.642208098483278036e+02,-2.663531320671914955e+02,-8.268615829200098233e+01,-1.802897604317661262e+02,-3.924119862909602716e+02,-4.661344619325461736e+02,-7.821211740713386007e+01,-4.570993109095502405e+01,9.446745872497558594e+00,-8.414105772972106934e-01,-1.376853704452514648e+00,2.930000000000000000e+02
-2.653921083562995591e+02,-2.668346413285552217e+02,-8.738620445706987994e+01,-1.819572157934944698e+02,-3.947250824330867545e+02,-4.654775448665507156e+02,-8.007947324581232351e+01,-4.854878605745284403e+01,9.446745872497558594e+00,-8.414105772972106934e-01,-1.376853704452514648e+00,2.940000000000000000e+02
-2.673515453288897561e+02,-2.666498741236337082e+02,-9.202100251082197246e+01,-1.824318970223516772e+02,-3.965885828802109927e+02,-4.640350237323691545e+02,-8.144122499065156262e+01,-5.027507951924656027e+01,9.446745872497558594e+00,-8.414105772972106934e-01,-1.376853704452514648e+00,2.950000000000000000e+02
-2.693500211236571431e+02,-2.656741089938930713e+02,-9.497826038018979489e+01,-1.816838078934245004e+02,-3.975662741830326468e+02,-4.623073020381614242e+02,-8.223948230366113421e+01,-5.095418818102291425e+01,9.446745872497558594e+00,-8.414105772972106934e-01,-1.376853704452514648e+00,2.960000000000000000e+02
-2.707980566572811085e+02,-2.640247647578753458e+02,-9.551421707918962056e+01,-1.800681511213223303e+02,-3.975551527220192156e+02,-4.608073906773290673e+02,-8.269094608303817040e+01,-5.103175479130663916e+01,9.446745872497558594e+00,-8.414105772972106934e-01,-1.376853704452514648e+00,2.970000000000000000e+02
-2.714513153742016129e+02,-2.621871799596875690e+02,-9.424221183875454244e+01,-1.783635936466754401e+02,-3.968827344291288455e+02,-4.599210629057914730e+02,-8.300155534496377641e+01,-5.123466178465946541e+01,9.446745872497558594e+00,-8.414105772972106934e-01,-1.376853704452514648e+00,2.980000000000000000e+02
-2.712545680268279966e+02,-2.608448847849679737e+02,-9.262605582531000437e+01,-1.775145682765062247e+02,-3.960180492491490440e+02,-4.598378093135771678e+02,-8.317814341792961841e+01,-5.214158644195242687e+01,9.446745872497558594e+00,-8.414105772972106934e-01,-1.376853704452514648e+00,2.990000000000000000e+02
-2.701674512872291416e+02,-2.604677154990562826e+02,-9.196236838738286679e+01,-1.781528673038993702e+02,-3.952073526100062963e+02,-4.605067526830396218e+02,-8.316041870204060160e+01,-5.369044244578594771e+01,9.446745872497558594e+00,-8.414105772972106934e-01,-1.376853704452514648e+00,3.000000000000000000e+02
-2.682359771550435426e+02,-2.609507788487659923e+02,-9.262504717718798020e+01,-1.801738891706229424e+02,-3.943749443156719963e+02,-4.615700636724814103e+02,-8.306205300913495648e+01,-5.507566071589508283e+01,9.446745872497558594e+00,-8.414105772972106934e-01,-1.376853704452514648e+00,3.010000000000000000e+02
-2.658099529203549309e+02,-2.616220133147014053e+02,-9.404411181256989494e+01,-1.826925836918364894e+02,-3.933282275006392865e+02,-4.623609422581965873e+02,-8.313847243272311971e+01,-5.526362120194187355e+01,9.446745872497558594e+00,-8.414105772972106934e-01,-1.376853704452514648e+00,3.020000000000000000e+02
-2.636037592552862634e+02,-2.616829163846729216e+02,-9.530493731646060951e+01,-1.845086809904593110e+02,-3.920420237970848802e+02,-4.621444696305389925e+02,-8.344805490103237844e+01,-5.381024941664088601e+01,9.446745872497558594e+00,-8.414105772972106934e-01,-1.376853704452514648e+00,3.030000000000000000e+02
-2.624005868888591522e+02,-2.607655864606226146e+02,-9.582301739740853463e+01,-1.848256565049243818e+02,-3.907382611459299824e+02,-4.605747236176507613e+02,-8.360432682273221872e+01,-5.128327281206054522e+01,9.446745872497558594e+00,-8.414105772972106934e-01,-1.376853704452514648e+00,3.040000000000000000e+02
-2.625168388734688278e+02,-2.591662297024950590e+02,-9.559188883693241223e+01,-1.837049309826793433e+02,-3.896891649561684972e+02,-4.580194310851275077e+02,-8.300244628297252802e+01,-4.884232984302207115e+01,9.446745872497558594e+00,-8.414105772972106934e-01,-1.376853704452514648e+00,3.050000000000000000e+02
-2.634023803250888704e+02,-2.575557364104537328e+02,-9.491067875650821861e+01,-1.818964501316851283e+02,-3.889326974576084694e+02,-4.553676549579726043e+02,-8.139671986807741177e+01,-4.729538589355422573e+01,9.446745872497558594e+00,-8.414105772972106934e-01,-1.376853704452514648e+00,3.060000000000000000e+02
-2.637440123750870953e+02,-2.563976541167808136e+02,-9.396571735625957444e+01,-1.801981123144889807e+02,-3.881932871316819273e+02,-4.533629129599279395e+02,-7.926677014567871993e+01,-4.652471621003610380e+01,9.446745872497558594e+00,-8.414105772972106934e-01,-1.376853704452514648e+00,3.070000000000000000e+02
-2.621677615431111690e+02,-2.555799663753033428e+02,-9.272333251922884756e+01,-1.788946983072199828e+02,-3.871432401120398481e+02,-4.520348478039979909e+02,-7.755797915812718202e+01,-4.588514742786560419e+01,9.446745872497558594e+00,-8.414105772972106934e-01,-1.376853704452514648e+00,3.080000000000000000e+02
-2.582003497432673385e+02,-2.545854490037578444e+02,-9.122287202936740869e+01,-1.777373731569267648e+02,-3.858129790407516566e+02,-4.507889091017988221e+02,-7.699151285826258118e+01,-4.519323993087766667e+01,9.446745872497558594e+00,-8.414105772972106934e-01,-1.376853704452514648e+00,3.090000000000000000e+02
-2.528198644225014959e+02,-2.530336622287449018e+02,-8.991306462987699888e+01,-1.764005318705344507e+02,-3.847390478057002383e+02,-4.490741915926940919e+02,-7.756470626687439562e+01,-4.523002598148320885e+01,9.446745872497558594e+00,-8.414105772972106934e-01,-1.376853704452514648e+00,3.100000000000000000e+02
-2.480623858723757849e+02,-2.510754270429375765e+02,-8.955265061718455399e+01,-1.748976468960861439e+02,-3.846128598313279099e+02,-4.469277924163155831e+02,-7.865051776709503883e+01,-4.706687071321493931e+01,9.446745872497558594e+00,-8.414105772972106934e-01,-1.376853704452514648e+00,3.110000000000000000e+02
-2.457804068056466349e+02,-2.492599487938871334e+02,-9.062039591564814600e+01,-1.735424105383295910e+02,-3.856605432651750220e+02,-4.448121272099729140e+02,-7.953575469050440461e+01,-5.076099967206346264e+01,9.446745872497558594e+00,-7.649186849594116211e-01,-1.415099620819091797e+00,3.120000000000000000e+02
-2.463827797122453376e+02,-2.480199572179081997e+02,-9.273030218171368233e+01,-1.725805142782180610e+02,-3.873032523168848229e+02,-4.429388063503620288e+02,-7.986502224824982932e+01,-5.476596698788296180e+01,9.446745872497558594e+00,-7.649186849594116211e-01,-1.415099620819091797e+00,3.130000000000000000e+02
-2.485476661263001006e+02,-2.472962619896983369e+02,-9.465642760798982636e+01,-1.719568426252683366e+02,-3.884569779170501533e+02,-4.408673458093845738e+02,-7.965648168686982444e+01,-5.685291499238928736e+01,9.446745872497558594e+00,-7.649186849594116211e-01,-1.415099620819091797e+00,3.140000000000000000e+02
-2.502082844494373148e+02,-2.466653446611779827e+02,-9.505318529983105691e+01,-1.714646483998283202e+02,-3.882415738747698697e+02,-4.378929338254703225e+02,-7.902735376111411369e+01,-5.583798408561790438e+01,9.446745872497558594e+00,-7.649186849594116211e-01,-1.415099620819091797e+00,3.150000000000000000e+02
-2.500565313722094061e+02,-2.458018049297433549e+02,-9.329870663303336187e+01,-1.710401362602850668e+02,-3.864763819360563275e+02,-4.338503601240930720e+02,-7.800784541053519661e+01,-5.251423892442403485e+01,9.446745872497558594e+00,-7.649186849594116211e-01,-1.415099620819091797e+00,3.160000000000000000e+02
-2.483435047147365822e+02,-2.447775501144006967e+02,-8.979076597610810495e+01,-1.708006415386651042e+02,-3.835746944100640121e+02,-4.294741111279936376e+02,-7.664218903947971739e+01,-4.888805843999921308e+01,9.446745872497558594e+00,-7.649186849594116211e-01,-1.415099620819091797e+00,3.170000000000000000e+02
-2.463721981672935044e+02,-2.438927306207795027e+02,-8.556808815483623221e+01,-1.707819212220747431e+02,-3.800714984722484360e+02,-4.259092347475013867e+02,-7.521872552877948692e+01,-4.647221141275610989e+01,9.446745872497558594e+00,-7.649186849594116211e-01,-1.415099620819091797e+00,3.180000000000000000e+02
-2.452426460956163510e+02,-2.432650995465726851e+02,-8.172316326681936971e+01,-1.707388985779650739e+02,-3.763351064263994203e+02,-4.238460041544035448e+02,-7.431028833740208484e+01,-4.529032757199979642e+01,9.446745872497558594e+00,-7.649186849594116211e-01,-1.415099620819091797e+00,3.190000000000000000e+02
-2.450116352903268080e+02,-2.426722511729625467e+02,-7.908402414012880399e+01,-1.703224766462037678e+02,-3.726840308534031010e+02,-4.231147797145962386e+02,-7.448593442620358474e+01,-4.444798732914944139e+01,9.446745872497558594e+00,-7.649186849594116211e-01,-1.415099620819091797e+00,3.200000000000000000e+02
-2.449415669441594900e+02,-2.418441947858821095e+02,-7.816825615950767769e+01,-1.694722830114016006e+02,-3.695875579229862069e+02,-4.230458556464516278e+02,-7.587607801819626729e+01,-4.347981460693597455e+01,9.446745872497558594e+00,-7.649186849594116211e-01,-1.415099620819091797e+00,3.210000000000000000e+02
-2.444328277276372319e+02,-2.408686133964947658e+02,-7.907152972756080089e+01,-1.685284326254669622e+02,-3.675281895921629030e+02,-4.231013779226459519e+02,-7.793798644411970145e+01,-4.292354917819818638e+01,9.446745872497558594e+00,-7.649186849594116211e-01,-1.415099620819091797e+00,3.220000000000000000e+02
-2.436231392671841149e+02,-2.401971383000238802e+02,-8.118811345479298325e+01,-1.678354265172403075e+02,-3.665632354336635217e+02,-4.230947961559324995e+02,-7.963438105896022989e+01,-4.349189895380743565e+01,9.446745872497558594e+00,-7.649186849594116211e-01,-1.415099620819091797e+00,3.230000000000000000e+02
-2.430686885518571216e+02,-2.401574401078994470e+02,-8.316423037867548373e+01,-1.672188473371793407e+02,-3.660831686953981716e+02,-4.228745156679019601e+02,-7.993794365110522904e+01,-4.482830786329054717e+01,9.446745872497558594e+00,-7.649186849594116211e-01,-1.415099620819091797e+00,3.240000000000000000e+02
-2.429183180195927889e+02,-2.404510559459115484e+02,-8.350436925429937673e+01,-1.659624517158331400e+02,-3.651613452269332356e+02,-4.219889017044004049e+02,-7.836988497156698941e+01,-4.537167910729692721e+01,9.446745872497558594e+00,-7.649186849594116211e-01,-1.415099620819091797e+00,3.250000000000000000e+02
-2.425251073773927146e+02,-2.402404170809384141e+02,-8.162056317556289287e+01,-1.634755124248323455e+02,-3.632942302983132095e+02,-4.198600712021474237e+02,-7.527712618452449078e+01,-4.370920938373456011e+01,9.446745872497558594e+00,-7.649186849594116211e-01,-1.415099620819091797e+00,3.260000000000000000e+02
-2.409802933026210212e+02,-2.388870066314436826e+02,-7.845127812593227645e+01,-1.601029030019133188e+02,-3.608793876759721115e+02,-4.163988355663013863e+02,-7.172159822008961783e+01,-4.017258767416990395e+01,9.446745872497558594e+00,-7.649186849594116211e-01,-1.415099620819091797e+00,3.270000000000000000e+02
-2.380851859286308354e+02,-2.367078259489197762e+02,-7.591351915064774403e+01,-1.572753007755395629e+02,-3.589767693227479413e+02,-4.124527528194003025e+02,-6.905347989379015416e+01,-3.704549993169575828e+01,9.446745872497558594e+00,-7.649186849594116211e-01,-1.415099620819091797e+00,3.280000000000000000e+02
-2.347733936275416227e+02,-2.349712607749117979e+02,-7.544471552486470500e+01,-1.567058136189594961e+02,-3.585179200083683781e+02,-4.095386951565753861e+02,-6.834526511062972531e+01,-3.701121043476575778e+01,9.446745872497558594e+00,-7.649186849594116211e-01,-1.415099620819091797e+00,3.290000000000000000e+02
-2.324818923879995509e+02,-2.349831006267676230e+02,-7.682250519832700775e+01,-1.591677932216697400e+02,-3.595943832399747180e+02,-4.089404791390331866e+02,-6.991205007934661353e+01,-4.112148269845033610e+01,9.446745872497558594e+00,-7.649186849594116211e-01,-1.415099620819091797e+00,3.300000000000000000e+02
-2.319836809039347827e+02,-2.369891607856728797e+02,-7.836609803825899689e+01,-1.638213536336492098e+02,-3.613585067495614567e+02,-4.108397782085020253e+02,-7.315805438920756387e+01,-4.801403685949264855e+01,9.446745872497558594e+00,-7.649186849594116211e-01,-1.415099620819091797e+00,3.310000000000000000e+02
-2.327367424099970776e+02,-2.398619863450854837e+02,-7.842365154828564755e+01,-1.686552596133320776e+02,-3.625680335873973945e+02,-4.141473376677961369e+02,-7.687115464587805036e+01,-5.494174208223648748e+01,9.446745872497558594e+00,-7.649186849594116211e-01,-1.415099620819091797e+00,3.320000000000000000e+02
-2.333516233544044098e+02,-2.419106609900184139e+02,-7.685332091877239691e+01,-1.717532334001169829e+02,-3.623518330059079062e+02,-4.171655656506534342e+02,-7.985499880046734233e+01,-5.963734335798733355e+01,9.446745872497558594e+00,-7.649186849594116211e-01,-1.415099620819091797e+00,3.330000000000000000e+02
-2.327424106903862366e+02,-2.421750822276510462e+02,-7.515921961686001396e+01,-1.724597623108461448e+02,-3.606761024971387997e+02,-4.185825688237666782e+02,-8.152537124898674392e+01,-6.150361702070836145e+01,9.446745872497558594e+00,-7.649186849594116211e-01,-1.415099620819091797e+00,3.340000000000000000e+02
-2.309287153447546643e+02,-2.411143454502259829e+02,-7.514440255979002359e+01,-1.716151676113486246e+02,-3.582352929486391986e+02,-4.180886367328799906e+02,-8.205775964687825308e+01,-6.141675252949914920e+01,9.446745872497558594e+00,-7.649186849594116211e-01,-1.415099620819091797e+00,3.350000000000000000e+02
-2.288144816561906509e+02,-2.401063504040989756e+02,-7.728085110072049702e+01,-1.707495484275676745e+02,-3.558778088707117604e+02,-4.162521200810373330e+02,-8.197982981613154152e+01,-6.062897166407094574e+01,9.446745872497558594e+00,-7.649186849594116211e-01,-1.415099620819091797e+00,3.360000000000000000e+02
-2.272335439009960965e+02,-2.401876676926187884e+02,-8.023732887973858396e+01,-1.708969088362575803e+02,-3.539752383484267284e+02,-4.138769778188226383e+02,-8.156702843736673003e+01,-5.979257061877308388e+01,9.446745872497558594e+00,-7.649186849594116211e-01,-1.415099620819091797e+00,3.370000000000000000e+02
-2.261839054985740631e+02,-2.410984625989335655e+02,-8.193694082660113054e+01,-1.719212364452887414e+02,-3.521754963218264720e+02,-4.114140807846504231e+02,-8.060054359040577765e+01,-5.874233103063943418e+01,9.446745872497558594e+00,-7.649186849594116211e-01,-1.415099620819091797e+00,3.380000000000000000e+02
-2.249190313251875750e+02,-2.414109508700985316e+02,-8.114445675797571766e+01,-1.727872614981852166e+02,-3.496883758732105889e+02,-4.088382342778310203e+02,-7.870103088980613393e+01,-5.691847380202329987e+01,9.446745872497558594e+00,-7.649186849594116211e-01,-1.415099620819091797e+00,3.390000000000000000e+02
-2.227203654769782588e+02,-2.396156123320256484e+02,-7.818958555259632703e+01,-1.724431221415710525e+02,-3.458518941374736642e+02,-4.059283997889928060e+02,-7.589255774881473826e+01,-5.392289360291113098e+01,9.446745872497558594e+00,-7.649186849594116211e-01,-1.415099620819091797e+00,3.400000000000000000e+02
-2.195952059779427827e+02,-2.352911749358339648e+02,-7.432237007710978105e+01,-1.705605781714267550e+02,-3.405293243666501439e+02,-4.025532874145333153e+02,-7.279507192640244284e+01,-4.979753642140246939e+01,9.446745872497558594e+00,-7.649186849594116211e-01,-1.415099620819091797e+00,3.410000000000000000e+02
-2.163061340176695921e+02,-2.294909624492846660e+02,-7.046401601436468809e+01,-1.676055692444607530e+02,-3.340901183643168224e+02,-3.986756724825154379e+02,-7.019923774266533201e+01,-4.494251705243493689e+01,9.446745872497558594e+00,-7.649186849594116211e-01,-1.415099620819091797e+00,3.420000000000000000e+02
-2.137879591861891413e+02,-2.241359035607204078e+02,-6.657455892960103938e+01,-1.643353954747396983e+02,-3.271218270926890455e+02,-3.941910953331901055e+02,-6.841067491786918708e+01,-3.984820854504221188e+01,9.446745872497558594e+00,-8.031646609306335449e-01,-1.376853704452514648e+00,3.430000000000000000e+02
-2.124844545756851630e+02,-2.209035075572835467e+02,-6.214481111246993805e+01,-1.612536651322998296e+02,-3.202028191823150109e+02,-3.889251267889962946e+02,-6.702035596126290784e+01,-3.490293344863084712e+01,9.446745872497558594e+00,-8.031646609306335449e-01,-1.376853704452514648e+00,3.440000000000000000e+02
-2.120776726281488891e+02,-2.203463424421713626e+02,-5.719631391531231657e+01,-1.584605530913454459e+02,-3.138904459272644090e+02,-3.829086080687698086e+02,-6.536485639999216346e+01,-3.044836865451532049e+01,9.446745872497558594e+00,-8.031646609306335449e-01,-1.376853704452514648e+00,3.450000000000000000e+02
-2.117035555020571564e+02,-2.217020169522251081e+02,-5.273029160895850964e+01,-1.558965642253597252e+02,-3.087868709949510730e+02,-3.766762324949404501e+02,-6.327392308637899987e+01,-2.702249035669865407e+01,9.446745872497558594e+00,-8.031646609306335449e-01,-1.376853704452514648e+00,3.460000000000000000e+02
-2.104507054360748270e+02,-2.233918352212471063e+02,-5.015754535411622328e+01,-1.536263169673529774e+02,-3.054775415523043876e+02,-3.712120444622864852e+02,-6.140303841664854190e+01,-2.549572151095696881e+01,9.446745872497558594e+00,-8.031646609306335449e-01,-1.376853704452514648e+00,3.470000000000000000e+02
-2.078763524626000390e+02,-2.238747531457305513e+02,-5.024130362033599795e+01,-1.518758965473380158e+02,-3.043259767332436923e+02,-3.674754788269997334e+02,-6.081412500558496959e+01,-2.678523770297488227e+01,9.446745872497558594e+00,-8.031646609306335449e-01,-1.376853704452514648e+00,3.480000000000000000e+02
-2.043157325328782008e+02,-2.224051052957594266e+02,-5.250648671591625316e+01,-1.508424296584826152e+02,-3.052848073699760789e+02,-3.658486256516362118e+02,-6.215455410755043886e+01,-3.118328271308462263e+01,9.446745872497558594e+00,-8.031646609306335449e-01,-1.376853704452514648e+00,3.490000000000000000e+02
-2.008035184838125815e+02,-2.193171437154427394e+02,-5.560589075599693842e+01,-1.505138749745760833e+02,-3.078551768817742413e+02,-3.659447725702452772e+02,-6.514464599685720714e+01,-3.781995571915263099e+01,9.446745872497558594e+00,-8.031646609306335449e-01,-1.376853704452514648e+00,3.500000000000000000e+02
-1.985620323576850978e+02,-2.157114344112986828e+02,-5.828610345283539118e+01,-1.506799206348714506e+02,-3.111830540664404907e+02,-3.669191190668311719e+02,-6.879664520142011952e+01,-4.486248832994942859e+01,9.446745872497558594e+00,-8.031646609306335449e-01,-1.376853704452514648e+00,3.510000000000000000e+02
-1.982866121057870714e+02,-2.127587871833693498e+02,-6.013564221936064769e+01,-1.511013578023080299e+02,-3.142401051242200083e+02,-3.680115283617228670e+02,-7.215580236985374540e+01,-5.050206723588269142e+01,9.446745872497558594e+00,-8.031646609306335449e-01,-1.376853704452514648e+00,3.520000000000000000e+02
-1.996981831381588108e+02,-2.110916526897487984e+02,-6.156801934218833594e+01,-1.516628224545879675e+02,-3.160993062524692050e+02,-3.688961579223669105e+02,-7.490356527399228526e+01,-5.401058479112782607e+01,9.446745872497558594e+00,-8.031646609306335449e-01,-1.376853704452514648e+00,3.530000000000000000e+02
-2.017235813110210074e+02,-2.106683146562172624e+02,-6.317210747494857515e+01,-1.523660964972771126e+02,-3.162806581233717225e+02,-3.696102567865782476e+02,-7.729917184693169929e+01,-5.593876203369438826e+01,9.446745872497558594e+00,-8.031646609306335449e-01,-1.376853704452514648e+00,3.540000000000000000e+02
-2.031893907417594392e+02,-2.110881384831575360e+02,-6.504795232956132622e+01,-1.531714180063108870e+02,-3.149766657157133523e+02,-3.701833891113278696e+02,-7.954028635743929954e+01,-5.722065741267419980e+01,9.446745872497558594e+00,-8.031646609306335449e-01,-1.376853704452514648e+00,3.550000000000000000e+02
-2.034740681286239123e+02,-2.119626972809987819e+02,-6.665606364114591997e+01,-1.538211139559198273e+02,-3.128938753933512089e+02,-3.703089196153550802e+02,-8.117787633528678271e+01,-5.799735274184877198e+01,9.446745872497558594e+00,-8.031646609306335449e-01,-1.376853704452514648e+00,3.560000000000000000e+02
-2.026159142719243391e+02,-2.129434582040476016e+02,-6.721802574679452391e+01,-1.538000199922576030e+02,-3.106968601583348573e+02,-3.693386115167122625e+02,-8.119428048222687266e+01,-5.729546624973556845e+01,9.446745872497558594e+00,-8.031646609306335449e-01,-1.376853704452514648e+00,3.570000000000000000e+02
-2.009204098056047769e+02,-2.134626482743785800e+02,-6.627768694245639836e+01,-1.525266848868729994e+02,-3.084685427143504057e+02,-3.666429376725709517e+02,-7.876246447750008883e+01,-5.393210899599455388e+01,9.446745872497558594e+00,-8.031646609306335449e-01,-1.376853704452514648e+00,3.580000000000000000e+02
-1.985393382241290965e+02,-2.126465792392973526e+02,-6.393967037454353886e+01,-1.496909575153290461e+02,-3.056760492348639673e+02,-3.620769962598246821e+02,-7.403101056820196391e+01,-4.781938044406751942e+01,9.446745872497558594e+00,-8.031646609306335449e-01,-1.376853704452514648e+00,3.590000000000000000e+02
-1.954307391856727918e+02,-2.097695639464386659e+02,-6.065964641160576321e+01,-1.455194606829445547e+02,-3.017078177105854593e+02,-3.561931893605346886e+02,-6.818859117972851891e+01,-4.042862615099943469e+01,9.446745872497558594e+00,-8.031646609306335449e-01,-1.376853704452514648e+00,3.600000000000000000e+02
-1.916396764482431081e+02,-2.050082492990040919e+02,-5.686282404056134965e+01,-1.407529816634310009e+02,-2.964980077402010465e+02,-3.500122160269975211e+02,-6.268286679150287455e+01,-3.394503535561239005e+01,9.446745872497558594e+00,-8.031646609306335449e-01,-1.376853704452514648e+00,3.610000000000000000e+02
-1.875113664862938094e+02,-1.997412977782901180e+02,-5.277745218599966393e+01,-1.363065943035976488e+02,-2.906678322209349972e+02,-3.445040722667815771e+02,-5.826415532663304475e+01,-2.986113285790179361e+01,9.446745872497558594e+00,-8.031646609306335449e-01,-1.376853704452514648e+00,3.620000000000000000e+02
-1.835824897747156683e+02,-1.958706171666108276e+02,-4.861118820792125916e+01,-1.328224876168287665e+02,-2.851055357934415042e+02,-3.401624059495354686e+02,-5.471802642530838057e+01,-2.823106436368584582e+01,9.446745872497558594e+00,-8.031646609306335449e-01,-1.376853704452514648e+00,3.630000000000000000e+02
-1.802764380834760232e+02,-1.945061709247443105e+02,-4.477963034222125316e+01,-1.303931314256483347e+02,-2.804301424368775315e+02,-3.369284120200113648e+02,-5.147529572539224318e+01,-2.809302549168933183e+01,9.484992027282714844e+00,-7.649186849594116211e-01,-1.415099620819091797e+00,3.640000000000000000e+02
-1.777054943432212895e+02,-1.950675975060541987e+02,-4.181209575691673308e+01,-1.286095137722500112e+02,-2.768072708500035333e+02,-3.344101935237604266e+02,-4.843532222543444732e+01,-2.848704782914182942e+01,9.484992027282714844e+00,-7.649186849594116211e-01,-1.415099620819091797e+00,3.650000000000000000e+02
-1.757062154554419067e+02,-1.956643949546407839e+02,-3.992462882882477970e+01,-1.268741622758668655e+02,-2.741447086956347903e+02,-3.321437089267171814e+02,-4.616072513079211603e+01,-2.908524870329915757e+01,9.484992027282714844e+00,-7.649186849594116211e-01,-1.415099620819091797e+00,3.660000000000000000e+02
-1.739727282908638699e+02,-1.945720141046667777e+02,-3.869864866429134054e+01,-1.247952377486651585e+02,-2.723306045400947824e+02,-3.297436916467750052e+02,-4.529264429375712098e+01,-3.003714602430159175e+01,9.484992027282714844e+00,-7.649186849594116211e-01,-1.415099620819091797e+00,3.670000000000000000e+02
-1.721387717228503789e+02,-1.916096910398773616e+02,-3.731639525629179843e+01,-1.224707660337853667e+02,-2.712436758536259731e+02,-3.270108227171162980e+02,-4.586569489837347646e+01,-3.145390703465500337e+01,9.484992027282714844e+00,-7.649186849594116211e-01,-1.415099620819091797e+00,3.680000000000000000e+02
-1.698431402672804325e+02,-1.882372644343763568e+02,-3.526082380408070094e+01,-1.205054318513323324e+02,-2.706011577463571030e+02,-3.240710157374469418e+02,-4.726659863676468376e+01,-3.316222371745629971e+01,9.484992027282714844e+00,-7.649186849594116211e-01,-1.415099620819091797e+00,3.690000000000000000e+02
-1.669053262505417479e+02,-1.862886120476359793e+02,-3.283302781378233703e+01,-1.196959040771089349e+02,-2.699025428042348267e+02,-3.214269870076745974e+02,-4.884239492352435263e+01,-3.488701817752826173e+01,9.484992027282714844e+00,-7.649186849594116211e-01,-1.415099620819091797e+00,3.700000000000000000e+02
-1.635633895895693968e+02,-1.864618770173858593e+02,-3.090718658647529082e+01,-1.204872168417668945e+02,-2.685864446099985798e+02,-3.197100984511519073e+02,-5.043814608619004503e+01,-3.648423676285551664e+01,9.484992027282714844e+00,-7.649186849594116211e-01,-1.415099620819091797e+00,3.710000000000000000e+02
-1.605047942442215572e+02,-1.878819752493789110e+02,-3.006322247017624250e+01,-1.225186912422357182e+02,-2.662673101725636116e+02,-3.191648500811902522e+02,-5.224330385154803480e+01,-3.783958558175140752e+01,9.484992027282714844e+00,-7.649186849594116211e-01,-1.415099620819091797e+00,3.720000000000000000e+02
-1.585082527890126585e+02,-1.890374459565405232e+02,-2.994541197393618859e+01,-1.246526639778849130e+02,-2.628723982107972006e+02,-3.192755803715040201e+02,-5.414551906127871916e+01,-3.855149123152727952e+01,9.484992027282714844e+00,-7.649186849594116211e-01,-1.415099620819091797e+00,3.730000000000000000e+02
-1.578875218355574361e+02,-1.891299799361017904e+02,-2.955374903567508227e+01,-1.255828055201354800e+02,-2.586284591741655277e+02,-3.189484970170544784e+02,-5.537164580510943779e+01,-3.786173657610379450e+01,9.484992027282714844e+00,-7.649186849594116211e-01,-1.415099620819091797e+00,3.740000000000000000e+02
-1.581881623025255976e+02,-1.885372326485671692e+02,-2.824925328047311268e+01,-1.246307642007586765e+02,-2.539758352133394510e+02,-3.171978825145783958e+02,-5.490705873731349129e+01,-3.508986211379283304e+01,9.484992027282714844e+00,-7.649186849594116211e-01,-1.415099620819091797e+00,3.750000000000000000e+02
-1.584398741445929772e+02,-1.880423710487159497e+02,-2.646242603064501964e+01,-1.221203710776921980e+02,-2.494559462724669174e+02,-3.137850916004540522e+02,-5.235529636358523931e+01,-3.028210164350662126e+01,9.484992027282714844e+00,-7.649186849594116211e-01,-1.415099620819091797e+00,3.760000000000000000e+02
-1.577854427680172194e+02,-1.877173497748867703e+02,-2.529056813410738869e+01,-1.190117848395664168e+02,-2.455386873582224325e+02,-3.092577983156452319e+02,-4.837911132497947619e+01,-2.446077625030102354e+01,9.484992027282714844e+00,-7.649186849594116211e-01,-1.415099620819091797e+00,3.770000000000000000e+02
-1.559796807931604690e+02,-1.866716433649703504e+02,-2.528085135393735072e+01,-1.161217805326436974e+02,-2.424297711775375319e+02,-3.044253337050233768e+02,-4.424987785099028770e+01,-1.916304561732954426e+01,9.484992027282714844e+00,-7.649186849594116211e-01,-1.415099620819091797e+00,3.780000000000000000e+02
-1.533833166892518420e+02,-1.839572341828047684e+02,-2.560118412066822202e+01,-1.136119860781177522e+02,-2.399896687643049518e+02,-2.998226475367791863e+02,-4.089397357541974998e+01,-1.557614637725646389e+01,9.484992027282714844e+00,-7.649186849594116211e-01,-1.415099620819091797e+00,3.790000000000000000e+02
-1.505572377695677915e+02,-1.797035527068296688e+02,-2.453881424329892980e+01,-1.111632773633446050e+02,-2.378689125332969070e+02,-2.956470644979390272e+02,-3.829546519911696123e+01,-1.395301091859005282e+01,9.484992027282714844e+00,-7.649186849594116211e-01,-1.415099620819091797e+00,3.800000000000000000e+02
-1.478763442101317196e+02,-1.752842553825016694e+02,-2.100192675703351597e+01,-1.085941158931905193e+02,-2.357862684969913971e+02,-2.920779597818061575e+02,-3.575979068218703105e+01,-1.375974408779461555e+01,9.484992027282714844e+00,-7.649186849594116211e-01,-1.415099620819091797e+00,3.810000000000000000e+02
-1.454683583832152181e+02,-1.722842253155984054e+02,-1.566063774229519368e+01,-1.062755610997814983e+02,-2.337312830245778059e+02,-2.894831668771289515e+02,-3.276507137470207454e+01,-1.438904642670445355e+01,9.484992027282714844e+00,-7.649186849594116211e-01,-1.415099620819091797e+00,3.820000000000000000e+02
-1.433849421637321484e+02,-1.712330362261909613e+02,-1.060961173871828578e+01,-1.049322066859083407e+02,-2.319300538700526886e+02,-2.882133185297175260e+02,-2.964720445564307738e+01,-1.578989243397154496e+01,9.484992027282714844e+00,-7.649186849594116211e-01,-1.415099620819091797e+00,3.830000000000000000e+02
-1.416861942483399162e+02,-1.713011071022501710e+02,-7.778195873029289942e+00,-1.050260670516045138e+02,-2.306116871894696487e+02,-2.881912644190199444e+02,-2.753344300113121790e+01,-1.842815515837401108e+01,9.484992027282714844e+00,-7.649186849594116211e-01,-1.415099620819091797e+00,3.840000000000000000e+02
-1.403065126135652463e+02,-1.711782599206812847e+02,-7.488095330509167979e+00,-1.062938135971894553e+02,-2.297708622681311681e+02,-2.887522096512041117e+02,-2.755482838255989009e+01,-2.258932167053694684e+01,9.484992027282714844e+00,-7.649186849594116211e-01,-1.415099620819091797e+00,3.850000000000000000e+02
-1.388975599333548416e+02,-1.702060509848006404e+02,-8.413581181531753828e+00,-1.078317999985611095e+02,-2.291034881190726082e+02,-2.889337708809309788e+02,-2.992275716989479406e+01,-2.763761278645097264e+01,9.484992027282714844e+00,-7.649186849594116211e-01,-1.415099620819091797e+00,3.860000000000000000e+02
-1.369404189293238687e+02,-1.686697769434877046e+02,-8.847815850119104653e+00,-1.086358087548844651e+02,-2.281449461625627464e+02,-2.879721607037708964e+02,-3.354802871955598675e+01,-3.193202243429664122e+01,9.484992027282714844e+00,-7.649186849594116211e-01,-1.415099620819091797e+00,3.870000000000000000e+02
-1.341384283712100114e+02,-1.671051634718496643e+02,-7.990410412191749856e+00,-1.081521546594819938e+02,-2.264842578353986937e+02,-2.856007591662901177e+02,-3.650124174019720158e+01,-3.357844895595280832e+01,9.484992027282714844e+00,-7.649186849594116211e-01,-1.415099620819091797e+00,3.880000000000000000e+02
-1.307482828603147027e+02,-1.655113962566420014e+02,-6.093762611931879292e+00,-1.064541704318323809e+02,-2.238903937881796082e+02,-2.820007321809025598e+02,-3.703865658941276706e+01,-3.150117247287857936e+01,9.446745872497558594e+00,-8.414105772972106934e-01,-1.338607788085937500e+00,3.890000000000000000e+02
-1.274784485317252347e+02,-1.633489815501231988e+02,-3.553160148248252881e+00,-1.040062352492413993e+02,-2.202685184377503447e+02,-2.775519225261168685e+02,-3.452543244633488939e+01,-2.603124270275975505e+01,9.446745872497558594e+00,-8.414105772972106934e-01,-1.338607788085937500e+00,3.900000000000000000e+02
-1.249711217372916963e+02,-1.602705106920639082e+02,-1.168721474089124968e-01,-1.012678088143493369e+02,-2.155268661675040676e+02,-2.726094919113784272e+02,-2.966169044810612831e+01,-1.860165119287898960e+01,9.446745872497558594e+00,-8.414105772972106934e-01,-1.338607788085937500e+00,3.910000000000000000e+02
-1.233085654933247497e+02,-1.567116421119515053e+02,4.818275658023139840e+00,-9.843340985996155723e+01,-2.095576153032584443e+02,-2.674111992508724143e+02,-2.393762989010292586e+01,-1.087738118412426047e+01,9.446745872497558594e+00,-8.414105772972106934e-01,-1.338607788085937500e+00,3.920000000000000000e+02
-1.220102225647640353e+02,-1.536409079935351656e+02,1.109620069446077650e+01,-9.546641148589333170e+01,-2.024648178829679637e+02,-2.620995869884459353e+02,-1.880279856917923098e+01,-4.054480913775023510e+00,9.446745872497558594e+00,-8.414105772972106934e-01,-1.338607788085937500e+00,3.930000000000000000e+02
-1.205400929793427167e+02,-1.517229025589037974e+02,1.712600023985714870e+01,-9.234046956693646280e+01,-1.948850149973854968e+02,-2.568059899105987824e+02,-1.514777661940115649e+01,1.228112467919572737e+00,9.446745872497558594e+00,-8.414105772972106934e-01,-1.338607788085937500e+00,3.940000000000000000e+02
-1.188613019182812423e+02,-1.508020374260318022e+02,2.055236440316502922e+01,-8.925739126867347295e+01,-1.880425342025978352e+02,-2.517509715350020087e+02,-1.330430519072160678e+01,4.555985256201665834e+00,9.446745872497558594e+00,-8.414105772972106934e-01,-1.338607788085937500e+00,3.950000000000000000e+02
-1.175273316589482420e+02,-1.502565639630151964e+02,1.983216502555751504e+01,-8.665268061814231260e+01,-1.833150836898150828e+02,-2.472884899768137075e+02,-1.328253779239594223e+01,5.521725315178400706e+00,9.446745872497558594e+00,-8.414105772972106934e-01,-1.338607788085937500e+00,3.960000000000000000e+02
-1.172114050571119606e+02,-1.497944777310462996e+02,1.535754430225983924e+01,-8.497306201312858320e+01,-1.815019751809279569e+02,-2.438087151144413838e+02,-1.483038208543848668e+01,3.926858617952120767e+00,9.446745872497558594e+00,-8.414105772972106934e-01,-1.338607788085937500e+00,3.970000000000000000e+02
-1.180659916250024253e+02,-1.497749887729992224e+02,9.178240471022718339e+00,-8.439910079291166767e+01,-1.823409846070173899e+02,-2.415284448468801202e+02,-1.727143611070732732e+01,1.623680956433872780e-01,9.446745872497558594e+00,-8.414105772972106934e-01,-1.338607788085937500e+00,3.980000000000000000e+02
-1.194279334657710478e+02,-1.506697579229598887e+02,3.674009107827032494e+00,-8.472065866404909684e+01,-1.846691838114943494e+02,-2.403208658877347261e+02,-1.948172389539513460e+01,-4.705136478824897495e+00,9.446745872497558594e+00,-8.414105772972106934e-01,-1.338607788085937500e+00,3.990000000000000000e+02
-1.200871478131271033e+02,-1.522538503210003000e+02,3.834923010597321991e-01,-8.544785594256472905e+01,-1.870943376766526853e+02,-2.397451869856467965e+02,-2.031641136113603352e+01,-9.328690863832207469e+00,9.446745872497558594e+00,-8.414105772972106934e-01,-1.338607788085937500e+00,4.000000000000000000e+02
-1.189242351210309607e+02,-1.534664900187758576e+02,-1.977610542389811599e-01,-8.605133515757415807e+01,-1.886291976367335792e+02,-2.392742474743031380e+02,-1.930745707873370520e+01,-1.266654944770561997e+01,9.446745872497558594e+00,-8.414105772972106934e-01,-1.338607788085937500e+00,4.010000000000000000e+02
-1.155280545587545475e+02,-1.531884687303927421e+02,1.847676816519651766e+00,-8.615181310343814403e+01,-1.888688607832823436e+02,-2.385358690875764296e+02,-1.704419428549499571e+01,-1.431021477791728103e+01,9.446745872497558594e+00,-8.414105772972106934e-01,-1.338607788085937500e+00,4.020000000000000000e+02
-1.104702512265448604e+02,-1.511860144660417973e+02,6.154920899541139079e+00,-8.555669720547348334e+01,-1.877784391273446545e+02,-2.373738723671458501e+02,-1.479904513095561924e+01,-1.439315776598755292e+01,9.446745872497558594e+00,-8.414105772972106934e-01,-1.338607788085937500e+00,4.030000000000000000e+02
-1.050991720052452365e+02,-1.482543063285186236e+02,1.188310150154120493e+01,-8.419143261199224071e+01,-1.854854457774054026e+02,-2.357280407185244258e+02,-1.360085364978590405e+01,-1.332419096635339884e+01,9.446745872497558594e+00,-8.414105772972106934e-01,-1.338607788085937500e+00,4.040000000000000000e+02
-1.009397304783033178e+02,-1.454075914441516488e+02,1.752803368873378531e+01,-8.205349250347808265e+01,-1.823183683515894700e+02,-2.335183013986829792e+02,-1.350161199169201609e+01,-1.166138032013191150e+01,9.446745872497558594e+00,-8.414105772972106934e-01,-1.338607788085937500e+00,4.050000000000000000e+02
-9.897340733717373951e+01,-1.429597652700899744e+02,2.136699277853244894e+01,-7.926124055925174616e+01,-1.789240981113634916e+02,-2.306879190653380647e+02,-1.367472876590227315e+01,-1.012723928373270610e+01,9.446745872497558594e+00,-8.414105772972106934e-01,-1.338607788085937500e+00,4.060000000000000000e+02
-9.918844484495321012e+01,-1.404620939746639579e+02,2.241430255794057302e+01,-7.616557679564130012e+01,-1.761429411157446339e+02,-2.273673314971943000e+02,-1.326579748369567824e+01,-9.498173392159060313e+00,9.446745872497558594e+00,-8.414105772972106934e-01,-1.338607788085937500e+00,4.070000000000000000e+02
-1.006631627315521200e+02,-1.375486633462348891e+02,2.107341581877722092e+01,-7.339343181216099765e+01,-1.745774017204425945e+02,-2.239491635160502483e+02,-1.222547487057840954e+01,-1.019939643804264051e+01,9.446745872497558594e+00,-8.414105772972106934e-01,-1.338607788085937500e+00,4.080000000000000000e+02
-1.021151351484008956e+02,-1.347439441166654888e+02,1.885748900452972521e+01,-7.168758859155877872e+01,-1.741461391120096778e+02,-2.209075656877016627e+02,-1.135772955896709391e+01,-1.184089929150741227e+01,9.446745872497558594e+00,-8.414105772972106934e-01,-1.338607788085937500e+00,4.090000000000000000e+02
-1.025338335878668659e+02,-1.332938951260655358e+02,1.740981527020539943e+01,-7.154219574283433758e+01,-1.740001807890298551e+02,-2.184473452167785581e+02,-1.151703429801045786e+01,-1.317248658707330833e+01,9.446745872497558594e+00,-8.414105772972106934e-01,-1.338607788085937500e+00,4.100000000000000000e+02
-1.014882028829426872e+02,-1.340630116302529586e+02,1.766048293552535142e+01,-7.281563612537684094e+01,-1.729214232967515272e+02,-2.162772434651774347e+02,-1.267426584983604698e+01,-1.269105937486779112e+01,9.446745872497558594e+00,-8.414105772972106934e-01,-1.338607788085937500e+00,4.110000000000000000e+02
-9.902738157031376431e+01,-1.365151069417829603e+02,1.966289964479210539e+01,-7.461982925320489812e+01,-1.699732794352885321e+02,-2.137514282414358604e+02,-1.372249273491047461e+01,-9.577166428741065829e+00,9.446745872497558594e+00,-8.414105772972106934e-01,-1.338607788085937500e+00,4.120000000000000000e+02
-9.543546529766604181e+01,-1.387887939437086970e+02,2.293165048544733509e+01,-7.566898780123392498e+01,-1.650224835015919780e+02,-2.103330546170959678e+02,-1.326518135439232537e+01,-4.287509975822558772e+00,9.446745872497558594e+00,-8.414105772972106934e-01,-1.338607788085937500e+00,4.130000000000000000e+02
-9.113174719732637641e+01,-1.388855101697638474e+02,2.677270267661333492e+01,-7.494121346226074820e+01,-1.588231659627249428e+02,-2.060188913526462784e+02,-1.074412285750668161e+01,1.663861903859015001e+00,9.446745872497558594e+00,-8.414105772972106934e-01,-1.338607788085937500e+00,4.140000000000000000e+02
-8.672897630826332716e+01,-1.360004697221024799e+02,3.041226946845313250e+01,-7.223061768712159392e+01,-1.525902653836919853e+02,-2.013564889643316747e+02,-6.943126573817380631e+00,6.588079730109484444e+00,9.446745872497558594e+00,-8.414105772972106934e-01,-1.338607788085937500e+00,4.150000000000000000e+02
-8.301743861239788203e+01,-1.309586575694402200e+02,3.314872981432654342e+01,-6.820751795736623535e+01,-1.473148316029219131e+02,-1.970342631450043882e+02,-3.445915414964929369e+00,9.508281724420612591e+00,9.446745872497558594e+00,-7.649186849594116211e-01,-1.376853704452514648e+00,4.160000000000000000e+02
-8.072268837743240510e+01,-1.255570406973497484e+02,3.465414392208776917e+01,-6.399288914155113162e+01,-1.432989796653678241e+02,-1.934398874661733316e+02,-1.552749952962813040e+00,1.038959409946232881e+01,9.446745872497558594e+00,-7.649186849594116211e-01,-1.376853704452514648e+00,4.170000000000000000e+02
-8.017817934314302875e+01,-1.214685991251399173e+02,3.515437391803288847e+01,-6.061265571189915136e+01,-1.402864933528949223e+02,-1.906034422964075929e+02,-1.564359747349044483e+00,9.641982855008109254e+00,9.446745872497558594e+00,-7.649186849594116211e-01,-1.376853704452514648e+00,4.180000000000000000e+02
-8.117265092573870788e+01,-1.194993478364549446e+02,3.517497928307489019e+01,-5.868047092707956836e+01,-1.380719919838961687e+02,-1.885191029283619173e+02,-2.909269943871777286e+00,7.450512232957862579e+00,9.446745872497558594e+00,-7.649186849594116211e-01,-1.376853704452514648e+00,4.190000000000000000e+02
-8.306970694226924934e+01,-1.195009073062185507e+02,3.498650866467278320e+01,-5.836646575504937573e+01,-1.369934719930638494e+02,-1.874244242397512608e+02,-4.812359850930533867e+00,3.579991092010004650e+00,9.446745872497558594e+00,-7.649186849594116211e-01,-1.376853704452514648e+00,4.200000000000000000e+02
-8.505952455993633521e+01,-1.207105058827710309e+02,3.433512727534298392e+01,-5.946375971710449448e+01,-1.377429069756526587e+02,-1.876531003159716420e+02,-6.823852203837304842e+00,-2.178234404554814319e+00,9.446745872497558594e+00,-7.649186849594116211e-01,-1.376853704452514648e+00,4.210000000000000000e+02
-8.636253791981425820e+01,-1.221885754084603377e+02,3.285580446751441741e+01,-6.143262374749292576e+01,-1.405757433109633894e+02,-1.891662453308099430e+02,-8.830526231600515530e+00,-9.359284502372702264e+00,9.446745872497558594e+00,-7.649186849594116211e-01,-1.376853704452514648e+00,4.220000000000000000e+02
-8.638485487528964768e+01,-1.232208173775991327e+02,3.080377647915611306e+01,-6.353354792130721762e+01,-1.446694605933994353e+02,-1.912905903910445886e+02,-1.075934388186851720e+01,-1.662139258691991017e+01,9.446745872497558594e+00,-7.649186849594116211e-01,-1.376853704452514648e+00,4.230000000000000000e+02
-8.491063803232464124e+01,-1.236204845285130887e+02,2.929291922194670406e+01,-6.514983662042914148e+01,-1.483149656013620188e+02,-1.930100710378060285e+02,-1.240221067284073797e+01,-2.222029046823354292e+01,9.446745872497558594e+00,-7.649186849594116211e-01,-1.376853704452514648e+00,4.240000000000000000e+02
-8.228761311650305288e+01,-1.237523217697112159e+02,2.965615049487587385e+01,-6.612931089230414727e+01,-1.498569837465211094e+02,-1.935562485666187058e+02,-1.348961838594846085e+01,-2.477510899143589995e+01,9.446745872497558594e+00,-7.649186849594116211e-01,-1.376853704452514648e+00,4.250000000000000000e+02
-7.940000218185946324e+01,-1.241335398823214291e+02,3.241656906976186292e+01,-6.678596871012177871e+01,-1.485894771466355451e+02,-1.927142379544839059e+02,-1.381281603329603058e+01,-2.373580123121064389e+01,9.446745872497558594e+00,-7.649186849594116211e-01,-1.376853704452514648e+00,4.260000000000000000e+02
-7.730109467818874691e+01,-1.248116935634793663e+02,3.678165636118615112e+01,-6.745233283556262904e+01,-1.448993187324435894e+02,-1.905909954259022925e+02,-1.321382023294700048e+01,-1.933399716349231312e+01,9.446745872497558594e+00,-7.649186849594116211e-01,-1.376853704452514648e+00,4.270000000000000000e+02
-7.665759778473898223e+01,-1.250514287601231445e+02,4.109949022483033332e+01,-6.797135035253404567e+01,-1.397414700651956991e+02,-1.872309039332631073e+02,-1.154280881542672432e+01,-1.231678738615141810e+01,9.446745872497558594e+00,-7.649186849594116211e-01,-1.376853704452514648e+00,4.280000000000000000e+02
-7.736507975239032930e+01,-1.237379601517454830e+02,4.387199117072259469e+01,-6.767462893056926987e+01,-1.340910921533477449e+02,-1.826275544970171723e+02,-8.774462114072548502e+00,-3.852617085816746112e+00,9.446745872497558594e+00,-7.649186849594116211e-01,-1.376853704452514648e+00,4.290000000000000000e+02
-7.861395259430832994e+01,-1.202776080179105520e+02,4.452305997098255830e+01,-6.596624855670143006e+01,-1.288181805267149684e+02,-1.771637309459047174e+02,-5.253937297256243255e+00,4.396685633924334979e+00,9.446745872497558594e+00,-7.649186849594116211e-01,-1.376853704452514648e+00,4.300000000000000000e+02
-7.934857431877139788e+01,-1.152311340069804828e+02,4.346886472834830784e+01,-6.299798573588168438e+01,-1.247927713589597261e+02,-1.719013859094861800e+02,-1.776852834488636290e+00,1.044369873732762244e+01,9.446745872497558594e+00,-7.649186849594116211e-01,-1.376853704452514648e+00,4.310000000000000000e+02
-7.882603918410995902e+01,-1.100802504028524709e+02,4.164909948688682562e+01,-5.976412896799547525e+01,-1.227555044720502337e+02,-1.681935043630355722e+02,7.005544190096770762e-01,1.266067085213899190e+01,9.446745872497558594e+00,-7.649186849594116211e-01,-1.376853704452514648e+00,4.320000000000000000e+02
-7.698289271854605431e+01,-1.062890476982991004e+02,3.995631941287115296e+01,-5.746738150261080591e+01,-1.229001808666243960e+02,-1.668052786096773161e+02,1.547657317359380613e+00,1.065576059719433033e+01,9.446745872497558594e+00,-7.649186849594116211e-01,-1.376853704452514648e+00,4.330000000000000000e+02
-7.445584774580265730e+01,-1.044395474969367115e+02,3.886901021221251540e+01,-5.668651676460513045e+01,-1.246118404774865667e+02,-1.673157250100962301e+02,7.784744095004043629e-01,5.632170854148398575e+00,9.446745872497558594e+00,-7.649186849594116211e-01,-1.376853704452514648e+00,4.340000000000000000e+02
-7.225718935636791684e+01,-1.041022173490623572e+02,3.834975504074236596e+01,-5.704276259044945618e+01,-1.267534039847796521e+02,-1.683930374135061356e+02,-9.982799883503048477e-01,-2.015201082965631940e-01,9.446745872497558594e+00,-7.649186849594116211e-01,-1.376853704452514648e+00,4.350000000000000000e+02
-7.123079646445489743e+01,-1.043892564303707786e+02,3.799936150932285273e+01,-5.757487518848665786e+01,-1.283118173452139672e+02,-1.687255446276594739e+02,-2.884512223446563439e+00,-4.827913668450719342e+00,9.446745872497558594e+00,-7.649186849594116211e-01,-1.376853704452514648e+00,4.360000000000000000e+02
-7.155994771846690128e+01,-1.045836897005651736e+02,3.744284706541725427e+01,-5.742921905340108424e+01,-1.288411140082589554e+02,-1.678155641193761767e+02,-4.017281998037333324e+00,-7.370983304779656464e+00,9.446745872497558594e+00,-7.649186849594116211e-01,-1.376853704452514648e+00,4.370000000000000000e+02
-7.264744003490045543e+01,-1.043501718784239074e+02,3.676499910351549261e+01,-5.632330943237184329e+01,-1.284012298639145229e+02,-1.660586091161844706e+02,-3.843672027317325046e+00,-8.183983447296668601e+00,9.446745872497558594e+00,-7.649186849594116211e-01,-1.376853704452514648e+00,4.380000000000000000e+02
-7.349422204612596943e+01,-1.035962555956855340e+02,3.664181164229967180e+01,-5.456029041951160252e+01,-1.272269602879723607e+02,-1.642119238390341707e+02,-2.378498311168641521e+00,-8.186468932240131835e+00,9.446745872497558594e+00,-7.649186849594116211e-01,-1.376853704452514648e+00,4.390000000000000000e+02
-7.333498657416794231e+01,-1.023866367116590936e+02,3.794012890596968646e+01,-5.275068566029449357e+01,-1.255382636010695023e+02,-1.628081593874981081e+02,-3.315001993892110477e-01,-8.095592659910380462e+00,9.446745872497558594e+00,-7.649186849594116211e-01,-1.376853704452514648e+00,4.400000000000000000e+02
-7.204528047756753040e+01,-1.010584449931350264e+02,4.101044456375689151e+01,-5.148265179772351985e+01,-1.235654366475296229e+02,-1.619057390922248487e+02,1.172324942329396436e+00,-8.057354741159315381e+00,9.446745872497558594e+00,-7.649186849594116211e-01,-1.376853704452514648e+00,4.410000000000000000e+02
-7.001692215834077615e+01,-1.002461700128078519e+02,4.526944613630894310e+01,-5.103969555899629995e+01,-1.215108910647813900e+02,-1.611485554830178444e+02,1.332910305264931594e+00,-7.690719962451112224e+00,9.446745872497558594e+00,-7.649186849594116211e-01,-1.376853704452514648e+00,4.420000000000000000e+02
-6.768647203191585504e+01,-1.005037796664976213e+02,4.950441176222057038e+01,-5.120318030486942007e+01,-1.193078312227362403e+02,-1.599338698654737527e+02,4.069041676616507175e-01,-6.291928163046577538e+00,9.446745872497558594e+00,-7.649186849594116211e-01,-1.376853704452514648e+00,4.430000000000000000e+02
-6.520248576937365215e+01,-1.016944398808018377e+02,5.270464693000053558e+01,-5.123567748209279671e+01,-1.164414071565906852e+02,-1.576083650319410481e+02,-2.599465589364626794e-01,-3.077303816961375560e+00,9.446745872497558594e+00,-7.649186849594116211e-01,-1.376853704452514648e+00,4.440000000000000000e+02
-6.253041232290888729e+01,-1.027471284919690788e+02,5.471436231334155309e+01,-5.016287326353904064e+01,-1.122058965158298633e+02,-1.537301165255480555e+02,8.765362379347152455e-01,2.443965716126513144e+00,9.446745872497558594e+00,-7.649186849594116211e-01,-1.376853704452514648e+00,4.450000000000000000e+02
-5.981237628659323491e+01,-1.021946728501427515e+02,5.612122313275767738e+01,-4.730873905966109305e+01,-1.063649298541631651e+02,-1.483486281671307552e+02,4.349359017486222001e+00,9.958881740283004547e+00,9.446745872497558594e+00,-7.649186849594116211e-01,-1.376853704452514648e+00,4.460000000000000000e+02
-5.752347139187031644e+01,-9.919960461304117416e+01,5.751110931848188557e+01,-4.277517354592373522e+01,-9.964821945314861296e+01,-1.421010392363932624e+02,9.161369424357417302e+00,1.805232861947570200e+01,9.446745872497558594e+00,-7.649186849594116211e-01,-1.376853704452514648e+00,4.470000000000000000e+02
-5.619262962179141141e+01,-9.425309970252646963e+01,5.883144481567728690e+01,-3.750181838554499336e+01,-9.353199274880148550e+01,-1.359785940964898145e+02,1.344103715127448595e+01,2.457852605402536028e+01,9.446745872497558594e+00,-7.649186849594116211e-01,-1.376853704452514648e+00,4.480000000000000000e+02
-5.592607188048714306e+01,-8.893262114506296712e+01,5.950312902241194024e+01,-3.280797708640011479e+01,-8.935149841236352586e+01,-1.308768509675642235e+02,1.574533246314854296e+01,2.770704204549178939e+01,9.446745872497558594e+00,-7.649186849594116211e-01,-1.376853704452514648e+00,4.490000000000000000e+02
-5.620001620243783691e+01,-8.488704182911556018e+01,5.918045540832872575e+01,-2.969507848407283745e+01,-8.743776481530289857e+01,-1.272337204707928322e+02,1.593928471994399843e+01,2.699341534867926384e+01,9.446745872497558594e+00,-7.649186849594116211e-01,-1.376853704452514648e+00,4.500000000000000000e+02
-5.615439501574519454e+01,-8.286467619811696750e+01,5.836277600936773524e+01,-2.837048492924941456e+01,-8.700680122496328295e+01,-1.249785182642358450e+02,1.499911657039524471e+01,2.362360012287308564e+01,9.446745872497558594e+00,-7.649186849594116211e-01,-1.376853704452514648e+00,4.510000000000000000e+02
-5.517353897587645406e+01,-8.249717152221728611e+01,5.813193544770820154e+01,-2.829943797471469225e+01,-8.690517313488408035e+01,-1.237518855127555071e+02,1.402921191252562494e+01,1.956255858905956302e+01,9.446745872497558594e+00,-7.649186849594116211e-01,-1.376853704452514648e+00,4.520000000000000000e+02
-5.332697342623146142e+01,-8.287294749600823707e+01,5.912279889188516790e+01,-2.871538975794555881e+01,-8.660939334546060309e+01,-1.231953744515271865e+02,1.337500435829610979e+01,1.621456641732402204e+01,9.446745872497558594e+00,-7.649186849594116211e-01,-1.376853704452514648e+00,4.530000000000000000e+02
-5.136990728581986332e+01,-8.330428254022399415e+01,6.066945599798577859e+01,-2.919225342619324692e+01,-8.664719325560713514e+01,-1.231199570673120434e+02,1.251728875337039426e+01,1.361806181740894317e+01,9.446745872497558594e+00,-7.649186849594116211e-01,-1.376853704452514648e+00,4.540000000000000000e+02
-5.031035543112898267e+01,-8.366781040029513861e+01,6.104281621156860638e+01,-2.986819660408309574e+01,-8.808334804005539809e+01,-1.235085777035938008e+02,1.069084023492291635e+01,1.073680602007198104e+01,9.446745872497558594e+00,-7.649186849594116211e-01,-1.376853704452514648e+00,4.550000000000000000e+02
-5.080933268799253710e+01,-8.420749146868388380e+01,5.876565852222802278e+01,-3.119800485675955315e+01,-9.147570785039056318e+01,-1.244122726124933251e+02,7.612354397062290445e+00,6.522764551405771272e+00,9.446745872497558594e+00,-7.649186849594116211e-01,-1.376853704452514648e+00,4.560000000000000000e+02
-5.274818904025187294e+01,-8.515492047004363485e+01,5.396435104680062977e+01,-3.346535695540433153e+01,-9.613758781067849668e+01,-1.258127805709189033e+02,3.762050607527044122e+00,8.912359974049195444e-01,9.446745872497558594e+00,-7.649186849594116211e-01,-1.376853704452514648e+00,4.570000000000000000e+02
-5.521358532701083277e+01,-8.654369158306531062e+01,4.858236435228081973e+01,-3.645313321026560516e+01,-1.003319896917369078e+02,-1.275180604640695492e+02,1.276061926323563966e-01,-5.072184402855327789e+00,9.446745872497558594e+00,-7.649186849594116211e-01,-1.376853704452514648e+00,4.580000000000000000e+02
-5.693107559074610435e+01,-8.826073978765793981e+01,4.520811035117617394e+01,-3.950453179736177844e+01,-1.022825787544609284e+02,-1.291406303699468481e+02,-2.290835640980503740e+00,-9.699217883698565856e+00,9.446745872497558594e+00,-7.649186849594116211e-01,-1.376853704452514648e+00,4.590000000000000000e+02
-5.692498640992766923e+01,-9.012919887584939715e+01,4.545499366662920693e+01,-4.187179317430332048e+01,-1.012257769059897328e+02,-1.301763276472649977e+02,-2.870860037182183078e+00,-1.162498227171749932e+01,9.446745872497558594e+00,-7.649186849594116211e-01,-1.376853704452514648e+00,4.600000000000000000e+02
-5.501238359691160440e+01,-9.186813649623445599e+01,4.916879355986202427e+01,-4.303770114149483561e+01,-9.770709025425298933e+01,-1.301482496458675087e+02,-1.515385581863938569e+00,-1.041214310450527591e+01,9.446745872497558594e+00,-7.649186849594116211e-01,-1.376853704452514648e+00,4.610000000000000000e+02
-5.183443965181800195e+01,-9.303128864242967211e+01,5.493168588259322860e+01,-4.279808891649850011e+01,-9.299114871280789885e+01,-1.287633818678650641e+02,1.375898503132930273e+00,-6.662858556135233812e+00,9.446745872497558594e+00,-7.649186849594116211e-01,-1.376853704452514648e+00,4.620000000000000000e+02
-4.842910750682062826e+01,-9.310810218947017347e+01,6.121676253846840154e+01,-4.115524029035555031e+01,-8.817467490604758495e+01,-1.260348837022518182e+02,5.043840713562758538e+00,-1.659560534827733136e+00,9.446745872497558594e+00,-7.649186849594116211e-01,-1.376853704452514648e+00,4.630000000000000000e+02
-4.564570656766090906e+01,-9.180171149123020768e+01,6.715864201486783713e+01,-3.823068755884082748e+01,-8.372478042926945818e+01,-1.223218805807259741e+02,8.628688773585736271e+00,3.255332343204827339e+00,9.446745872497558594e+00,-7.649186849594116211e-01,-1.376853704452514648e+00,4.640000000000000000e+02
-4.378235473799259125e+01,-8.927507267352029885e+01,7.249227147137798966e+01,-3.430881575802050065e+01,-7.965490692981688881e+01,-1.182385811199076215e+02,1.152054650816671710e+01,7.276121043319562887e+00,9.446745872497558594e+00,-7.649186849594116211e-01,-1.376853704452514648e+00,4.650000000000000000e+02
-4.262895857310127212e+01,-8.615185612229470280e+01,7.705780184542118150e+01,-2.992397108245950221e+01,-7.595439576412786664e+01,-1.144456121405250997e+02,1.360335662051670624e+01,1.037710072535810468e+01,9.446745872497558594e+00,-7.649186849594116211e-01,-1.376853704452514648e+00,4.660000000000000000e+02
-4.178536625906281188e+01,-8.327065318195195687e+01,8.053946387048745237e+01,-2.583049275570010650e+01,-7.278838147381770796e+01,-1.114328354069700708e+02,1.515075825365875062e+01,1.302294318770282189e+01,9.446745872497558594e+00,-7.649186849594116211e-01,-1.376853704452514648e+00,4.670000000000000000e+02
-4.098851437711368817e+01,-8.138669630708955083e+01,8.263071004372886819e+01,-2.281597195326321525e+01,-7.039746456829789167e+01,-1.094397632950192474e+02,1.638018687628937187e+01,1.550496777384785219e+01,9.523238182067871094e+00,-7.649186849594116211e-01,-1.338607788085937500e+00,4.680000000000000000e+02
-4.024314386786522846e+01,-8.096874064410985739e+01,8.329880961149888208e+01,-2.144567142610571864e+01,-6.896251182005403280e+01,-1.085456275065814680e+02,1.706048963588352763e+01,1.741710538279016873e+01,9.523238182067871094e+00,-7.649186849594116211e-01,-1.338607788085937500e+00,4.690000000000000000e+02
-3.971331046443776813e+01,-8.207680921089684034e+01,8.280343127840842499e+01,-2.185177474775355222e+01,-6.861729347029699966e+01,-1.087774357368464280e+02,1.663507580614134440e+01,1.778012648349113078e+01,9.523238182067871094e+00,-7.649186849594116211e-01,-1.338607788085937500e+00,4.700000000000000000e+02
-3.949272529786514951e+01,-8.426909002077036348e+01,8.150113012127690126e+01,-2.364708272785537702e+01,-6.949291009119269802e+01,-1.100590961557431910e+02,1.485875553415144168e+01,1.579378683305526465e+01,9.523238182067871094e+00,-7.649186849594116211e-01,-1.338607788085937500e+00,4.710000000000000000e+02
-3.943906593234896718e+01,-8.663550745683517107e+01,7.971185199245701369e+01,-2.601579266052362982e+01,-7.160095171112641310e+01,-1.120382341678671310e+02,1.232812568833924161e+01,1.158375363416644177e+01,9.523238182067871094e+00,-7.649186849594116211e-01,-1.338607788085937500e+00,4.720000000000000000e+02
-3.921283896030092819e+01,-8.812016209162243285e+01,7.775628407340093418e+01,-2.802195697399974961e+01,-7.464292355756344932e+01,-1.140567196631125171e+02,1.022377112516824127e+01,6.214438470718505414e+00,9.523238182067871094e+00,-7.649186849594116211e-01,-1.338607788085937500e+00,4.730000000000000000e+02
-3.851469149721845042e+01,-8.806702844314645517e+01,7.599960740790311320e+01,-2.904717194909767386e+01,-7.801871342929621278e+01,-1.154375570596251919e+02,9.324948053126036029e+00,8.889828902974841185e-01,9.523238182067871094e+00,-7.649186849594116211e-01,-1.338607788085937500e+00,4.740000000000000000e+02
-3.733913872637799614e+01,-8.661500260324044120e+01,7.473067072921890031e+01,-2.908837952957458128e+01,-8.112557149275028223e+01,-1.159088507235256884e+02,9.206176358576840357e+00,-3.929780144998971991e+00,9.523238182067871094e+00,-7.649186849594116211e-01,-1.338607788085937500e+00,4.750000000000000000e+02
-3.600669438274383083e+01,-8.453764286934836036e+01,7.398907505816578123e+01,-2.864124924793804894e+01,-8.365471643136311286e+01,-1.157492713857633362e+02,8.554887627873313249e+00,-8.598846723747215037e+00,9.523238182067871094e+00,-7.649186849594116211e-01,-1.338607788085937500e+00,4.760000000000000000e+02
-3.491015029904883704e+01,-8.256859569423079392e+01,7.360354718464509460e+01,-2.819461232077674140e+01,-8.553399419468632914e+01,-1.154519651798896120e+02,6.515892633338808082e+00,-1.344233557252857736e+01,9.523238182067871094e+00,-7.649186849594116211e-01,-1.338607788085937500e+00,4.770000000000000000e+02
-3.417122396291711084e+01,-8.076761421975561461e+01,7.348383446825209830e+01,-2.774389908521106918e+01,-8.656203939753083887e+01,-1.151955572330642781e+02,3.838941816046485656e+00,-1.777754834571663878e+01,9.523238182067871094e+00,-7.649186849594116211e-01,-1.338607788085937500e+00,4.780000000000000000e+02
-3.351004174391908919e+01,-7.852501570276706389e+01,7.386914692397715498e+01,-2.678518279877994246e+01,-8.617796599094685916e+01,-1.146368389298861530e+02,2.616314522381514962e+00,-1.984054544190485103e+01,9.523238182067871094e+00,-7.649186849594116211e-01,-1.338607788085937500e+00,4.790000000000000000e+02
-3.246866947404578241e+01,-7.524590559865862360e+01,7.520425088144406800e+01,-2.483395989751772959e+01,-8.373049410063998721e+01,-1.132282719516285283e+02,4.666546262913016108e+00,-1.784951460838067305e+01,9.523238182067871094e+00,-7.649186849594116211e-01,-1.338607788085937500e+00,4.800000000000000000e+02
-3.080145431772137954e+01,-7.107916327404427648e+01,7.770677619804428105e+01,-2.197159041166111137e+01,-7.904739184600532553e+01,-1.107131432232795305e+02,9.982203168279113470e+00,-1.136787096168012567e+01,9.523238182067871094e+00,-7.649186849594116211e-01,-1.338607788085937500e+00,4.810000000000000000e+02
-2.869270820744844741e+01,-6.698497082336575659e+01,8.103962242631865820e+01,-1.886224483607799129e+01,-7.274351363644905177e+01,-1.072839339050315743e+02,1.666966260077788320e+01,-1.806122249154043402e+00,9.523238182067871094e+00,-7.649186849594116211e-01,-1.338607788085937500e+00,4.820000000000000000e+02
-2.662568120408738537e+01,-6.406063927039406281e+01,8.441036252434986409e+01,-1.620548160966922069e+01,-6.595232317673421107e+01,-1.033027775741682035e+02,2.241049294813166171e+01,8.344399776540512903e+00,9.523238182067871094e+00,-7.649186849594116211e-01,-1.338607788085937500e+00,4.830000000000000000e+02
-2.503509620352021159e+01,-6.275001369152279551e+01,8.700690395644652142e+01,-1.416661373126544277e+01,-5.973401975205608494e+01,-9.897825568919469674e+01,2.606324818299940205e+01,1.687076454174160745e+01,9.523238182067871094e+00,-7.649186849594116211e-01,-1.338607788085937500e+00,4.840000000000000000e+02
-2.402957932508731176e+01,-6.264252002352500881e+01,8.836336877961356606e+01,-1.235945267560101257e+01,-5.468677806875513170e+01,-9.440642284310109744e+01,2.801046668223828817e+01,2.272018515121958160e+01,9.523238182067871094e+00,-7.649186849594116211e-01,-1.338607788085937500e+00,4.850000000000000000e+02
-2.337063647817454637e+01,-6.295943439008226505e+01,8.837926663589773568e+01,-1.038606780631896243e+01,-5.100182430557546809e+01,-8.989929394508939708e+01,2.919894208424614845e+01,2.591868770131832633e+01,9.523238182067871094e+00,-7.649186849594116211e-01,-1.338607788085937500e+00,4.860000000000000000e+02
-2.265330716746490225e+01,-6.317586803019838726e+01,8.711860495674761751e+01,-8.355351713560992266e+00,-4.872438408722388203e+01,-8.613322927913569060e+01,3.006140641718683071e+01,2.691723867932253711e+01,9.523238182067871094e+00,-7.649186849594116211e-01,-1.338607788085937500e+00,4.870000000000000000e+02
-2.152246676060730124e+01,-6.317504174161695119e+01,8.468348845972045069e+01,-6.827443918926320521e+00,-4.786043273041116208e+01,-8.383401899698981197e+01,3.040422425572538145e+01,2.609813577429486031e+01,9.523238182067871094e+00,-7.649186849594116211e-01,-1.338607788085937500e+00,4.880000000000000000e+02
-1.982529953794983157e+01,-6.289082437441891216e+01,8.127120882930270795e+01,-6.226278336243012745e+00,-4.825823222529118084e+01,-8.323707138420468254e+01,3.013231677539465636e+01,2.376990893715390030e+01,9.523238182067871094e+00,-7.649186849594116211e-01,-1.338607788085937500e+00,4.890000000000000000e+02
-1.768952376639845170e+01,-6.195520841128939082e+01,7.724300984366840339e+01,-6.317539075129843695e+00,-4.950975370733272030e+01,-8.385002290800554192e+01,2.975622358599349582e+01,2.038764187513396564e+01,9.523238182067871094e+00,-7.649186849594116211e-01,-1.338607788085937500e+00,4.900000000000000000e+02
-1.551735851625267060e+01,-5.983037846074171284e+01,7.302129026224213248e+01,-6.285217945408930973e+00,-5.107815770218019225e+01,-8.475653829504562964e+01,3.000053374791247052e+01,1.659812218970358799e+01,9.523238182067871094e+00,-7.649186849594116211e-01,-1.338607788085937500e+00,4.910000000000000000e+02
-1.383340809416370121e+01,-5.635009041763896676e+01,6.886978310744791543e+01,-5.342899907920127589e+00,-5.255552644420345132e+01,-8.516417740237091039e+01,3.097960104643033219e+01,1.306733303612639929e+01,9.523238182067871094e+00,-7.649186849594116211e-01,-1.338607788085937500e+00,4.920000000000000000e+02
-1.299629605996892678e+01,-5.213537623759179951e+01,6.477402198178742765e+01,-3.327717405887369750e+00,-5.379303669362354867e+01,-8.471832135804606878e+01,3.196080811697470381e+01,1.033829098812418579e+01,9.370253562927246094e+00,-8.796565532684326172e-01,-1.453345537185668945e+00,4.930000000000000000e+02
-1.293130648484816447e+01,-4.842696966722428442e+01,6.054789128743027504e+01,-7.713675209540724609e-01,-5.476898360773338936e+01,-8.339821067142042921e+01,3.210720687894411185e+01,8.886823355726050977e+00,9.370253562927246094e+00,-8.796565532684326172e-01,-1.453345537185668945e+00,4.940000000000000000e+02
-1.312940748941684888e+01,-4.640290436556188070e+01,5.603159853426620884e+01,1.538540702719728870e+00,-5.535390932805057673e+01,-8.126289077919295778e+01,3.144273317818397118e+01,9.195038275064121081e+00,9.370253562927246094e+00,-8.796565532684326172e-01,-1.453345537185668945e+00,4.950000000000000000e+02
-1.300235697884215824e+01,-4.650035246447725967e+01,5.115704440715467172e+01,3.052836792379594044e+00,-5.524286511867967420e+01,-7.840250054410353187e+01,3.094501259520245640e+01,1.155671144648067639e+01,9.370253562927246094e+00,-8.796565532684326172e-01,-1.453345537185668945e+00,4.960000000000000000e+02
-1.236419840981648122e+01,-4.822500171439378391e+01,4.585079362773092271e+01,3.610335754644211192e+00,-5.415411122209548012e+01,-7.511600915038184212e+01,3.156473368809020030e+01,1.568811942348361299e+01,9.370253562927246094e+00,-8.796565532684326172e-01,-1.453345537185668945e+00,4.970000000000000000e+02
-1.162729575300409124e+01,-5.051424755283392187e+01,3.997651482235528420e+01,3.256336435597177115e+00,-5.213274435924222416e+01,-7.201275930794281521e+01,3.313710357124773509e+01,2.059080483088337132e+01,9.370253562927246094e+00,-8.796565532684326172e-01,-1.453345537185668945e+00,4.980000000000000000e+02
-1.147607046817711307e+01,-5.232106329474049744e+01,3.350707210955124538e+01,2.082341869170704740e+00,-4.965412055657589008e+01,-6.976109095375772995e+01,3.436290374096392952e+01,2.502350857293231456e+01,9.370253562927246094e+00,-8.796565532684326172e-01,-1.453345537185668945e+00,4.990000000000000000e+02
-1.224440660825848681e+01,-5.301531892396906187e+01,2.681080000116890005e+01,3.229688841065581073e-01,-4.737755718136668293e+01,-6.860170695217220782e+01,3.398744322711263521e+01,2.833810282380909484e+01,9.370253562927246094e+00,-8.796565532684326172e-01,-1.453345537185668945e+00,5.000000000000000000e+02
-1.353574059050743017e+01,-5.244277151992787367e+01,2.071581246454434222e+01,-1.449178155419986069e+00,-4.569882710025672168e+01,-6.807545548937423519e+01,3.208704766563892008e+01,3.095565585750841819e+01,9.370253562927246094e+00,-8.796565532684326172e-01,-1.453345537185668945e+00,5.010000000000000000e+02
-1.446243024461887217e+01,-5.076105292943884706e+01,1.617004486625410209e+01,-2.391556236137148517e+00,-4.444235724972145363e+01,-6.728936541066832433e+01,3.022112268382716138e+01,3.398711948444406517e+01,9.370253562927246094e+00,-8.796565532684326172e-01,-1.453345537185668945e+00,5.020000000000000000e+02
-1.433542905041349513e+01,-4.826209939671184657e+01,1.369248884864555293e+01,-1.859752633271000377e+00,-4.297762042366593960e+01,-6.557790650029710378e+01,3.023997549145065022e+01,3.823910346315778952e+01,9.370253562927246094e+00,-8.796565532684326172e-01,-1.453345537185668945e+00,5.030000000000000000e+02
-1.321128179458037266e+01,-4.530015442000035364e+01,1.305407081534121971e+01,5.653518825010905857e-02,-4.071581888127889215e+01,-6.302154062246154353e+01,3.277528252918932594e+01,4.342463522762409411e+01,9.370253562927246094e+00,-8.796565532684326172e-01,-1.453345537185668945e+00,5.040000000000000000e+02
-1.180608225991591098e+01,-4.230087879961502040e+01,1.346251243833694389e+01,2.461942768152312055e+00,-3.762295828993819669e+01,-6.036385438414890814e+01,3.669348285474643490e+01,4.824267563059765962e+01,9.370253562927246094e+00,-8.796565532684326172e-01,-1.453345537185668945e+00,5.050000000000000000e+02
-1.086936722887821816e+01,-3.976147464629889328e+01,1.405551963392531434e+01,4.210949869146134006e+00,-3.437007349453779170e+01,-5.840030828203225610e+01,3.989642627849389100e+01,5.121256676304847133e+01,9.370253562927246094e+00,-8.796565532684326172e-01,-1.453345537185668945e+00,5.060000000000000000e+02
-1.060635656942895366e+01,-3.816954451922356384e+01,1.425405623234428276e+01,4.661940314089861204e+00,-3.202295270355807588e+01,-5.740428093796390385e+01,4.072091989745763385e+01,5.151381438036241889e+01,9.370253562927246094e+00,-8.796565532684326172e-01,-1.453345537185668945e+00,5.070000000000000000e+02
-1.066050767218303008e+01,-3.783862192892456733e+01,1.373098064560781495e+01,3.975033915390667971e+00,-3.152222631784070472e+01,-5.711416156031964420e+01,3.884988495609741221e+01,4.920444690218391770e+01,9.370253562927246094e+00,-8.796565532684326172e-01,-1.453345537185668945e+00,5.080000000000000000e+02
-1.059805769971899281e+01,-3.872993230136034981e+01,1.219349031940691930e+01,2.731074515336331388e+00,-3.329076487186102895e+01,-5.722717941850442003e+01,3.524453445114113492e+01,4.485962121978627692e+01,9.370253562927246094e+00,-8.796565532684326172e-01,-1.453345537185668945e+00,5.090000000000000000e+02
-1.036404173546907259e+01,-4.038711714265218689e+01,9.367257194686317234e+00,1.300113203905766568e+00,-3.710944554941806928e+01,-5.782915081058808937e+01,3.140335039041428900e+01,3.917321385843661119e+01,9.370253562927246094e+00,-8.796565532684326172e-01,-1.453345537185668945e+00,5.100000000000000000e+02
-1.027507833029449102e+01,-4.207683214171584041e+01,5.305867544079774234e+00,-4.026583074223708536e-01,-4.219023067082480338e+01,-5.926727440200329511e+01,2.857837653707929348e+01,3.291672957116270481e+01,9.370253562927246094e+00,-8.796565532684326172e-01,-1.453345537185668945e+00,5.110000000000000000e+02
-1.061708640451433894e+01,-4.308901687932120694e+01,7.193931819715544407e-01,-2.570675180230409751e+00,-4.736223532283929671e+01,-6.157865497854072601e+01,2.732886884287154317e+01,2.709820892202878895e+01,9.370253562927246094e+00,-8.796565532684326172e-01,-1.453345537185668945e+00,5.120000000000000000e+02
-1.132203167247325837e+01,-4.302655571869991036e+01,-3.135182614458699391e+00,-5.007114567181815801e+00,-5.139854279798328207e+01,-6.411082009948313498e+01,2.743425486003252445e+01,2.285869529324054383e+01,9.370253562927246094e+00,-8.796565532684326172e-01,-1.453345537185668945e+00,5.130000000000000000e+02
-1.205587940473151320e+01,-4.189375869306695677e+01,-5.095547234815057891e+00,-7.061861296725510329e+00,-5.347860580108954309e+01,-6.580935091885930888e+01,2.808923950390226310e+01,2.096268732957196335e+01,9.370253562927246094e+00,-8.796565532684326172e-01,-1.453345537185668945e+00,5.140000000000000000e+02
-1.254970489130028000e+01,-3.994073623429630970e+01,-4.821837032277016988e+00,-8.087273986889613298e+00,-5.355202857477570433e+01,-6.594732895447759802e+01,2.835779298999614184e+01,2.131445768082767245e+01,9.370253562927246094e+00,-8.796565532684326172e-01,-1.453345537185668945e+00,5.150000000000000000e+02
-1.277529099343837515e+01,-3.743246647685282369e+01,-3.003233434866160678e+00,-7.925696460666586063e+00,-5.226912999881187716e+01,-6.459680956632473681e+01,2.776110608998305906e+01,2.305252021361502557e+01,9.370253562927246094e+00,-8.796565532684326172e-01,-1.453345537185668945e+00,5.160000000000000000e+02
-1.281169512999622384e+01,-3.456710035019477800e+01,-8.223341953344061039e-01,-6.925507331305198022e+00,-5.042416733937761819e+01,-6.240523865645081969e+01,2.665115720581388814e+01,2.526924125815548905e+01,9.370253562927246094e+00,-8.796565532684326172e-01,-1.453345537185668945e+00,5.170000000000000000e+02
-1.263938289354882727e+01,-3.159401685586271924e+01,9.187507906499376986e-01,-5.524170531068193668e+00,-4.833461825369249709e+01,-5.996684550561985816e+01,2.601834162176464815e+01,2.775020327696620370e+01,9.370253562927246094e+00,-8.796565532684326172e-01,-1.453345537185668945e+00,5.180000000000000000e+02
-1.215032754475760157e+01,-2.893632210217492684e+01,2.326381358526305121e+00,-3.888172896030482661e+00,-4.570633306382296723e+01,-5.745443580639948777e+01,2.678732587511694874e+01,3.101884430482959942e+01,9.370253562927246094e+00,-8.796565532684326172e-01,-1.453345537185668945e+00,5.190000000000000000e+02
-1.136221499358271103e+01,-2.709123008841152114e+01,4.168422048107913724e+00,-1.989596966689532564e+00,-4.213512768696909916e+01,-5.481556125439055904e+01,2.911613419895729749e+01,3.557660088626289507e+01,9.408499717712402344e+00,-8.031646609306335449e-01,-1.453345537185668945e+00,5.200000000000000000e+02
-1.056029764878439892e+01,-2.631242303482849820e+01,7.033693167607452779e+00,2.203788668703055009e-02,-3.779852787751769938e+01,-5.219513268766877445e+01,3.223793107387109558e+01,4.098628563771580957e+01,9.408499717712402344e+00,-8.031646609306335449e-01,-1.453345537185668945e+00,5.210000000000000000e+02
-1.016284485638607293e+01,-2.635316764666458766e+01,1.054164359140213492e+01,1.635675659330445342e+00,-3.368937903869846195e+01,-5.003844011007458903e+01,3.491034029858610666e+01,4.564646280083570673e+01,9.408499717712402344e+00,-8.031646609306335449e-01,-1.453345537185668945e+00,5.220000000000000000e+02
-1.043607362818693218e+01,-2.655890400118278194e+01,1.323725700864179089e+01,2.248949815695596044e+00,-3.115687667931615579e+01,-4.876672613908249332e+01,3.606442206286010332e+01,4.756036795145428187e+01,9.408499717712402344e+00,-8.031646609306335449e-01,-1.453345537185668945e+00,5.230000000000000000e+02
-1.133852656903945899e+01,-2.628858210077487456e+01,1.334522215072684048e+01,1.658525280219691922e+00,-3.112305826313604484e+01,-4.843190770565797720e+01,3.522919240460396395e+01,4.558358360299007472e+01,9.408499717712402344e+00,-8.031646609306335449e-01,-1.453345537185668945e+00,5.240000000000000000e+02
-1.259146075616990856e+01,-2.531653312604703387e+01,9.942124299518582120e+00,2.942691542011743877e-01,-3.356719219523074571e+01,-4.874232538218984701e+01,3.265276452651505679e+01,4.026138243124842120e+01,9.408499717712402344e+00,-8.031646609306335449e-01,-1.453345537185668945e+00,5.250000000000000000e+02
-1.382373280358206102e+01,-2.387242463022266747e+01,3.758030397250877286e+00,-1.029980264253936184e+00,-3.758510205343554844e+01,-4.938403734092935338e+01,2.926299923119950108e+01,3.365440655101429002e+01,9.408499717712402344e+00,-8.031646609306335449e-01,-1.453345537185668945e+00,5.260000000000000000e+02
-1.463778125497719884e+01,-2.232464702315519389e+01,-3.018085254548168450e+00,-1.643589113173220539e+00,-4.189811137597280322e+01,-5.023356856192458508e+01,2.647370427103487600e+01,2.824458478769884096e+01,9.408499717712402344e+00,-8.031646609306335449e-01,-1.453345537185668945e+00,5.270000000000000000e+02
-1.465024745511163928e+01,-2.084529065676633763e+01,-7.917880809767666506e+00,-1.420741025477582298e+00,-4.544859736260787031e+01,-5.125811106379660487e+01,2.565899322154382389e+01,2.560123924494473613e+01,9.408499717712402344e+00,-8.031646609306335449e-01,-1.453345537185668945e+00,5.280000000000000000e+02
-1.363919066866219509e+01,-1.935784779454388627e+01,-9.613423327024975151e+00,-7.981112463021418080e-01,-4.776100079140360322e+01,-5.230689148556120927e+01,2.733605581750452984e+01,2.562472248091944493e+01,9.408499717712402344e+00,-8.031646609306335449e-01,-1.453345537185668945e+00,5.290000000000000000e+02
-1.174128405129704333e+01,-1.773417573720871587e+01,-8.579840968556709413e+00,-4.515525809647442657e-01,-4.893520795134008949e+01,-5.311231827050869470e+01,3.059520984290884371e+01,2.682528969112354389e+01,9.408499717712402344e+00,-8.031646609306335449e-01,-1.453345537185668945e+00,5.300000000000000000e+02
-9.455213282755721593e+00,-1.597619217571445915e+01,-6.513651904292601102e+00,-8.644242756436142372e-01,-4.931377112381414918e+01,-5.350855515764669690e+01,3.344431463468663424e+01,2.745962885726203240e+01,9.408499717712402344e+00,-8.031646609306335449e-01,-1.453345537185668945e+00,5.310000000000000000e+02
-7.341828631377211423e+00,-1.421421107202422718e+01,-4.961561570019512146e+00,-2.032496290452399990e+00,-4.904500851218290336e+01,-5.356249195993041212e+01,3.409086839105657418e+01,2.680786376361447765e+01,9.408499717712402344e+00,-8.031646609306335449e-01,-1.453345537185668945e+00,5.320000000000000000e+02
-5.665615633741253987e+00,-1.259770716381626698e+01,-4.205263617010132293e+00,-3.450385775614449813e+00,-4.785094970343743626e+01,-5.339235978092347068e+01,3.228292067272013810e+01,2.574980905442680523e+01,9.408499717712402344e+00,-8.031646609306335449e-01,-1.453345537185668945e+00,5.330000000000000000e+02
-4.364968729199972586e+00,-1.125628306181351945e+01,-3.220789054978013155e+00,-4.373507876874100475e+00,-4.520566416244128050e+01,-5.285448508740410034e+01,2.960424233057528909e+01,2.621308007198240375e+01,9.408499717712402344e+00,-8.031646609306335449e-01,-1.453345537185668945e+00,5.340000000000000000e+02
-3.408934423286154924e+00,-1.036408824634690973e+01,-6.818752441804463160e-01,-4.220431188656220911e+00,-4.083686890736498754e+01,-5.151173337737418478e+01,2.839413650942242384e+01,2.979092660383230395e+01,9.408499717712402344e+00,-8.031646609306335449e-01,-1.453345537185668945e+00,5.350000000000000000e+02
-3.123824770666033146e+00,-1.014380299290132825e+01,3.828943515523860697e+00,-2.883606667975982418e+00,-3.517504705033479695e+01,-4.902323969930330350e+01,3.011085904207993735e+01,3.646387967587361345e+01,9.408499717712402344e+00,-8.031646609306335449e-01,-1.453345537185668945e+00,5.360000000000000000e+02
-4.029754727933323011e+00,-1.069041291858593468e+01,9.329764895323023666e+00,-7.565815549733088119e-01,-2.936925649334079935e+01,-4.561582362714580086e+01,3.440629371785507828e+01,4.436826447783641925e+01,9.408499717712402344e+00,-8.031646609306335449e-01,-1.453345537185668945e+00,5.370000000000000000e+02
-6.245923096887054271e+00,-1.174672216697217664e+01,1.398158999210409092e+01,1.515996371144865407e+00,-2.482211498740343814e+01,-4.215236186018410081e+01,3.950110628355923836e+01,5.082568585438366426e+01,9.408499717712402344e+00,-8.031646609306335449e-01,-1.453345537185668945e+00,5.380000000000000000e+02
-9.068232884140343231e+00,-1.270947371430520434e+01,1.619694993514804082e+01,3.375258850948739564e+00,-2.255297598664219549e+01,-3.966007331422588322e+01,4.337485817405922717e+01,5.390754411727448314e+01,9.408499717712402344e+00,-8.031646609306335449e-01,-1.453345537185668945e+00,5.390000000000000000e+02
-1.125006186801329022e+01,-1.296118997533994843e+01,1.554611602016302641e+01,4.558030446558404947e+00,-2.276833111050109437e+01,-3.867579942984957597e+01,4.481187888664226193e+01,5.342748169271544612e+01,9.408499717712402344e+00,-8.031646609306335449e-01,-1.453345537185668945e+00,5.400000000000000000e+02
-1.185946109215274191e+01,-1.229835681669828773e+01,1.293566210471908562e+01,5.087641947784504737e+00,-2.484056901806070528e+01,-3.894445980013369990e+01,4.372025477147781203e+01,5.072105195632138930e+01,9.408499717712402344e+00,-8.031646609306335449e-01,-1.453345537185668945e+00,5.410000000000000000e+02
-1.098326974585506832e+01,-1.110684851887981495e+01,1.003301979216030304e+01,5.110964476947629009e+00,-2.766830603966627677e+01,-3.971586775455216412e+01,4.082671175150790077e+01,4.750850622464258777e+01,9.408499717712402344e+00,-8.031646609306335449e-01,-1.453345537185668945e+00,5.420000000000000000e+02
-9.611068181407972588e+00,-1.014872560311414418e+01,8.339993268627949874e+00,4.718166121792819467e+00,-3.022686353374228929e+01,-4.038841392497670313e+01,3.718374614610729623e+01,4.478777554103999137e+01,9.408499717712402344e+00,-8.031646609306335449e-01,-1.453345537185668945e+00,5.430000000000000000e+02
-8.765978575982444454e+00,-1.013887334389619355e+01,8.460845106264969218e+00,3.866047131039522355e+00,-3.204300406474976626e+01,-4.097153499251362518e+01,3.377555913694595802e+01,4.253580912798133795e+01,9.408499717712402344e+00,-8.031646609306335449e-01,-1.453345537185668945e+00,5.440000000000000000e+02
-8.651231876940073562e+00,-1.139273509148733865e+01,9.945226930693934264e+00,2.447133414692871156e+00,-3.333876980650893529e+01,-4.200704388403573830e+01,3.123403983618482016e+01,4.021970527124540240e+01,9.408499717712402344e+00,-8.031646609306335449e-01,-1.453345537185668945e+00,5.450000000000000000e+02
-8.565172972110303817e+00,-1.369742781895547523e+01,1.173630064198005130e+01,4.675331747566815466e-01,-3.472887120008817874e+01,-4.402351945759983209e+01,2.965087939189470490e+01,3.747301948510721559e+01,9.408499717712402344e+00,-8.031646609306335449e-01,-1.453345537185668945e+00,5.460000000000000000e+02
-7.641690741393176722e+00,-1.640461490100278752e+01,1.289591336200282967e+01,-1.791323143264889950e+00,-3.665046080987667665e+01,-4.697417549469173537e+01,2.859298811309963639e+01,3.434416547382534191e+01,9.408499717712402344e+00,-8.031646609306335449e-01,-1.453345537185668945e+00,5.470000000000000000e+02
-5.733638842601067154e+00,-1.869339668004977284e+01,1.313655290819224319e+01,-3.784075422632668051e+00,-3.894895196052493702e+01,-5.011730703050488955e+01,2.741428003529836133e+01,3.110360267465694051e+01,9.408499717712402344e+00,-8.031646609306335449e-01,-1.453345537185668945e+00,5.480000000000000000e+02
-3.640252481063726009e+00,-1.993842513592971954e+01,1.286229583755630301e+01,-4.933319098645370104e+00,-4.095102931490328046e+01,-5.242398632622098376e+01,2.574328617265928187e+01,2.805216201131770504e+01,9.408499717712402344e+00,-8.031646609306335449e-01,-1.453345537185668945e+00,5.490000000000000000e+02
-2.469579861026431900e+00,-2.005155756602107431e+01,1.278120037878579751e+01,-4.959504526728778728e+00,-4.194819775251926330e+01,-5.318949516354769003e+01,2.381060601709577895e+01,2.561266161938874575e+01,9.408499717712402344e+00,-8.031646609306335449e-01,-1.453345537185668945e+00,5.500000000000000000e+02
-2.684555733680099365e+00,-1.957013566132263804e+01,1.342356619352176494e+01,-4.068956150193116628e+00,-4.164694506496743998e+01,-5.238840114048070973e+01,2.235152239931267104e+01,2.448200248889224895e+01,9.484992027282714844e+00,-8.414105772972106934e-01,-1.338607788085937500e+00,5.510000000000000000e+02
-3.668524535814867704e+00,-1.933686758122530591e+01,1.487444020624025143e+01,-2.852321025035053026e+00,-4.021536586150796211e+01,-5.055772520949540194e+01,2.212324021812491992e+01,2.542100362971359573e+01,9.484992027282714844e+00,-8.414105772972106934e-01,-1.338607788085937500e+00,5.520000000000000000e+02
-4.206654696215991862e+00,-1.992745837842812762e+01,1.680857444240427867e+01,-1.967669741279678419e+00,-3.798770970105033484e+01,-4.839097792979919177e+01,2.335587704410681908e+01,2.866164068035322998e+01,9.484992027282714844e+00,-8.414105772972106934e-01,-1.338607788085937500e+00,5.530000000000000000e+02
-3.479773604500223882e+00,-2.124935032712528482e+01,1.872241960376595671e+01,-1.818240917305956827e+00,-3.520081557346929912e+01,-4.638516421271378931e+01,2.550797992424668337e+01,3.347368330256358604e+01,9.484992027282714844e+00,-8.414105772972106934e-01,-1.338607788085937500e+00,5.540000000000000000e+02
-1.726468377775745466e+00,-2.263958284023465239e+01,2.017732430993237358e+01,-2.398037155480778893e+00,-3.202362052180797036e+01,-4.474109735828096746e+01,2.749819616711283743e+01,3.844138670289976289e+01,9.484992027282714844e+00,-8.414105772972106934e-01,-1.338607788085937500e+00,5.550000000000000000e+02
-2.709893793507944793e-02,-2.337148082240491931e+01,2.092365827923640609e+01,-3.334175593725376530e+00,-2.876463707062066533e+01,-4.345823405794908467e+01,2.828555170002618979e+01,4.234488476402839296e+01,9.484992027282714844e+00,-8.414105772972106934e-01,-1.338607788085937500e+00,5.560000000000000000e+02
5.561085527042450849e-01,-2.311633500222524162e+01,2.084949642478750320e+01,-4.070214621027844260e+00,-2.595486934489235864e+01,-4.246872293958040245e+01,2.744925684139525401e+01,4.487220191095912014e+01,9.484992027282714844e+00,-8.414105772972106934e-01,-1.338607788085937500e+00,5.570000000000000000e+02
-2.801176639914046973e-01,-2.198967417995118012e+01,1.983783212822891073e+01,-4.120276695542997913e+00,-2.416965002701363119e+01,-4.173048673492667149e+01,2.541326788834521722e+01,4.650493785029539140e+01,9.484992027282714844e+00,-8.414105772972106934e-01,-1.338607788085937500e+00,5.580000000000000000e+02
-2.023827277280361159e+00,-2.026543534046322748e+01,1.773992570360132959e+01,-3.310793284055762342e+00,-2.374168259622638288e+01,-4.127244550203977269e+01,2.318341100281213585e+01,4.775000649634966976e+01,9.484992027282714844e+00,-8.414105772972106934e-01,-1.338607788085937500e+00,5.590000000000000000e+02
-3.870624819015574758e+00,-1.815132921786971565e+01,1.462175736625795253e+01,-1.898338542649071314e+00,-2.459747360261280846e+01,-4.117976665312198747e+01,2.178552315596425615e+01,4.855563012216589414e+01,9.484992027282714844e+00,-8.414105772972106934e-01,-1.338607788085937500e+00,5.600000000000000000e+02
-5.243818768933124375e+00,-1.587386937341034354e+01,1.115745309984777123e+01,-4.581961951189441606e-01,-2.629380775458048447e+01,-4.148822644723986741e+01,2.177038954117051617e+01,4.849958985759258212e+01,9.484992027282714844e+00,-8.414105772972106934e-01,-1.338607788085937500e+00,5.610000000000000000e+02
-5.898625672936759656e+00,-1.388276211019729089e+01,8.717298089894029545e+00,4.244364738788135583e-01,-2.819765702955191955e+01,-4.206432253660750575e+01,2.305909965533282957e+01,4.743115463922731578e+01,9.484992027282714844e+00,-8.414105772972106934e-01,-1.338607788085937500e+00,5.620000000000000000e+02
-5.749684261085349135e+00,-1.279427269799816713e+01,8.754030129062812193e+00,4.521119464880030137e-01,-2.976029646715505805e+01,-4.264647420772598707e+01,2.512498695340218546e+01,4.571732841061020736e+01,9.484992027282714844e+00,-8.414105772972106934e-01,-1.338607788085937500e+00,5.630000000000000000e+02
-4.827283988726776442e+00,-1.300873300799685239e+01,1.169009241816638678e+01,-3.151708567420428153e-01,-3.081039544008854136e+01,-4.310935854336639750e+01,2.728581083857352496e+01,4.373872224658771302e+01,9.484992027282714844e+00,-8.414105772972106934e-01,-1.338607788085937500e+00,5.640000000000000000e+02
-3.472438891831188812e+00,-1.437858568448609731e+01,1.618395615083682060e+01,-1.630072190488135675e+00,-3.169717119270535477e+01,-4.373012171483060229e+01,2.888708888620385551e+01,4.123829162258698489e+01,9.484992027282714844e+00,-8.414105772972106934e-01,-1.338607788085937500e+00,5.650000000000000000e+02
-2.429642190854792716e+00,-1.633580643690220313e+01,1.963724959134015080e+01,-3.262357600615359843e+00,-3.307160619122441858e+01,-4.508399230575378169e+01,2.936291860532946885e+01,3.744617946748803661e+01,9.484992027282714844e+00,-8.414105772972106934e-01,-1.338607788085937500e+00,5.660000000000000000e+02
-2.481774662173847901e+00,-1.840876813204886275e+01,1.986122893563515390e+01,-5.036962782240152592e+00,-3.531108119732198247e+01,-4.748856506164520397e+01,2.832732698908694147e+01,3.210828013091850153e+01,9.484992027282714844e+00,-8.414105772972106934e-01,-1.338607788085937500e+00,5.670000000000000000e+02
-3.790893842235163902e+00,-2.057274478287399688e+01,1.669780826211717795e+01,-6.718672070477623492e+00,-3.797839883728192945e+01,-5.043010632505320245e+01,2.578964002400789468e+01,2.643872530469161575e+01,9.484992027282714844e+00,-8.414105772972106934e-01,-1.338607788085937500e+00,5.680000000000000000e+02
-5.578568764824012760e+00,-2.299579344897392730e+01,1.222718924812215846e+01,-7.927255234350013779e+00,-3.982746491442594561e+01,-5.256406402288121171e+01,2.237364366851761588e+01,2.287503004764585057e+01,9.484992027282714844e+00,-8.414105772972106934e-01,-1.338607788085937500e+00,5.690000000000000000e+02
-6.595345427902429947e+00,-2.542654870059959649e+01,9.312970524371849024e+00,-8.228696489724825369e+00,-3.949323343647847651e+01,-5.245333389858569717e+01,1.927895429471027455e+01,2.358345479742274620e+01,9.484992027282714844e+00,-8.414105772972106934e-01,-1.338607788085937500e+00,5.700000000000000000e+02
-6.077533369229058735e+00,-2.696127534184597607e+01,9.654428011992422398e+00,-7.350322224760020617e+00,-3.639595943532913225e+01,-4.952793130841746461e+01,1.783476415527184145e+01,2.889045164621711592e+01,9.484992027282714844e+00,-8.414105772972106934e-01,-1.338607788085937500e+00,5.710000000000000000e+02
-4.366519763829273870e+00,-2.662502166797457903e+01,1.289015771989215864e+01,-5.351360274933540495e+00,-3.117846072459360585e+01,-4.450147524881685968e+01,1.881953120517391653e+01,3.695984687356212817e+01,9.446745872497558594e+00,-8.031646609306335449e-01,-1.415099620819091797e+00,5.720000000000000000e+02
-2.617774717540669371e+00,-2.432217658260015014e+01,1.731270704328198917e+01,-2.641151103183801752e+00,-2.537719226351327961e+01,-3.892985614146527951e+01,2.198213248130377906e+01,4.494483859298270545e+01,9.446745872497558594e+00,-8.031646609306335449e-01,-1.415099620819091797e+00,5.730000000000000000e+02
-1.837330285196003388e+00,-2.118309382947518316e+01,2.132793327562649210e+01,1.531972504126315471e-01,-2.062502891807162086e+01,-3.430242996142624179e+01,2.614791134424194752e+01,5.060721365129938931e+01,9.446745872497558594e+00,-8.031646609306335449e-01,-1.415099620819091797e+00,5.740000000000000000e+02
-2.107536328760033939e+00,-1.881790923324660980e+01,2.429968991592431848e+01,2.402652396725898143e+00,-1.796693983395016403e+01,-3.137634541292209178e+01,2.987312046008628386e+01,5.315230519238866691e+01,9.446745872497558594e+00,-8.031646609306335449e-01,-1.415099620819091797e+00,5.750000000000000000e+02
-2.662374330342572648e+00,-1.807470898541214410e+01,2.625247561250398576e+01,3.708576681619888404e+00,-1.763295791852578986e+01,-3.013390338913450250e+01,3.218194237360512489e+01,5.292367394251778023e+01,9.446745872497558594e+00,-8.031646609306335449e-01,-1.415099620819091797e+00,5.760000000000000000e+02
-2.678436326135852141e+00,-1.847351279289432568e+01,2.709030212254583603e+01,4.057579274871386588e+00,-1.921686120031154132e+01,-3.018490119305351982e+01,3.284349481498793466e+01,5.060122275067260489e+01,9.446745872497558594e+00,-8.031646609306335449e-01,-1.415099620819091797e+00,5.770000000000000000e+02
-2.036762208219442982e+00,-1.887458427223828039e+01,2.633070928450251813e+01,3.783179161073348951e+00,-2.201687401282470091e+01,-3.116313463405822404e+01,3.206448208345682360e+01,4.674255306282429956e+01,9.446745872497558594e+00,-8.031646609306335449e-01,-1.415099620819091797e+00,5.780000000000000000e+02
-1.392108002441091230e+00,-1.869505041228694608e+01,2.362728838527254993e+01,3.320092993213620503e+00,-2.533113073408821947e+01,-3.282732729983035824e+01,3.003413452039603726e+01,4.189767144340294180e+01,9.446745872497558594e+00,-8.031646609306335449e-01,-1.415099620819091797e+00,5.790000000000000000e+02
-1.528487115869211266e+00,-1.841124236677933368e+01,1.945525213713335688e+01,2.929016618265450234e+00,-2.860109578476476599e+01,-3.491493236138921930e+01,2.690258090567294857e+01,3.690846230517854565e+01,9.446745872497558594e+00,-8.031646609306335449e-01,-1.415099620819091797e+00,5.800000000000000000e+02
-2.587180840921064373e+00,-1.882811534128268249e+01,1.517710988103863201e+01,2.640175982287473744e+00,-3.137084229237370891e+01,-3.699011677928865538e+01,2.326922844333967078e+01,3.292946154469973408e+01,9.446745872497558594e+00,-8.031646609306335449e-01,-1.415099620819091797e+00,5.810000000000000000e+02
-3.806519258396292571e+00,-1.993252691148518352e+01,1.237944107704242924e+01,2.468393983435817063e+00,-3.315303211854916299e+01,-3.849718303212648607e+01,2.056229348161650705e+01,3.105812520352992578e+01,9.446745872497558594e+00,-8.031646609306335449e-01,-1.415099620819091797e+00,5.820000000000000000e+02
-3.991889439534133999e+00,-2.063778366591941449e+01,1.205335353870395920e+01,2.634970827963115880e+00,-3.342884902445439366e+01,-3.903811886358744232e+01,2.059625289162795525e+01,3.179620615587919019e+01,9.446745872497558594e+00,-8.031646609306335449e-01,-1.415099620819091797e+00,5.830000000000000000e+02
-2.368670119849412004e+00,-1.979567540577772888e+01,1.421644730452317162e+01,3.485786824883689405e+00,-3.194884000821548398e+01,-3.867282451967548695e+01,2.432616053289530100e+01,3.466975859564263374e+01,9.446745872497558594e+00,-8.031646609306335449e-01,-1.415099620819091797e+00,5.840000000000000000e+02
8.198618970563984476e-01,-1.746056280129050720e+01,1.809036866741007543e+01,5.144279048403404886e+00,-2.915252954474271974e+01,-3.794123253783982364e+01,3.077066624907820369e+01,3.828802348798853927e+01,9.446745872497558594e+00,-8.031646609306335449e-01,-1.415099620819091797e+00,5.850000000000000000e+02
4.410225342358899070e+00,-1.503260117222816916e+01,2.250733185847275308e+01,7.277211084336158819e+00,-2.623228258305607596e+01,-3.747404042602283880e+01,3.719683095512300497e+01,4.093891646655538352e+01,9.446745872497558594e+00,-8.031646609306335449e-01,-1.415099620819091797e+00,5.860000000000000000e+02
7.038678208638884826e+00,-1.403425910476653371e+01,2.625568104939156910e+01,9.268629786525707459e+00,-2.453878929056008928e+01,-3.743716496881825151e+01,4.067618503823905485e+01,4.150069254876143532e+01,9.446745872497558594e+00,-8.031646609306335449e-01,-1.415099620819091797e+00,5.870000000000000000e+02
7.976097396640398074e+00,-1.472952512901611044e+01,2.839149265432570246e+01,1.065040427062558592e+01,-2.464016780452948296e+01,-3.732326125734107336e+01,3.988057925294560846e+01,4.011588134691555751e+01,9.446745872497558594e+00,-8.031646609306335449e-01,-1.415099620819091797e+00,5.880000000000000000e+02
