F3,F4,C3,C4,P3,P4,Cz,Pz,Accel_x,Accel_y,Accel_z,Sample
-2.819433575496077538e-11,-3.183231456205248833e-11,-3.819877747446298599e-11,-3.547029336914420128e-11,-4.911271389573812485e-11,-6.184563972055912018e-11,-2.910383045673370361e-11,-3.365130396559834480e-11,9.408499717712402344e+00,-8.031646609306335449e-01,-1.376853704452514648e+00,2.010000000000000000e+02
1.426615948857033800e+00,-8.370047674254237791e+00,1.316461592199993902e+01,3.381986309911553690e+00,9.922657424317549157e+00,2.088848249635702814e+00,1.091483371237245592e+01,6.900351521988341119e+00,9.408499717712402344e+00,-8.031646609306335449e-01,-1.376853704452514648e+00,2.020000000000000000e+02
-1.928069705233610875e+00,-1.782990176159091789e+01,2.044572671882269788e+01,1.402899702619833988e+00,9.741633884529619536e+00,-3.265297500101951300e+00,1.433945605853114103e+01,1.170934505755576538e+01,9.408499717712402344e+00,-8.031646609306335449e-01,-1.376853704452514648e+00,2.030000000000000000e+02
-1.035852519526724791e+01,-2.766545792301258189e+01,2.061952558657503687e+01,-6.231529631375451572e+00,-2.476753870682841807e+00,-1.717101318141703814e+01,9.242861154501952115e+00,1.336132878902390075e+01,9.408499717712402344e+00,-8.031646609306335449e-01,-1.376853704452514648e+00,2.040000000000000000e+02
-1.966584271051124233e+01,-3.557293498237777385e+01,1.732713674484148214e+01,-1.471121135133034841e+01,-2.009821929127338080e+01,-3.418192728839312622e+01,1.297313914111327904e+00,1.203129392379196361e+01,9.408499717712402344e+00,-8.031646609306335449e-01,-1.376853704452514648e+00,2.050000000000000000e+02
-2.549241560295376985e+01,-3.975403401093444700e+01,1.498563852733968815e+01,-1.894759445927138586e+01,-3.506031662704845075e+01,-4.801282285337038047e+01,-2.955008951748823165e+00,8.566463653268328926e+00,9.408499717712402344e+00,-8.031646609306335449e-01,-1.376853704452514648e+00,2.060000000000000000e+02
-2.752242855992153636e+01,-4.078531144665612374e+01,1.476216510359245149e+01,-1.825049678991126711e+01,-4.495451120075267681e+01,-5.717519868593535648e+01,-1.947389735953038326e+00,3.854208322270096687e+00,9.408499717712402344e+00,-8.031646609306335449e-01,-1.376853704452514648e+00,2.070000000000000000e+02
-2.947516417366932728e+01,-4.141617720797967195e+01,1.441396095352411066e+01,-1.639603737463039579e+01,-5.339201228237652685e+01,-6.520168809666483867e+01,5.352619429659171146e-01,-1.339105620844748046e+00,9.370253562927246094e+00,-8.031646609306335449e-01,-1.338607788085937500e+00,2.080000000000000000e+02
-3.525828850039852114e+01,-4.455646520547452383e+01,1.147391474059168104e+01,-1.759754546980457235e+01,-6.455084176202944946e+01,-7.609813200201188010e+01,-3.216758457438118057e-02,-6.220215108418415184e+00,9.370253562927246094e+00,-8.031646609306335449e-01,-1.338607788085937500e+00,2.090000000000000000e+02
-4.534030962667384301e+01,-5.138202123706923885e+01,6.004573401546622335e+00,-2.279459612416030723e+01,-7.845437932411914517e+01,-9.026892196443714056e+01,-4.546178778713510837e+00,-9.993495053259721317e+00,9.370253562927246094e+00,-8.031646609306335449e-01,-1.338607788085937500e+00,2.100000000000000000e+02
-5.672037956603708153e+01,-6.108651872255904891e+01,2.314169147157372208e-01,-2.966679346087312297e+01,-9.162887547953596368e+01,-1.048169353779248922e+02,-1.024822115343886253e+01,-1.217775719194469275e+01,9.370253562927246094e+00,-8.031646609306335449e-01,-1.338607788085937500e+00,2.110000000000000000e+02
-6.598412503286090214e+01,-7.202274112576560583e+01,-3.947129250966099789e+00,-3.552964849225645594e+01,-1.013633635208798296e+02,-1.170246337029129791e+02,-1.409491839882048225e+01,-1.281927090860517637e+01,9.370253562927246094e+00,-8.031646609306335449e-01,-1.338607788085937500e+00,2.120000000000000000e+02
-7.212338571009604493e+01,-8.282289361525818094e+01,-6.595587166659242939e+00,-3.965172536651061819e+01,-1.083598630279084318e+02,-1.268440558911615881e+02,-1.544796703133033589e+01,-1.227547806801158004e+01,9.370253562927246094e+00,-8.031646609306335449e-01,-1.338607788085937500e+00,2.130000000000000000e+02
-7.666725670737378096e+01,-9.261114966738568910e+01,-9.104534563329252705e+00,-4.295620071340363211e+01,-1.153165941007746369e+02,-1.361405240336944189e+02,-1.568732383328824653e+01,-1.085994266193574731e+01,9.370253562927246094e+00,-8.031646609306335449e-01,-1.338607788085937500e+00,2.140000000000000000e+02
-8.167260727230495831e+01,-1.006899718322920307e+02,-1.258934057063106593e+01,-4.627267066299646103e+01,-1.238484423190393500e+02,-1.463117791141203270e+02,-1.612689232256980176e+01,-8.871984123838956293e+00,9.370253562927246094e+00,-8.031646609306335449e-01,-1.338607788085937500e+00,2.150000000000000000e+02
-8.791370918203119800e+01,-1.065396096121321534e+02,-1.727822925030886836e+01,-4.951125349246831320e+01,-1.334148711208808891e+02,-1.572095896350374460e+02,-1.698650044601436093e+01,-6.982507238945800054e+00,9.370253562927246094e+00,-8.031646609306335449e-01,-1.338607788085937500e+00,2.160000000000000000e+02
-9.476482202373153996e+01,-1.102737169804622681e+02,-2.311345608918963990e+01,-5.243315699721370038e+01,-1.428534510236495407e+02,-1.681101413259602850e+02,-1.815821487379798782e+01,-6.321745512868801598e+00,9.370253562927246094e+00,-8.031646609306335449e-01,-1.338607788085937500e+00,2.170000000000000000e+02
-1.012885705957669416e+02,-1.129036697325309433e+02,-3.021521047268288385e+01,-5.559339912332507083e+01,-1.520208997308045582e+02,-1.789613146687343033e+02,-2.012818098228581221e+01,-7.794522220413455216e+00,9.370253562927246094e+00,-8.031646609306335449e-01,-1.338607788085937500e+00,2.180000000000000000e+02
-1.071346098809681280e+02,-1.158837396234075641e+02,-3.836911338858681120e+01,-6.003295784596502926e+01,-1.615000209799663935e+02,-1.902285677432082593e+02,-2.356376463932701881e+01,-1.110614384741711547e+01,9.370253562927246094e+00,-8.031646609306335449e-01,-1.338607788085937500e+00,2.190000000000000000e+02
-1.125676365614635870e+02,-1.202396852065849089e+02,-4.638047585294589226e+01,-6.608075034218654764e+01,-1.711957011196045642e+02,-2.018016801730891530e+02,-2.816615257072044187e+01,-1.459601216193095752e+01,9.370253562927246094e+00,-8.031646609306335449e-01,-1.338607788085937500e+00,2.200000000000000000e+02
-1.180356061544407567e+02,-1.260714673722268344e+02,-5.261021599040850560e+01,-7.280508743027985474e+01,-1.800327221515299243e+02,-2.126645431050583284e+02,-3.251895828063152294e+01,-1.637127947259796201e+01,9.370253562927246094e+00,-8.031646609306335449e-01,-1.338607788085937500e+00,2.210000000000000000e+02
-1.238590690001556140e+02,-1.328022169519399540e+02,-5.651853501806999702e+01,-7.883175405490601406e+01,-1.872792099820444491e+02,-2.219061795821280612e+02,-3.538982569432027958e+01,-1.586823295236445119e+01,9.370253562927246094e+00,-8.031646609306335449e-01,-1.338607788085937500e+00,2.220000000000000000e+02
-1.301284146719899582e+02,-1.397671955652758697e+02,-5.952113835530417418e+01,-8.358981354711340828e+01,-1.937245115414343672e+02,-2.298252099920091496e+02,-3.700867872435719619e+01,-1.433194590702169080e+01,9.370253562927246094e+00,-8.031646609306335449e-01,-1.338607788085937500e+00,2.230000000000000000e+02
-1.366120162384095238e+02,-1.465189898072267169e+02,-6.393101217886032828e+01,-8.760081723762232286e+01,-2.010459458462291877e+02,-2.376995957223243749e+02,-3.874343812835741119e+01,-1.364297156794873445e+01,9.370253562927246094e+00,-8.031646609306335449e-01,-1.338607788085937500e+00,2.240000000000000000e+02
-1.427017308328022409e+02,-1.527085752581078850e+02,-7.080809713146300055e+01,-9.160230815376053215e+01,-2.099634272031116780e+02,-2.464163331677937094e+02,-4.148336895487136644e+01,-1.456112055695939489e+01,9.370253562927246094e+00,-8.031646609306335449e-01,-1.338607788085937500e+00,2.250000000000000000e+02
-1.476649743219004449e+02,-1.579682692505821251e+02,-7.887547976797850424e+01,-9.563008676887329784e+01,-2.193374053868337796e+02,-2.555443664965150674e+02,-4.461432915490513551e+01,-1.609782123287004652e+01,9.370253562927246094e+00,-8.031646609306335449e-01,-1.338607788085937500e+00,2.260000000000000000e+02
-1.512050747551111272e+02,-1.621143070607940899e+02,-8.566027170038796612e+01,-9.909577154877388239e+01,-2.273101533596036461e+02,-2.638976917023774149e+02,-4.678654639163141837e+01,-1.662300042255992594e+01,9.370253562927246094e+00,-8.031646609306335449e-01,-1.338607788085937500e+00,2.270000000000000000e+02
-1.538702805640214137e+02,-1.654462728843254808e+02,-8.973545707576249697e+01,-1.016769638412934000e+02,-2.332590197185554644e+02,-2.709186817027402867e+02,-4.759997994496552565e+01,-1.556851264606166296e+01,9.370253562927246094e+00,-8.031646609306335449e-01,-1.338607788085937500e+00,2.280000000000000000e+02
-1.568226957009301259e+02,-1.686662833127675185e+02,-9.185095609956306362e+01,-1.039329088556223724e+02,-2.384654807903580149e+02,-2.773287756730078399e+02,-4.825686122285696911e+01,-1.402087966744920777e+01,9.370253562927246094e+00,-8.031646609306335449e-01,-1.338607788085937500e+00,2.290000000000000000e+02
-1.610450987321937646e+02,-1.723373028837581842e+02,-9.397059265802045047e+01,-1.069354175340804431e+02,-2.448893814028224369e+02,-2.843965593397451812e+02,-5.038901511915491938e+01,-1.366187194913709391e+01,9.370253562927246094e+00,-8.031646609306335449e-01,-1.338607788085937500e+00,2.300000000000000000e+02
-1.666191248311579329e+02,-1.763700917442947684e+02,-9.736254640485640266e+01,-1.113120235138358112e+02,-2.534242316390882479e+02,-2.926899756100974628e+02,-5.430822129185435188e+01,-1.518835919410594215e+01,9.370253562927246094e+00,-8.031646609306335449e-01,-1.338607788085937500e+00,2.310000000000000000e+02
-1.726645500294102931e+02,-1.801037564891594229e+02,-1.016613253776949932e+02,-1.166732822457943257e+02,-2.633183076019286091e+02,-3.016204476915090709e+02,-5.856228711030098566e+01,-1.781654045048753687e+01,9.370253562927246094e+00,-8.031646609306335449e-01,-1.338607788085937500e+00,2.320000000000000000e+02
-1.779586878233503739e+02,-1.829761395459299820e+02,-1.056290062739885798e+02,-1.219466806516484212e+02,-2.730474544952903670e+02,-3.101304044755961513e+02,-6.129005041335267379e+01,-2.029108536397825446e+01,9.370253562927246094e+00,-8.031646609306335449e-01,-1.338607788085937500e+00,2.330000000000000000e+02
-1.817151795761310495e+02,-1.851595303308458824e+02,-1.085968419808864383e+02,-1.262461911923619482e+02,-2.815336954876183881e+02,-3.176984446771284638e+02,-6.200390376591440145e+01,-2.227157084253894936e+01,9.370253562927246094e+00,-8.031646609306335449e-01,-1.338607788085937500e+00,2.340000000000000000e+02
-1.839742627897912826e+02,-1.875358141580286429e+02,-1.110490971299814191e+02,-1.294873784552901270e+02,-2.886146962621123748e+02,-3.246667518774502241e+02,-6.203850943022871434e+01,-2.464508748849175390e+01,9.446745872497558594e+00,-8.414105772972106934e-01,-1.453345537185668945e+00,2.350000000000000000e+02
-1.854457950776359212e+02,-1.910014042177749616e+02,-1.138775712093674883e+02,-1.322841713031320978e+02,-2.946815085038983852e+02,-3.317108337556483093e+02,-6.329408079893437389e+01,-2.844673914133363724e+01,9.446745872497558594e+00,-8.414105772972106934e-01,-1.453345537185668945e+00,2.360000000000000000e+02
-1.870379798183294042e+02,-1.957206730627881370e+02,-1.172214053091402093e+02,-1.353160573339355324e+02,-3.001176475929287335e+02,-3.390827132109061495e+02,-6.653173196618672591e+01,-3.348161382343278092e+01,9.446745872497558594e+00,-8.414105772972106934e-01,-1.453345537185668945e+00,2.370000000000000000e+02
-1.894241418109254482e+02,-2.010012033239199809e+02,-1.201292055999520016e+02,-1.387460379653248310e+02,-3.050419063632448342e+02,-3.463416736524568478e+02,-7.078638296243298100e+01,-3.805277160562627614e+01,9.446745872497558594e+00,-8.414105772972106934e-01,-1.453345537185668945e+00,2.380000000000000000e+02
-1.928414166209518044e+02,-2.058773827523496038e+02,-1.213369022350693740e+02,-1.421405446506332737e+02,-3.093489798919281384e+02,-3.527210573201655279e+02,-7.429331284807403790e+01,-4.012429215109705183e+01,9.446745872497558594e+00,-8.414105772972106934e-01,-1.453345537185668945e+00,2.390000000000000000e+02
-1.971142278796446590e+02,-2.098490191962541758e+02,-1.203673473096323505e+02,-1.449112886860621074e+02,-3.128537367700419054e+02,-3.577515522096518907e+02,-7.594367444106728726e+01,-3.891945914047391852e+01,9.446745872497558594e+00,-8.414105772972106934e-01,-1.453345537185668945e+00,2.400000000000000000e+02
-2.018070322547068827e+02,-2.131427931695179723e+02,-1.179280035024412427e+02,-1.469062163525795768e+02,-3.154922032968825079e+02,-3.616572942479115227e+02,-7.599177488069472020e+01,-3.559646648415764503e+01,9.446745872497558594e+00,-8.414105772972106934e-01,-1.453345537185668945e+00,2.410000000000000000e+02
-2.063860858831076257e+02,-2.163163868905739946e+02,-1.153031104465590033e+02,-1.486346078891792786e+02,-3.175389876351669045e+02,-3.652525865972311294e+02,-7.556144576730957851e+01,-3.244987362986057633e+01,9.446745872497558594e+00,-8.414105772972106934e-01,-1.453345537185668945e+00,2.420000000000000000e+02
-2.103421227741205257e+02,-2.196092981899123515e+02,-1.133367311328011056e+02,-1.508926051548060059e+02,-3.196327009237820675e+02,-3.694081664969930898e+02,-7.556789860498065536e+01,-3.130151693155039538e+01,9.446745872497558594e+00,-8.414105772972106934e-01,-1.453345537185668945e+00,2.430000000000000000e+02
-2.132937518338726477e+02,-2.226488489202888559e+02,-1.118864622779856290e+02,-1.540595131245399898e+02,-3.224060324570241391e+02,-3.744199841617582933e+02,-7.602703011973471803e+01,-3.233341005049851447e+01,9.446745872497558594e+00,-8.414105772972106934e-01,-1.453345537185668945e+00,2.440000000000000000e+02
-2.151142117940221397e+02,-2.247929779661599241e+02,-1.101455097470352484e+02,-1.576826475466632473e+02,-3.259436594599001182e+02,-3.797354964464748264e+02,-7.625357334837690360e+01,-3.419694381028739372e+01,9.446745872497558594e+00,-8.414105772972106934e-01,-1.453345537185668945e+00,2.450000000000000000e+02
-2.160784290144692932e+02,-2.258278241851371604e+02,-1.075334674002233442e+02,-1.608093415430585083e+02,-3.296677398962979169e+02,-3.843506708336626616e+02,-7.568525424089466469e+01,-3.523945389678510764e+01,9.446745872497558594e+00,-8.414105772972106934e-01,-1.453345537185668945e+00,2.460000000000000000e+02
-2.168837742801670174e+02,-2.263853040246544879e+02,-1.044102850216768275e+02,-1.628451398795559726e+02,-3.329144488787173941e+02,-3.876607149141245827e+02,-7.458316942449528142e+01,-3.486594737291898127e+01,9.446745872497558594e+00,-8.414105772972106934e-01,-1.453345537185668945e+00,2.470000000000000000e+02
-2.183824711355355248e+02,-2.276316188659188811e+02,-1.020172698733126708e+02,-1.641459894185536541e+02,-3.356905520436048391e+02,-3.900601105766895671e+02,-7.398815770159262684e+01,-3.398073586017062553e+01,9.446745872497558594e+00,-8.414105772972106934e-01,-1.453345537185668945e+00,2.480000000000000000e+02
-2.211304058603213889e+02,-2.304107124974752878e+02,-1.016819782862203283e+02,-1.657427439329389927e+02,-3.388132135800487958e+02,-3.927279224374328805e+02,-7.495933279655855586e+01,-3.416444107461120439e+01,9.446745872497558594e+00,-8.414105772972106934e-01,-1.453345537185668945e+00,2.490000000000000000e+02
-2.250727986126262294e+02,-2.345322926738708702e+02,-1.038606886174575266e+02,-1.683817971731082253e+02,-3.431836911990840235e+02,-3.966933039969217134e+02,-7.768725939477690190e+01,-3.623069552549259242e+01,9.446745872497558594e+00,-8.414105772972106934e-01,-1.453345537185668945e+00,2.500000000000000000e+02
-2.296370530589338159e+02,-2.388432881530425220e+02,-1.077125978053732069e+02,-1.717483214211570157e+02,-3.488323435939810224e+02,-4.019435723159826921e+02,-8.119123867770576908e+01,-3.935979148779597381e+01,9.446745872497558594e+00,-8.414105772972106934e-01,-1.453345537185668945e+00,2.510000000000000000e+02
-2.341648333886219007e+02,-2.420921200486350244e+02,-1.115215116971176030e+02,-1.746425763576712598e+02,-3.546902957523689111e+02,-4.073815433438207947e+02,-8.390978010046501367e+01,-4.163802789194551224e+01,9.446745872497558594e+00,-8.414105772972106934e-01,-1.453345537185668945e+00,2.520000000000000000e+02
-2.382984319533275084e+02,-2.438966443929375600e+02,-1.136961755812476440e+02,-1.760301554953603045e+02,-3.593878587401227378e+02,-4.117206480258118972e+02,-8.481887785697699655e+01,-4.168834939303314968e+01,9.446745872497558594e+00,-8.414105772972106934e-01,-1.453345537185668945e+00,2.530000000000000000e+02
-2.420169098911010224e+02,-2.450091963118193235e+02,-1.137234822635591627e+02,-1.760918546767084081e+02,-3.624192999527895154e+02,-4.145934164906534534e+02,-8.429163826130343296e+01,-4.008241236183175715e+01,9.446745872497558594e+00,-8.414105772972106934e-01,-1.453345537185668945e+00,2.540000000000000000e+02
-2.453849610081324499e+02,-2.466478231614210017e+02,-1.124741628827105160e+02,-1.763311825618498005e+02,-3.646292913056990983e+02,-4.169205565976335492e+02,-8.400431206591429145e+01,-3.921477183825618340e+01,9.446745872497558594e+00,-8.414105772972106934e-01,-1.453345537185668945e+00,2.550000000000000000e+02
-2.483502620095387101e+02,-2.494736912480602768e+02,-1.116266015779096961e+02,-1.785556833080891010e+02,-3.675512340114146355e+02,-4.201959312360995682e+02,-8.583836789966153447e+01,-4.150267853672812635e+01,9.446745872497558594e+00,-8.414105772972106934e-01,-1.453345537185668945e+00,2.560000000000000000e+02
-2.508302276349863860e+02,-2.531210847900156296e+02,-1.125388553827942815e+02,-1.834984798186283115e+02,-3.721303579217074002e+02,-4.252695678774125554e+02,-9.050017134345989689e+01,-4.726155441696300841e+01,9.446745872497558594e+00,-8.414105772972106934e-01,-1.453345537185668945e+00,2.570000000000000000e+02
-2.529620979703540797e+02,-2.566593807899116655e+02,-1.152607731336229335e+02,-1.901652724409345865e+02,-3.778719961159276863e+02,-4.316294203863808434e+02,-9.684865900437898745e+01,-5.405401728588276455e+01,9.446745872497558594e+00,-8.414105772972106934e-01,-1.453345537185668945e+00,2.580000000000000000e+02
-2.551361098717948153e+02,-2.594812987130235342e+02,-1.183154887764821979e+02,-1.964250715426169336e+02,-3.830762472922228881e+02,-4.377593969458425818e+02,-1.024494799473154671e+02,-5.819114682529561833e+01,9.446745872497558594e+00,-8.414105772972106934e-01,-1.453345537185668945e+00,2.590000000000000000e+02
-2.576187884405062505e+02,-2.617119251754375000e+02,-1.194142314319296929e+02,-2.003664719288108245e+02,-3.859328541609925196e+02,-4.422227397828091853e+02,-1.049537355970683166e+02,-5.725225201026114519e+01,9.446745872497558594e+00,-8.414105772972106934e-01,-1.453345537185668945e+00,2.600000000000000000e+02
-2.600266954476255705e+02,-2.637184866399484235e+02,-1.166873038759613337e+02,-2.013499253916702401e+02,-3.856127295653614055e+02,-4.445306328204924284e+02,-1.032924574736189243e+02,-5.159773179014791822e+01,9.446745872497558594e+00,-8.414105772972106934e-01,-1.453345537185668945e+00,2.610000000000000000e+02
-2.611854015414996866e+02,-2.652375941500527006e+02,-1.096848986858421995e+02,-1.999918648510038111e+02,-3.825847686875817999e+02,-4.450977909781486233e+02,-9.789644057600389715e+01,-4.369827813636766223e+01,9.446745872497558594e+00,-8.414105772972106934e-01,-1.453345537185668945e+00,2.620000000000000000e+02
-2.596761386055109142e+02,-2.650908670575140604e+02,-9.953412615634670146e+01,-1.972327935189487107e+02,-3.780601971835008044e+02,-4.444466052298057548e+02,-9.000282578588848992e+01,-3.599619667760089214e+01,9.446745872497558594e+00,-8.414105772972106934e-01,-1.453345537185668945e+00,2.630000000000000000e+02
-2.547818418814549659e+02,-2.619480054846134180e+02,-8.821964830855813489e+01,-1.934060937713411477e+02,-3.731521531727869387e+02,-4.425159453455273706e+02,-8.082096561672847201e+01,-2.923165673359790162e+01,9.446745872497558594e+00,-8.414105772972106934e-01,-1.453345537185668945e+00,2.640000000000000000e+02
-2.471438386074246409e+02,-2.555797981290086227e+02,-7.755568105338829810e+01,-1.881730802831143592e+02,-3.684570875567670782e+02,-4.388054523727344076e+02,-7.127232447749679523e+01,-2.262470189999294234e+01,9.446745872497558594e+00,-8.414105772972106934e-01,-1.453345537185668945e+00,2.650000000000000000e+02
-2.385860198357771651e+02,-2.474654445962714817e+02,-6.854052514065460855e+01,-1.813273545638714950e+02,-3.642501352595320441e+02,-4.332245753202354308e+02,-6.228730324792923057e+01,-1.551028386437565132e+01,9.446745872497558594e+00,-8.414105772972106934e-01,-1.338607788085937500e+00,2.660000000000000000e+02
-2.311658250376846127e+02,-2.400762661987290585e+02,-6.137463413636555742e+01,-1.736106590833310293e+02,-3.608687339431041892e+02,-4.267620391804209703e+02,-5.501604999553319431e+01,-8.661273899247362351e+00,9.446745872497558594e+00,-8.414105772972106934e-01,-1.338607788085937500e+00,2.670000000000000000e+02
-2.261069007564495905e+02,-2.352969739771172044e+02,-5.587486381385770073e+01,-1.666455361667401576e+02,-3.587499519286035365e+02,-4.212057650539222777e+02,-5.044873264405509872e+01,-3.905490854773006504e+00,9.446745872497558594e+00,-8.414105772972106934e-01,-1.338607788085937500e+00,2.680000000000000000e+02
-2.233330573071473282e+02,-2.332422611597253308e+02,-5.177944733914455355e+01,-1.619468402785232684e+02,-3.580363561569520243e+02,-4.180487608663498804e+02,-4.868239632899758362e+01,-2.366306897592494352e+00,9.446745872497558594e+00,-8.414105772972106934e-01,-1.338607788085937500e+00,2.690000000000000000e+02
-2.218199068285740623e+02,-2.324310777473206144e+02,-4.869285470225213430e+01,-1.598835368017639667e+02,-3.582014595213739767e+02,-4.175203093075558627e+02,-4.861231855217761222e+01,-3.082726286284241723e+00,9.446745872497558594e+00,-8.414105772972106934e-01,-1.338607788085937500e+00,2.700000000000000000e+02
-2.203917968857934966e+02,-2.311599193544451509e+02,-4.590495794435901189e+01,-1.595471182273622617e+02,-3.582079301186627163e+02,-4.185991938791281655e+02,-4.855821674673370580e+01,-3.504388484251535374e+00,9.446745872497558594e+00,-8.414105772972106934e-01,-1.338607788085937500e+00,2.710000000000000000e+02
-2.183790016934798359e+02,-2.289292418363880870e+02,-4.253673500571517252e+01,-1.596400683226136152e+02,-3.572156429415757657e+02,-4.199677978836801913e+02,-4.746300022279069708e+01,-1.615831006953271753e+00,9.446745872497558594e+00,-8.414105772972106934e-01,-1.338607788085937500e+00,2.720000000000000000e+02
-2.157912624241201911e+02,-2.267792435734294259e+02,-3.811157104686685670e+01,-1.595414288736421895e+02,-3.552740602045123524e+02,-4.210110389748454054e+02,-4.566514091892145188e+01,2.174690796307118035e+00,9.446745872497558594e+00,-8.414105772972106934e-01,-1.338607788085937500e+00,2.730000000000000000e+02
-2.130959958007274508e+02,-2.263333471091312958e+02,-3.310467724428713154e+01,-1.595797769482244348e+02,-3.533833534601513975e+02,-4.219953608658074700e+02,-4.453087291182737317e+01,5.186637752430556247e+00,9.446745872497558594e+00,-8.414105772972106934e-01,-1.338607788085937500e+00,2.740000000000000000e+02
-2.108833343978617449e+02,-2.283883596223644190e+02,-2.883822897690743048e+01,-1.603360586814746966e+02,-3.528036424366263191e+02,-4.233858829195015687e+02,-4.518626374495920572e+01,4.698111342607489860e+00,9.446745872497558594e+00,-8.414105772972106934e-01,-1.338607788085937500e+00,2.750000000000000000e+02
-2.095913069808718774e+02,-2.321828144791707018e+02,-2.656439996973881534e+01,-1.617162579403964173e+02,-3.540949122044359001e+02,-4.250422818009830053e+02,-4.738513171603608498e+01,4.134316080380813219e-01,9.446745872497558594e+00,-8.414105772972106934e-01,-1.338607788085937500e+00,2.760000000000000000e+02
-2.093385383995776010e+02,-2.358625529779003500e+02,-2.638776780807575051e+01,-1.627241754617098195e+02,-3.566100388611689596e+02,-4.260846262031402603e+02,-4.950427317009325634e+01,-5.008622348462267837e+00,9.446745872497558594e+00,-8.414105772972106934e-01,-1.338607788085937500e+00,2.770000000000000000e+02
-2.098985570713591642e+02,-2.377116653363383421e+02,-2.700610361489202660e+01,-1.621728679568423104e+02,-3.588311756928321756e+02,-4.255474821933394196e+02,-4.975503414920240175e+01,-7.914850877664662221e+00,9.446745872497558594e+00,-8.414105772972106934e-01,-1.338607788085937500e+00,2.780000000000000000e+02
-2.108635977610174450e+02,-2.371929930710788312e+02,-2.665690540414948373e+01,-1.596968282175621425e+02,-3.593389080638360156e+02,-4.232256056180203814e+02,-4.767284074770464031e+01,-6.478835465611837208e+00,9.446745872497558594e+00,-8.414105772972106934e-01,-1.338607788085937500e+00,2.790000000000000000e+02
-2.119286586091805020e+02,-2.350987715596410226e+02,-2.456308793580228667e+01,-1.561757990387054633e+02,-3.577510457908990702e+02,-4.199738307938482649e+02,-4.465221464967441989e+01,-2.017936465935349588e+00,9.446745872497558594e+00,-8.414105772972106934e-01,-1.338607788085937500e+00,2.800000000000000000e+02
-2.130665935844140222e+02,-2.328495126650117300e+02,-2.160890362411646493e+01,-1.532084411340347287e+02,-3.549681591884921090e+02,-4.172104295606661708e+02,-4.299884818442615142e+01,2.223685862853017170e+00,9.446745872497558594e+00,-8.414105772972106934e-01,-1.338607788085937500e+00,2.810000000000000000e+02
-2.143872017445028177e+02,-2.315562419167001735e+02,-1.957550760979756888e+01,-1.520550398830948780e+02,-3.525314647486185322e+02,-4.160068457821935226e+02,-4.415359662671244223e+01,3.671239178392852409e+00,9.446745872497558594e+00,-8.414105772972106934e-01,-1.338607788085937500e+00,2.820000000000000000e+02
-2.157888692522745941e+02,-2.314921660703074622e+02,-1.957164080368318082e+01,-1.528466337602740168e+02,-3.515494768579360425e+02,-4.164468973272690846e+02,-4.747320661148000909e+01,2.151067818645515217e+00,9.446745872497558594e+00,-8.414105772972106934e-01,-1.338607788085937500e+00,2.830000000000000000e+02
-2.167986758942674896e+02,-2.321859084714510573e+02,-2.107660499898497619e+01,-1.545891176018802753e+02,-3.519998944170039294e+02,-4.176993216172284065e+02,-5.058834580913196532e+01,-5.333065980578339804e-01,9.446745872497558594e+00,-8.414105772972106934e-01,-1.338607788085937500e+00,2.840000000000000000e+02
-2.168669487974279946e+02,-2.328681841708730644e+02,-2.246197960856818554e+01,-1.558620802496087663e+02,-3.529194370833321273e+02,-4.186788574126519507e+02,-5.109075576655527584e+01,-2.438302445115596129e+00,9.446745872497558594e+00,-8.414105772972106934e-01,-1.338607788085937500e+00,2.850000000000000000e+02
-2.158877985525600707e+02,-2.328636382264967324e+02,-2.245256649788245795e+01,-1.556554581505125725e+02,-3.532425302217568515e+02,-4.187338113156215513e+02,-4.818891808450894132e+01,-2.851117915626446120e+00,9.446745872497558594e+00,-8.414105772972106934e-01,-1.338607788085937500e+00,2.860000000000000000e+02
-2.143779530306585457e+02,-2.317511438871848668e+02,-2.109493145664418989e+01,-1.538041064982800208e+02,-3.525092443190591212e+02,-4.178378831279716223e+02,-4.301470364569149751e+01,-2.071644493416329169e+00,9.446745872497558594e+00,-8.031646609306335449e-01,-1.376853704452514648e+00,2.870000000000000000e+02
-2.130383654298086640e+02,-2.294207071085182861e+02,-1.934401281114526228e+01,-1.508602832175245112e+02,-3.508689987927971288e+02,-4.162427675411236123e+02,-3.748641961945145340e+01,-2.533122230275921538e-01,9.446745872497558594e+00,-8.031646609306335449e-01,-1.376853704452514648e+00,2.880000000000000000e+02
-2.120976830487821871e+02,-2.261885667894846392e+02,-1.780477547818020412e+01,-1.476599304192857289e+02,-3.485674664557139408e+02,-4.140620068512764647e+02,-3.290182718817311525e+01,3.124993583281593601e+00,9.446745872497558594e+00,-8.031646609306335449e-01,-1.376853704452514648e+00,2.890000000000000000e+02
-2.111409585629901358e+02,-2.228834479186563158e+02,-1.600765669504983180e+01,-1.449534885611592472e+02,-3.456251927428697854e+02,-4.112715270745533189e+02,-2.951516736756684622e+01,8.435440763476094617e+00,9.446745872497558594e+00,-8.031646609306335449e-01,-1.376853704452514648e+00,2.900000000000000000e+02
-2.096524534350133990e+02,-2.206247165120364571e+02,-1.300741996181966442e+01,-1.432596511941580957e+02,-3.421134486179257124e+02,-4.081092462644126044e+02,-2.721921825692083985e+01,1.466766797069249151e+01,9.446745872497558594e+00,-8.031646609306335449e-01,-1.376853704452514648e+00,2.910000000000000000e+02
-2.077126216507474510e+02,-2.202105741987468832e+02,-8.671054614218974166e+00,-1.428360874533306060e+02,-3.386454256194666641e+02,-4.053379185037300658e+02,-2.629193406292984037e+01,1.937081458508566811e+01,9.446745872497558594e+00,-8.031646609306335449e-01,-1.376853704452514648e+00,2.920000000000000000e+02
-2.060771900976446886e+02,-2.214944112601699544e+02,-4.252055837629541202e+00,-1.436044277076691742e+02,-3.363395416923626726e+02,-4.038943179229071347e+02,-2.721193689398751303e+01,2.023373890684069920e+01,9.446745872497558594e+00,-8.031646609306335449e-01,-1.376853704452514648e+00,2.930000000000000000e+02
-2.054894500821188785e+02,-2.233358627299188583e+02,-1.560955034428843646e+00,-1.450598885301976679e+02,-3.360560042883788014e+02,-4.041176264288666289e+02,-2.973543880830686703e+01,1.700862368909986344e+01,9.446745872497558594e+00,-8.031646609306335449e-01,-1.376853704452514648e+00,2.940000000000000000e+02
-2.059172265406531324e+02,-2.243345746928004019e+02,-1.457677432869786571e+00,-1.463698476393317378e+02,-3.375909324459371419e+02,-4.053049446996852794e+02,-3.242438764514372451e+01,1.193986225738967732e+01,9.446745872497558594e+00,-8.031646609306335449e-01,-1.376853704452514648e+00,2.950000000000000000e+02
-2.065201309448569873e+02,-2.238451259649568215e+02,-3.088798195819208559e+00,-1.467624670638103908e+02,-3.396847803791072238e+02,-4.061405350812416373e+02,-3.343251353432015094e+01,8.183557629226129393e+00,9.446745872497558594e+00,-8.031646609306335449e-01,-1.376853704452514648e+00,2.960000000000000000e+02
-2.063869491445558424e+02,-2.224121432711279454e+02,-4.577878702608018102e+00,-1.460026714540800867e+02,-3.409342219983489031e+02,-4.057084285930179703e+02,-3.198034931737311126e+01,7.565368310643862060e+00,9.446745872497558594e+00,-8.031646609306335449e-01,-1.376853704452514648e+00,2.970000000000000000e+02
-2.052866335078102793e+02,-2.212165521295995632e+02,-4.517540357073812629e+00,-1.445625327028399170e+02,-3.407766034918478795e+02,-4.041726169116579968e+02,-2.907159896266171017e+01,9.589952565945964125e+00,9.446745872497558594e+00,-8.031646609306335449e-01,-1.376853704452514648e+00,2.980000000000000000e+02
-2.036921743254251851e+02,-2.210131782874914848e+02,-2.929656236434084349e+00,-1.432787765963176980e+02,-3.396385592047235491e+02,-4.024919037275235496e+02,-2.664675307939489812e+01,1.237941482953817740e+01,9.446745872497558594e+00,-8.031646609306335449e-01,-1.376853704452514648e+00,2.990000000000000000e+02
-2.021166677561591314e+02,-2.215059695356702605e+02,-9.397727059647422720e-01,-1.427265321620510576e+02,-3.382127183013459444e+02,-4.014713235698452536e+02,-2.592367948842661463e+01,1.443054538733872505e+01,9.446745872497558594e+00,-8.031646609306335449e-01,-1.376853704452514648e+00,3.000000000000000000e+02
-2.005088938175415478e+02,-2.216864609646865460e+02,3.835985652283397940e-01,-1.428063537613522840e+02,-3.366841577655378046e+02,-4.010811883313510862e+02,-2.649079649819600490e+01,1.552493834177607823e+01,9.446745872497558594e+00,-8.031646609306335449e-01,-1.376853704452514648e+00,3.010000000000000000e+02
-1.983408829230105539e+02,-2.207599911616161990e+02,9.133560263226172538e-01,-1.428784302873527849e+02,-3.346944572088392533e+02,-4.006622956392938022e+02,-2.694996035099609344e+01,1.620325983074474152e+01,9.446745872497558594e+00,-8.031646609306335449e-01,-1.376853704452514648e+00,3.020000000000000000e+02
-1.952489192616689024e+02,-2.187693823154148163e+02,1.377315686735300915e+00,-1.423152399257032812e+02,-3.319814027866917172e+02,-3.997114392646587930e+02,-2.636881208959505329e+01,1.669671971941045285e+01,9.446745872497558594e+00,-8.031646609306335449e-01,-1.376853704452514648e+00,3.030000000000000000e+02
-1.915421664260105672e+02,-2.164007790332755690e+02,2.556647692771093716e+00,-1.410049914237177973e+02,-3.289259235659942533e+02,-3.983977778982169866e+02,-2.508508347442773356e+01,1.658814210402886147e+01,9.446745872497558594e+00,-8.031646609306335449e-01,-1.376853704452514648e+00,3.040000000000000000e+02
-1.880951764200536900e+02,-2.142858710928911137e+02,4.560723491602175272e+00,-1.394018877643845826e+02,-3.263899554122049267e+02,-3.972991980471255147e+02,-2.417877585524081496e+01,1.549059144472266780e+01,9.446745872497558594e+00,-8.031646609306335449e-01,-1.376853704452514648e+00,3.050000000000000000e+02
-1.857665543439860585e+02,-2.125354207260565431e+02,6.750741990612254995e+00,-1.381047957569464870e+02,-3.249893547146170931e+02,-3.966758203353551835e+02,-2.429840037823316834e+01,1.385451173883575393e+01,9.446745872497558594e+00,-8.031646609306335449e-01,-1.376853704452514648e+00,3.060000000000000000e+02
-1.848907424594235636e+02,-2.108937136135706965e+02,8.238806495600442759e+00,-1.373416779680970876e+02,-3.245265222814983304e+02,-3.960583868726619130e+02,-2.508148749315876103e+01,1.289768949526717279e+01,9.446745872497558594e+00,-8.031646609306335449e-01,-1.376853704452514648e+00,3.070000000000000000e+02
-1.852056160208587698e+02,-2.092213495557991791e+02,8.460658180596396960e+00,-1.367959287196395053e+02,-3.241346881921843988e+02,-3.945919170182787639e+02,-2.565703433807789224e+01,1.362707828775955932e+01,9.446745872497558594e+00,-8.031646609306335449e-01,-1.376853704452514648e+00,3.080000000000000000e+02
-1.861235485481684009e+02,-2.077316099598364190e+02,7.442144934414159252e+00,-1.359043728461870160e+02,-3.229894812371438775e+02,-3.918251634317525713e+02,-2.556371275437447821e+01,1.591245184762203735e+01,9.446745872497558594e+00,-8.031646609306335449e-01,-1.376853704452514648e+00,3.090000000000000000e+02
-1.870133412791287810e+02,-2.067450497637350963e+02,5.758405703685980370e+00,-1.343525854121529619e+02,-3.209352276424879165e+02,-3.881988921770098386e+02,-2.505700015269155756e+01,1.855639226274718112e+01,9.446745872497558594e+00,-8.031646609306335449e-01,-1.376853704452514648e+00,3.100000000000000000e+02
-1.873022291933001497e+02,-2.062465096746501558e+02,4.369924973529577983e+00,-1.323117560818848233e+02,-3.184740603440945961e+02,-3.847458356811650901e+02,-2.450297613154793908e+01,2.034281910093795886e+01,9.446745872497558594e+00,-8.031646609306335449e-01,-1.376853704452514648e+00,3.110000000000000000e+02
-1.865058080584094569e+02,-2.057303676907429235e+02,4.400591174739474809e+00,-1.302095422805150520e+02,-3.161571140439312444e+02,-3.822353667551403760e+02,-2.358760379519867456e+01,2.110694557397459903e+01,9.446745872497558594e+00,-8.031646609306335449e-01,-1.376853704452514648e+00,3.120000000000000000e+02
-1.843469338430668358e+02,-2.045116627443887865e+02,6.760384259175452826e+00,-1.282658661591398186e+02,-3.139375093017819154e+02,-3.805056044143611871e+02,-2.129335925437862898e+01,2.186780231089801418e+01,9.446745872497558594e+00,-8.031646609306335449e-01,-1.376853704452514648e+00,3.130000000000000000e+02
-1.809530228354797146e+02,-2.022562641878370755e+02,1.161647011979437139e+01,-1.262868939667187078e+02,-3.111026214121685598e+02,-3.785947650593481058e+02,-1.684384616322779493e+01,2.392145419267956186e+01,9.446745872497558594e+00,-8.031646609306335449e-01,-1.376853704452514648e+00,3.140000000000000000e+02
-1.769271323367979676e+02,-1.992725619194634419e+02,1.804177555255455445e+01,-1.239487774452665008e+02,-3.068922041254287478e+02,-3.755905631375719622e+02,-1.078226091861529312e+01,2.768983110920419222e+01,9.446745872497558594e+00,-8.031646609306335449e-01,-1.376853704452514648e+00,3.150000000000000000e+02
-1.731305707579305135e+02,-1.963052203145242629e+02,2.427549127004431284e+01,-1.212662294973217740e+02,-3.012884973577645269e+02,-3.714636316489768433e+02,-5.068398799075680472e+00,3.227152535303014247e+01,9.446745872497558594e+00,-8.031646609306335449e-01,-1.376853704452514648e+00,3.160000000000000000e+02
-1.702722483206568995e+02,-1.939578055065132958e+02,2.862152973102581655e+01,-1.186969579881848631e+02,-2.952720740383604152e+02,-3.671245688616259031e+02,-1.887967183250566450e+00,3.602148956382075085e+01,9.446745872497558594e+00,-8.031646609306335449e-01,-1.376853704452514648e+00,3.170000000000000000e+02
-1.685694132820551658e+02,-1.921722659679192020e+02,3.041699148513168893e+01,-1.166811737876706729e+02,-2.902518027426788194e+02,-3.636146929252408881e+02,-2.045328618473831739e+00,3.767395164985828160e+01,9.446745872497558594e+00,-8.031646609306335449e-01,-1.376853704452514648e+00,3.180000000000000000e+02
-1.676959048373878431e+02,-1.902112649738189702e+02,3.030567031019472779e+01,-1.150655725204371720e+02,-2.871061697722491317e+02,-3.611621847512743670e+02,-4.299025742167600583e+00,3.714378249411561228e+01,9.446745872497558594e+00,-8.031646609306335449e-01,-1.376853704452514648e+00,3.190000000000000000e+02
-1.669994981810258423e+02,-1.872427482145623117e+02,2.960932175365519470e+01,-1.130881956573374509e+02,-2.856249964984838243e+02,-3.589995368021843660e+02,-6.273610489750240049e+00,3.547578135878075045e+01,9.446745872497558594e+00,-8.031646609306335449e-01,-1.376853704452514648e+00,3.200000000000000000e+02
-1.657781345212737278e+02,-1.831272101237586867e+02,2.939566764216044703e+01,-1.100742187765707740e+02,-2.847669162120020019e+02,-3.561437018251480140e+02,-6.215181755330263513e+00,3.408126753697553113e+01,9.446745872497558594e+00,-8.031646609306335449e-01,-1.376853704452514648e+00,3.210000000000000000e+02
-1.634529781255522494e+02,-1.787503223700637136e+02,3.007543562548141836e+01,-1.062150902870929485e+02,-2.834228338130906195e+02,-3.524092911595844271e+02,-4.103689174613350588e+00,3.386970370343544801e+01,9.446745872497558594e+00,-8.031646609306335449e-01,-1.376853704452514648e+00,3.220000000000000000e+02
-1.596751880388103473e+02,-1.755235736095690982e+02,3.174054854514042745e+01,-1.026144441054951812e+02,-2.810054836180502207e+02,-3.486711747343561001e+02,-1.229724477795798521e+00,3.485625048895479949e+01,9.446745872497558594e+00,-8.031646609306335449e-01,-1.376853704452514648e+00,3.230000000000000000e+02
-1.544930351717628128e+02,-1.743697852330197975e+02,3.463488884476305429e+01,-1.004601660995838301e+02,-2.774854143637275001e+02,-3.461046855930654829e+02,1.245677185683689459e+00,3.640253560332212146e+01,9.446745872497558594e+00,-8.031646609306335449e-01,-1.376853704452514648e+00,3.240000000000000000e+02
-1.485494688871281141e+02,-1.750257297985979221e+02,3.904206350455388019e+01,-1.000505398370678449e+02,-2.730927645996762294e+02,-3.451108449265968829e+02,3.324932268049451523e+00,3.779509031419024723e+01,9.446745872497558594e+00,-8.031646609306335449e-01,-1.376853704452514648e+00,3.250000000000000000e+02
-1.430460993927432582e+02,-1.762654917717870831e+02,4.463502662008704647e+01,-1.005647258295027768e+02,-2.681440536506041781e+02,-3.449228129315447404e+02,5.866469420541420732e+00,3.870419389722394499e+01,9.446745872497558594e+00,-8.031646609306335449e-01,-1.376853704452514648e+00,3.260000000000000000e+02
-1.392532943107567007e+02,-1.768331210675208922e+02,5.013271966418074044e+01,-1.007532674131815611e+02,-2.631237759372103255e+02,-3.442248190735581375e+02,9.379129254426743501e+00,3.925689097082306489e+01,9.446745872497558594e+00,-8.031646609306335449e-01,-1.376853704452514648e+00,3.270000000000000000e+02
-1.377404972997138657e+02,-1.762427377406551159e+02,5.392966474081754313e+01,-9.986727873466963956e+01,-2.587364620867085705e+02,-3.421756926592564696e+02,1.322935849957457322e+01,3.975959320836636834e+01,9.446745872497558594e+00,-8.031646609306335449e-01,-1.376853704452514648e+00,3.280000000000000000e+02
-1.379157588024539791e+02,-1.747885855943601427e+02,5.531078301592049229e+01,-9.802086545352290159e+01,-2.556786088573317102e+02,-3.389544470752496181e+02,1.606601321718221698e+01,4.031550301288496030e+01,9.446745872497558594e+00,-8.031646609306335449e-01,-1.376853704452514648e+00,3.290000000000000000e+02
-1.383781661476199361e+02,-1.729355849785680448e+02,5.505831831927434905e+01,-9.583860205280791433e+01,-2.542743213770761486e+02,-3.354967799672402862e+02,1.697166500602486394e+01,4.060258905789271466e+01,9.446745872497558594e+00,-8.031646609306335449e-01,-1.376853704452514648e+00,3.300000000000000000e+02
-1.379123316780359119e+02,-1.708496650204460821e+02,5.473145123532685830e+01,-9.389287447690810495e+01,-2.543409724839858654e+02,-3.327992502038858902e+02,1.615186401825587836e+01,3.997008011378056835e+01,9.446745872497558594e+00,-8.031646609306335449e-01,-1.376853704452514648e+00,3.310000000000000000e+02
-1.363616585798858978e+02,-1.685826892602049156e+02,5.520122890413165351e+01,-9.247379366677012058e+01,-2.554227483474414839e+02,-3.313903943851473741e+02,1.451825260647160576e+01,3.782638478898377343e+01,9.446745872497558594e+00,-8.031646609306335449e-01,-1.376853704452514648e+00,3.320000000000000000e+02
-1.346557149576825623e+02,-1.666046704252381687e+02,5.585239479485301217e+01,-9.173306272551417351e+01,-2.570968099655980268e+02,-3.312204733772161944e+02,1.271748507434870135e+01,3.413571798105647304e+01,9.446745872497558594e+00,-8.031646609306335449e-01,-1.376853704452514648e+00,3.330000000000000000e+02
-1.339724890662637335e+02,-1.658903780011044091e+02,5.529342394947843786e+01,-9.182969261225480295e+01,-2.589802534918894708e+02,-3.317985761435347740e+02,1.070468266403611324e+01,2.974676980672438731e+01,9.446745872497558594e+00,-8.031646609306335449e-01,-1.376853704452514648e+00,3.340000000000000000e+02
-1.347597505795007464e+02,-1.672116098418964611e+02,5.294026589527470605e+01,-9.280708208055648356e+01,-2.604590952526247065e+02,-3.323549450533013214e+02,8.298910181166206712e+00,2.628906492882572365e+01,9.446745872497558594e+00,-8.031646609306335449e-01,-1.376853704452514648e+00,3.350000000000000000e+02
-1.363962222178640786e+02,-1.701952027135918115e+02,4.995704757420196529e+01,-9.432105931595219772e+01,-2.605640892040200924e+02,-3.320029120282281383e+02,6.042691838480436672e+00,2.555500914212086627e+01,9.446745872497558594e+00,-8.031646609306335449e-01,-1.376853704452514648e+00,3.360000000000000000e+02
-1.376618619988403225e+02,-1.731076128378896328e+02,4.860202863677477580e+01,-9.554737933341414191e+01,-2.583320432273962979e+02,-3.299907630188498615e+02,5.317359760900103538e+00,2.860629824432817259e+01,9.446745872497558594e+00,-8.031646609306335449e-01,-1.376853704452514648e+00,3.370000000000000000e+02
-1.375295250495152004e+02,-1.737479176466868012e+02,5.050696248705014568e+01,-9.543622857564901096e+01,-2.534844092779907214e+02,-3.260135962206165914e+02,7.410466643390918762e+00,3.506992553893314835e+01,9.446745872497558594e+00,-8.031646609306335449e-01,-1.376853704452514648e+00,3.380000000000000000e+02
-1.356662233333479435e+02,-1.708400488173818985e+02,5.538650742871118382e+01,-9.318900685813969176e+01,-2.468573854369340097e+02,-3.203994615052257586e+02,1.231659019556309431e+01,4.310096261062005851e+01,9.446745872497558594e+00,-8.031646609306335449e-01,-1.376853704452514648e+00,3.390000000000000000e+02
-1.324189777181406953e+02,-1.648564042850964597e+02,6.125019407433512697e+01,-8.868831777909201719e+01,-2.401459231758559554e+02,-3.140162099923676351e+02,1.837898346507233782e+01,5.014966639200918053e+01,9.446745872497558594e+00,-8.031646609306335449e-01,-1.376853704452514648e+00,3.400000000000000000e+02
-1.284846427055128970e+02,-1.576992157244327473e+02,6.586519621846753125e+01,-8.266142731775948960e+01,-2.350474265963788412e+02,-3.079223803858078554e+02,2.317514165667148518e+01,5.417221066826641618e+01,9.446745872497558594e+00,-8.031646609306335449e-01,-1.376853704452514648e+00,3.410000000000000000e+02
-1.245644476995721561e+02,-1.515732159734463949e+02,6.822853236467813076e+01,-7.648327696237265627e+01,-2.323588123927028164e+02,-3.029613556060576229e+02,2.499895230587299011e+01,5.458127035763141066e+01,9.446745872497558594e+00,-8.031646609306335449e-01,-1.376853704452514648e+00,3.420000000000000000e+02
-1.211454053724713731e+02,-1.478953035182109943e+02,6.894013618088661133e+01,-7.165319546853356769e+01,-2.316252973262165824e+02,-2.995027641877113638e+02,2.381390261004185049e+01,5.233752942498449556e+01,9.446745872497558594e+00,-8.031646609306335449e-01,-1.376853704452514648e+00,3.430000000000000000e+02
-1.184277822684573493e+02,-1.468738455327369365e+02,6.935408965037072448e+01,-6.914677699233448038e+01,-2.315649445377449638e+02,-2.974313234705964533e+02,2.102358317392508980e+01,4.913013911232258124e+01,9.446745872497558594e+00,-8.031646609306335449e-01,-1.376853704452514648e+00,3.440000000000000000e+02
-1.163854945999029269e+02,-1.477955032805807605e+02,7.034462078688886777e+01,-6.899209560647341277e+01,-2.309665199173351766e+02,-2.963579779816616337e+02,1.834440752184423218e+01,4.622563269754004978e+01,9.446745872497558594e+00,-8.031646609306335449e-01,-1.376853704452514648e+00,3.450000000000000000e+02
-1.149173920989643420e+02,-1.496443194613711967e+02,7.170468384712444276e+01,-7.035959733445224629e+01,-2.294335997924299591e+02,-2.959072889070607744e+02,1.669882847651831526e+01,4.382468643504705597e+01,9.446745872497558594e+00,-8.031646609306335449e-01,-1.376853704452514648e+00,3.460000000000000000e+02
-1.139587841282267391e+02,-1.516287261791238734e+02,7.257785409727898696e+01,-7.210623135537480266e+01,-2.274442251546586249e+02,-2.958827247474564501e+02,1.592765273291774974e+01,4.138355393491428913e+01,9.446745872497558594e+00,-8.031646609306335449e-01,-1.376853704452514648e+00,3.470000000000000000e+02
-1.134498834426117355e+02,-1.533892867502577246e+02,7.244561696362461589e+01,-7.337627080860102069e+01,-2.257120493218045567e+02,-2.961964827090619110e+02,1.539190894403554921e+01,3.857241514698273477e+01,9.446745872497558594e+00,-8.031646609306335449e-01,-1.376853704452514648e+00,3.480000000000000000e+02
-1.132451009709423033e+02,-1.548798645724672269e+02,7.174688160835637518e+01,-7.385947712694428446e+01,-2.244183620810229058e+02,-2.966590218951737370e+02,1.480885794357573104e+01,3.598520973887332275e+01,9.446745872497558594e+00,-8.031646609306335449e-01,-1.376853704452514648e+00,3.490000000000000000e+02
-1.131563931083525176e+02,-1.560640627281700290e+02,7.156797743981167059e+01,-7.363300906849326566e+01,-2.230032237887126030e+02,-2.968663008978955986e+02,1.454575554530413228e+01,3.492542668442615650e+01,9.446745872497558594e+00,-8.031646609306335449e-01,-1.376853704452514648e+00,3.500000000000000000e+02
-1.131809514315146998e+02,-1.566789710051351676e+02,7.266394489825995606e+01,-7.286989998477974950e+01,-2.207147315460795198e+02,-2.963343268971877933e+02,1.514412836215478819e+01,3.640357273574181818e+01,9.446745872497558594e+00,-8.031646609306335449e-01,-1.376853704452514648e+00,3.510000000000000000e+02
-1.136517822278624408e+02,-1.563024641882743708e+02,7.468307893179587609e+01,-7.170415784447050100e+01,-2.174211324026359762e+02,-2.947667318127691942e+02,1.658482452572661714e+01,4.020198373556286242e+01,9.446745872497558594e+00,-8.031646609306335449e-01,-1.376853704452514648e+00,3.520000000000000000e+02
-1.150052249094853778e+02,-1.547482929476441313e+02,7.632517359134601520e+01,-7.027516224237888309e+01,-2.139206568853892350e+02,-2.921988148634418394e+02,1.805643533775867127e+01,4.481747731835184823e+01,9.446745872497558594e+00,-8.031646609306335449e-01,-1.376853704452514648e+00,3.530000000000000000e+02
-1.172426299879540466e+02,-1.524768030645378758e+02,7.635425090535829895e+01,-6.877306791445198542e+01,-2.114426130962181105e+02,-2.889020463611439027e+02,1.850989944753780492e+01,4.832729143637538982e+01,9.446745872497558594e+00,-8.031646609306335449e-01,-1.376853704452514648e+00,3.540000000000000000e+02
-1.196159785541600513e+02,-1.505805810472429584e+02,7.460247407941074016e+01,-6.738228190987751987e+01,-2.107848946434273785e+02,-2.851950149953313485e+02,1.750942135977174985e+01,4.944724739627736199e+01,9.446745872497558594e+00,-8.031646609306335449e-01,-1.376853704452514648e+00,3.550000000000000000e+02
-1.209891295785778311e+02,-1.501710018989842865e+02,7.209291747310896881e+01,-6.621142209305685356e+01,-2.118257747133352495e+02,-2.813776149065270147e+02,1.557882028112942407e+01,4.798221049700850926e+01,9.446745872497558594e+00,-8.031646609306335449e-01,-1.376853704452514648e+00,3.560000000000000000e+02
-1.206654518097552682e+02,-1.515373519197651149e+02,7.020999335111537221e+01,-6.532428800177103767e+01,-2.137242936658562940e+02,-2.777941591658675407e+02,1.370371224472103222e+01,4.452388214065194916e+01,9.446745872497558594e+00,-8.031646609306335449e-01,-1.376853704452514648e+00,3.570000000000000000e+02
-1.189293013430230985e+02,-1.537778620706089896e+02,6.967087036656050714e+01,-6.482283843230379716e+01,-2.154943771753869441e+02,-2.748296816261022286e+02,1.244358214742965174e+01,3.990724272147861029e+01,9.446745872497558594e+00,-8.031646609306335449e-01,-1.376853704452514648e+00,3.580000000000000000e+02
-1.167546815302762298e+02,-1.553157622672681555e+02,7.017064209048635348e+01,-6.482033513833675897e+01,-2.164237347779539959e+02,-2.727171960230625700e+02,1.147915781541610158e+01,3.495539024472509482e+01,9.446745872497558594e+00,-8.031646609306335449e-01,-1.376853704452514648e+00,3.590000000000000000e+02
-1.149659116511477350e+02,-1.550112267652389164e+02,7.090519558140954359e+01,-6.527415106160015057e+01,-2.161392798629267418e+02,-2.713183609688244360e+02,1.000496007022638878e+01,3.053264744006764886e+01,9.446745872497558594e+00,-8.031646609306335449e-01,-1.376853704452514648e+00,3.600000000000000000e+02
-1.137083886719437942e+02,-1.530490818031114486e+02,7.137076158148261129e+01,-6.588292571805482112e+01,-2.145234927595208774e+02,-2.701622056851674643e+02,7.582859121791898360e+00,2.751807963516057498e+01,9.446745872497558594e+00,-8.031646609306335449e-01,-1.376853704452514648e+00,3.610000000000000000e+02
-1.127304745449214352e+02,-1.508912452669035247e+02,7.167351170206393363e+01,-6.625396129368823495e+01,-2.117190531189710327e+02,-2.687908785567301493e+02,4.655175936112755153e+00,2.645272132559421152e+01,9.446745872497558594e+00,-8.031646609306335449e-01,-1.376853704452514648e+00,3.620000000000000000e+02
-1.120640322259091590e+02,-1.502838020958265588e+02,7.213321950761223889e+01,-6.625664070147445273e+01,-2.081906050454304022e+02,-2.671138990043650665e+02,2.268341300785778003e+00,2.710500216728632950e+01,9.446745872497558594e+00,-8.031646609306335449e-01,-1.376853704452514648e+00,3.630000000000000000e+02
-1.122313603265301936e+02,-1.520412658533127797e+02,7.266034145419689594e+01,-6.621739533476807082e+01,-2.046579546821569693e+02,-2.654396707634155064e+02,1.277693524861660990e+00,2.843738702348582592e+01,9.446745872497558594e+00,-8.031646609306335449e-01,-1.376853704452514648e+00,3.640000000000000000e+02
-1.136427725093994923e+02,-1.554910773658698417e+02,7.256303095989483154e+01,-6.668915159173297980e+01,-2.018391722971141462e+02,-2.641626512064683538e+02,1.731676565643738286e+00,2.914910296326479511e+01,9.446745872497558594e+00,-8.031646609306335449e-01,-1.376853704452514648e+00,3.650000000000000000e+02
-1.158245031766975899e+02,-1.589245349893947150e+02,7.101063756364646906e+01,-6.794043389435182689e+01,-2.001642839513338004e+02,-2.634150968042608838e+02,2.922674326818651025e+00,2.842426470867371791e+01,9.446745872497558594e+00,-8.031646609306335449e-01,-1.376853704452514648e+00,3.660000000000000000e+02
-1.174058525869493224e+02,-1.606664826401611208e+02,6.780391314617259013e+01,-6.962820764560979114e+01,-1.996457144704761504e+02,-2.629824920389751242e+02,3.980271968482156808e+00,2.633113998196222383e+01,9.446745872497558594e+00,-8.031646609306335449e-01,-1.376853704452514648e+00,3.670000000000000000e+02
-1.170520020118428874e+02,-1.599995382616989446e+02,6.382590231688050153e+01,-7.098764837047883702e+01,-1.999235118010774386e+02,-2.624874694687578085e+02,4.470335308606763647e+00,2.363543341631179828e+01,9.446745872497558594e+00,-8.031646609306335449e-01,-1.376853704452514648e+00,3.680000000000000000e+02
-1.145464017166077610e+02,-1.573825058921306663e+02,6.075186757340043187e+01,-7.139097846569279682e+01,-2.003976213801079211e+02,-2.616301815985671055e+02,4.555373475610622336e+00,2.127564833415863177e+01,9.446745872497558594e+00,-8.031646609306335449e-01,-1.376853704452514648e+00,3.690000000000000000e+02
-1.110092467005870276e+02,-1.539624419042997943e+02,6.014230385047130767e+01,-7.077019119506098832e+01,-2.003926493947878953e+02,-2.603005703032813472e+02,4.711791126324214929e+00,1.993128396789506951e+01,9.370253562927246094e+00,-7.649186849594116211e-01,-1.338607788085937500e+00,3.700000000000000000e+02
-1.080181551114751528e+02,-1.508168800837281651e+02,6.252661662377568064e+01,-6.952037204552266303e+01,-1.993506239355433536e+02,-2.585495162474887820e+02,5.350475616423864267e+00,1.991110728391709017e+01,9.370253562927246094e+00,-7.649186849594116211e-01,-1.338607788085937500e+00,3.710000000000000000e+02
-1.064163155349658609e+02,-1.484442672076356757e+02,6.712530838753582429e+01,-6.801607484323449171e+01,-1.970082661425688002e+02,-2.565023340203617863e+02,6.633244668727456883e+00,2.125831311762772202e+01,9.370253562927246094e+00,-7.649186849594116211e-01,-1.338607788085937500e+00,3.720000000000000000e+02
-1.058088843923237619e+02,-1.467442024069619038e+02,7.243353388380182878e+01,-6.624906787257305041e+01,-1.934283831277552963e+02,-2.542554956905805739e+02,8.522617948434344726e+00,2.386046942244001912e+01,9.370253562927246094e+00,-7.649186849594116211e-01,-1.338607788085937500e+00,3.730000000000000000e+02
-1.050548848785692826e+02,-1.453463850219472988e+02,7.723331284490700455e+01,-6.397342471596357427e+01,-1.888597434330790747e+02,-2.517845822570170640e+02,1.089557306725032504e+01,2.746986923142503656e+01,9.370253562927246094e+00,-7.649186849594116211e-01,-1.338607788085937500e+00,3.740000000000000000e+02
-1.032044299486742602e+02,-1.439755228710851043e+02,8.121255038149433858e+01,-6.123428128647356061e+01,-1.835953573101301117e+02,-2.489675907622633986e+02,1.355765585285962516e+01,3.163781477800421271e+01,9.370253562927246094e+00,-7.649186849594116211e-01,-1.338607788085937500e+00,3.750000000000000000e+02
-1.001196024328451131e+02,-1.426240706543419492e+02,8.466434552790269663e+01,-5.873465233465276469e+01,-1.780368502265669122e+02,-2.457966697576594015e+02,1.616882818775366104e+01,3.559711983689749104e+01,9.370253562927246094e+00,-7.649186849594116211e-01,-1.338607788085937500e+00,3.760000000000000000e+02
-9.646916804575926108e+01,-1.414919726706639267e+02,8.756335630179910368e+01,-5.758387951972690644e+01,-1.729179465532181439e+02,-2.426528028012958202e+02,1.820678979301828804e+01,3.819725736438613239e+01,9.370253562927246094e+00,-7.649186849594116211e-01,-1.338607788085937500e+00,3.770000000000000000e+02
-9.330513555384141000e+01,-1.407942866328355649e+02,8.897464091202459713e+01,-5.852441672183886112e+01,-1.693471534520301702e+02,-2.403238161066897192e+02,1.906545719587302301e+01,3.809998710018771817e+01,9.370253562927246094e+00,-7.649186849594116211e-01,-1.338607788085937500e+00,3.780000000000000000e+02
-9.158673505250453672e+01,-1.405657277540267387e+02,8.754377987214138557e+01,-6.125526034642484774e+01,-1.684003304857974399e+02,-2.395699354400790071e+02,1.827094780089009873e+01,3.438800458591867937e+01,9.370253562927246094e+00,-7.649186849594116211e-01,-1.338607788085937500e+00,3.790000000000000000e+02
-9.181643521190062529e+01,-1.405532758534202458e+02,8.282089817669316290e+01,-6.444741227940221506e+01,-1.704176911078834564e+02,-2.404608531825174396e+02,1.573681714401527643e+01,2.738911651072203313e+01,9.370253562927246094e+00,-7.649186849594116211e-01,-1.338607788085937500e+00,3.800000000000000000e+02
-9.379834351487511412e+01,-1.402585589281306966e+02,7.622349859475616540e+01,-6.650658075743240261e+01,-1.745444826199184263e+02,-2.420477314778552227e+02,1.195177528882823026e+01,1.909727786917460435e+01,9.370253562927246094e+00,-7.649186849594116211e-01,-1.338607788085937500e+00,3.810000000000000000e+02
-9.661577986948350372e+01,-1.391632224640720779e+02,7.054773980078743989e+01,-6.652810768251219997e+01,-1.789614111503087770e+02,-2.427797292991667746e+02,7.976353024049785745e+00,1.257910799621049591e+01,9.370253562927246094e+00,-7.649186849594116211e-01,-1.338607788085937500e+00,3.820000000000000000e+02
-9.898246187392328466e+01,-1.370630245494476185e+02,6.814955900246468445e+01,-6.474940969998351648e+01,-1.817467141336846908e+02,-2.414712006714516974e+02,5.129188675212162707e+00,1.040494032398714808e+01,9.370253562927246094e+00,-7.649186849594116211e-01,-1.338607788085937500e+00,3.830000000000000000e+02
-9.991454810740174253e+01,-1.343045425659229295e+02,6.919469952475537866e+01,-6.223642404990459909e+01,-1.818316360946932946e+02,-2.381161280686446844e+02,4.376397621201704169e+00,1.301800351006340861e+01,9.370253562927246094e+00,-7.649186849594116211e-01,-1.338607788085937500e+00,3.840000000000000000e+02
-9.931768846613886126e+01,-1.316799753059317482e+02,7.152044329582167848e+01,-6.011840866599163746e+01,-1.794508699686166437e+02,-2.339180959642549169e+02,5.728352693848137278e+00,1.826949316936588730e+01,9.370253562927246094e+00,-7.649186849594116211e-01,-1.338607788085937500e+00,3.850000000000000000e+02
-9.799323180011379009e+01,-1.299336851627226679e+02,7.238141025257868932e+01,-5.894130445312453048e+01,-1.758661606479447528e+02,-2.304942597397041482e+02,8.124622391579350733e+00,2.264014366304127179e+01,9.370253562927246094e+00,-7.649186849594116211e-01,-1.338607788085937500e+00,3.860000000000000000e+02
-9.697875977906574008e+01,-1.292032283055118569e+02,7.071158940420855288e+01,-5.852364664996957799e+01,-1.726073605218048215e+02,-2.288459004104142878e+02,1.003819381536504807e+01,2.340336411045495879e+01,9.370253562927246094e+00,-7.649186849594116211e-01,-1.338607788085937500e+00,3.870000000000000000e+02
-9.673367796417505815e+01,-1.288996998125699065e+02,6.800076032450760977e+01,-5.828499188158957622e+01,-1.707075630136882864e+02,-2.288339186211605920e+02,1.045239392118469368e+01,2.021134332875772088e+01,9.370253562927246094e+00,-7.649186849594116211e-01,-1.338607788085937500e+00,3.880000000000000000e+02
-9.686437612860959234e+01,-1.282566246801825400e+02,6.700106408496981203e+01,-5.774218028715085893e+01,-1.703357149854166437e+02,-2.294825489896356885e+02,9.461163223350922635e+00,1.500246589325001878e+01,9.370253562927246094e+00,-7.649186849594116211e-01,-1.338607788085937500e+00,3.890000000000000000e+02
-9.660204250353331190e+01,-1.271607277916018575e+02,6.936950027657530882e+01,-5.685044732238452525e+01,-1.709327641818499615e+02,-2.297999466942019353e+02,7.996458772513960866e+00,1.043096901511944452e+01,9.370253562927246094e+00,-7.649186849594116211e-01,-1.338607788085937500e+00,3.900000000000000000e+02
-9.555614249721156739e+01,-1.264845840509492518e+02,7.427822845578862143e+01,-5.600708840617062378e+01,-1.716609828479608950e+02,-2.294483852074645256e+02,6.955019882948363374e+00,8.107483342807199733e+00,9.484992027282714844e+00,-8.414105772972106934e-01,-1.376853704452514648e+00,3.910000000000000000e+02
-9.405311493026874814e+01,-1.274676187162401675e+02,7.915660677982077686e+01,-5.572938344516023790e+01,-1.718351737739474174e+02,-2.287717638320914375e+02,6.549559056659063572e+00,7.928223757829528040e+00,9.484992027282714844e+00,-8.414105772972106934e-01,-1.376853704452514648e+00,3.920000000000000000e+02
-9.280290699087117900e+01,-1.305519038009529140e+02,8.185599983058227735e+01,-5.621465306201707790e+01,-1.711051862227277525e+02,-2.282381812279782025e+02,6.450755357418984204e+00,8.753462190190020920e+00,9.484992027282714844e+00,-8.414105772972106934e-01,-1.376853704452514648e+00,3.930000000000000000e+02
-9.228118509149180682e+01,-1.347026243312679981e+02,8.228297529529891108e+01,-5.711266933331307882e+01,-1.694284056910946674e+02,-2.278428280801954315e+02,6.434803720099353086e+00,9.590916897261649865e+00,9.484992027282714844e+00,-8.414105772972106934e-01,-1.376853704452514648e+00,3.940000000000000000e+02
-9.242989609612050117e+01,-1.379655339821026701e+02,8.208081183744570808e+01,-5.774591822261800189e+01,-1.670223464396954114e+02,-2.270411717093202242e+02,6.715982644744599384e+00,1.018912845661907340e+01,9.484992027282714844e+00,-8.414105772972106934e-01,-1.376853704452514648e+00,3.950000000000000000e+02
-9.289124315765116080e+01,-1.389398792887325271e+02,8.274880136495585248e+01,-5.766769310648578539e+01,-1.643897459001243533e+02,-2.252999728440772742e+02,7.525737280030170950e+00,1.066075137310599530e+01,9.484992027282714844e+00,-8.414105772972106934e-01,-1.376853704452514648e+00,3.960000000000000000e+02
-9.343982964648148482e+01,-1.379409540866931820e+02,8.400840882864895320e+01,-5.711731852555885780e+01,-1.622849780512926827e+02,-2.227612310536828772e+02,8.401335637680631407e+00,1.072689118609719117e+01,9.484992027282714844e+00,-8.414105772972106934e-01,-1.376853704452514648e+00,3.970000000000000000e+02
-9.414769542365183952e+01,-1.367984062719783651e+02,8.396044848460564936e+01,-5.694843260864627155e+01,-1.614417017737466722e+02,-2.203633982528967863e+02,8.076130022239794926e+00,9.478066973137856621e+00,9.484992027282714844e+00,-8.414105772972106934e-01,-1.376853704452514648e+00,3.980000000000000000e+02
-9.516870730420464497e+01,-1.373994673269296527e+02,8.088037842280982659e+01,-5.801282503457468920e+01,-1.621311008460158973e+02,-2.192277542062752218e+02,5.316560918825416593e+00,5.993054414768494098e+00,9.484992027282714844e+00,-8.414105772972106934e-01,-1.376853704452514648e+00,3.990000000000000000e+02
-9.643626843135712079e+01,-1.401975363393803491e+02,7.499940579614803937e+01,-6.046591953848110279e+01,-1.639007500154211812e+02,-2.197876599111109499e+02,5.156281398444662045e-02,2.824491626706731040e-01,9.484992027282714844e+00,-8.414105772972106934e-01,-1.376853704452514648e+00,4.000000000000000000e+02
-9.760657045091420514e+01,-1.439105063297954530e+02,6.866269710428105100e+01,-6.355199357353467349e+01,-1.657767690407067676e+02,-2.213851621112844441e+02,-6.241789676194002823e+00,-6.323750630022914265e+00,9.484992027282714844e+00,-8.414105772972106934e-01,-1.376853704452514648e+00,4.010000000000000000e+02
-9.826798075084457196e+01,-1.465782376151682911e+02,6.474485099359276319e+01,-6.603429874943685718e+01,-1.668079102560839146e+02,-2.226619578056483988e+02,-1.130433880144823888e+01,-1.176010779698663100e+01,9.484992027282714844e+00,-8.414105772972106934e-01,-1.376853704452514648e+00,4.020000000000000000e+02
-9.818680054893047782e+01,-1.470215812077594819e+02,6.468920084957585459e+01,-6.692628577963841963e+01,-1.665282149648558061e+02,-2.224225191366863328e+02,-1.342402154014394000e+01,-1.438977766974517181e+01,9.484992027282714844e+00,-8.414105772972106934e-01,-1.376853704452514648e+00,4.030000000000000000e+02
-9.738761247282855038e+01,-1.455114875360088718e+02,6.775563033112734956e+01,-6.599835122421973210e+01,-1.650192309514304725e+02,-2.203100966016127131e+02,-1.232479480211577538e+01,-1.388061025682372929e+01,9.484992027282714844e+00,-8.414105772972106934e-01,-1.376853704452514648e+00,4.040000000000000000e+02
-9.608636777463107137e+01,-1.432762103521388326e+02,7.186013223894633484e+01,-6.379680428933579606e+01,-1.626623577039138127e+02,-2.168808632815548663e+02,-9.105193484835581330e+00,-1.121700527958751081e+01,9.484992027282714844e+00,-8.414105772972106934e-01,-1.376853704452514648e+00,4.050000000000000000e+02
-9.461067754167174826e+01,-1.414721972514826120e+02,7.504125718232353393e+01,-6.130212100713333712e+01,-1.599286820813058512e+02,-2.131634206351150169e+02,-5.521184886575383644e+00,-7.999498577948315869e+00,9.484992027282714844e+00,-8.414105772972106934e-01,-1.376853704452514648e+00,4.060000000000000000e+02
-9.336799599270489125e+01,-1.405337029728541438e+02,7.633217843176771567e+01,-5.949325983722474120e+01,-1.573764118892913757e+02,-2.100967408525775681e+02,-3.227600452680462695e+00,-5.650708437083949320e+00,9.484992027282714844e+00,-8.414105772972106934e-01,-1.376853704452514648e+00,4.070000000000000000e+02
-9.277859179122742717e+01,-1.402731270318568022e+02,7.567112246124315789e+01,-5.898675761518006766e+01,-1.556566434990199923e+02,-2.081646315589177902e+02,-3.279180824337572631e+00,-4.997235799886311725e+00,9.484992027282714844e+00,-8.414105772972106934e-01,-1.376853704452514648e+00,4.080000000000000000e+02
-9.311017754356771547e+01,-1.403769136740127124e+02,7.341270391093780745e+01,-5.980266122221610203e+01,-1.552788057215843764e+02,-2.073019125427631479e+02,-5.834500629716558251e+00,-6.215042779296936715e+00,9.484992027282714844e+00,-8.414105772972106934e-01,-1.376853704452514648e+00,4.090000000000000000e+02
-9.427390890830292847e+01,-1.407084871874060354e+02,7.013197729434750727e+01,-6.131860458660730728e+01,-1.562116379847848293e+02,-2.070024471518790961e+02,-1.000472904620710324e+01,-8.860326523024923517e+00,9.484992027282714844e+00,-8.414105772972106934e-01,-1.376853704452514648e+00,4.100000000000000000e+02
-9.571845167525589204e+01,-1.411876374725541154e+02,6.677604733178122842e+01,-6.250313447826556512e+01,-1.576952669452093687e+02,-2.065552971920769778e+02,-1.403216697263974311e+01,-1.189440376410743738e+01,9.484992027282714844e+00,-8.414105772972106934e-01,-1.376853704452514648e+00,4.110000000000000000e+02
-9.655588762383877111e+01,-1.415152519382218088e+02,6.460230086469528032e+01,-6.241572286679866011e+01,-1.585638586508880508e+02,-2.053603044738483732e+02,-1.600870904393605088e+01,-1.395214649381659910e+01,9.484992027282714844e+00,-8.414105772972106934e-01,-1.376853704452514648e+00,4.120000000000000000e+02
-9.594608313505113983e+01,-1.411509120080625053e+02,6.454528366004706186e+01,-6.073393032624608168e+01,-1.579438687697211208e+02,-2.032206752211332059e+02,-1.492210732673220264e+01,-1.402772563935172911e+01,9.484992027282714844e+00,-8.414105772972106934e-01,-1.376853704452514648e+00,4.130000000000000000e+02
-9.358952860595422862e+01,-1.396565551575440622e+02,6.641855653300308404e+01,-5.796083048963737383e+01,-1.558246678506097851e+02,-2.004553828849516321e+02,-1.134524633786168124e+01,-1.223622901849830669e+01,9.484992027282714844e+00,-8.414105772972106934e-01,-1.376853704452514648e+00,4.140000000000000000e+02
-9.003777613803686108e+01,-1.371200766661954731e+02,6.879403549191147249e+01,-5.511433062396918103e+01,-1.530492087436423390e+02,-1.977193797151289800e+02,-7.134119522257606150e+00,-9.922553042042181914e+00,9.484992027282714844e+00,-8.414105772972106934e-01,-1.376853704452514648e+00,4.150000000000000000e+02
-8.654879888554569334e+01,-1.342587978800982000e+02,6.988380668021204656e+01,-5.307812614899876280e+01,-1.507222993153945936e+02,-1.956130041941869422e+02,-4.232238700649759267e+00,-8.757355153433536543e+00,9.370253562927246094e+00,-7.649186849594116211e-01,-1.415099620819091797e+00,4.160000000000000000e+02
-8.442312349073813493e+01,-1.320457688565611534e+02,6.877921879493055712e+01,-5.206081185683160584e+01,-1.494566115697161877e+02,-1.943186041778913022e+02,-3.431710925573497661e+00,-9.381353965303787845e+00,9.370253562927246094e+00,-7.649186849594116211e-01,-1.415099620819091797e+00,4.170000000000000000e+02
-8.417228568375867326e+01,-1.311068801984556558e+02,6.595770576204290592e+01,-5.155477759448513098e+01,-1.489901591744869620e+02,-1.935180169298196233e+02,-4.052404675871912332e+00,-1.077530925448627386e+01,9.370253562927246094e+00,-7.649186849594116211e-01,-1.415099620819091797e+00,4.180000000000000000e+02
-8.513555242043889848e+01,-1.313533102301698818e+02,6.258403446534180148e+01,-5.083029335265382542e+01,-1.484515290497729438e+02,-1.926637111837303564e+02,-4.763851666553364339e+00,-1.107007934768739688e+01,9.370253562927246094e+00,-7.649186849594116211e-01,-1.415099620819091797e+00,4.190000000000000000e+02
-8.593334535891062842e+01,-1.321369112564527768e+02,5.928958545320779194e+01,-4.957738637560032657e+01,-1.470857357077456982e+02,-1.913987572273704245e+02,-4.802297728228495544e+00,-9.212168770004836915e+00,9.370253562927246094e+00,-7.649186849594116211e-01,-1.415099620819091797e+00,4.200000000000000000e+02
-8.547661061533972315e+01,-1.327758605882477241e+02,5.563568464573245365e+01,-4.817154233346627734e+01,-1.448909231372390423e+02,-1.897788711459911610e+02,-4.492133228707643866e+00,-5.988270189111972286e+00,9.370253562927246094e+00,-7.649186849594116211e-01,-1.415099620819091797e+00,4.210000000000000000e+02
-8.371363971624577971e+01,-1.329739365509112758e+02,5.079448315704121342e+01,-4.731958389690316835e+01,-1.426301859874101865e+02,-1.880922418889163055e+02,-4.616004029255464047e+00,-3.367086805719964104e+00,9.370253562927246094e+00,-7.649186849594116211e-01,-1.415099620819091797e+00,4.220000000000000000e+02
-8.148074971151027057e+01,-1.327575861760303724e+02,4.471103475104746394e+01,-4.735648956640852703e+01,-1.411476935727978343e+02,-1.864267697816658256e+02,-5.281568494574003125e+00,-2.648559828801126059e+00,9.370253562927246094e+00,-7.649186849594116211e-01,-1.415099620819091797e+00,4.230000000000000000e+02
-7.964364105365575597e+01,-1.320292021354300687e+02,3.847874202470984528e+01,-4.778874389974862424e+01,-1.405364897051558728e+02,-1.844024821828666063e+02,-5.458040664138025022e+00,-3.118489097342944660e+00,9.370253562927246094e+00,-7.649186849594116211e-01,-1.415099620819091797e+00,4.240000000000000000e+02
-7.839628568792431906e+01,-1.302666414660502596e+02,3.343593838537321972e+01,-4.751468775060493499e+01,-1.399175195511306811e+02,-1.813815197827498196e+02,-3.756607879936836980e+00,-2.551586328154598959e+00,9.370253562927246094e+00,-7.649186849594116211e-01,-1.415099620819091797e+00,4.250000000000000000e+02
-7.738997434374959994e+01,-1.268123410148955372e+02,2.980464686703157895e+01,-4.560024393516823693e+01,-1.381271842612368346e+02,-1.770394207226595427e+02,1.724869154945736227e-01,7.622760970207309583e-01,9.370253562927246094e+00,-7.649186849594116211e-01,-1.415099620819091797e+00,4.260000000000000000e+02
-7.645016770206143519e+01,-1.216121110542590031e+02,2.623480788646565998e+01,-4.200602808322037163e+01,-1.347945133564212483e+02,-1.717999236941163872e+02,4.938524063870545433e+00,6.259121458828758477e+00,9.370253562927246094e+00,-7.649186849594116211e-01,-1.415099620819091797e+00,4.270000000000000000e+02
-7.599369767185271485e+01,-1.157170722906930678e+02,2.080251738111473969e+01,-3.768551955238990558e+01,-1.308531574008502503e+02,-1.667058682841907284e+02,8.185791256842549046e+00,1.124067722208451414e+01,9.370253562927246094e+00,-7.649186849594116211e-01,-1.415099620819091797e+00,4.280000000000000000e+02
-7.661604866927928015e+01,-1.109512324331681157e+02,1.261573618035004074e+01,-3.402537131094914002e+01,-1.279702344848469693e+02,-1.628060434935787271e+02,8.284578888311671108e+00,1.286090944727561691e+01,9.370253562927246094e+00,-7.649186849594116211e-01,-1.415099620819091797e+00,4.290000000000000000e+02
-7.826918697936798708e+01,-1.088437982150337575e+02,2.608256199055631441e+00,-3.210860019808114885e+01,-1.273144040642237087e+02,-1.605649798886652206e+02,5.523883839959580655e+00,1.029382003197702034e+01,9.370253562927246094e+00,-7.649186849594116211e-01,-1.415099620819091797e+00,4.300000000000000000e+02
-7.999308283140999265e+01,-1.096164221686283327e+02,-7.135386161519363668e+00,-3.231583325729479839e+01,-1.286773033915728774e+02,-1.597522093159495853e+02,1.803343235121246835e+00,5.284281757567441673e+00,9.370253562927246094e+00,-7.649186849594116211e-01,-1.415099620819091797e+00,4.310000000000000000e+02
-8.063431900440923528e+01,-1.120463243540571057e+02,-1.482744564334575443e+01,-3.437824808717869018e+01,-1.306574668123939773e+02,-1.597978613840546132e+02,-8.654395111555004405e-01,7.201236146761402779e-01,9.370253562927246094e+00,-7.649186849594116211e-01,-1.415099620819091797e+00,4.320000000000000000e+02
-7.989129814008833819e+01,-1.143177329377981550e+02,-1.990859025279223715e+01,-3.761540262674088808e+01,-1.317050567853075336e+02,-1.602068842878788928e+02,-1.736850731173717577e+00,-1.476711152278767258e+00,9.370253562927246094e+00,-7.649186849594116211e-01,-1.415099620819091797e+00,4.330000000000000000e+02
-7.859275100595391450e+01,-1.151749506658918563e+02,-2.282329077366966885e+01,-4.113080334725282228e+01,-1.311434414912569082e+02,-1.606971461312700740e+02,-1.514881778885182939e+00,-1.420008109432728816e+00,9.370253562927246094e+00,-7.649186849594116211e-01,-1.415099620819091797e+00,4.340000000000000000e+02
-7.783805517335440527e+01,-1.144944625563848604e+02,-2.413057827424427160e+01,-4.397655323662866067e+01,-1.293862902385135385e+02,-1.610710992233634897e+02,-1.390571256307794101e+00,-6.097518580259020382e-01,9.370253562927246094e+00,-7.649186849594116211e-01,-1.415099620819091797e+00,4.350000000000000000e+02
-7.781704353973077559e+01,-1.129567382143736722e+02,-2.394813349603964525e+01,-4.540825489852204555e+01,-1.273165642636436132e+02,-1.610806516047359764e+02,-1.922318465797616227e+00,-3.486226204859121935e-01,9.370253562927246094e+00,-7.649186849594116211e-01,-1.415099620819091797e+00,4.360000000000000000e+02
-7.753938850107442704e+01,-1.112490639018501497e+02,-2.222513867151997147e+01,-4.519122832808625390e+01,-1.254617148760798955e+02,-1.604667210498814711e+02,-2.713492555288667063e+00,-6.548306714230420766e-01,9.370253562927246094e+00,-7.649186849594116211e-01,-1.415099620819091797e+00,4.370000000000000000e+02
-7.582079376069100363e+01,-1.095114595753420872e+02,-1.942820749297766270e+01,-4.371106541365406883e+01,-1.236699820286166869e+02,-1.591018309315868464e+02,-2.988288280122560536e+00,-4.969904561019120592e-01,9.370253562927246094e+00,-7.649186849594116211e-01,-1.415099620819091797e+00,4.380000000000000000e+02
-7.260432650930829368e+01,-1.073981341624471497e+02,-1.684907637518381307e+01,-4.173314212831246550e+01,-1.214995259896513744e+02,-1.570795712106591964e+02,-2.407603281547608276e+00,1.000505384478401538e+00,9.370253562927246094e+00,-7.649186849594116211e-01,-1.415099620819091797e+00,4.390000000000000000e+02
-6.928568121943931146e+01,-1.045430522303413454e+02,-1.612393838196476281e+01,-3.997077814287194997e+01,-1.189046829027820422e+02,-1.546915246201178888e+02,-1.397365727656051604e+00,3.500661999263229518e+00,9.370253562927246094e+00,-7.649186849594116211e-01,-1.415099620819091797e+00,4.400000000000000000e+02
-6.763217419495435934e+01,-1.009662123090565728e+02,-1.826690634486794806e+01,-3.879919926145976206e+01,-1.165584097993214527e+02,-1.523359338633340485e+02,-8.086739268032943073e-01,5.469417414974486746e+00,9.370253562927246094e+00,-7.649186849594116211e-01,-1.415099620819091797e+00,4.410000000000000000e+02
-6.824783049146981284e+01,-9.712910060580566096e+01,-2.296107549790190205e+01,-3.827490405575372279e+01,-1.154664414697422217e+02,-1.503933808299370867e+02,-1.285176363056734772e+00,5.263636697604624715e+00,9.370253562927246094e+00,-7.649186849594116211e-01,-1.415099620819091797e+00,4.420000000000000000e+02
-6.999615732097208820e+01,-9.369207199698576005e+01,-2.864496607772457537e+01,-3.829991476663872163e+01,-1.161381550308778969e+02,-1.490686527381685664e+02,-2.846604495545534519e+00,2.434667078830671016e+00,9.484992027282714844e+00,-7.649186849594116211e-01,-1.338607788085937500e+00,4.430000000000000000e+02
-7.092213709418183498e+01,-9.119481327597577547e+01,-3.334736816181134600e+01,-3.867768154733812480e+01,-1.179985521685437106e+02,-1.482506994409081926e+02,-4.911684110425767358e+00,-1.749847797666234328e+00,9.484992027282714844e+00,-7.649186849594116211e-01,-1.338607788085937500e+00,4.440000000000000000e+02
-6.983585344069956591e+01,-8.981822946388638229e+01,-3.571574531402529828e+01,-3.903535683591462657e+01,-1.195823776510867447e+02,-1.475172940079546606e+02,-6.632156857015843343e+00,-4.969419936918257008e+00,9.484992027282714844e+00,-7.649186849594116211e-01,-1.338607788085937500e+00,4.450000000000000000e+02
-6.714798660493261195e+01,-8.927154447983843966e+01,-3.558479319554999165e+01,-3.881853202802767555e+01,-1.194338294522915476e+02,-1.463492934413225157e+02,-7.267604568511160323e+00,-5.245213387748435707e+00,9.484992027282714844e+00,-7.649186849594116211e-01,-1.338607788085937500e+00,4.460000000000000000e+02
-6.429619050770043032e+01,-8.884419257114564061e+01,-3.379078680417865144e+01,-3.752142910342627147e+01,-1.170551659377083524e+02,-1.444311267330995179e+02,-6.424668942001517280e+00,-2.108132231315721583e+00,9.484992027282714844e+00,-7.649186849594116211e-01,-1.338607788085937500e+00,4.470000000000000000e+02
-6.241410998855508296e+01,-8.768281787750606782e+01,-3.148150440203130529e+01,-3.503481140849635267e+01,-1.132096592930529368e+02,-1.418135794175850606e+02,-4.175720448162110188e+00,3.195757059289462632e+00,9.484992027282714844e+00,-7.649186849594116211e-01,-1.338607788085937500e+00,4.480000000000000000e+02
-6.151114746768780606e+01,-8.525377243005777927e+01,-2.950084562207098315e+01,-3.180711619975500071e+01,-1.094100260347800031e+02,-1.388473782089117776e+02,-1.123019180080518709e+00,8.489674950400967646e+00,9.484992027282714844e+00,-7.649186849594116211e-01,-1.338607788085937500e+00,4.490000000000000000e+02
-6.082286857770805000e+01,-8.173609220402499886e+01,-2.824715172776177496e+01,-2.864596383251364387e+01,-1.070270806770993204e+02,-1.360045129563468436e+02,1.638256604652497117e+00,1.183457945076202122e+01,9.484992027282714844e+00,-7.649186849594116211e-01,-1.338607788085937500e+00,4.500000000000000000e+02
-5.980511390619267331e+01,-7.801681115629889973e+01,-2.790308205043947964e+01,-2.628355713926293902e+01,-1.066301039098682395e+02,-1.337326835423509692e+02,2.814627639553691552e+00,1.235880078161312667e+01,9.484992027282714844e+00,-7.649186849594116211e-01,-1.338607788085937500e+00,4.510000000000000000e+02
-5.870730805057655743e+01,-7.519726716100376507e+01,-2.861643565620329355e+01,-2.501342074920603409e+01,-1.078761047032444367e+02,-1.323504637495320821e+02,1.520265243604626448e+00,1.037794496614310447e+01,9.484992027282714844e+00,-7.649186849594116211e-01,-1.338607788085937500e+00,4.520000000000000000e+02
-5.822087104608544905e+01,-7.391514850786461466e+01,-3.036861854908283931e+01,-2.462241694577596718e+01,-1.098488204620855413e+02,-1.319001446726042559e+02,-2.075005270205792840e+00,6.957208494103042540e+00,9.484992027282714844e+00,-7.649186849594116211e-01,-1.338607788085937500e+00,4.530000000000000000e+02
-5.868304335738866939e+01,-7.399431876080416259e+01,-3.272496673833802561e+01,-2.462177718630073286e+01,-1.115706715243243252e+02,-1.320140281300873539e+02,-6.577600920098120696e+00,3.316683330771411420e+00,9.484992027282714844e+00,-7.649186849594116211e-01,-1.338607788085937500e+00,4.540000000000000000e+02
-5.971121144439894124e+01,-7.469147377608214811e+01,-3.487852481821823858e+01,-2.458468891057555084e+01,-1.124421408680568675e+02,-1.320111932631543823e+02,-1.000589140817714906e+01,4.040506251037641050e-01,9.484992027282714844e+00,-7.649186849594116211e-01,-1.338607788085937500e+00,4.550000000000000000e+02
-6.058922535432043333e+01,-7.529698123640628182e+01,-3.607254015556122795e+01,-2.435573322468121660e+01,-1.124060864382206546e+02,-1.312989895785235603e+02,-1.091577147525640612e+01,-1.239851584336292944e+00,9.484992027282714844e+00,-7.649186849594116211e-01,-1.338607788085937500e+00,4.560000000000000000e+02
-6.089984468963962172e+01,-7.554916702061723299e+01,-3.601994201879756474e+01,-2.400860085638851160e+01,-1.117390607137467669e+02,-1.298048448740298682e+02,-9.202785009369563340e+00,-1.399297477217714913e+00,9.484992027282714844e+00,-7.649186849594116211e-01,-1.338607788085937500e+00,4.570000000000000000e+02
-6.070324882150543999e+01,-7.554266600179380475e+01,-3.489435057207265345e+01,-2.362401045806564071e+01,-1.106047091276577703e+02,-1.280109998136022114e+02,-5.949268015443522017e+00,-6.865251063504729245e-02,9.484992027282714844e+00,-7.649186849594116211e-01,-1.338607788085937500e+00,4.580000000000000000e+02
-6.015000623281753178e+01,-7.533775255388331971e+01,-3.294388124276451890e+01,-2.312049668019699311e+01,-1.087620794379486142e+02,-1.264972921030027919e+02,-2.489950302990109776e+00,2.538454333951449371e+00,9.484992027282714844e+00,-7.649186849594116211e-01,-1.338607788085937500e+00,4.590000000000000000e+02
-5.908676954211409793e+01,-7.475128167238449350e+01,-3.022607749864982907e+01,-2.232898225277403981e+01,-1.057964253538882531e+02,-1.254038025482814191e+02,4.486470437748266704e-01,5.859657577024108832e+00,9.484992027282714844e+00,-7.649186849594116211e-01,-1.338607788085937500e+00,4.600000000000000000e+02
-5.718490731890938150e+01,-7.356890313493954636e+01,-2.681727400523095639e+01,-2.126514038653544958e+01,-1.017439093282707745e+02,-1.243479233994398783e+02,2.830431715190798059e+00,8.948214457078165651e+00,9.484992027282714844e+00,-7.649186849594116211e-01,-1.338607788085937500e+00,4.610000000000000000e+02
-5.447335578435968273e+01,-7.193125110535333988e+01,-2.324350702839751648e+01,-2.032767267392546273e+01,-9.748156225329807967e+01,-1.228852737491185962e+02,4.724581695556480554e+00,1.076347403234422018e+01,9.484992027282714844e+00,-7.649186849594116211e-01,-1.338607788085937500e+00,4.620000000000000000e+02
-5.163866553569368989e+01,-7.040516972216573777e+01,-2.050462930004687223e+01,-2.013703866002492759e+01,-9.433508988102266812e+01,-1.210270907816143335e+02,5.824552442817775955e+00,1.076218683351089567e+01,9.484992027282714844e+00,-7.649186849594116211e-01,-1.338607788085937500e+00,4.630000000000000000e+02
-4.964828416647651466e+01,-6.956489237483629040e+01,-1.944155218044875255e+01,-2.105587822812253762e+01,-9.310034309662046326e+01,-1.192697340428344432e+02,5.641932757434005907e+00,9.372004281447289031e+00,9.484992027282714844e+00,-7.649186849594116211e-01,-1.338607788085937500e+00,4.640000000000000000e+02
-4.895101149081187941e+01,-6.941459166738627573e+01,-1.997256820272605182e+01,-2.279099021569300021e+01,-9.335891423397538347e+01,-1.181129557037745599e+02,4.141191791491337426e+00,7.844696547112107510e+00,9.484992027282714844e+00,-7.649186849594116211e-01,-1.338607788085937500e+00,4.650000000000000000e+02
-4.897811033480456899e+01,-6.919164927315023306e+01,-2.099257182514793385e+01,-2.446567436342752444e+01,-9.380619547077503739e+01,-1.175506155676612252e+02,2.074375679411787132e+00,7.441184736639797848e+00,9.484992027282714844e+00,-7.649186849594116211e-01,-1.338607788085937500e+00,4.660000000000000000e+02
-4.844277065513074376e+01,-6.776892532862211738e+01,-2.115716070434564244e+01,-2.514642753398470632e+01,-9.335647060318910917e+01,-1.170044096955725763e+02,5.987226215515875083e-01,8.531063866454587696e+00,9.484992027282714844e+00,-7.649186849594116211e-01,-1.338607788085937500e+00,4.670000000000000000e+02
-4.625487927017707079e+01,-6.435788871273598488e+01,-1.991348534213227595e+01,-2.439363754001010420e+01,-9.199807545702105926e+01,-1.157171527626821899e+02,5.174658802102385380e-01,1.037320006714912779e+01,9.484992027282714844e+00,-7.649186849594116211e-01,-1.338607788085937500e+00,4.680000000000000000e+02
-4.234174715444260073e+01,-5.899955524998631518e+01,-1.786142594338662093e+01,-2.240332430008334086e+01,-9.061039971477111976e+01,-1.132428100043007362e+02,1.842971983116854062e+00,1.179918641892584219e+01,9.484992027282714844e+00,-7.649186849594116211e-01,-1.338607788085937500e+00,4.690000000000000000e+02
-3.774789874058160422e+01,-5.255597846061948530e+01,-1.614047660800372341e+01,-1.970754583017082950e+01,-8.999450487527406040e+01,-1.096969214077878405e+02,4.004925542315731946e+00,1.219531294409841848e+01,9.484992027282714844e+00,-7.649186849594116211e-01,-1.338607788085937500e+00,4.700000000000000000e+02
-3.393775186847756231e+01,-4.629525331957438539e+01,-1.541317258850381222e+01,-1.678182939000225815e+01,-9.009687728912899729e+01,-1.056986703123466214e+02,6.378605875285870752e+00,1.190878661577562525e+01,9.484992027282714844e+00,-7.649186849594116211e-01,-1.338607788085937500e+00,4.710000000000000000e+02
-3.180250739457710552e+01,-4.136617832565252684e+01,-1.532455816790377412e+01,-1.389687477988127284e+01,-9.011837268058138761e+01,-1.021014366906533724e+02,8.603517110302277615e+00,1.177953849049652035e+01,9.484992027282714844e+00,-7.649186849594116211e-01,-1.338607788085937500e+00,4.720000000000000000e+02
-3.109234892341214618e+01,-3.841000306653040752e+01,-1.480950193888429567e+01,-1.122638863520433006e+01,-8.925098106204313808e+01,-9.960481824732823952e+01,1.053552049822042136e+01,1.236043952567956694e+01,9.484992027282714844e+00,-7.649186849594116211e-01,-1.338607788085937500e+00,4.730000000000000000e+02
-3.070332753024956673e+01,-3.739953651160362824e+01,-1.289424042196856135e+01,-8.973807901120380848e+00,-8.724800213611251820e+01,-9.837662604467982419e+01,1.210911096750987781e+01,1.361940820084578263e+01,9.446745872497558594e+00,-7.266727685928344727e-01,-1.338607788085937500e+00,4.740000000000000000e+02
-2.961928008657957889e+01,-3.772523461522507660e+01,-9.360513270624096549e+00,-7.344666136436330817e+00,-8.437743880401274055e+01,-9.792253845957657177e+01,1.337292901425894343e+01,1.531900650995282831e+01,9.446745872497558594e+00,-7.266727685928344727e-01,-1.338607788085937500e+00,4.750000000000000000e+02
-2.777261389076682008e+01,-3.850770534741695883e+01,-4.882027740727494347e+00,-6.422610525814889115e+00,-8.102209516344896656e+01,-9.739509535823879105e+01,1.460356648009417313e+01,1.750659601137022037e+01,9.446745872497558594e+00,-7.266727685928344727e-01,-1.338607788085937500e+00,4.760000000000000000e+02
-2.609525725467540269e+01,-3.901321637049284163e+01,-6.770229661010489508e-01,-6.115420368738114121e+00,-7.746792298229570406e+01,-9.620670169155346230e+01,1.619930899287487591e+01,2.047843899519989463e+01,9.446745872497558594e+00,-7.266727685928344727e-01,-1.338607788085937500e+00,4.770000000000000000e+02
-2.567734800722325872e+01,-3.894731386002877116e+01,2.039281491201620611e+00,-6.223596769351729563e+00,-7.403923032952809535e+01,-9.446098290483132587e+01,1.829329718782832970e+01,2.423452739700030634e+01,9.446745872497558594e+00,-7.266727685928344727e-01,-1.338607788085937500e+00,4.780000000000000000e+02
-2.675962523648820479e+01,-3.845285415757496139e+01,2.546724910828970678e+00,-6.541673504893196878e+00,-7.126664005855570849e+01,-9.280363646312252968e+01,2.042106071160765168e+01,2.805536642151025717e+01,9.446745872497558594e+00,-7.266727685928344727e-01,-1.338607788085937500e+00,4.790000000000000000e+02
-2.848912930093638352e+01,-3.785530763773317631e+01,8.960311935761637869e-01,-6.901987699138544485e+00,-6.976213038664775468e+01,-9.181246919218278890e+01,2.164877832086801845e+01,3.073710122624379437e+01,9.446745872497558594e+00,-7.266727685928344727e-01,-1.338607788085937500e+00,4.800000000000000000e+02
-2.966843232150705489e+01,-3.739408569681307881e+01,-2.102307199399035653e+00,-7.161297477137850365e+00,-6.985238306286703391e+01,-9.149575714853722275e+01,2.119976849038260980e+01,3.134346412369376367e+01,9.446745872497558594e+00,-7.266727685928344727e-01,-1.338607788085937500e+00,4.810000000000000000e+02
-2.978142531036175455e+01,-3.716230745257666968e+01,-5.197189327814101034e+00,-7.213288308217954636e+00,-7.133492826373014850e+01,-9.137312694494590914e+01,1.911338365228027669e+01,2.978408600743631496e+01,9.446745872497558594e+00,-7.266727685928344727e-01,-1.338607788085937500e+00,4.820000000000000000e+02
-2.930428990271860812e+01,-3.722808853017477304e+01,-7.223166084939322218e+00,-7.044624104983597590e+00,-7.360178397493643843e+01,-9.101212630674763204e+01,1.635909789989852925e+01,2.672510667311485122e+01,9.446745872497558594e+00,-7.266727685928344727e-01,-1.338607788085937500e+00,4.830000000000000000e+02
-2.904309235714592319e+01,-3.769522883706366656e+01,-7.605637014254469364e+00,-6.770311390589853318e+00,-7.600388439605517021e+01,-9.043764980701101308e+01,1.424352311675582428e+01,2.302239879227381891e+01,9.446745872497558594e+00,-7.266727685928344727e-01,-1.338607788085937500e+00,4.840000000000000000e+02
-2.927314969463286332e+01,-3.856904981288354861e+01,-6.611279478985068181e+00,-6.608632969015772574e+00,-7.815295764379366972e+01,-9.000932810043838117e+01,1.351047743107231724e+01,1.926040101593037690e+01,9.446745872497558594e+00,-7.266727685928344727e-01,-1.338607788085937500e+00,4.850000000000000000e+02
-2.963196626057295191e+01,-3.958291409809964989e+01,-5.229278552993520179e+00,-6.810034177448223147e+00,-7.997417376220684559e+01,-8.996618955155321373e+01,1.380142964116107862e+01,1.573345335925299793e+01,9.446745872497558594e+00,-7.266727685928344727e-01,-1.338607788085937500e+00,4.860000000000000000e+02
-2.983703008741667873e+01,-4.024905416504020650e+01,-4.701265174375606648e+00,-7.569006823209747381e+00,-8.155703177085206335e+01,-9.017798949215017501e+01,1.390500528536755098e+01,1.268365708048506235e+01,9.446745872497558594e+00,-7.266727685928344727e-01,-1.338607788085937500e+00,4.870000000000000000e+02
-3.031512555111370943e+01,-4.018179610656966361e+01,-5.852046593388990914e+00,-8.920543598794438367e+00,-8.295356356990203039e+01,-9.036037192556960917e+01,1.265559734928649505e+01,1.042407730239773400e+01,9.446745872497558594e+00,-7.266727685928344727e-01,-1.338607788085937500e+00,4.880000000000000000e+02
-3.189521104715015554e+01,-3.943774319972226294e+01,-8.554487977874885019e+00,-1.065233369116117501e+01,-8.407190435933569006e+01,-9.047702273514846638e+01,9.824791598435865581e+00,9.203572861317411480e+00,9.446745872497558594e+00,-7.266727685928344727e-01,-1.338607788085937500e+00,4.890000000000000000e+02
-3.477572634259445294e+01,-3.853679925358267155e+01,-1.169543474383465309e+01,-1.231707697859292239e+01,-8.472324182607570719e+01,-9.083942084526626104e+01,6.332166358059566846e+00,9.001260461237393429e+00,9.446745872497558594e+00,-7.266727685928344727e-01,-1.338607788085937500e+00,4.900000000000000000e+02
-3.789852331308611610e+01,-3.811869371322018196e+01,-1.378604127621184716e+01,-1.341883523008402790e+01,-8.477260505287802062e+01,-9.176216998514018997e+01,3.601263317471079972e+00,9.484774715416108393e+00,9.446745872497558594e+00,-7.266727685928344727e-01,-1.338607788085937500e+00,4.910000000000000000e+02
-3.955644305738019284e+01,-3.852924309011029891e+01,-1.390843559744547520e+01,-1.371644265355325842e+01,-8.427783348987532008e+01,-9.313125384126851714e+01,2.545337044947245886e+00,1.014286236914063011e+01,9.446745872497558594e+00,-7.266727685928344727e-01,-1.338607788085937500e+00,4.920000000000000000e+02
-3.879435198181784017e+01,-3.967443967489748502e+01,-1.234962523197782502e+01,-1.341793325282446858e+01,-8.349189875334661792e+01,-9.435160078456681276e+01,2.956559828792251210e+00,1.044436220593649978e+01,9.446745872497558594e+00,-7.266727685928344727e-01,-1.338607788085937500e+00,4.930000000000000000e+02
-3.626369342851830879e+01,-4.118565295008829708e+01,-1.040225755153312548e+01,-1.306485461907618628e+01,-8.271080588319807703e+01,-9.477272074295103721e+01,3.755765661311102122e+00,9.956820972943205561e+00,9.446745872497558594e+00,-7.266727685928344727e-01,-1.338607788085937500e+00,4.940000000000000000e+02
-3.366232215695663399e+01,-4.264952409091915797e+01,-9.415871286575338672e+00,-1.315063789807481953e+01,-8.208723823797413388e+01,-9.421804315787994710e+01,3.870759105919546528e+00,8.503989633486980892e+00,9.484992027282714844e+00,-8.031646609306335449e-01,-1.376853704452514648e+00,4.950000000000000000e+02
-3.227460750586260474e+01,-4.368868308585138038e+01,-9.825266287779413688e+00,-1.377404968639689287e+01,-8.157556234084904645e+01,-9.313663381583523915e+01,3.023724150469433880e+00,6.364647267598456892e+00,9.484992027282714844e+00,-8.031646609306335449e-01,-1.376853704452514648e+00,4.960000000000000000e+02
-3.200526756042609122e+01,-4.395345681440971930e+01,-1.093396186182326346e+01,-1.462413182364753084e+01,-8.104582685569630485e+01,-9.223971499356844106e+01,1.829982325472997218e+00,4.325874486972679733e+00,9.484992027282714844e+00,-8.031646609306335449e-01,-1.376853704452514648e+00,4.970000000000000000e+02
-3.177396499334145119e+01,-4.323194370330634229e+01,-1.160517140413776360e+01,-1.529380430033279481e+01,-8.041649906755901611e+01,-9.193142933486069523e+01,1.220049874688356795e+00,3.395483068985868158e+00,9.484992027282714844e+00,-8.031646609306335449e-01,-1.376853704452514648e+00,4.980000000000000000e+02
-3.076718049827513823e+01,-4.169466156392218181e+01,-1.122165721689975726e+01,-1.561043990808525450e+01,-7.964599371717804388e+01,-9.199776062207911309e+01,1.744811655062676437e+00,4.266646492933887203e+00,9.484992027282714844e+00,-8.031646609306335449e-01,-1.376853704452514648e+00,4.990000000000000000e+02
-2.924082543929307576e+01,-3.999382689205594943e+01,-1.005077368826277961e+01,-1.567788726642470465e+01,-7.860049970189788837e+01,-9.178291907058701327e+01,3.327254897078319118e+00,6.918743850433884290e+00,9.484992027282714844e+00,-8.031646609306335449e-01,-1.376853704452514648e+00,5.000000000000000000e+02
-2.811426724000148170e+01,-3.893509440540583455e+01,-8.732303390400602439e+00,-1.561848425588323153e+01,-7.697564971297197189e+01,-9.067268759033709102e+01,5.555841453314542377e+00,1.069408478834634479e+01,9.484992027282714844e+00,-8.031646609306335449e-01,-1.376853704452514648e+00,5.010000000000000000e+02
-2.785743068981946635e+01,-3.884735973517717866e+01,-7.448660633114968732e+00,-1.531482280500131310e+01,-7.442748328193692942e+01,-8.849794505008503620e+01,8.120654143447836759e+00,1.477705929818625918e+01,9.484992027282714844e+00,-8.031646609306335449e-01,-1.376853704452514648e+00,5.020000000000000000e+02
-2.786597713847800151e+01,-3.918444148926005255e+01,-5.650307503417934640e+00,-1.444739896038572624e+01,-7.086557246409483923e+01,-8.560106416590269873e+01,1.093343116719529462e+01,1.862358903260678744e+01,9.484992027282714844e+00,-8.031646609306335449e-01,-1.376853704452514648e+00,5.030000000000000000e+02
-2.699044617573918003e+01,-3.882918665120905644e+01,-2.677754174962956313e+00,-1.283377809204694131e+01,-6.669923262658448948e+01,-8.261882362208507402e+01,1.384748957340207198e+01,2.196824495902842500e+01,9.484992027282714844e+00,-8.031646609306335449e-01,-1.376853704452514648e+00,5.040000000000000000e+02
-2.469373551949456669e+01,-3.697643964543635775e+01,1.288358381807483966e+00,-1.076090637065999545e+01,-6.282459705757355550e+01,-8.021268704048770815e+01,1.633635357867251514e+01,2.449931730294520094e+01,9.484992027282714844e+00,-8.031646609306335449e-01,-1.376853704452514648e+00,5.050000000000000000e+02
-2.168120197029247720e+01,-3.389901427238783072e+01,4.909717780725941338e+00,-8.962307565190712921e+00,-6.030187515746456484e+01,-7.890060962330562688e+01,1.755220308118987305e+01,2.564603720732452530e+01,9.484992027282714844e+00,-8.031646609306335449e-01,-1.376853704452514648e+00,5.060000000000000000e+02
-1.937371504723341786e+01,-3.091839860421532649e+01,6.431613836755786906e+00,-8.192023730326127406e+00,-5.987206446305299323e+01,-7.895751131362521846e+01,1.680590984670084254e+01,2.479095020097588531e+01,9.484992027282714844e+00,-8.031646609306335449e-01,-1.376853704452514648e+00,5.070000000000000000e+02
-1.870946569709076357e+01,-2.952767328515301415e+01,4.978665109703797498e+00,-8.697330266954395483e+00,-6.156255082540928925e+01,-8.029078840029615094e+01,1.410927264316342189e+01,2.177933456175378524e+01,9.484992027282714844e+00,-8.031646609306335449e-01,-1.376853704452514648e+00,5.080000000000000000e+02
-1.939234396682741135e+01,-3.034191004377589707e+01,1.341787616225246893e+00,-1.002301577106754849e+01,-6.462729433211416108e+01,-8.235780791355182373e+01,1.031243278471447411e+01,1.724953515602192056e+01,9.484992027282714844e+00,-8.031646609306335449e-01,-1.376853704452514648e+00,5.090000000000000000e+02
-2.025773239233694767e+01,-3.268575601662087138e+01,-2.447206406359782704e+00,-1.133585162494728138e+01,-6.790441494451897597e+01,-8.432699496746772638e+01,6.687707023741040757e+00,1.242802380547345820e+01,9.484992027282714844e+00,-8.031646609306335449e-01,-1.376853704452514648e+00,5.100000000000000000e+02
-2.035790218925421868e+01,-3.509627037499467406e+01,-4.450790619849158247e+00,-1.202473096172798250e+01,-7.041010009542924308e+01,-8.553948537218639103e+01,4.253646455796115333e+00,8.498444979992655135e+00,9.484992027282714844e+00,-8.031646609306335449e-01,-1.376853704452514648e+00,5.110000000000000000e+02
-1.974598829995602500e+01,-3.632412024405766715e+01,-4.041904866157892684e+00,-1.211291402288679819e+01,-7.180112377144496350e+01,-8.599379061993431606e+01,3.301801295938275871e+00,5.992347798503487866e+00,9.484992027282714844e+00,-8.031646609306335449e-01,-1.376853704452514648e+00,5.120000000000000000e+02
-1.929658300101573332e+01,-3.609340528864322550e+01,-2.116793011802656110e+00,-1.217476531437796439e+01,-7.239782833415620189e+01,-8.639987421655496291e+01,3.391959711211711692e+00,4.606375563413166674e+00,9.484992027282714844e+00,-8.031646609306335449e-01,-1.376853704452514648e+00,5.130000000000000000e+02
-1.981546876106312993e+01,-3.513431560846856883e+01,-2.441682262551694294e-01,-1.285169302853410045e+01,-7.277555592511953364e+01,-8.762881501316587674e+01,3.743368556839413941e+00,3.545048178812521655e+00,9.484992027282714844e+00,-8.031646609306335449e-01,-1.376853704452514648e+00,5.140000000000000000e+02
-2.130203918156803411e+01,-3.454126376315616653e+01,5.125701644005857816e-01,-1.436841671987758673e+01,-7.325511867858313053e+01,-8.992321611014358496e+01,3.736939755492130644e+00,2.149947212224105897e+00,9.484992027282714844e+00,-8.031646609306335449e-01,-1.376853704452514648e+00,5.150000000000000000e+02
-2.299432585809745433e+01,-3.493967635096942104e+01,2.279697333096919465e-01,-1.639582550539034855e+01,-7.367377854918959201e+01,-9.252399818105368468e+01,3.261855567793190858e+00,4.199962538482395757e-01,9.484992027282714844e+00,-8.031646609306335449e-01,-1.376853704452514648e+00,5.160000000000000000e+02
-2.404601336372070364e+01,-3.602181909255796199e+01,-1.425049983163262368e-01,-1.829943386346076295e+01,-7.356388003354777538e+01,-9.409580973091669875e+01,2.763770203793683322e+00,-9.128569032172890729e-01,9.484992027282714844e+00,-8.031646609306335449e-01,-1.376853704452514648e+00,5.170000000000000000e+02
-2.415961941560681225e+01,-3.675889767953685805e+01,4.254359302567536361e-01,-1.953266844203062647e+01,-7.254359450100855611e+01,-9.366364225804318266e+01,2.964738081043833517e+00,-8.575782465045449499e-01,9.484992027282714844e+00,-8.031646609306335449e-01,-1.376853704452514648e+00,5.180000000000000000e+02
-2.366616359880208620e+01,-3.615981246982482844e+01,2.305444018017624330e+00,-1.989269827713815175e+01,-7.062725103202228638e+01,-9.133226557219768438e+01,4.354706434704894491e+00,1.042121081584355125e+00,9.484992027282714844e+00,-8.031646609306335449e-01,-1.376853704452514648e+00,5.190000000000000000e+02
-2.315079199979663827e+01,-3.407464834205165971e+01,5.034747912767670641e+00,-1.954480622873052198e+01,-6.830348039996533771e+01,-8.824383577409389545e+01,6.718531612340939319e+00,4.103741836912831786e+00,9.446745872497558594e+00,-7.649186849594116211e-01,-1.376853704452514648e+00,5.200000000000000000e+02
-2.306308380709651829e+01,-3.144322419893887854e+01,7.682753123394832073e+00,-1.888124790204983583e+01,-6.636413283089495962e+01,-8.582982672659636592e+01,9.048724479040174629e+00,6.619133453712493065e+00,9.446745872497558594e+00,-7.649186849594116211e-01,-1.376853704452514648e+00,5.210000000000000000e+02
-2.360471278238856030e+01,-2.974326537341585208e+01,9.441446212813843886e+00,-1.832864800066636235e+01,-6.555609462550273747e+01,-8.495079545973021595e+01,1.001803481321530853e+01,6.791352736172939331e+00,9.446745872497558594e+00,-7.649186849594116211e-01,-1.376853704452514648e+00,5.220000000000000000e+02
-2.481621768444711051e+01,-2.999248944478313206e+01,1.002136638417778158e+01,-1.817652632579120109e+01,-6.617649934199016570e+01,-8.552594803267402312e+01,8.787509283778490499e+00,3.977182528949015250e+00,9.446745872497558594e+00,-7.649186849594116211e-01,-1.376853704452514648e+00,5.230000000000000000e+02
-2.662385080417880090e+01,-3.204637055182229233e+01,9.669357880363349977e+00,-1.846749578852723062e+01,-6.781938218515097105e+01,-8.680098015296243830e+01,5.614286813553917455e+00,-6.371087366369465599e-01,9.446745872497558594e+00,-7.649186849594116211e-01,-1.376853704452514648e+00,5.240000000000000000e+02
-2.878677292409793154e+01,-3.472718741640437656e+01,8.942613767746479425e+00,-1.898142619216741878e+01,-6.948531349875065644e+01,-8.790974033536713250e+01,1.820962779851470259e+00,-4.504556516564662161e+00,9.446745872497558594e+00,-7.649186849594116211e-01,-1.376853704452514648e+00,5.250000000000000000e+02
-3.088715639946804004e+01,-3.664552185744105373e+01,8.488906142768428253e+00,-1.932046261571395007e+01,-7.006750180538438144e+01,-8.826141449540227768e+01,-8.435310344311801600e-01,-5.120321130816591904e+00,9.446745872497558594e+00,-7.649186849594116211e-01,-1.376853704452514648e+00,5.260000000000000000e+02
-3.247528408271591616e+01,-3.704649875844461349e+01,8.962810816629826149e+00,-1.907277419986439781e+01,-6.893397676726181089e+01,-8.757965972800775489e+01,-1.016208402710617520e+00,-1.462159352429807768e+00,9.446745872497558594e+00,-7.649186849594116211e-01,-1.376853704452514648e+00,5.270000000000000000e+02
-3.327729961657496460e+01,-3.607071516156884172e+01,1.095532192981318076e+01,-1.800451838306253194e+01,-6.621312137906352291e+01,-8.578540647846239153e+01,1.732555767058329366e+00,5.435291036254966457e+00,9.446745872497558594e+00,-7.649186849594116211e-01,-1.376853704452514648e+00,5.280000000000000000e+02
-3.327542501159132371e+01,-3.439728421378458734e+01,1.472232929008805513e+01,-1.622276418589717650e+01,-6.262477819648665900e+01,-8.300681257980795635e+01,6.729023091409544577e+00,1.304168200906406128e+01,9.446745872497558594e+00,-7.649186849594116211e-01,-1.376853704452514648e+00,5.290000000000000000e+02
-3.261867301827805932e+01,-3.274224518382652604e+01,1.975223836642999231e+01,-1.423713330503414909e+01,-5.907981397931780521e+01,-7.974009079599272809e+01,1.230991364940473431e+01,1.856349194689573778e+01,9.446745872497558594e+00,-7.649186849594116211e-01,-1.376853704452514648e+00,5.300000000000000000e+02
-3.153154598260334751e+01,-3.163704578303622839e+01,2.459088158814574854e+01,-1.283047865211301541e+01,-5.638116780319978716e+01,-7.686959389181720326e+01,1.623163620496779913e+01,2.011244304469255439e+01,9.446745872497558594e+00,-7.649186849594116211e-01,-1.376853704452514648e+00,5.310000000000000000e+02
-3.035082598230656004e+01,-3.144593673694362224e+01,2.735161016946221935e+01,-1.269324549145130732e+01,-5.512063692193714814e+01,-7.528296335854156496e+01,1.650372518408039468e+01,1.733342895388159377e+01,9.446745872497558594e+00,-7.649186849594116211e-01,-1.376853704452514648e+00,5.320000000000000000e+02
-2.958250981975925242e+01,-3.230207337927186018e+01,2.681583042974489217e+01,-1.395627964437335322e+01,-5.559118034850962431e+01,-7.523273098405843484e+01,1.251048713894033426e+01,1.142399125787324010e+01,9.446745872497558594e+00,-7.649186849594116211e-01,-1.376853704452514648e+00,5.330000000000000000e+02
-2.973792749703625304e+01,-3.385466084144536580e+01,2.338625786583907029e+01,-1.595099737647433358e+01,-5.756631685918455332e+01,-7.598412638537229213e+01,5.772859185766719747e+00,4.676229158578280476e+00,9.446745872497558594e+00,-7.649186849594116211e-01,-1.376853704452514648e+00,5.340000000000000000e+02
-3.092062975285625726e+01,-3.516002810068675899e+01,1.907660755565120780e+01,-1.747464641351871251e+01,-6.012352487173302507e+01,-7.618693663325757370e+01,-4.494212482004513731e-01,-3.342011767172152759e-01,9.446745872497558594e+00,-7.649186849594116211e-01,-1.376853704452514648e+00,5.350000000000000000e+02
-3.251918163735990674e+01,-3.510213899904556456e+01,1.639830035303657496e+01,-1.750697162677897722e+01,-6.185486786782439594e+01,-7.481029812816086633e+01,-2.854346961185910914e+00,-1.757409773198560288e+00,9.446745872497558594e+00,-7.649186849594116211e-01,-1.376853704452514648e+00,5.360000000000000000e+02
-3.343030941796769184e+01,-3.323073445732734399e+01,1.688694896681954560e+01,-1.594195923088773270e+01,-6.156082454674196924e+01,-7.193478747597873735e+01,-1.471208632192428922e-01,6.705312237181715318e-01,9.446745872497558594e+00,-7.649186849594116211e-01,-1.376853704452514648e+00,5.370000000000000000e+02
-3.282354027359542670e+01,-3.035898336481568549e+01,2.029028849273618107e+01,-1.380999394044738438e+01,-5.905565272810235911e+01,-6.876569612868297554e+01,6.010808835299030761e+00,5.394668302227728418e+00,9.446745872497558594e+00,-7.649186849594116211e-01,-1.376853704452514648e+00,5.380000000000000000e+02
-3.087659592939689901e+01,-2.826662899586062849e+01,2.491364695564334397e+01,-1.277459339975212060e+01,-5.546963844941456045e+01,-6.686308185977941321e+01,1.195486736148905038e+01,9.731858578874380328e+00,9.446745872497558594e+00,-7.649186849594116211e-01,-1.376853704452514648e+00,5.390000000000000000e+02
-2.877887132914838730e+01,-2.853434507958991162e+01,2.875165297311923496e+01,-1.417342860601638677e+01,-5.269765741029368655e+01,-6.719339433377535897e+01,1.430821961181482038e+01,1.126072874025976489e+01,9.446745872497558594e+00,-7.649186849594116211e-01,-1.376853704452514648e+00,5.400000000000000000e+02
-2.787675878577192634e+01,-3.132472003994553233e+01,3.057968594532121642e+01,-1.815790890286734793e+01,-5.227204859886478516e+01,-6.965635919150918198e+01,1.205569762425693625e+01,9.150093895446843817e+00,9.446745872497558594e+00,-7.649186849594116211e-01,-1.376853704452514648e+00,5.410000000000000000e+02
-2.863468010684482579e+01,-3.508801782106183964e+01,3.040704537146302755e+01,-2.340958145595141104e+01,-5.438729212620455655e+01,-7.324736660901362484e+01,7.041595234295527916e+00,4.600574212890933268e+00,9.446745872497558594e+00,-7.649186849594116211e-01,-1.376853704452514648e+00,5.420000000000000000e+02
-3.032153494348131062e+01,-3.750362926371690264e+01,2.923256472959019447e+01,-2.762082874842235469e+01,-5.774945902415856835e+01,-7.655978005371980544e+01,2.674122909656034608e+00,9.770389714140037540e-02,9.446745872497558594e+00,-7.649186849594116211e-01,-1.376853704452514648e+00,5.430000000000000000e+02
-3.171199543824695866e+01,-3.701800952597841388e+01,2.840362375661879923e+01,-2.858101505858030578e+01,-6.038357178920523438e+01,-7.830139007021352882e+01,1.783483518374850973e+00,-2.058130109969170007e+00,9.446745872497558594e+00,-7.649186849594116211e-01,-1.376853704452514648e+00,5.440000000000000000e+02
-3.214476459105571848e+01,-3.387355032419691270e+01,2.892875291805103188e+01,-2.538151459376786079e+01,-6.087208934986665554e+01,-7.772813290050908108e+01,5.001137674717028858e+00,-1.017103671341828885e+00,9.446745872497558594e+00,-7.649186849594116211e-01,-1.376853704452514648e+00,5.450000000000000000e+02
-3.193890236150582496e+01,-2.989378079461675952e+01,3.101943461525661405e+01,-1.905706911995730479e+01,-5.918260736867159721e+01,-7.496733658342054696e+01,1.055856132874214381e+01,2.325762388405564707e+00,9.446745872497558594e+00,-7.649186849594116211e-01,-1.376853704452514648e+00,5.460000000000000000e+02
-3.181162465108172910e+01,-2.720239708594272088e+01,3.405198905776524043e+01,-1.213836993132827047e+01,-5.652297235223340977e+01,-7.105676443090123939e+01,1.550535204763036745e+01,6.101287119232438272e+00,9.484992027282714844e+00,-8.796565532684326172e-01,-1.300361871719360352e+00,5.470000000000000000e+02
-3.194920589748835482e+01,-2.682360810168393073e+01,3.697688783984267502e+01,-7.229831262635343592e+00,-5.437636805272450147e+01,-6.748976365712223924e+01,1.754826029279502109e+01,8.683809551459489739e+00,9.484992027282714844e+00,-8.796565532684326172e-01,-1.300361871719360352e+00,5.480000000000000000e+02
-3.172582521544791234e+01,-2.816244602065671643e+01,3.894451748683604819e+01,-5.500398293655962334e+00,-5.348792166995008301e+01,-6.539385445560583321e+01,1.637524220876002801e+01,9.517345027972623939e+00,9.484992027282714844e+00,-8.796565532684326172e-01,-1.300361871719360352e+00,5.490000000000000000e+02
-3.037024511014169548e+01,-2.968434870700002648e+01,3.975126468390772061e+01,-6.167565664609355736e+00,-5.356345461410819553e+01,-6.488620350710152707e+01,1.365377004665060667e+01,9.105663070857190178e+00,9.484992027282714844e+00,-8.796565532684326172e-01,-1.300361871719360352e+00,5.500000000000000000e+02
-2.788478473377836053e+01,-3.020352679666211770e+01,3.981280709808015672e+01,-7.364362954707758036e+00,-5.379150018572909175e+01,-6.514243152717062912e+01,1.172783379569591489e+01,8.363187026217929088e+00,9.484992027282714844e+00,-8.796565532684326172e-01,-1.300361871719360352e+00,5.510000000000000000e+02
-2.523984621724412136e+01,-2.976633544711876311e+01,3.974668489862960996e+01,-7.676993094402860152e+00,-5.360518358276567596e+01,-6.515215517781871313e+01,1.190659484805109969e+01,7.935967374942265451e+00,9.484992027282714844e+00,-8.796565532684326172e-01,-1.300361871719360352e+00,5.520000000000000000e+02
-2.360725274017568154e+01,-2.947966482695665036e+01,3.995337602631479967e+01,-7.086000129849708173e+00,-5.298986365819109778e+01,-6.451122751233197050e+01,1.357046203178288124e+01,7.977617001140970387e+00,9.484992027282714844e+00,-8.796565532684326172e-01,-1.300361871719360352e+00,5.530000000000000000e+02
-2.339915589788688521e+01,-3.049786870786556392e+01,4.049392470292150392e+01,-6.618781189854416880e+00,-5.219241961641455418e+01,-6.358472849608006072e+01,1.475662220531921776e+01,8.380926051451751846e+00,9.484992027282714844e+00,-8.796565532684326172e-01,-1.300361871719360352e+00,5.540000000000000000e+02
-2.404345791771811491e+01,-3.302804563020254136e+01,4.124716149755295191e+01,-7.171197202846087748e+00,-5.128439470045123016e+01,-6.298226259036528063e+01,1.378565372823686630e+01,9.083484619377486524e+00,9.484992027282714844e+00,-8.796565532684326172e-01,-1.300361871719360352e+00,5.550000000000000000e+02
-2.463654634254999110e+01,-3.615740636753980652e+01,4.209303894904041954e+01,-8.629868094687481062e+00,-5.008952201961983519e+01,-6.291800295540997467e+01,1.067435333047978929e+01,1.009677794959861785e+01,9.484992027282714844e+00,-8.796565532684326172e-01,-1.300361871719360352e+00,5.560000000000000000e+02
-2.473190205637729377e+01,-3.856670371215113846e+01,4.297522499275692098e+01,-1.000287859092532017e+01,-4.848624702752749727e+01,-6.305573553904287110e+01,7.245232674211365520e+00,1.128489351581265510e+01,9.484992027282714844e+00,-8.796565532684326172e-01,-1.300361871719360352e+00,5.570000000000000000e+02
-2.447940015319181839e+01,-3.945892645862659265e+01,4.390267644360756094e+01,-1.027619062716985354e+01,-4.666425216073912452e+01,-6.289865937197100720e+01,5.862145753830191097e+00,1.222745526380640513e+01,9.484992027282714844e+00,-8.796565532684326172e-01,-1.300361871719360352e+00,5.580000000000000000e+02
-2.412208001221006270e+01,-3.894319096109029488e+01,4.497976145511711366e+01,-9.146179257384574157e+00,-4.501994994619053614e+01,-6.228039730961063469e+01,7.763527902048735996e+00,1.242093044110879418e+01,9.484992027282714844e+00,-8.796565532684326172e-01,-1.300361871719360352e+00,5.590000000000000000e+02
-2.353326879256383108e+01,-3.765535583840937761e+01,4.642740004014012811e+01,-7.069514057755441172e+00,-4.381240813740805606e+01,-6.148142561640270287e+01,1.224005528161978873e+01,1.171268173948556068e+01,9.484992027282714844e+00,-8.796565532684326172e-01,-1.300361871719360352e+00,5.600000000000000000e+02
-2.234316378041694406e+01,-3.608619680292940757e+01,4.844620718012811267e+01,-4.792951079216436483e+00,-4.296640563957043923e+01,-6.092108051756076748e+01,1.718940623986418359e+01,1.056804743814791436e+01,9.484992027282714844e+00,-8.796565532684326172e-01,-1.300361871719360352e+00,5.610000000000000000e+02
-2.046147288721113000e+01,-3.427827636537404032e+01,5.094608195991168031e+01,-2.892215409785421798e+00,-4.220163113628586871e+01,-6.076834262598640635e+01,2.053941727474557410e+01,9.869708799906220520e+00,9.484992027282714844e+00,-8.796565532684326172e-01,-1.300361871719360352e+00,5.620000000000000000e+02
-1.834625563879126275e+01,-3.210009480270127824e+01,5.340767216190579347e+01,-1.629729534066427732e+00,-4.129419074956058466e+01,-6.083069124087342061e+01,2.146887024244279019e+01,1.035085044645165908e+01,9.484992027282714844e+00,-8.796565532684326172e-01,-1.300361871719360352e+00,5.630000000000000000e+02
-1.668631579014800081e+01,-2.971785019838898734e+01,5.509801966761369840e+01,-1.030730374255654169e+00,-4.019574226109398296e+01,-6.078075874554633629e+01,2.063054424707843282e+01,1.209421345962437044e+01,9.484992027282714844e+00,-8.796565532684326172e-01,-1.300361871719360352e+00,5.640000000000000000e+02
-1.583422947245344403e+01,-2.771295309261768125e+01,5.555938835708730039e+01,-9.407236912229564041e-01,-3.896234171154173964e+01,-6.047238049761654111e+01,1.942015520659697358e+01,1.450214053182935459e+01,9.484992027282714844e+00,-8.796565532684326172e-01,-1.300361871719360352e+00,5.650000000000000000e+02
-1.558516704262729036e+01,-2.668636162565962877e+01,5.497602932480003801e+01,-1.030077619961957680e+00,-3.766039396421911079e+01,-6.005753326024205307e+01,1.898993279460955819e+01,1.674304707223745936e+01,9.484992027282714844e+00,-8.796565532684326172e-01,-1.300361871719360352e+00,5.660000000000000000e+02
-1.545588482663515606e+01,-2.670953816169821948e+01,5.409954246681263612e+01,-8.496581583676743321e-01,-3.634572217691675178e+01,-5.979934831803620909e+01,1.972625289139614324e+01,1.831482995765691157e+01,9.484992027282714844e+00,-8.796565532684326172e-01,-1.300361871719360352e+00,5.670000000000000000e+02
-1.508693535051133949e+01,-2.716515358752803877e+01,5.378847770360880531e+01,9.275791915570152923e-03,-3.505621650119974220e+01,-5.975161155907335342e+01,2.137218287955874985e+01,1.929979782808186428e+01,9.484992027282714844e+00,-8.796565532684326172e-01,-1.300361871719360352e+00,5.680000000000000000e+02
-1.436357055626831425e+01,-2.719381540914218931e+01,5.451992604779661633e+01,1.721093845862924354e+00,-3.378158847836311907e+01,-5.961631061320804292e+01,2.343231145853314956e+01,2.013601038707747648e+01,9.484992027282714844e+00,-8.796565532684326172e-01,-1.300361871719360352e+00,5.690000000000000000e+02
-1.325464444465796987e+01,-2.638708433303872880e+01,5.619337017631914932e+01,4.114846256568853278e+00,-3.248061724167200737e+01,-5.894826140743316500e+01,2.544009197337982187e+01,2.112600744566952926e+01,9.484992027282714844e+00,-8.796565532684326172e-01,-1.300361871719360352e+00,5.700000000000000000e+02
-1.169065753528229834e+01,-2.511269946324500779e+01,5.827395601700118277e+01,6.692242940058349632e+00,-3.121084206619707402e+01,-5.755427330109523609e+01,2.699920981232753547e+01,2.210887068801639543e+01,9.484992027282714844e+00,-8.796565532684326172e-01,-1.300361871719360352e+00,5.710000000000000000e+02
-9.656559657050820533e+00,-2.417097026854389696e+01,6.009177017331057868e+01,8.771602871256618528e+00,-3.023329530169576174e+01,-5.572454527727313689e+01,2.781443888395369868e+01,2.257739032281278924e+01,9.484992027282714844e+00,-8.796565532684326172e-01,-1.300361871719360352e+00,5.720000000000000000e+02
-7.341278641757526202e+00,-2.406483392198788351e+01,6.112266638751680148e+01,9.766011169198463904e+00,-2.987173710859860876e+01,-5.405103286963276332e+01,2.785942106837683241e+01,2.214102717155219580e+01,9.484992027282714844e+00,-8.796565532684326172e-01,-1.300361871719360352e+00,5.730000000000000000e+02
-5.110375245249088039e+00,-2.453359091048514529e+01,6.117949818521628913e+01,9.520420455250132363e+00,-3.014796486210980220e+01,-5.298562691866754903e+01,2.751271056918631075e+01,2.093191712599400489e+01,9.484992027282714844e+00,-8.796565532684326172e-01,-1.300361871719360352e+00,5.740000000000000000e+02
-3.303571888758597197e+00,-2.477769001966589713e+01,6.050619216088307439e+01,8.497696205555257620e+00,-3.055013609856541734e+01,-5.254184960867496557e+01,2.738774478578852722e+01,1.961390074774135428e+01,9.484992027282714844e+00,-8.796565532684326172e-01,-1.300361871719360352e+00,5.750000000000000000e+02
-2.083908610882645007e+00,-2.418711401971449959e+01,5.970979894110132591e+01,7.577618251405510819e+00,-3.029034324925669353e+01,-5.239666680955269840e+01,2.786822215193205921e+01,1.898397141854366055e+01,9.484992027282714844e+00,-8.796565532684326172e-01,-1.300361871719360352e+00,5.760000000000000000e+02
-1.470224544689699542e+00,-2.291158574786095414e+01,5.946603534406312974e+01,7.495165051834192127e+00,-2.893506138445809484e+01,-5.223790309394098585e+01,2.873905131707942928e+01,1.948834258389251772e+01,9.484992027282714844e+00,-8.796565532684326172e-01,-1.300361871719360352e+00,5.770000000000000000e+02
-1.426455750719469506e+00,-2.173325490408751648e+01,6.011952617101451324e+01,8.322150566415075446e+00,-2.682226201458979631e+01,-5.196404151220122003e+01,2.933375289376635919e+01,2.104717804008942039e+01,9.446745872497558594e+00,-8.031646609306335449e-01,-1.376853704452514648e+00,5.780000000000000000e+02
-1.829161868954543024e+00,-2.133818733087173314e+01,6.148070419341092929e+01,9.464157597853045445e+00,-2.481094073453641613e+01,-5.155893389293487417e+01,2.915209851915642503e+01,2.328956582754835836e+01,9.446745872497558594e+00,-8.031646609306335449e-01,-1.376853704452514648e+00,5.790000000000000000e+02
-2.357664785275119357e+00,-2.163815720591082936e+01,6.303269037435529754e+01,1.023091452704466064e+01,-2.355017946911902982e+01,-5.086762914019709569e+01,2.843054128839503392e+01,2.592874079014291056e+01,9.446745872497558594e+00,-8.031646609306335449e-01,-1.376853704452514648e+00,5.800000000000000000e+02
-2.548738981437054463e+00,-2.177621274243938387e+01,6.440649787487564026e+01,1.047101223353820387e+01,-2.295627471305124345e+01,-4.962750736825910280e+01,2.812738783235181472e+01,2.889012205348990392e+01,9.446745872497558594e+00,-8.031646609306335449e-01,-1.376853704452514648e+00,5.810000000000000000e+02
-2.093271268244279781e+00,-2.084585125970261288e+01,6.567466876101389062e+01,1.064403559454149217e+01,-2.240895025418285513e+01,-4.779335108672603383e+01,2.926503337135727634e+01,3.204664246214088053e+01,9.446745872497558594e+00,-8.031646609306335449e-01,-1.376853704452514648e+00,5.820000000000000000e+02
-1.118293936662666965e+00,-1.872531684915156802e+01,6.711200147165072849e+01,1.121838498776924098e+01,-2.148383526211182470e+01,-4.581992169819204719e+01,3.209111922832380515e+01,3.481154770226930850e+01,9.446745872497558594e+00,-8.031646609306335449e-01,-1.376853704452514648e+00,5.830000000000000000e+02
-1.391252139401331078e-01,-1.632751290696614888e+01,6.859502303875706275e+01,1.196962152985724970e+01,-2.052140036016862723e+01,-4.456510107861686265e+01,3.564795219103689305e+01,3.602534001384992735e+01,9.446745872497558594e+00,-8.031646609306335449e-01,-1.376853704452514648e+00,5.840000000000000000e+02
3.211513223686779384e-01,-1.503400412592964130e+01,6.929777524825840374e+01,1.193841842796609853e+01,-2.047694892621439067e+01,-4.482287715258644312e+01,3.809250291150237899e+01,3.441774153605365427e+01,9.446745872497558594e+00,-8.031646609306335449e-01,-1.376853704452514648e+00,5.850000000000000000e+02
7.258927520888391882e-02,-1.574808594798741979e+01,6.818321723581539118e+01,1.021246730930215563e+01,-2.215812531244228012e+01,-4.682930057934208889e+01,3.764609223180377739e+01,2.947211633357801475e+01,9.446745872497558594e+00,-8.031646609306335449e-01,-1.376853704452514648e+00,5.860000000000000000e+02
-7.706869476351130288e-01,-1.827538350872055162e+01,6.503645853749185335e+01,6.875332855739543447e+00,-2.547448768274625763e+01,-5.006869923743579420e+01,3.368723015690193279e+01,2.213190006284639821e+01,9.446745872497558594e+00,-8.031646609306335449e-01,-1.376853704452514648e+00,5.870000000000000000e+02
-2.092234977972111665e+00,-2.144772848190041259e+01,6.112089382665726589e+01,3.217198173064389266e+00,-2.929007738366271951e+01,-5.342983292357894243e+01,2.736934521894363570e+01,1.477402454771799967e+01,9.446745872497558594e+00,-8.031646609306335449e-01,-1.376853704452514648e+00,5.880000000000000000e+02
-3.936540834027255187e+00,-2.384255025682432461e+01,5.867431905323610408e+01,9.226896220134221949e-01,-3.200729591026902199e+01,-5.558789675614389125e+01,2.128051318539655767e+01,1.026594267198379384e+01,9.446745872497558594e+00,-8.031646609306335449e-01,-1.376853704452514648e+00,5.890000000000000000e+02
