F3,F4,C3,C4,P3,P4,Cz,Pz,Accel_x,Accel_y,Accel_z,Sample
-2.364686224609613419e-11,-3.547029336914420128e-11,-4.001776687800884247e-11,-2.819433575496077538e-11,-4.547473508864641190e-11,-4.365574568510055542e-11,-5.820766091346740723e-11,-3.183231456205248833e-11,9.255517005920410156e+00,1.529837548732757568e-01,1.415099620819091797e+00,2.260000000000000000e+02
-1.157971424342576938e+00,-1.720474941536485858e+01,-6.447043954670334642e+00,-2.922190933089041209e+00,-2.433431244568600960e+01,-1.809897055562032619e+01,-4.676372411753618508e+00,-7.261700985297466104e+00,9.255517005920410156e+00,1.529837548732757568e-01,1.415099620819091797e+00,2.270000000000000000e+02
-3.717634836875731708e-01,-3.376483005235695600e+01,-1.073543970895116217e+01,-9.974722423710773000e+00,-4.303024912750061048e+01,-3.413537457631537109e+01,-7.848671910031043808e+00,-1.424007232003441459e+01,9.255517005920410156e+00,1.529837548732757568e-01,1.415099620819091797e+00,2.280000000000000000e+02
1.441557535532410839e+00,-4.921231451953099167e+01,-1.242975165809093596e+01,-2.163383657110534841e+01,-5.528141462743769807e+01,-4.792061364242363197e+01,-9.207838608546808246e+00,-2.085105547503735579e+01,9.217270851135253906e+00,1.529837548732757568e-01,1.376853704452514648e+00,2.290000000000000000e+02
5.688348884723382071e-01,-6.354579658809052489e+01,-1.306495700805589877e+01,-3.456707354460286297e+01,-6.529595198698098102e+01,-6.111692644585309608e+01,-9.710799737320485292e+00,-2.730734665352429147e+01,9.217270851135253906e+00,1.529837548732757568e-01,1.376853704452514648e+00,2.300000000000000000e+02
-6.506557815554515400e+00,-7.735973432285209128e+01,-1.476283552929453435e+01,-4.491879189621613477e+01,-7.791878747060036403e+01,-7.542349900531007734e+01,-1.055258220386895118e+01,-3.400523102222177840e+01,9.217270851135253906e+00,1.529837548732757568e-01,1.376853704452514648e+00,2.310000000000000000e+02
-2.007002625917266414e+01,-9.143397961711434618e+01,-1.848017053763578588e+01,-5.163846403858497069e+01,-9.423252025087003858e+01,-9.090847735150055087e+01,-1.212338041729526594e+01,-4.119854416951147869e+01,9.217270851135253906e+00,1.529837548732757568e-01,1.376853704452514648e+00,2.320000000000000000e+02
-3.696079029158227058e+01,-1.059310288280075838e+02,-2.337994275754317641e+01,-5.671219696237858443e+01,-1.112680814324294261e+02,-1.061055741749296430e+02,-1.389167629690837202e+01,-4.867884820142717217e+01,9.217270851135253906e+00,1.529837548732757568e-01,1.376853704452514648e+00,2.330000000000000000e+02
-5.320496244778314576e+01,-1.199974093058763174e+02,-2.773727527411938354e+01,-6.255196249626260396e+01,-1.255061301770110731e+02,-1.195603269171269858e+02,-1.512837535423841473e+01,-5.578649214028337155e+01,9.217270851135253906e+00,1.529837548732757568e-01,1.376853704452514648e+00,2.340000000000000000e+02
-6.688210189700930641e+01,-1.324282338047323719e+02,-3.044939922601042781e+01,-6.953693436941739492e+01,-1.362416306026370876e+02,-1.311183042475031471e+02,-1.561405237702911108e+01,-6.184730159904938773e+01,9.217270851135253906e+00,1.529837548732757568e-01,1.376853704452514648e+00,2.350000000000000000e+02
-7.871144097327214695e+01,-1.430390015939765362e+02,-3.181179320015507983e+01,-7.609841820149358682e+01,-1.456516934559258516e+02,-1.417780234918827773e+02,-1.569508773680263403e+01,-6.671459750241592701e+01,9.217270851135253906e+00,1.529837548732757568e-01,1.376853704452514648e+00,2.360000000000000000e+02
-9.030148638014907192e+01,-1.534798150486985833e+02,-3.301568026427139557e+01,-8.081118747847540362e+01,-1.561630424862978543e+02,-1.525714561866534495e+02,-1.584821345896034472e+01,-7.092238069444829307e+01,9.217270851135253906e+00,1.529837548732757568e-01,1.376853704452514648e+00,2.370000000000000000e+02
-1.021795123500169211e+02,-1.665107780602188541e+02,-3.495528172506874398e+01,-8.399583767156127578e+01,-1.682016024878384997e+02,-1.637633352784550880e+02,-1.631081414091204351e+01,-7.527500435976890003e+01,9.217270851135253906e+00,1.529837548732757568e-01,1.376853704452514648e+00,2.380000000000000000e+02
-1.135215265345104854e+02,-1.840946450740802902e+02,-3.744848463281959994e+01,-8.725278409886414011e+01,-1.803942626414655024e+02,-1.750060151803745612e+02,-1.707824763726421224e+01,-8.024141379145476094e+01,9.217270851135253906e+00,1.529837548732757568e-01,1.376853704452514648e+00,2.390000000000000000e+02
-1.234877334268039704e+02,-2.058227804174894118e+02,-3.951886117804315290e+01,-9.175458144639105740e+01,-1.914526012145543064e+02,-1.859662734345838544e+02,-1.810258268169491203e+01,-8.573296031762038183e+01,9.217270851135253906e+00,1.529837548732757568e-01,1.376853704452514648e+00,2.400000000000000000e+02
-1.324951303999450829e+02,-2.290042155657861258e+02,-4.042990480474782089e+01,-9.727361883452067559e+01,-2.015196947609874769e+02,-1.966425379442071062e+02,-1.941307157589471899e+01,-9.148103246014034085e+01,9.217270851135253906e+00,1.529837548732757568e-01,1.376853704452514648e+00,2.410000000000000000e+02
-1.420717304195395627e+02,-2.503262850383862315e+02,-4.052846696907727164e+01,-1.028173519121819481e+02,-2.118008668856864460e+02,-2.072108051088443972e+02,-2.108369713782121835e+01,-9.759529162896797061e+01,9.217270851135253906e+00,1.529837548732757568e-01,1.376853704452514648e+00,2.420000000000000000e+02
-1.535593193696431626e+02,-2.677050439041108802e+02,-4.114168910655553191e+01,-1.079058856160636424e+02,-2.232094944121345179e+02,-2.178091059527487232e+02,-2.313593431206663809e+01,-1.046693804309006737e+02,9.217270851135253906e+00,1.529837548732757568e-01,1.376853704452514648e+00,2.430000000000000000e+02
-1.669989076921528977e+02,-2.809277508516975104e+02,-4.358418513124524907e+01,-1.130112379684251209e+02,-2.355096374747472510e+02,-2.285604333918208795e+02,-2.545334852341147780e+01,-1.132422853326315817e+02,9.217270851135253906e+00,1.529837548732757568e-01,1.376853704452514648e+00,2.440000000000000000e+02
-1.811445093545530654e+02,-2.908848933733697777e+02,-4.810460780189714569e+01,-1.188127951570622827e+02,-2.476488243303365380e+02,-2.396499810544919455e+02,-2.774897296354538412e+01,-1.230993794201003766e+02,9.217270851135253906e+00,1.529837548732757568e-01,1.376853704452514648e+00,2.450000000000000000e+02
-1.944010805515349603e+02,-2.984003727596132194e+02,-5.366412764426695503e+01,-1.252399386139577473e+02,-2.587746476329630241e+02,-2.511768235875470054e+02,-2.964931876896389440e+01,-1.331224732831969959e+02,9.217270851135253906e+00,1.529837548732757568e-01,1.376853704452514648e+00,2.460000000000000000e+02
-2.057990755301284480e+02,-3.037869959126869617e+02,-5.874384360660224047e+01,-1.313577281159923587e+02,-2.689768209742760519e+02,-2.628876973791166165e+02,-3.092981553453046217e+01,-1.419272400512454624e+02,9.217270851135253906e+00,1.529837548732757568e-01,1.376853704452514648e+00,2.470000000000000000e+02
-2.153808718028722069e+02,-3.073605775704086227e+02,-6.248326045233352488e+01,-1.361483098498820254e+02,-2.791794789454925194e+02,-2.741729578979138751e+02,-3.173341587138656905e+01,-1.487843277831216255e+02,9.217270851135253906e+00,1.529837548732757568e-01,1.376853704452514648e+00,2.480000000000000000e+02
-2.239802333018878926e+02,-3.101494926167415542e+02,-6.517973250160321186e+01,-1.393734683342786411e+02,-2.903093352048299494e+02,-2.844592973545841232e+02,-3.249625681975794578e+01,-1.540145711943087008e+02,9.217270851135253906e+00,1.529837548732757568e-01,1.376853704452514648e+00,2.490000000000000000e+02
-2.326837363819295206e+02,-3.138712052477790166e+02,-6.776572119602860766e+01,-1.417715554880783202e+02,-3.023909774764815666e+02,-2.936597794064464324e+02,-3.354288083957453637e+01,-1.585106728210685105e+02,9.217270851135253906e+00,1.529837548732757568e-01,1.376853704452514648e+00,2.500000000000000000e+02
-2.422484815458460616e+02,-3.200138632554894684e+02,-7.080239510127921676e+01,-1.445324888499617373e+02,-3.143060796921827205e+02,-3.022243284417772884e+02,-3.471478762384867878e+01,-1.628412310889380024e+02,9.217270851135253906e+00,1.529837548732757568e-01,1.376853704452514648e+00,2.510000000000000000e+02
-2.526990348717745292e+02,-3.287725590798650046e+02,-7.393060658550984954e+01,-1.485480745903491879e+02,-3.245120065283190343e+02,-3.107298772053118228e+02,-3.548530203610789613e+01,-1.667888514383021175e+02,9.217270851135253906e+00,1.529837548732757568e-01,1.376853704452514648e+00,2.520000000000000000e+02
-2.633472856605258130e+02,-3.388245813417424870e+02,-7.624435489464758575e+01,-1.539342094812336654e+02,-3.322136609158733336e+02,-3.193901705591451901e+02,-3.552829231204123062e+01,-1.697607408641479196e+02,9.217270851135253906e+00,1.529837548732757568e-01,1.376853704452514648e+00,2.530000000000000000e+02
-2.733152660239725265e+02,-3.482369361060723350e+02,-7.718727251532709488e+01,-1.600403704357877359e+02,-3.380146502506840989e+02,-3.279262948785935805e+02,-3.517429587534843449e+01,-1.716727601337424858e+02,9.293763160705566406e+00,1.529837548732757568e-01,1.376853704452514648e+00,2.540000000000000000e+02
-2.822261456951177934e+02,-3.558118396048548675e+02,-7.713133508165537933e+01,-1.658850868174863535e+02,-3.434690206895193114e+02,-3.358778842051242464e+02,-3.521897905759669811e+01,-1.734332699986507578e+02,9.293763160705566406e+00,1.529837548732757568e-01,1.376853704452514648e+00,2.550000000000000000e+02
-2.904734831846349152e+02,-3.617762335023385276e+02,-7.714493720030895929e+01,-1.707605195668870692e+02,-3.499422168282117127e+02,-3.430497680609123563e+02,-3.620777839172660606e+01,-1.764867736683054318e+02,9.293763160705566406e+00,1.529837548732757568e-01,1.376853704452514648e+00,2.560000000000000000e+02
-2.987953538240881244e+02,-3.673071445568161835e+02,-7.819973527449656103e+01,-1.746481793440061665e+02,-3.578159287181924810e+02,-3.497198432410814348e+02,-3.791613213917298708e+01,-1.817431764073489830e+02,9.293763160705566406e+00,1.529837548732757568e-01,1.376853704452514648e+00,2.570000000000000000e+02
-3.075846611066353944e+02,-3.733865007171466459e+02,-8.050230185338114097e+01,-1.781435704808191076e+02,-3.666451672738448906e+02,-3.564319539659527436e+02,-3.955401373004224297e+01,-1.888064932614852296e+02,9.293763160705566406e+00,1.529837548732757568e-01,1.376853704452514648e+00,2.580000000000000000e+02
-3.166548990641158525e+02,-3.800061636959371754e+02,-8.346455923192934279e+01,-1.819234419982085456e+02,-3.758874671970897907e+02,-3.635314469382037714e+02,-4.049677655390587461e+01,-1.961953643871174791e+02,9.293763160705566406e+00,1.529837548732757568e-01,1.376853704452514648e+00,2.590000000000000000e+02
-3.256672560244146553e+02,-3.863736686043621376e+02,-8.624268039415983367e+01,-1.861912643349305654e+02,-3.853385369631641879e+02,-3.708145431620705494e+02,-4.081663987168576568e+01,-2.023746539608418971e+02,9.293763160705566406e+00,1.529837548732757568e-01,1.376853704452514648e+00,2.600000000000000000e+02
-3.346413024916923860e+02,-3.918183560231614138e+02,-8.836609033506283595e+01,-1.905912926074070128e+02,-3.949227139714157602e+02,-3.776014615109761507e+02,-4.112849395166722388e+01,-2.067285179264226826e+02,9.293763160705566406e+00,1.529837548732757568e-01,1.376853704452514648e+00,2.610000000000000000e+02
-3.438609894354649441e+02,-3.964959849755950927e+02,-8.999391857011232787e+01,-1.946812292592412632e+02,-4.043024004858161788e+02,-3.832369240106008874e+02,-4.197459339215038199e+01,-2.097174770345332036e+02,9.293763160705566406e+00,1.529837548732757568e-01,1.376853704452514648e+00,2.620000000000000000e+02
-3.532428553251165795e+02,-4.012718222303942639e+02,-9.167752079392539599e+01,-1.984938884617931762e+02,-4.129055528280841827e+02,-3.876437274906174935e+02,-4.335632726720996288e+01,-2.122512435366766113e+02,9.293763160705566406e+00,1.529837548732757568e-01,1.376853704452514648e+00,2.630000000000000000e+02
-3.619689556877556242e+02,-4.069675583807779731e+02,-9.388259514239780401e+01,-2.026088040588238073e+02,-4.203754187822751192e+02,-3.914565850010767463e+02,-4.478859450020172517e+01,-2.149688838598553957e+02,9.293763160705566406e+00,1.529837548732757568e-01,1.376853704452514648e+00,2.640000000000000000e+02
-3.690118979879512153e+02,-4.136864111836684970e+02,-9.666152311420864862e+01,-2.076325603007785503e+02,-4.268989686076974976e+02,-3.955987914843308317e+02,-4.573503121517387626e+01,-2.180508359616319467e+02,9.293763160705566406e+00,1.529837548732757568e-01,1.376853704452514648e+00,2.650000000000000000e+02
-3.741648825616825889e+02,-4.207710334346470518e+02,-9.969778867309378256e+01,-2.135912339881915614e+02,-4.330182046726167755e+02,-4.006545303719985895e+02,-4.601046749597117014e+01,-2.215421129665810440e+02,9.293763160705566406e+00,1.529837548732757568e-01,1.376853704452514648e+00,2.660000000000000000e+02
-3.784764483060744169e+02,-4.273215577736300474e+02,-1.026274144902090484e+02,-2.198438589334018616e+02,-4.391331700106329663e+02,-4.065705408553048983e+02,-4.587792196415011858e+01,-2.256467714368404813e+02,9.293763160705566406e+00,1.529837548732757568e-01,1.376853704452514648e+00,2.670000000000000000e+02
-3.834896380770264841e+02,-4.327640523141744779e+02,-1.053086179486763285e+02,-2.255910878588338164e+02,-4.451903512035719359e+02,-4.128634105684004680e+02,-4.581754700293004134e+01,-2.305589072724906146e+02,9.293763160705566406e+00,1.529837548732757568e-01,1.376853704452514648e+00,2.680000000000000000e+02
-3.898978821120717839e+02,-4.370512141303920544e+02,-1.077864748927468099e+02,-2.304745646566666437e+02,-4.507877511416436391e+02,-4.190423210153794571e+02,-4.615338685154802079e+01,-2.360145386998824506e+02,9.293763160705566406e+00,1.529837548732757568e-01,1.376853704452514648e+00,2.690000000000000000e+02
-3.969137458630775654e+02,-4.405069879144675724e+02,-1.100432610419293269e+02,-2.347267459348518059e+02,-4.555224556421512716e+02,-4.248452136354317190e+02,-4.681975110272651364e+01,-2.411612422611947295e+02,9.293763160705566406e+00,1.529837548732757568e-01,1.376853704452514648e+00,2.700000000000000000e+02
-4.030307899349231775e+02,-4.435882179716450082e+02,-1.118424199472856344e+02,-2.388064640340148799e+02,-4.592728265388059299e+02,-4.301743492847144807e+02,-4.744362322767847218e+01,-2.450485903900234916e+02,9.293763160705566406e+00,1.529837548732757568e-01,1.376853704452514648e+00,2.710000000000000000e+02
-4.074527123895195473e+02,-4.467519798880698545e+02,-1.128811215503574203e+02,-2.429201879739725882e+02,-4.622888846077444214e+02,-4.349627561214938396e+02,-4.770281695921676146e+01,-2.473751878198627310e+02,9.293763160705566406e+00,1.529837548732757568e-01,1.376853704452514648e+00,2.720000000000000000e+02
-4.107965519305594171e+02,-4.503741479891073141e+02,-1.131138020288312873e+02,-2.468424607408874181e+02,-4.651055202386855854e+02,-4.391799904341660294e+02,-4.765720052377037064e+01,-2.487826598091733104e+02,9.293763160705566406e+00,1.529837548732757568e-01,1.376853704452514648e+00,2.730000000000000000e+02
-4.144376494030861977e+02,-4.545937861313896065e+02,-1.128815576595443417e+02,-2.501078253535683871e+02,-4.682641856608302078e+02,-4.428834095857141619e+02,-4.769153454496063205e+01,-2.503587554309051484e+02,9.293763160705566406e+00,1.529837548732757568e-01,1.376853704452514648e+00,2.740000000000000000e+02
-4.192073519141395082e+02,-4.591335512299829134e+02,-1.126810423190536312e+02,-2.523336892410102337e+02,-4.719210587454635970e+02,-4.461305551939553879e+02,-4.807416376640685485e+01,-2.527729045383048287e+02,9.293763160705566406e+00,1.529837548732757568e-01,1.376853704452514648e+00,2.750000000000000000e+02
-4.247400256096930207e+02,-4.633123516994373858e+02,-1.127955884862212770e+02,-2.534146275703915308e+02,-4.756470093480661490e+02,-4.488152983581812805e+02,-4.857316722118594043e+01,-2.558112687651137094e+02,9.293763160705566406e+00,1.529837548732757568e-01,1.376853704452514648e+00,2.760000000000000000e+02
-4.300262612482952136e+02,-4.663952446468322250e+02,-1.131772315558832815e+02,-2.535489887595226719e+02,-4.787342547497551095e+02,-4.507016573535693169e+02,-4.859420469618680727e+01,-2.587053782141233569e+02,9.293763160705566406e+00,1.529837548732757568e-01,1.376853704452514648e+00,2.770000000000000000e+02
-4.344858045718024186e+02,-4.681176673652730642e+02,-1.136698792820707240e+02,-2.531954931744780879e+02,-4.808845898281520022e+02,-4.517703820260280736e+02,-4.779033003260065016e+01,-2.608946960909979680e+02,9.293763160705566406e+00,1.529837548732757568e-01,1.376853704452514648e+00,2.780000000000000000e+02
-4.384295695738433096e+02,-4.689670473819483050e+02,-1.142560306605355436e+02,-2.529912873642747400e+02,-4.826257931997115520e+02,-4.525455193228572170e+02,-4.651634458681564865e+01,-2.624714605660692541e+02,9.293763160705566406e+00,1.529837548732757568e-01,1.376853704452514648e+00,2.790000000000000000e+02
-4.425069184833173495e+02,-4.699148787354747583e+02,-1.149923775031870719e+02,-2.535657071286382234e+02,-4.849223546230382453e+02,-4.539420869606997258e+02,-4.558817142426960345e+01,-2.639265121364078368e+02,9.293763160705566406e+00,1.529837548732757568e-01,1.376853704452514648e+00,2.800000000000000000e+02
-4.468441296976031936e+02,-4.717544413470864129e+02,-1.157213322392472037e+02,-2.552463580926387294e+02,-4.882496182324343863e+02,-4.566122414480823863e+02,-4.552774010929488213e+01,-2.655553934195531838e+02,9.293763160705566406e+00,1.529837548732757568e-01,1.376853704452514648e+00,2.810000000000000000e+02
-4.508811495784339058e+02,-4.745879375363624604e+02,-1.159941400049647200e+02,-2.578368521925226560e+02,-4.920461958435366796e+02,-4.603481774367801336e+02,-4.605432060086468482e+01,-2.672087289997125481e+02,9.293763160705566406e+00,1.529837548732757568e-01,1.376853704452514648e+00,2.820000000000000000e+02
-4.541169020261465903e+02,-4.778830331859571743e+02,-1.154567932014970211e+02,-2.607025734642315911e+02,-4.951993255932770808e+02,-4.641744602696921902e+02,-4.638575166855889620e+01,-2.686615915411430251e+02,9.293763160705566406e+00,1.529837548732757568e-01,1.376853704452514648e+00,2.830000000000000000e+02
-4.569490466101558468e+02,-4.809926195200864640e+02,-1.143828813069167154e+02,-2.631789871248356576e+02,-4.971786994497683736e+02,-4.671357889927276119e+02,-4.605896693498834793e+01,-2.701640876600613410e+02,9.293763160705566406e+00,1.529837548732757568e-01,1.376853704452514648e+00,2.840000000000000000e+02
-4.606310768221367198e+02,-4.836300782514836101e+02,-1.137324400383276952e+02,-2.649936890951471469e+02,-4.987139654436282399e+02,-4.691025079228165851e+02,-4.540956476707651746e+01,-2.724600974334189232e+02,9.293763160705566406e+00,1.529837548732757568e-01,1.376853704452514648e+00,2.850000000000000000e+02
-4.662683554760385505e+02,-4.858905487819392874e+02,-1.145235543166395473e+02,-2.663555044095842277e+02,-5.012932695632666764e+02,-4.708747239820841060e+02,-4.521057597554818130e+01,-2.761111554476847232e+02,9.293763160705566406e+00,1.529837548732757568e-01,1.376853704452514648e+00,2.860000000000000000e+02
-4.737924734874886781e+02,-4.879479588254632745e+02,-1.170105641853974703e+02,-2.676804471703449053e+02,-5.058841217642789161e+02,-4.734918016843048463e+02,-4.585081344921172786e+01,-2.807620535856963215e+02,9.293763160705566406e+00,1.529837548732757568e-01,1.376853704452514648e+00,2.870000000000000000e+02
-4.819359006433551258e+02,-4.899090852040687878e+02,-1.204416433856608819e+02,-2.692663488624377806e+02,-5.120338294650782700e+02,-4.773805672096846138e+02,-4.693731959527849540e+01,-2.851800953882639078e+02,9.293763160705566406e+00,1.529837548732757568e-01,1.376853704452514648e+00,2.880000000000000000e+02
-4.892570909963623649e+02,-4.920275916864517285e+02,-1.236578931896483482e+02,-2.712172609297207373e+02,-5.181368184067965785e+02,-4.820718695178383655e+02,-4.774537342683265706e+01,-2.882007050750611370e+02,9.293763160705566406e+00,1.529837548732757568e-01,1.376853704452514648e+00,2.890000000000000000e+02
-4.952447799041955818e+02,-4.948972039670040317e+02,-1.259919793997082706e+02,-2.735765067611583277e+02,-5.226308580278720228e+02,-4.866633514513912360e+02,-4.804729337106050480e+01,-2.897707113563428720e+02,9.293763160705566406e+00,1.529837548732757568e-01,1.376853704452514648e+00,2.900000000000000000e+02
-5.004986682607894295e+02,-4.991187497538196567e+02,-1.276594416545678996e+02,-2.763601815228581700e+02,-5.251315355993399407e+02,-4.905538212312202404e+02,-4.845192472368285053e+01,-2.910698906662759100e+02,9.293763160705566406e+00,1.529837548732757568e-01,1.376853704452514648e+00,2.910000000000000000e+02
-5.059279663677296526e+02,-5.045865321670091248e+02,-1.293552543302981803e+02,-2.793457016767232517e+02,-5.266234853264634239e+02,-4.937897761198894955e+02,-4.986403315306233708e+01,-2.935151411345759698e+02,9.293763160705566406e+00,1.529837548732757568e-01,1.376853704452514648e+00,2.920000000000000000e+02
-5.118403098277912591e+02,-5.101801637384988339e+02,-1.315286136737541938e+02,-2.818798562429180379e+02,-5.286527576971054714e+02,-4.967929652739260291e+02,-5.258143844380367682e+01,-2.975304256994833167e+02,9.293763160705566406e+00,1.529837548732757568e-01,1.376853704452514648e+00,2.930000000000000000e+02
-5.177889790838298723e+02,-5.144433193222341743e+02,-1.340480078279399550e+02,-2.830984932311486091e+02,-5.322012757270906604e+02,-4.998100517300500769e+02,-5.590803637685883132e+01,-3.022219857126131046e+02,9.293763160705566406e+00,1.529837548732757568e-01,1.376853704452514648e+00,2.940000000000000000e+02
-5.231836796938331418e+02,-5.168036274589791219e+02,-1.364900305259845936e+02,-2.825577513553552649e+02,-5.370823178242387712e+02,-5.026555027245994438e+02,-5.868738832765643565e+01,-3.062390040258845829e+02,9.293763160705566406e+00,1.529837548732757568e-01,1.376853704452514648e+00,2.950000000000000000e+02
-5.278998873247986694e+02,-5.181260653394906512e+02,-1.386353400430025431e+02,-2.807274228096835031e+02,-5.422325964770363953e+02,-5.049795297698689183e+02,-6.027405453402775493e+01,-3.089397471261955843e+02,9.293763160705566406e+00,1.529837548732757568e-01,1.376853704452514648e+00,2.960000000000000000e+02
-5.322423270324171654e+02,-5.199073945158729657e+02,-1.405960699307493087e+02,-2.787654532058938344e+02,-5.465573146848373653e+02,-5.067279327627399539e+02,-6.101356333329897552e+01,-3.107290175805644594e+02,9.293763160705566406e+00,1.529837548732757568e-01,1.376853704452514648e+00,2.970000000000000000e+02
-5.363865568673122652e+02,-5.227890287541845282e+02,-1.424609212066818600e+02,-2.776321516246953252e+02,-5.495981832044100202e+02,-5.082602586148963724e+02,-6.176060702244421918e+01,-3.123150482040939551e+02,9.293763160705566406e+00,1.529837548732757568e-01,1.376853704452514648e+00,2.980000000000000000e+02
-5.399855836920930869e+02,-5.258858531452973466e+02,-1.439097296035865838e+02,-2.773243844375577396e+02,-5.515348185746577201e+02,-5.099525404587912476e+02,-6.289850894248615987e+01,-3.137544911865812765e+02,9.293763160705566406e+00,1.529837548732757568e-01,1.376853704452514648e+00,2.990000000000000000e+02
-5.424093719776622038e+02,-5.276993457194138273e+02,-1.443270998371108362e+02,-2.770024558671247519e+02,-5.527090879396538412e+02,-5.117086951218344666e+02,-6.386722271176404320e+01,-3.143422291939876914e+02,9.293763160705566406e+00,1.529837548732757568e-01,1.376853704452514648e+00,3.000000000000000000e+02
-5.433890324350600167e+02,-5.277686693496872294e+02,-1.434200034496035414e+02,-2.759432270157106473e+02,-5.532911679025557987e+02,-5.129829587041417653e+02,-6.374166291858489330e+01,-3.134880810227560346e+02,9.293763160705566406e+00,1.529837548732757568e-01,1.376853704452514648e+00,3.010000000000000000e+02
-5.434627539387988691e+02,-5.273892866801915034e+02,-1.417763303098819279e+02,-2.744218110615372552e+02,-5.534464423146393983e+02,-5.134096428373144363e+02,-6.234463125952277096e+01,-3.116657684254798255e+02,9.293763160705566406e+00,1.529837548732757568e-01,1.376853704452514648e+00,3.020000000000000000e+02
-5.438389681987399626e+02,-5.286177217049066712e+02,-1.407549180529795194e+02,-2.736477462058603578e+02,-5.537110522420789493e+02,-5.134297106689712109e+02,-6.076315965573905942e+01,-3.103933656520155182e+02,9.293763160705566406e+00,1.529837548732757568e-01,1.376853704452514648e+00,3.030000000000000000e+02
-5.457894956047433652e+02,-5.324912328537877784e+02,-1.416656709617900560e+02,-2.747948204545842259e+02,-5.549614152111830663e+02,-5.141833468974734842e+02,-6.063666507168773023e+01,-3.111680681084286562e+02,9.293763160705566406e+00,1.529837548732757568e-01,1.376853704452514648e+00,3.040000000000000000e+02
-5.499600292693534129e+02,-5.381366669369505189e+02,-1.448373032712017903e+02,-2.780266578436912255e+02,-5.577882270662049677e+02,-5.166302197428112777e+02,-6.278925334368352651e+01,-3.142938821348682268e+02,9.293763160705566406e+00,1.529837548732757568e-01,1.376853704452514648e+00,3.050000000000000000e+02
-5.559400315547433138e+02,-5.435148983864136198e+02,-1.493042287175277352e+02,-2.823858421209637299e+02,-5.618254896857406493e+02,-5.206743097116295758e+02,-6.647559460865215897e+01,-3.186351561107019847e+02,9.293763160705566406e+00,1.529837548732757568e-01,1.376853704452514648e+00,3.060000000000000000e+02
-5.622870554709411408e+02,-5.469808494543581219e+02,-1.533412671894212735e+02,-2.865592463913392294e+02,-5.657509124576181421e+02,-5.251310952792437092e+02,-6.995290639403219757e+01,-3.224555823811624578e+02,9.293763160705566406e+00,1.529837548732757568e-01,1.376853704452514648e+00,3.070000000000000000e+02
-5.670736235890037733e+02,-5.481984637783028802e+02,-1.554150478940050562e+02,-2.897458191827435598e+02,-5.680628026212865507e+02,-5.285856479421859149e+02,-7.182637447073864223e+01,-3.245408555760740796e+02,9.293763160705566406e+00,1.529837548732757568e-01,1.376853704452514648e+00,3.080000000000000000e+02
-5.688124949983587157e+02,-5.477802288042199734e+02,-1.548740907826427247e+02,-2.918865223898854424e+02,-5.679723707312766692e+02,-5.303294042460455557e+02,-7.191068603762789735e+01,-3.246809768596589265e+02,9.293763160705566406e+00,1.529837548732757568e-01,1.376853704452514648e+00,3.090000000000000000e+02
-5.672845784211856426e+02,-5.463141549499841858e+02,-1.520094774536382829e+02,-2.932338108835330104e+02,-5.656837680847827414e+02,-5.305583651588207204e+02,-7.093495061476323826e+01,-3.233111118698334394e+02,9.293763160705566406e+00,1.529837548732757568e-01,1.376853704452514648e+00,3.100000000000000000e+02
-5.636643385554732504e+02,-5.438567452153524755e+02,-1.476525769036022666e+02,-2.938410306020035705e+02,-5.619954052234868414e+02,-5.298282281326331713e+02,-6.961586195458494331e+01,-3.208914567453525137e+02,9.293763160705566406e+00,1.529837548732757568e-01,1.376853704452514648e+00,3.110000000000000000e+02
-5.597543300252027620e+02,-5.402627900139085568e+02,-1.427353529064218947e+02,-2.934804633186453202e+02,-5.577564306665042295e+02,-5.284725753993964190e+02,-6.812957900572064318e+01,-3.176914218620789825e+02,9.255517005920410156e+00,1.529837548732757568e-01,1.453345537185668945e+00,3.120000000000000000e+02
-5.568450669778962947e+02,-5.357896101107446611e+02,-1.380690605365558667e+02,-2.919601131225043105e+02,-5.536476316673627025e+02,-5.265773921402960696e+02,-6.639095269195547644e+01,-3.140553571600950704e+02,9.255517005920410156e+00,1.529837548732757568e-01,1.453345537185668945e+00,3.130000000000000000e+02
-5.550650370727737482e+02,-5.312106254658041280e+02,-1.342796166237714033e+02,-2.894149159566491676e+02,-5.502268686377146878e+02,-5.243507842908026078e+02,-6.457805093908098115e+01,-3.106496566084286428e+02,9.255517005920410156e+00,1.529837548732757568e-01,1.453345537185668945e+00,3.140000000000000000e+02
-5.536677690242886456e+02,-5.273070353332680043e+02,-1.317430251905792602e+02,-2.862751023597651852e+02,-5.479076283425072234e+02,-5.222783172340323290e+02,-6.316431618249475832e+01,-3.082449308046858505e+02,9.255517005920410156e+00,1.529837548732757568e-01,1.453345537185668945e+00,3.150000000000000000e+02
-5.518875699298639574e+02,-5.242939060022764579e+02,-1.304987000346129662e+02,-2.830075676220859577e+02,-5.467832197313573488e+02,-5.207821875409678114e+02,-6.243388938385180609e+01,-3.071496221019378936e+02,9.255517005920410156e+00,1.529837548732757568e-01,1.453345537185668945e+00,3.160000000000000000e+02
-5.495587848541671292e+02,-5.217889099042083672e+02,-1.302632062280033551e+02,-2.799168221358189612e+02,-5.465390878316553653e+02,-5.197571011458943531e+02,-6.213231814594860225e+01,-3.068614641384123161e+02,9.255517005920410156e+00,1.529837548732757568e-01,1.453345537185668945e+00,3.170000000000000000e+02
-5.470517868232262799e+02,-5.193526421713861509e+02,-1.306051130760255319e+02,-2.771544049558346501e+02,-5.466421525464290880e+02,-5.185657981249537443e+02,-6.174613952110303217e+01,-3.063715569092012174e+02,9.255517005920410156e+00,1.529837548732757568e-01,1.453345537185668945e+00,3.180000000000000000e+02
-5.448233239338594558e+02,-5.170377355605195362e+02,-1.311578015733603024e+02,-2.748157031571221296e+02,-5.466382965124448674e+02,-5.165749602909495479e+02,-6.110044573119694178e+01,-3.049361039727983211e+02,9.255517005920410156e+00,1.529837548732757568e-01,1.453345537185668945e+00,3.190000000000000000e+02
-5.431213874318581247e+02,-5.153756696460742432e+02,-1.316901379243855672e+02,-2.729501498286910532e+02,-5.462755898369575789e+02,-5.137294292148792465e+02,-6.056884577934874869e+01,-3.026426109781338027e+02,9.255517005920410156e+00,1.529837548732757568e-01,1.453345537185668945e+00,3.200000000000000000e+02
-5.420206565168314228e+02,-5.147871156407620674e+02,-1.320156542423953852e+02,-2.714583432439657713e+02,-5.454240177659337405e+02,-5.106204302494795684e+02,-6.064101089819223489e+01,-3.002501418596559688e+02,9.255517005920410156e+00,1.529837548732757568e-01,1.453345537185668945e+00,3.210000000000000000e+02
-5.415314202147528704e+02,-5.149677801429346573e+02,-1.318803241081022861e+02,-2.699946279086034906e+02,-5.439974876489584403e+02,-5.079931614482969167e+02,-6.133058635135239456e+01,-2.984235180078682674e+02,9.255517005920410156e+00,1.529837548732757568e-01,1.453345537185668945e+00,3.220000000000000000e+02
-5.415155349351982750e+02,-5.148591534899592261e+02,-1.309919469020586575e+02,-2.680119179645849385e+02,-5.420147351821442498e+02,-5.061631954563964086e+02,-6.208725308785119523e+01,-2.970421058905037626e+02,9.255517005920410156e+00,1.529837548732757568e-01,1.453345537185668945e+00,3.230000000000000000e+02
-5.415408599980028157e+02,-5.133361211006481426e+02,-1.292107953665220066e+02,-2.649788973294613470e+02,-5.396597868201904475e+02,-5.048197694352712119e+02,-6.228884726392720950e+01,-2.952152849612925820e+02,9.255517005920410156e+00,1.529837548732757568e-01,1.453345537185668945e+00,3.240000000000000000e+02
-5.410026164065750436e+02,-5.100704432548434397e+02,-1.267428427100711588e+02,-2.606582088289516150e+02,-5.371782050388806056e+02,-5.033051404134909603e+02,-6.176381220017276519e+01,-2.920197495379886163e+02,9.255517005920410156e+00,1.529837548732757568e-01,1.453345537185668945e+00,3.250000000000000000e+02
-5.395351792414471674e+02,-5.058018827124373047e+02,-1.241482613890050288e+02,-2.552551915893955083e+02,-5.346944504641194271e+02,-5.010809984766220850e+02,-6.080251104919284444e+01,-2.873322839413361294e+02,9.255517005920410156e+00,1.529837548732757568e-01,1.453345537185668945e+00,3.260000000000000000e+02
-5.373222801851050008e+02,-5.017386640553036159e+02,-1.221054014164342334e+02,-2.493121574448787783e+02,-5.321903312781491877e+02,-4.980309107339431307e+02,-5.971727876579063832e+01,-2.820516786027611147e+02,9.255517005920410156e+00,1.529837548732757568e-01,1.453345537185668945e+00,3.270000000000000000e+02
-5.349218330064734346e+02,-4.985777273211232909e+02,-1.210417777995256756e+02,-2.433989200025933428e+02,-5.296816047981503743e+02,-4.944556961556245938e+02,-5.848012675555685291e+01,-2.775138012694557119e+02,9.255517005920410156e+00,1.529837548732757568e-01,1.453345537185668945e+00,3.280000000000000000e+02
-5.327279729465615219e+02,-4.960173761666112568e+02,-1.208375036232653201e+02,-2.378260431677717293e+02,-5.273163621433573098e+02,-4.908360311457289527e+02,-5.681539929494488206e+01,-2.745664574590854272e+02,9.255517005920410156e+00,1.529837548732757568e-01,1.453345537185668945e+00,3.290000000000000000e+02
-5.306102055409684226e+02,-4.932117985102695457e+02,-1.208053018027209191e+02,-2.326434544608309807e+02,-5.251858212272315996e+02,-4.875538985646423953e+02,-5.459909648949110306e+01,-2.730204632732844630e+02,9.255517005920410156e+00,1.529837548732757568e-01,1.453345537185668945e+00,3.300000000000000000e+02
-5.281186132509521940e+02,-4.897527111795551491e+02,-1.200297056490946943e+02,-2.279527970071065397e+02,-5.230563361440846393e+02,-4.847397010959624026e+02,-5.210854997719332005e+01,-2.718643565957228816e+02,9.255517005920410156e+00,1.529837548732757568e-01,1.453345537185668945e+00,3.310000000000000000e+02
-5.250427929867862531e+02,-4.862563415232722264e+02,-1.178968099826059870e+02,-2.242112402372147244e+02,-5.204073027204310620e+02,-4.822916865563152555e+02,-4.984932412864270646e+01,-2.700186242731414836e+02,9.255517005920410156e+00,1.529837548732757568e-01,1.453345537185668945e+00,3.320000000000000000e+02
-5.217296665551491515e+02,-4.839522587714559450e+02,-1.144828815512936444e+02,-2.221150427057688148e+02,-5.168390039582461668e+02,-4.800036057450638509e+02,-4.813656351470672234e+01,-2.670263444000606796e+02,9.293763160705566406e+00,1.529837548732757568e-01,1.376853704452514648e+00,3.330000000000000000e+02
-5.188278366334192242e+02,-4.835842773602399802e+02,-1.105155524694176847e+02,-2.220141127789758002e+02,-5.124322497313369240e+02,-4.776772927843452408e+02,-4.684175637830571759e+01,-2.632033841838134549e+02,9.293763160705566406e+00,1.529837548732757568e-01,1.376853704452514648e+00,3.340000000000000000e+02
-5.167413910823800052e+02,-4.846114684857379302e+02,-1.069344270369577998e+02,-2.233364946980666446e+02,-5.076652664825792272e+02,-4.751613091734219552e+02,-4.556243984895638732e+01,-2.592607187941208622e+02,9.293763160705566406e+00,1.529837548732757568e-01,1.376853704452514648e+00,3.350000000000000000e+02
-5.153808044468305525e+02,-4.854708851639751401e+02,-1.044001082742440758e+02,-2.246543946831962444e+02,-5.030237419995714845e+02,-4.723646258109993141e+02,-4.407526349628585649e+01,-2.558104382532966952e+02,9.293763160705566406e+00,1.529837548732757568e-01,1.376853704452514648e+00,3.360000000000000000e+02
-5.144680512606864795e+02,-4.847447271775669151e+02,-1.031080050690018197e+02,-2.245221963427975425e+02,-4.987808592422541096e+02,-4.692997048279451064e+02,-4.265487992431383191e+01,-2.531468135417761118e+02,9.293763160705566406e+00,1.529837548732757568e-01,1.376853704452514648e+00,3.370000000000000000e+02
-5.140433752388233870e+02,-4.822557771582241912e+02,-1.029500902176855561e+02,-2.224728391192636536e+02,-4.951542400238536175e+02,-4.661144905001657435e+02,-4.194233982027765251e+01,-2.513373277516019471e+02,9.293763160705566406e+00,1.529837548732757568e-01,1.376853704452514648e+00,3.380000000000000000e+02
-5.145804322632661751e+02,-4.791585968576159189e+02,-1.037434744886214730e+02,-2.192990845367872907e+02,-4.924690075257418584e+02,-4.630065437854659649e+02,-4.242248694203772175e+01,-2.503524704043470024e+02,9.293763160705566406e+00,1.529837548732757568e-01,1.376853704452514648e+00,3.390000000000000000e+02
-5.164984258875226715e+02,-4.769574467261550126e+02,-1.052474959463193045e+02,-2.163282757490146651e+02,-4.909154995618216617e+02,-4.600345702277122655e+02,-4.394951520601114225e+01,-2.500073850724113527e+02,9.293763160705566406e+00,1.529837548732757568e-01,1.376853704452514648e+00,3.400000000000000000e+02
-5.195096770542145350e+02,-4.763054499380363609e+02,-1.070081817934778883e+02,-2.143216371958041009e+02,-4.900761226777402726e+02,-4.570163286719212010e+02,-4.576546885893333183e+01,-2.498176935054450496e+02,9.293763160705566406e+00,1.529837548732757568e-01,1.376853704452514648e+00,3.410000000000000000e+02
-5.224854486186111444e+02,-4.766260782028330709e+02,-1.083450948739879323e+02,-2.129852272321768965e+02,-4.888762853626592459e+02,-4.536863096695465174e+02,-4.703876961421724445e+01,-2.491052883028087308e+02,9.293763160705566406e+00,1.529837548732757568e-01,1.376853704452514648e+00,3.420000000000000000e+02
-5.240976947586894994e+02,-4.768281541099742071e+02,-1.086872325045360412e+02,-2.115015932092954358e+02,-4.862977661137742871e+02,-4.500329599260292071e+02,-4.747878529814920512e+01,-2.474848025982162198e+02,9.293763160705566406e+00,1.529837548732757568e-01,1.376853704452514648e+00,3.430000000000000000e+02
-5.237792177279604857e+02,-4.763570732368349354e+02,-1.080470373086036489e+02,-2.094925253898206847e+02,-4.823122517937672455e+02,-4.464731545934403130e+02,-4.748763494687284492e+01,-2.453739149837620062e+02,9.293763160705566406e+00,1.529837548732757568e-01,1.376853704452514648e+00,3.440000000000000000e+02
-5.221557817412827944e+02,-4.755453048186876686e+02,-1.071659167521430618e+02,-2.074299444217630253e+02,-4.780925011238093703e+02,-4.436150074844979372e+02,-4.775297892043113279e+01,-2.439479379810106821e+02,9.293763160705566406e+00,1.529837548732757568e-01,1.376853704452514648e+00,3.450000000000000000e+02
-5.205255389698351109e+02,-4.749460430622494300e+02,-1.070752030207160033e+02,-2.060911307403164301e+02,-4.751711907975304712e+02,-4.417435754701909900e+02,-4.868414590464476532e+01,-2.443443090541006768e+02,9.293763160705566406e+00,1.529837548732757568e-01,1.376853704452514648e+00,3.460000000000000000e+02
-5.197871583263001867e+02,-4.744141438290480437e+02,-1.083385505289115827e+02,-2.056469138586679719e+02,-4.742523244449132562e+02,-4.404711822414863036e+02,-5.017800797518930267e+01,-2.466777066830392187e+02,9.293763160705566406e+00,1.529837548732757568e-01,1.376853704452514648e+00,3.470000000000000000e+02
-5.197307216988937171e+02,-4.729988885550467899e+02,-1.105725086921170259e+02,-2.053741940086513296e+02,-4.747324939668339994e+02,-4.389055448992104402e+02,-5.182762933483718371e+01,-2.497510734607519680e+02,9.293763160705566406e+00,1.529837548732757568e-01,1.376853704452514648e+00,3.480000000000000000e+02
-5.192973002394510331e+02,-4.698649964989092496e+02,-1.126490485331723903e+02,-2.043452198707151410e+02,-4.752760185880993049e+02,-4.362436402960350961e+02,-5.324793951867991382e+01,-2.518343226700675359e+02,9.293763160705566406e+00,1.529837548732757568e-01,1.376853704452514648e+00,3.490000000000000000e+02
-5.175330118575855067e+02,-4.653282266239983755e+02,-1.134388386457771958e+02,-2.024404020337520933e+02,-4.748249009223395660e+02,-4.323459549634389987e+02,-5.420283194144474237e+01,-2.519104289273278710e+02,9.293763160705566406e+00,1.529837548732757568e-01,1.376853704452514648e+00,3.500000000000000000e+02
-5.143713877110116073e+02,-4.608473383753791950e+02,-1.125126358506824999e+02,-2.006314098815237230e+02,-4.731382429998939187e+02,-4.278551990652870245e+02,-5.452810238612505600e+01,-2.502723611519585347e+02,9.293763160705566406e+00,1.529837548732757568e-01,1.376853704452514648e+00,3.510000000000000000e+02
-5.105912625769301485e+02,-4.578208500460251571e+02,-1.102753082693971010e+02,-2.001567488154591956e+02,-4.705231377055570192e+02,-4.237560446226959812e+02,-5.405930312699672413e+01,-2.479369074880603421e+02,9.293763160705566406e+00,1.529837548732757568e-01,1.376853704452514648e+00,3.520000000000000000e+02
-5.070858527864213556e+02,-4.562964657337387848e+02,-1.075046671707023052e+02,-2.013189605218417455e+02,-4.672177097059028483e+02,-4.206796778560301391e+02,-5.270275590239748453e+01,-2.455046900407074872e+02,9.293763160705566406e+00,1.529837548732757568e-01,1.376853704452514648e+00,3.530000000000000000e+02
-5.041850253009185963e+02,-4.548946218845644580e+02,-1.047550632884691595e+02,-2.030655313387080696e+02,-4.631075475945856397e+02,-4.184323307820910713e+02,-5.055157250713853045e+01,-2.426535413631495430e+02,9.293763160705566406e+00,1.529837548732757568e-01,1.376853704452514648e+00,3.540000000000000000e+02
-5.016134621961666653e+02,-4.520772206892579561e+02,-1.021281470303160859e+02,-2.038072217357535010e+02,-4.580099506832291354e+02,-4.160970710087724456e+02,-4.790119461127301292e+01,-2.388034300608195508e+02,9.293763160705566406e+00,1.529837548732757568e-01,1.376853704452514648e+00,3.550000000000000000e+02
-4.989748826982258834e+02,-4.475462402347369562e+02,-9.952877309859093202e+01,-2.027545339840559109e+02,-4.521745395867123989e+02,-4.126832851848698738e+02,-4.517848808553469553e+01,-2.342544020559819273e+02,9.293763160705566406e+00,1.529837548732757568e-01,1.376853704452514648e+00,3.560000000000000000e+02
-4.961980709586038074e+02,-4.424381014544608206e+02,-9.707511317105479520e+01,-2.005628275800175970e+02,-4.464426874407438390e+02,-4.078869326683557119e+02,-4.286597625407659962e+01,-2.305497946687509057e+02,9.293763160705566406e+00,1.529837548732757568e-01,1.376853704452514648e+00,3.570000000000000000e+02
-4.935311528094359801e+02,-4.382019282566651555e+02,-9.521429307190737745e+01,-1.987274046868353707e+02,-4.418428256901705709e+02,-4.023955654239570094e+02,-4.141391538616051093e+01,-2.295396442373742047e+02,9.255517005920410156e+00,1.147378161549568176e-01,1.376853704452514648e+00,3.580000000000000000e+02
-4.912062385375182885e+02,-4.353289513960461363e+02,-9.440336731194236108e+01,-1.983191120211004090e+02,-4.389105531234191631e+02,-3.974598343797915732e+02,-4.104658577911936845e+01,-2.319122059041890225e+02,9.255517005920410156e+00,1.147378161549568176e-01,1.376853704452514648e+00,3.590000000000000000e+02
-4.891955706668300081e+02,-4.331598356705140986e+02,-9.467298014774019066e+01,-1.992145740837845551e+02,-4.373036768427483594e+02,-3.940373024098232690e+02,-4.151890364472183137e+01,-2.365230449006785420e+02,9.255517005920410156e+00,1.147378161549568176e-01,1.376853704452514648e+00,3.600000000000000000e+02
-4.872994446900648882e+02,-4.308440985775304171e+02,-9.553051707725785491e+01,-2.004349411703428814e+02,-4.360803868273585522e+02,-3.921881542197579620e+02,-4.210136742080658223e+01,-2.411327854107007624e+02,9.255517005920410156e+00,1.147378161549568176e-01,1.376853704452514648e+00,3.610000000000000000e+02
-4.854296505884256021e+02,-4.283887852381183166e+02,-9.634654409668405606e+01,-2.011438476457576598e+02,-4.344419613844361265e+02,-3.911910445227404125e+02,-4.199036808431583268e+01,-2.439023111731349900e+02,9.255517005920410156e+00,1.147378161549568176e-01,1.376853704452514648e+00,3.620000000000000000e+02
-4.837715602502030379e+02,-4.267159080953691728e+02,-9.690207770706467727e+01,-2.013208567064881436e+02,-4.323150284796115557e+02,-3.902103913056434976e+02,-4.093503797636640229e+01,-2.444082855396270588e+02,9.255517005920410156e+00,1.147378161549568176e-01,1.376853704452514648e+00,3.630000000000000000e+02
-4.826849981844087552e+02,-4.266963358637470947e+02,-9.758371162797675424e+01,-2.015496400398997139e+02,-4.302762854022064403e+02,-3.888746499040130402e+02,-3.953817774286972053e+01,-2.435238449469134139e+02,9.255517005920410156e+00,1.147378161549568176e-01,1.376853704452514648e+00,3.640000000000000000e+02
-4.824718977291281590e+02,-4.281274477480712903e+02,-9.902930139722650438e+01,-2.022715992434274312e+02,-4.289461055845108604e+02,-3.873148609791551280e+02,-3.889248581985702913e+01,-2.425616253003240672e+02,9.255517005920410156e+00,1.147378161549568176e-01,1.376853704452514648e+00,3.650000000000000000e+02
-4.831869867016750959e+02,-4.296389055850760315e+02,-1.015288212978646243e+02,-2.033116349846834510e+02,-4.284603394773826039e+02,-3.858047444308983813e+02,-3.979690094192073957e+01,-2.425292621731725831e+02,9.255517005920410156e+00,1.147378161549568176e-01,1.376853704452514648e+00,3.660000000000000000e+02
-4.845551018943266399e+02,-4.296497750416497183e+02,-1.046851112715182808e+02,-2.041106192192498838e+02,-4.284682640522357815e+02,-3.844774877108370674e+02,-4.218492970981424151e+01,-2.439287623985321716e+02,9.255517005920410156e+00,1.147378161549568176e-01,1.376853704452514648e+00,3.670000000000000000e+02
-4.859621771420199821e+02,-4.275730418025199242e+02,-1.075950321258569602e+02,-2.043484993633619524e+02,-4.285201206194560655e+02,-3.833710625889523271e+02,-4.519996189160747235e+01,-2.468368914646782741e+02,9.255517005920410156e+00,1.147378161549568176e-01,1.376853704452514648e+00,3.680000000000000000e+02
-4.865394686859974627e+02,-4.242681628411290831e+02,-1.093701419989056376e+02,-2.042814903626588148e+02,-4.283301840767567228e+02,-3.825855072275626299e+02,-4.776673589748747872e+01,-2.508447715526313004e+02,9.255517005920410156e+00,1.147378161549568176e-01,1.376853704452514648e+00,3.690000000000000000e+02
-4.853907178514527914e+02,-4.213507087913760643e+02,-1.095933470571935686e+02,-2.044517289058594542e+02,-4.276776683427433454e+02,-3.822202000760535157e+02,-4.916423665796401110e+01,-2.548875356105420451e+02,9.255517005920410156e+00,1.147378161549568176e-01,1.376853704452514648e+00,3.700000000000000000e+02
-4.819465967793800019e+02,-4.198608503330394797e+02,-1.084284299293640288e+02,-2.050579087582277680e+02,-4.262411709700963911e+02,-3.821013756911015662e+02,-4.924294941904872758e+01,-2.573956612789521614e+02,9.255517005920410156e+00,1.147378161549568176e-01,1.376853704452514648e+00,3.710000000000000000e+02
-4.763042884380997748e+02,-4.193229378269377321e+02,-1.063912946218933939e+02,-2.055972516788149278e+02,-4.237270704340785414e+02,-3.816497177666840344e+02,-4.827609544562528754e+01,-2.569977271778891463e+02,9.255517005920410156e+00,1.147378161549568176e-01,1.376853704452514648e+00,3.720000000000000000e+02
-4.693097321448128696e+02,-4.179836178428488438e+02,-1.039774762430261035e+02,-2.051096216512087267e+02,-4.201894674389970987e+02,-3.801427407137273349e+02,-4.665078390669168584e+01,-2.533677865923243644e+02,9.255517005920410156e+00,1.147378161549568176e-01,1.376853704452514648e+00,3.730000000000000000e+02
-4.622712029206273883e+02,-4.141224822570899278e+02,-1.013770649534653785e+02,-2.028126306173608100e+02,-4.160681872926797951e+02,-3.771835216097285866e+02,-4.459064843193027627e+01,-2.474949763232164059e+02,9.255517005920410156e+00,1.147378161549568176e-01,1.376853704452514648e+00,3.740000000000000000e+02
-4.564210210205679914e+02,-4.074436363572802975e+02,-9.844518299055630450e+01,-1.986371063214139667e+02,-4.117585412591165550e+02,-3.729488333321344271e+02,-4.203287254325232425e+01,-2.410463704210608284e+02,9.255517005920410156e+00,1.147378161549568176e-01,1.376853704452514648e+00,3.750000000000000000e+02
-4.523862012322216515e+02,-3.994342102570041106e+02,-9.497106218518115384e+01,-1.933204692342902717e+02,-4.071678509069711254e+02,-3.680190409870504027e+02,-3.876004814053067093e+01,-2.353079727314864158e+02,9.255517005920410156e+00,1.147378161549568176e-01,1.376853704452514648e+00,3.760000000000000000e+02
-4.499422558858663024e+02,-3.923439053738843540e+02,-9.107153921886560966e+01,-1.880540501735627004e+02,-4.018497870229496129e+02,-3.629743931344844441e+02,-3.474152494055374518e+01,-2.305703010167330831e+02,9.255517005920410156e+00,1.147378161549568176e-01,1.376853704452514648e+00,3.770000000000000000e+02
-4.481898596471820611e+02,-3.875941172880728800e+02,-8.737932662491903102e+01,-1.839538005210974916e+02,-3.956841982343235031e+02,-3.581050428461112460e+02,-3.041115077912309062e+01,-2.263844436646668328e+02,9.255517005920410156e+00,1.147378161549568176e-01,1.376853704452514648e+00,3.780000000000000000e+02
-4.460776235925499122e+02,-3.848912684070575096e+02,-8.477264959585590987e+01,-1.816223152166462569e+02,-3.893646385474323779e+02,-3.533900728891171639e+02,-2.655603997321122733e+01,-2.223125010021376511e+02,9.255517005920410156e+00,1.147378161549568176e-01,1.376853704452514648e+00,3.790000000000000000e+02
-4.429721678189267777e+02,-3.826806916264590654e+02,-8.373323939693318607e+01,-1.809183657012200683e+02,-3.840566835530535172e+02,-3.486441551705627262e+02,-2.378890800407748429e+01,-2.183777066797595126e+02,9.255517005920410156e+00,1.147378161549568176e-01,1.376853704452514648e+00,3.800000000000000000e+02
-4.389306753408001214e+02,-3.794472395697234788e+02,-8.382033681795041957e+01,-1.809802639084582552e+02,-3.804642451551505928e+02,-3.436853405155206929e+02,-2.202732273959531994e+01,-2.148362426603966924e+02,9.255517005920410156e+00,1.147378161549568176e-01,1.376853704452514648e+00,3.810000000000000000e+02
-4.345192171908693126e+02,-3.747564937328303358e+02,-8.378198113209737130e+01,-1.805406428763533313e+02,-3.782038687085243964e+02,-3.384650953488576306e+02,-2.050030519825622832e+01,-2.116531627885699436e+02,9.255517005920410156e+00,1.147378161549568176e-01,1.376853704452514648e+00,3.820000000000000000e+02
-4.303361243727374585e+02,-3.693181360054554716e+02,-8.235560281641505753e+01,-1.785095503772100756e+02,-3.761167825847653603e+02,-3.331497990349764677e+02,-1.836973477636001917e+01,-2.083658407183222607e+02,9.255517005920410156e+00,1.147378161549568176e-01,1.376853704452514648e+00,3.830000000000000000e+02
-4.266192299592804602e+02,-3.642704836871496354e+02,-7.919823456701305986e+01,-1.746046876845002771e+02,-3.732196225167353987e+02,-3.280953838870866548e+02,-1.544879542139256046e+01,-2.045611591984259121e+02,9.255517005920410156e+00,1.147378161549568176e-01,1.376853704452514648e+00,3.840000000000000000e+02
-4.232150200722134059e+02,-3.604061226666848370e+02,-7.519408872881103889e+01,-1.696308344568888060e+02,-3.694336603600861508e+02,-3.236806212139886156e+02,-1.238108417008197648e+01,-2.004595904667769446e+02,9.217270851135253906e+00,2.294756323099136353e-01,1.376853704452514648e+00,3.850000000000000000e+02
-4.198636292205884502e+02,-3.578419793868238230e+02,-7.184998778343083359e+01,-1.651095351972946901e+02,-3.655422737719902671e+02,-3.201054365861873521e+02,-1.013953339460067582e+01,-1.969126067890244940e+02,9.217270851135253906e+00,2.294756323099136353e-01,1.376853704452514648e+00,3.860000000000000000e+02
-4.164876795982881958e+02,-3.561346706274631515e+02,-7.023404841801857401e+01,-1.623832545647046572e+02,-3.625357349876774151e+02,-3.173218270424110869e+02,-9.292093236957953195e+00,-1.946980803518631546e+02,9.217270851135253906e+00,2.294756323099136353e-01,1.376853704452514648e+00,3.870000000000000000e+02
-4.131992364146344698e+02,-3.545859910263685606e+02,-7.027511575077414818e+01,-1.617762277076151349e+02,-3.609065446598497147e+02,-3.151437435242903575e+02,-9.625442904942246969e+00,-1.937389618652402987e+02,9.217270851135253906e+00,2.294756323099136353e-01,1.376853704452514648e+00,3.880000000000000000e+02
-4.100574679187809579e+02,-3.525667638014134582e+02,-7.092527916280141653e+01,-1.624407664985283191e+02,-3.603155829345828352e+02,-3.133767494489020464e+02,-1.032816311709120782e+01,-1.930132319923757223e+02,9.217270851135253906e+00,2.294756323099136353e-01,1.376853704452514648e+00,3.890000000000000000e+02
-4.068630478893858253e+02,-3.497930181859939012e+02,-7.100688979890446717e+01,-1.630458178342387328e+02,-3.597651733196209989e+02,-3.118202286520258895e+02,-1.050340506721545353e+01,-1.913330546267084173e+02,9.217270851135253906e+00,2.294756323099136353e-01,1.376853704452514648e+00,3.900000000000000000e+02
-4.032317853201818707e+02,-3.464391889296023237e+02,-7.005680526697392452e+01,-1.627731560173904199e+02,-3.582090524677810208e+02,-3.102042374959769404e+02,-9.650262636003844818e+00,-1.883454048942530790e+02,9.217270851135253906e+00,2.294756323099136353e-01,1.376853704452514648e+00,3.910000000000000000e+02
-3.988955129547307479e+02,-3.429661765766602457e+02,-6.855775226195419236e+01,-1.618266794408823444e+02,-3.553095387994765133e+02,-3.082508943176283083e+02,-7.883766309877955791e+00,-1.848785351925992018e+02,9.217270851135253906e+00,2.294756323099136353e-01,1.376853704452514648e+00,3.920000000000000000e+02
-3.939406598972448137e+02,-3.397573769677026121e+02,-6.746158888836271217e+01,-1.610921786606434125e+02,-3.518335801317707592e+02,-3.059013237708154520e+02,-5.845986570262311943e+00,-1.823222977452223859e+02,9.217270851135253906e+00,2.294756323099136353e-01,1.376853704452514648e+00,3.930000000000000000e+02
-3.887556600878388053e+02,-3.368911732910728460e+02,-6.742232935920787895e+01,-1.612955134976516547e+02,-3.492279782683372105e+02,-3.034624962506704833e+02,-4.354191032507060299e+00,-1.815426415854365132e+02,9.217270851135253906e+00,2.294756323099136353e-01,1.376853704452514648e+00,3.940000000000000000e+02
-3.837547972672618926e+02,-3.342679927585938913e+02,-6.832196098948838880e+01,-1.623730669498049792e+02,-3.485067289333660483e+02,-3.014131721563176143e+02,-3.930612109277035415e+00,-1.821655890685151462e+02,9.217270851135253906e+00,2.294756323099136353e-01,1.376853704452514648e+00,3.950000000000000000e+02
-3.791539578784570494e+02,-3.318987248025662211e+02,-6.938595614976384240e+01,-1.634976195888020811e+02,-3.493078518632341911e+02,-2.999517601782556540e+02,-4.454052359164506925e+00,-1.827122283615406104e+02,9.217270851135253906e+00,2.294756323099136353e-01,1.376853704452514648e+00,3.960000000000000000e+02
-3.749716648609064578e+02,-3.299300609152239758e+02,-6.972381450247667090e+01,-1.635996309087315694e+02,-3.500000954502024797e+02,-2.986862380830298207e+02,-5.151867334010603372e+00,-1.814192053993506306e+02,9.217270851135253906e+00,2.294756323099136353e-01,1.376853704452514648e+00,3.970000000000000000e+02
-3.711337152581400005e+02,-3.282814750091815768e+02,-6.883162743998673250e+01,-1.618942835902876141e+02,-3.488489081110517418e+02,-2.968008528635191396e+02,-4.955550538338911792e+00,-1.771541166389422415e+02,9.217270851135253906e+00,2.294756323099136353e-01,1.376853704452514648e+00,3.980000000000000000e+02
-3.674626319869284998e+02,-3.263207192460897659e+02,-6.670709776564490312e+01,-1.581210898487304348e+02,-3.452252346550283164e+02,-2.935990275884000766e+02,-3.021697001716802333e+00,-1.699224604562268723e+02,9.217270851135253906e+00,2.294756323099136353e-01,1.376853704452514648e+00,3.990000000000000000e+02
-3.635541130118986075e+02,-3.231221455473953483e+02,-6.360666750199493436e+01,-1.525755278683323013e+02,-3.398038083620936050e+02,-2.889827668021180216e+02,8.442534680289099924e-01,-1.607970207082776142e+02,9.217270851135253906e+00,2.294756323099136353e-01,1.376853704452514648e+00,4.000000000000000000e+02
-3.588236281636980038e+02,-3.182881713973465594e+02,-5.978932568360937694e+01,-1.461111085138691124e+02,-3.337204656459302896e+02,-2.835218306476031103e+02,6.024561084787819709e+00,-1.514343380825634995e+02,9.217270851135253906e+00,2.294756323099136353e-01,1.376853704452514648e+00,4.010000000000000000e+02
-3.529620493607390017e+02,-3.125946564905480045e+02,-5.552916204277084944e+01,-1.400578437177714477e+02,-3.276518230251372188e+02,-2.781213735681724302e+02,1.125045761545470668e+01,-1.434825620282194905e+02,9.217270851135253906e+00,2.294756323099136353e-01,1.376853704452514648e+00,4.020000000000000000e+02
-3.465602181513672804e+02,-3.076943832506274248e+02,-5.132253102961021796e+01,-1.358314926464875043e+02,-3.217130260097760583e+02,-2.735767357246093070e+02,1.509693118360928565e+01,-1.380970739965255234e+02,9.217270851135253906e+00,2.294756323099136353e-01,1.376853704452514648e+00,4.030000000000000000e+02
-3.412187468790639286e+02,-3.049592236768041857e+02,-4.795261871469392645e+01,-1.342426315683360372e+02,-3.160690421283125033e+02,-2.702766724544430872e+02,1.667476980136689235e+01,-1.356769843008457883e+02,9.217270851135253906e+00,2.294756323099136353e-01,1.376853704452514648e+00,4.040000000000000000e+02
-3.387385981551115037e+02,-3.044233096435864354e+02,-4.619854651776563514e+01,-1.349397986229507751e+02,-3.113959970964679087e+02,-2.681385867425392462e+02,1.614346233786864104e+01,-1.358431699057248352e+02,9.217270851135253906e+00,2.294756323099136353e-01,1.376853704452514648e+00,4.050000000000000000e+02
-3.398197331988646965e+02,-3.048003390455976387e+02,-4.636674474004985314e+01,-1.365142695283066132e+02,-3.086066974160664813e+02,-2.667473588121356443e+02,1.460334711302084543e+01,-1.376276453321902409e+02,9.217270851135253906e+00,2.294756323099136353e-01,1.376853704452514648e+00,4.060000000000000000e+02
-3.433390227778490953e+02,-3.046031908585241581e+02,-4.808256964066845285e+01,-1.373493379145738800e+02,-3.081340729476294200e+02,-2.656289366189225802e+02,1.330630356440406104e+01,-1.398365746884555847e+02,9.217270851135253906e+00,2.294756323099136353e-01,1.376853704452514648e+00,4.070000000000000000e+02
-3.469610650878387332e+02,-3.033724572786456974e+02,-5.058179193356227188e+01,-1.366545308550792015e+02,-3.095403489668342445e+02,-2.645427060966339923e+02,1.273100402959789790e+01,-1.415019715391263162e+02,9.217270851135253906e+00,2.294756323099136353e-01,1.376853704452514648e+00,4.080000000000000000e+02
-3.486990967945685043e+02,-3.019186363327546587e+02,-5.324277507659485309e+01,-1.348875021520948394e+02,-3.118065597187501226e+02,-2.635924055384862186e+02,1.232650770230156922e+01,-1.422494684742159734e+02,9.217270851135253906e+00,2.294756323099136353e-01,1.376853704452514648e+00,4.090000000000000000e+02
-3.481322246873623953e+02,-3.014118308133090522e+02,-5.585755695876628124e+01,-1.332483111766596267e+02,-3.139420269402826307e+02,-2.630371888710601525e+02,1.118490768573610694e+01,-1.423682720732504094e+02,9.217270851135253906e+00,2.294756323099136353e-01,1.376853704452514648e+00,4.100000000000000000e+02
-3.462598500387414333e+02,-3.022147330482257530e+02,-5.840848305447252642e+01,-1.326945046704220204e+02,-3.153457784474335313e+02,-2.629331276897373755e+02,9.013562923513291025e+00,-1.424945860376551536e+02,9.217270851135253906e+00,2.294756323099136353e-01,1.376853704452514648e+00,4.110000000000000000e+02
-3.442597822159038969e+02,-3.035393552088030447e+02,-6.064567138270149371e+01,-1.332789037624120283e+02,-3.157433616876514861e+02,-2.629186633925819478e+02,6.467321722855103872e+00,-1.430970239066371050e+02,9.217270851135253906e+00,2.294756323099136353e-01,1.376853704452514648e+00,4.120000000000000000e+02
-3.423939589648230140e+02,-3.041722846213222056e+02,-6.197817380456262981e+01,-1.342739528065260401e+02,-3.149915506854554224e+02,-2.623907996893171912e+02,4.525229429464161512e+00,-1.441378878436328250e+02,9.217270851135253906e+00,2.294756323099136353e-01,1.376853704452514648e+00,4.130000000000000000e+02
-3.400557060600751811e+02,-3.035121268681355104e+02,-6.189057728965326532e+01,-1.348635314106004444e+02,-3.130690576861356931e+02,-2.609589860681517166e+02,3.574831213226389082e+00,-1.451711327907007671e+02,9.217270851135253906e+00,2.294756323099136353e-01,1.376853704452514648e+00,4.140000000000000000e+02
-3.367415374206304932e+02,-3.019350736551225509e+02,-6.053449629398210163e+01,-1.347606344931114108e+02,-3.102602766447844260e+02,-2.587849172369537882e+02,3.133026177585634287e+00,-1.457684307629847353e+02,9.217270851135253906e+00,2.294756323099136353e-01,1.376853704452514648e+00,4.150000000000000000e+02
-3.328335021347622842e+02,-3.002420507990900660e+02,-5.889272884991260071e+01,-1.342669550783914474e+02,-3.072754120087529373e+02,-2.565080790178503776e+02,2.437575318294875615e+00,-1.458621034512805181e+02,9.255517005920410156e+00,1.912296712398529053e-01,1.453345537185668945e+00,4.160000000000000000e+02
-3.293998334635625724e+02,-2.988457986522525971e+02,-5.824702723774680635e+01,-1.338340694772368806e+02,-3.050690682285066941e+02,-2.548096371297629048e+02,1.243917579143271723e+00,-1.456829051424469981e+02,9.255517005920410156e+00,1.912296712398529053e-01,1.453345537185668945e+00,4.170000000000000000e+02
-3.272947144988738728e+02,-2.975424739176780804e+02,-5.930759526738484055e+01,-1.335933373579282488e+02,-3.043694299378144024e+02,-2.539635467548914676e+02,-4.531398341896419879e-03,-1.453925103305296034e+02,9.255517005920410156e+00,1.912296712398529053e-01,1.453345537185668945e+00,4.180000000000000000e+02
-3.265089489444385435e+02,-2.960188466223200976e+02,-6.171041763214952880e+01,-1.332652549248557534e+02,-3.051840049710517633e+02,-2.536996750073071780e+02,-7.443236023327699513e-01,-1.448360714658520010e+02,9.255517005920410156e+00,1.912296712398529053e-01,1.453345537185668945e+00,4.190000000000000000e+02
-3.263207261079969612e+02,-2.944173273016081112e+02,-6.430202049451645507e+01,-1.324706116664738147e+02,-3.066571503985646814e+02,-2.534396928083842795e+02,-9.381690918098684051e-01,-1.437069595274738276e+02,9.255517005920410156e+00,1.912296712398529053e-01,1.453345537185668945e+00,4.200000000000000000e+02
-3.259040231188369034e+02,-2.932543465630515129e+02,-6.596002766437595710e+01,-1.311066109210153172e+02,-3.074946003093859872e+02,-2.526850914300835029e+02,-1.117657699849587516e+00,-1.419359061668410504e+02,9.255517005920410156e+00,1.912296712398529053e-01,1.453345537185668945e+00,4.210000000000000000e+02
-3.247277342876432158e+02,-2.927495758062007098e+02,-6.626852250805541189e+01,-1.294371339925346547e+02,-3.067438114667429545e+02,-2.512494145446717084e+02,-1.819556014374484221e+00,-1.398472780458355373e+02,9.255517005920410156e+00,1.912296712398529053e-01,1.453345537185668945e+00,4.220000000000000000e+02
-3.225097103796504143e+02,-2.923414911716886309e+02,-6.554421529075671060e+01,-1.278332982479423663e+02,-3.043502015075641793e+02,-2.491971239551262443e+02,-3.042713726170404698e+00,-1.378631398538248050e+02,9.255517005920410156e+00,1.912296712398529053e-01,1.453345537185668945e+00,4.230000000000000000e+02
-3.190742170686371537e+02,-2.910189900629934527e+02,-6.431617738682507479e+01,-1.264204387832833163e+02,-3.010027398526035540e+02,-2.465961086248712490e+02,-4.279232592427433701e+00,-1.360496151379711591e+02,9.255517005920410156e+00,1.912296712398529053e-01,1.453345537185668945e+00,4.240000000000000000e+02
-3.144696756800860840e+02,-2.882078451915422193e+02,-6.282302576773508918e+01,-1.249609779225995680e+02,-2.973934185137072745e+02,-2.433531906696930491e+02,-5.052072672956910537e+00,-1.340108251144279166e+02,9.255517005920410156e+00,1.912296712398529053e-01,1.453345537185668945e+00,4.250000000000000000e+02
-3.091936797938440122e+02,-2.843034397124984025e+02,-6.099315960169451500e+01,-1.230531288185927679e+02,-2.936081833657535753e+02,-2.393211085225912029e+02,-5.383588404217334755e+00,-1.312881944147507056e+02,9.255517005920410156e+00,1.912296712398529053e-01,1.453345537185668945e+00,4.260000000000000000e+02
-3.041351945620178867e+02,-2.802621781894947617e+02,-5.883174025786729544e+01,-1.204437332464901829e+02,-2.892768639958544554e+02,-2.345860502690266003e+02,-5.693761260501560173e+00,-1.278874653229295291e+02,9.255517005920410156e+00,1.912296712398529053e-01,1.453345537185668945e+00,4.270000000000000000e+02
-3.001234603777563734e+02,-2.766564185472757345e+02,-5.671806524689918660e+01,-1.172048881830864957e+02,-2.843294838591418738e+02,-2.296436381967814668e+02,-6.229300080956818420e+00,-1.244126894351065857e+02,9.255517005920410156e+00,1.912296712398529053e-01,1.453345537185668945e+00,4.280000000000000000e+02
-2.974494793185779145e+02,-2.731824365195125210e+02,-5.523943154754397256e+01,-1.136753614107551584e+02,-2.794912925929875200e+02,-2.252306680788269659e+02,-6.609655146275144944e+00,-1.216702625027442082e+02,9.255517005920410156e+00,1.912296712398529053e-01,1.453345537185668945e+00,4.290000000000000000e+02
-2.957847512433365864e+02,-2.691182701704467490e+02,-5.469155798756128206e+01,-1.102650669968807051e+02,-2.758693333600826918e+02,-2.218985287075502129e+02,-5.992717797412296932e+00,-1.201065327523092492e+02,9.255517005920410156e+00,1.912296712398529053e-01,1.453345537185668945e+00,4.300000000000000000e+02
-2.945148669651096043e+02,-2.642380849833775756e+02,-5.476315990372813758e+01,-1.072963401422684910e+02,-2.739662370768724031e+02,-2.196937828769846419e+02,-3.809367067504354054e+00,-1.195702494138904513e+02,9.255517005920410156e+00,1.912296712398529053e-01,1.453345537185668945e+00,4.310000000000000000e+02
-2.931222787613151013e+02,-2.592405040426340292e+02,-5.475459607732409495e+01,-1.049379721269840502e+02,-2.731141871115787580e+02,-2.182146822301938300e+02,-4.255957766122264729e-01,-1.195323704594570700e+02,9.255517005920410156e+00,1.912296712398529053e-01,1.453345537185668945e+00,4.320000000000000000e+02
-2.913057377570394237e+02,-2.552606906804392111e+02,-5.414821301523898001e+01,-1.032047401007798726e+02,-2.719564864590383877e+02,-2.169588686373972450e+02,2.930134590983925591e+00,-1.194800249248232831e+02,9.255517005920410156e+00,1.912296712398529053e-01,1.453345537185668945e+00,4.330000000000000000e+02
-2.889009756763171026e+02,-2.529624721492430126e+02,-5.299713597227582795e+01,-1.019839470821495979e+02,-2.695533755620704142e+02,-2.156117174114056070e+02,5.023394329663460667e+00,-1.191363191699429080e+02,9.255517005920410156e+00,1.912296712398529053e-01,1.453345537185668945e+00,4.340000000000000000e+02
-2.858496081202274581e+02,-2.520582274774078542e+02,-5.178335510050283119e+01,-1.010921976419112980e+02,-2.660949488779569947e+02,-2.140620418258604332e+02,5.566351144958389341e+00,-1.184335577912943336e+02,9.255517005920410156e+00,1.912296712398529053e-01,1.453345537185668945e+00,4.350000000000000000e+02
-2.822938430255021558e+02,-2.516099071860508047e+02,-5.092230880686565797e+01,-1.003767597609603399e+02,-2.626306274496096194e+02,-2.122649075201184132e+02,5.409642715580957884e+00,-1.174222035242037236e+02,9.255517005920410156e+00,1.912296712398529053e-01,1.453345537185668945e+00,4.360000000000000000e+02
-2.786412478122474567e+02,-2.507415058305132334e+02,-5.040841158830835411e+01,-9.982033363507116519e+01,-2.601561179912760053e+02,-2.101912055618859085e+02,5.771396069222191727e+00,-1.162599833217423111e+02,9.255517005920410156e+00,1.147378161549568176e-01,1.453345537185668945e+00,4.370000000000000000e+02
-2.754453845982166058e+02,-2.491417469644507037e+02,-4.992112272056556321e+01,-9.958385675408749194e+01,-2.589077864138675977e+02,-2.079209061734154602e+02,7.178700908350037935e+00,-1.152249326339970139e+02,9.255517005920410156e+00,1.147378161549568176e-01,1.453345537185668945e+00,4.380000000000000000e+02
-2.731815200023208945e+02,-2.470775168426732762e+02,-4.924656559538289002e+01,-9.994974062289202266e+01,-2.583804682982313352e+02,-2.056923165848784265e+02,9.056630767203387222e+00,-1.146260981024220200e+02,9.255517005920410156e+00,1.147378161549568176e-01,1.453345537185668945e+00,4.390000000000000000e+02
-2.720846487251260442e+02,-2.450964762212865935e+02,-4.860985210340550111e+01,-1.012159483607827042e+02,-2.579005143796093762e+02,-2.037817986237205332e+02,1.026490879481616503e+01,-1.146408251706043302e+02,9.255517005920410156e+00,1.147378161549568176e-01,1.453345537185668945e+00,4.400000000000000000e+02
-2.721102409826689836e+02,-2.437229461370538957e+02,-4.863126408139896739e+01,-1.036054395666085384e+02,-2.572086174229470998e+02,-2.023447045305083520e+02,1.001172128406687989e+01,-1.152325239893484650e+02,9.255517005920410156e+00,1.147378161549568176e-01,1.453345537185668945e+00,4.410000000000000000e+02
-2.729492857038774218e+02,-2.432849585482958901e+02,-4.993164049318875186e+01,-1.071785525154527932e+02,-2.566226208494381353e+02,-2.014195560597113399e+02,8.329495082826724683e+00,-1.162306730117202278e+02,9.255517005920410156e+00,1.147378161549568176e-01,1.453345537185668945e+00,4.420000000000000000e+02
-2.740454989310483143e+02,-2.438309876221844661e+02,-5.266158839951185655e+01,-1.117345408677681462e+02,-2.567178783120798471e+02,-2.010751764321639712e+02,5.843916367538440682e+00,-1.174515407002527354e+02,9.255517005920410156e+00,1.147378161549568176e-01,1.453345537185668945e+00,4.430000000000000000e+02
-2.746904445745819885e+02,-2.450955907184727494e+02,-5.625529247143549583e+01,-1.167300987148819331e+02,-2.577603722622529858e+02,-2.014242319843274345e+02,3.270796744484414376e+00,-1.186730646094492840e+02,9.255517005920410156e+00,1.147378161549568176e-01,1.453345537185668945e+00,4.440000000000000000e+02
-2.742584462815427742e+02,-2.465435134895508327e+02,-5.958027789204379587e+01,-1.213282920952349286e+02,-2.593061211735562210e+02,-2.023654361857893491e+02,1.164617493639525492e+00,-1.194938471515815763e+02,9.255517005920410156e+00,1.147378161549568176e-01,1.453345537185668945e+00,4.450000000000000000e+02
-2.724689668384532979e+02,-2.475137681860937846e+02,-6.147295863835734053e+01,-1.246803564069391541e+02,-2.603446995701488049e+02,-2.033402115628982756e+02,-4.492192146517481888e-02,-1.193574877641522107e+02,9.255517005920410156e+00,1.147378161549568176e-01,1.453345537185668945e+00,4.460000000000000000e+02
-2.694627044785938779e+02,-2.474404977579108618e+02,-6.139750553230805963e+01,-1.263502269041123327e+02,-2.599872843867046868e+02,-2.035149684218963557e+02,-6.203105539134412538e-02,-1.179174050264718971e+02,9.255517005920410156e+00,1.147378161549568176e-01,1.453345537185668945e+00,4.470000000000000000e+02
-2.656199787198081594e+02,-2.460932375769521059e+02,-5.978858280475651554e+01,-1.266131074842217004e+02,-2.582103905699600546e+02,-2.024007030739826405e+02,1.045520077519995539e+00,-1.154953178172418120e+02,9.255517005920410156e+00,1.147378161549568176e-01,1.453345537185668945e+00,4.480000000000000000e+02
-2.613071571967393538e+02,-2.437339221761203589e+02,-5.776255912245005675e+01,-1.263686251579902091e+02,-2.559648160166984781e+02,-2.003684891963580412e+02,2.669041470798674709e+00,-1.131267764804797480e+02,9.255517005920410156e+00,1.147378161549568176e-01,1.453345537185668945e+00,4.490000000000000000e+02
-2.567643627637805821e+02,-2.410437976361054098e+02,-5.630680538048954986e+01,-1.266235512082078003e+02,-2.544139593905051697e+02,-1.984751921201896039e+02,3.916137262668598851e+00,-1.119320622664736220e+02,9.255517005920410156e+00,1.147378161549568176e-01,1.453345537185668945e+00,4.500000000000000000e+02
-2.521431922610490801e+02,-2.387286432515913930e+02,-5.553627535215809985e+01,-1.278203358671798924e+02,-2.538956712569902265e+02,-1.976480341884512200e+02,4.223585153379644908e+00,-1.122279034905682238e+02,9.255517005920410156e+00,1.147378161549568176e-01,1.453345537185668945e+00,4.510000000000000000e+02
-2.475582020145402566e+02,-2.369732652550110288e+02,-5.466125701864939401e+01,-1.294568700255479143e+02,-2.535581072491818304e+02,-1.979330326130384492e+02,3.793723687575038639e+00,-1.131876230804846273e+02,9.255517005920410156e+00,1.147378161549568176e-01,1.453345537185668945e+00,4.520000000000000000e+02
-2.430700310075653761e+02,-2.351819711663802082e+02,-5.275255954124349955e+01,-1.302965239867464788e+02,-2.520737085891437346e+02,-1.984954933816820812e+02,3.419552397515417397e+00,-1.134570108235266162e+02,9.255517005920410156e+00,1.147378161549568176e-01,1.453345537185668945e+00,4.530000000000000000e+02
-2.386755816807087740e+02,-2.323817011606799952e+02,-4.967111407303400483e+01,-1.290864145745217684e+02,-2.488207402227399143e+02,-1.983376016393813188e+02,3.840310923481411010e+00,-1.122617037767872716e+02,9.255517005920410156e+00,1.147378161549568176e-01,1.453345537185668945e+00,4.540000000000000000e+02
-2.343973402096135032e+02,-2.281113312242559914e+02,-4.632582692978257910e+01,-1.253563084587674439e+02,-2.444664505024552454e+02,-1.970437360648011236e+02,5.199670381047326373e+00,-1.100158162187390190e+02,9.255517005920410156e+00,1.147378161549568176e-01,1.453345537185668945e+00,4.550000000000000000e+02
-2.303799920006804314e+02,-2.230363627589820226e+02,-4.399597344238190999e+01,-1.197797190919923196e+02,-2.404456046467807937e+02,-1.949293008442182327e+02,7.031701716147836123e+00,-1.078681051411012959e+02,9.255517005920410156e+00,1.147378161549568176e-01,1.453345537185668945e+00,4.560000000000000000e+02
-2.268021594646072572e+02,-2.186181708020315000e+02,-4.330026058493513119e+01,-1.138254810512116819e+02,-2.378304674755522683e+02,-1.926016124813227179e+02,8.689487612239190639e+00,-1.066370556844003659e+02,9.255517005920410156e+00,1.147378161549568176e-01,1.453345537185668945e+00,4.570000000000000000e+02
-2.236332850869580398e+02,-2.159838801757973670e+02,-4.373382583175725813e+01,-1.089249286053152446e+02,-2.366003925914683350e+02,-1.904772212769994439e+02,9.782511755584437196e+00,-1.061699559225112353e+02,9.255517005920410156e+00,1.147378161549568176e-01,1.453345537185668945e+00,4.580000000000000000e+02
-2.205150618650816341e+02,-2.149580851131722739e+02,-4.416669373075365002e+01,-1.057207357692341247e+02,-2.358667790567101292e+02,-1.886862570965986379e+02,1.031320215612959146e+01,-1.056997384198766667e+02,9.255517005920410156e+00,1.147378161549568176e-01,1.453345537185668945e+00,4.590000000000000000e+02
-2.169980839702332105e+02,-2.141650920902718553e+02,-4.379998643588169216e+01,-1.038768244355082970e+02,-2.347243477748656915e+02,-1.872908492141464194e+02,1.054034783655379215e+01,-1.047539369155742861e+02,9.255517005920410156e+00,1.147378161549568176e-01,1.453345537185668945e+00,4.600000000000000000e+02
-2.129996169752762398e+02,-2.121548850735468932e+02,-4.268014877656150929e+01,-1.025062542376531383e+02,-2.329129014237528281e+02,-1.864314540328218754e+02,1.079233160759349630e+01,-1.036318393894453038e+02,9.255517005920410156e+00,1.147378161549568176e-01,1.453345537185668945e+00,4.610000000000000000e+02
-2.090302764674056561e+02,-2.085618919926339458e+02,-4.136260494351290617e+01,-1.008468565086639046e+02,-2.307575026264189546e+02,-1.862025901398092174e+02,1.136622514198825229e+01,-1.029980891382215304e+02,9.332008361816406250e+00,1.529837548732757568e-01,1.415099620819091797e+00,4.620000000000000000e+02
-2.058670395470310268e+02,-2.042600019629996950e+02,-4.015389063898510358e+01,-9.867398527187197033e+01,-2.285690746762329582e+02,-1.864508409636305259e+02,1.248308697610764284e+01,-1.030949275745456362e+02,9.332008361816406250e+00,1.529837548732757568e-01,1.415099620819091797e+00,4.630000000000000000e+02
-2.038891139062820912e+02,-2.004614915218508031e+02,-3.874087992702152405e+01,-9.621173626559289005e+01,-2.261615318056728938e+02,-1.867837649504403998e+02,1.423811534813830804e+01,-1.034336887452309384e+02,9.332008361816406250e+00,1.529837548732757568e-01,1.415099620819091797e+00,4.640000000000000000e+02
-2.026727249208249759e+02,-1.976815789168072115e+02,-3.658218292400533755e+01,-9.372383862223659889e+01,-2.230002546820473981e+02,-1.868118358695783172e+02,1.655156981539039407e+01,-1.032326866728003552e+02,9.332008361816406250e+00,1.529837548732757568e-01,1.415099620819091797e+00,4.650000000000000000e+02
-2.012543864627616585e+02,-1.955087902020957245e+02,-3.363693991536501926e+01,-9.117482879370754745e+01,-2.188685039433971724e+02,-1.863515005091617240e+02,1.916973786222206400e+01,-1.020524193495757572e+02,9.332008361816406250e+00,1.529837548732757568e-01,1.415099620819091797e+00,4.660000000000000000e+02
-1.988893099905876625e+02,-1.932532432345310554e+02,-3.065379091131899258e+01,-8.824653143986688519e+01,-2.143668270404514260e+02,-1.853463154441569714e+02,2.175163983767970421e+01,-9.996030285809320048e+01,9.332008361816406250e+00,1.529837548732757568e-01,1.415099620819091797e+00,4.670000000000000000e+02
-1.956788488367149057e+02,-1.907001745600130107e+02,-2.868681043177593892e+01,-8.468797033684313647e+01,-2.106418953831753242e+02,-1.836201442688720817e+02,2.400943328385619679e+01,-9.718935406769060137e+01,9.332008361816406250e+00,1.529837548732757568e-01,1.415099620819091797e+00,4.680000000000000000e+02
-1.925462302581906897e+02,-1.881924500074892421e+02,-2.827525779146753848e+01,-8.070668026493331126e+01,-2.084514887035388711e+02,-1.808253651373916000e+02,2.581645149377345660e+01,-9.385748500863110166e+01,9.332008361816406250e+00,1.529837548732757568e-01,1.415099620819091797e+00,4.690000000000000000e+02
-1.905569301954692492e+02,-1.860344281960574335e+02,-2.905107554129108394e+01,-7.706661618775228817e+01,-2.074148564788283693e+02,-1.767873351764019390e+02,2.720150786945168875e+01,-9.014715425278109251e+01,9.332008361816406250e+00,1.529837548732757568e-01,1.415099620819091797e+00,4.700000000000000000e+02
-1.900841098901635178e+02,-1.839392221912601144e+02,-3.009511163688330271e+01,-7.474341460320397346e+01,-2.062546407370746238e+02,-1.719782202741844230e+02,2.823504071980323715e+01,-8.662766774353349319e+01,9.332008361816406250e+00,1.529837548732757568e-01,1.415099620819091797e+00,4.710000000000000000e+02
-1.904481561454558687e+02,-1.811934104068288889e+02,-3.062930561468147062e+01,-7.432274686215987458e+01,-2.038976745341929018e+02,-1.675685102987999926e+02,2.892808709475139040e+01,-8.410966117656107599e+01,9.332008361816406250e+00,1.529837548732757568e-01,1.415099620819091797e+00,4.720000000000000000e+02
-1.903244727430671901e+02,-1.774423658495732070e+02,-3.040059268718096064e+01,-7.558836091158195813e+01,-2.004069517669154266e+02,-1.648079386736530978e+02,2.926232452532212847e+01,-8.297116206395162408e+01,9.332008361816406250e+00,1.529837548732757568e-01,1.415099620819091797e+00,4.730000000000000000e+02
-1.886625984306676855e+02,-1.732968077768459807e+02,-2.953664813126488298e+01,-7.765387152587504715e+01,-1.968176398671448624e+02,-1.641302893582942488e+02,2.932822782428092978e+01,-8.265267842593607384e+01,9.332008361816406250e+00,1.529837548732757568e-01,1.415099620819091797e+00,4.740000000000000000e+02
-1.854814127497641039e+02,-1.700184204083950590e+02,-2.824288137384110087e+01,-7.955351316205997136e+01,-1.940694524358696071e+02,-1.647560535854959198e+02,2.938514485143423371e+01,-8.201071518241542435e+01,9.332008361816406250e+00,1.529837548732757568e-01,1.415099620819091797e+00,4.750000000000000000e+02
-1.819380839330096933e+02,-1.684033599752256123e+02,-2.678957855356202344e+01,-8.078852672202970098e+01,-1.921857555351252813e+02,-1.652231143078683999e+02,2.969818595657989135e+01,-8.033627401235253274e+01,9.332008361816406250e+00,1.529837548732757568e-01,1.415099620819091797e+00,4.760000000000000000e+02
-1.795564038048651128e+02,-1.678547760541925982e+02,-2.572212740546638088e+01,-8.133658037793156836e+01,-1.905413444127407274e+02,-1.644304960174017651e+02,3.027854536715449285e+01,-7.802314228522845951e+01,9.332008361816406250e+00,1.529837548732757568e-01,1.415099620819091797e+00,4.770000000000000000e+02
-1.791350551953219110e+02,-1.666295025256044937e+02,-2.581727562606329229e+01,-8.116556223024531391e+01,-1.888325233505611322e+02,-1.622998185668120641e+02,3.082640799058299308e+01,-7.615449153211875455e+01,9.332008361816406250e+00,1.529837548732757568e-01,1.415099620819091797e+00,4.780000000000000000e+02
-1.801588188202199490e+02,-1.632460258226617498e+02,-2.753612994390891799e+01,-7.983918884077615985e+01,-1.875548404252863293e+02,-1.595273529417518148e+02,3.101841570750138999e+01,-7.540929660060965034e+01,9.332008361816406250e+00,1.529837548732757568e-01,1.415099620819091797e+00,4.790000000000000000e+02
-1.811715732394984570e+02,-1.578965829826847767e+02,-3.039311042814915709e+01,-7.678168097061461594e+01,-1.873934556560193414e+02,-1.567968097574580497e+02,3.087810479076188130e+01,-7.543041090444557994e+01,9.332008361816406250e+00,1.529837548732757568e-01,1.415099620819091797e+00,4.800000000000000000e+02
-1.808117753497040212e+02,-1.525306901746721451e+02,-3.296021583835863566e+01,-7.204570287959063535e+01,-1.882305012329393321e+02,-1.542877830218903910e+02,3.081652059159569035e+01,-7.528766899870333873e+01,9.332008361816406250e+00,1.529837548732757568e-01,1.415099620819091797e+00,4.810000000000000000e+02
-1.786851214140838238e+02,-1.493875056420281453e+02,-3.372222013760688242e+01,-6.674758744712448788e+01,-1.889525860908693176e+02,-1.518760023085997091e+02,3.125099252292875462e+01,-7.446621363220879175e+01,9.332008361816406250e+00,1.529837548732757568e-01,1.415099620819091797e+00,4.820000000000000000e+02
-1.754231510511972374e+02,-1.491823914615904414e+02,-3.214161541780231346e+01,-6.252516666512065058e+01,-1.883388182773778681e+02,-1.496138687512484466e+02,3.217283984574942224e+01,-7.325794486685072116e+01,9.332008361816406250e+00,1.529837548732757568e-01,1.415099620819091797e+00,4.830000000000000000e+02
-1.720014465829872279e+02,-1.505360002910595085e+02,-2.898759266337901863e+01,-6.032561897754044367e+01,-1.860680764929275028e+02,-1.477980869884663662e+02,3.313673079824457091e+01,-7.214972672654994312e+01,9.332008361816406250e+00,1.529837548732757568e-01,1.415099620819091797e+00,4.840000000000000000e+02
-1.689815756310629240e+02,-1.511550809752718578e+02,-2.563542013344840598e+01,-5.963362742658000570e+01,-1.827980883225723119e+02,-1.465231486610439333e+02,3.366397478255453279e+01,-7.100646425912441373e+01,9.332008361816406250e+00,1.529837548732757568e-01,1.415099620819091797e+00,4.850000000000000000e+02
-1.662934313733621821e+02,-1.496787886476299718e+02,-2.299966838113869017e+01,-5.895372024155813051e+01,-1.793771489957966878e+02,-1.453376958723192729e+02,3.358213190458809549e+01,-6.911490525941030683e+01,9.332008361816406250e+00,1.529837548732757568e-01,1.415099620819091797e+00,4.860000000000000000e+02
-1.636232399956193149e+02,-1.465643648431062047e+02,-2.106205264526397514e+01,-5.717002492021515536e+01,-1.761689205635327653e+02,-1.435575632461238911e+02,3.294355609699869092e+01,-6.613097112003538314e+01,9.332008361816406250e+00,1.529837548732757568e-01,1.415099620819091797e+00,4.870000000000000000e+02
-1.609405868533440298e+02,-1.433813847913691006e+02,-1.931341740821244457e+01,-5.453162810489766343e+01,-1.731906819586820347e+02,-1.410198870464455467e+02,3.170082051553436031e+01,-6.285026854207490032e+01,9.332008361816406250e+00,1.529837548732757568e-01,1.415099620819091797e+00,4.880000000000000000e+02
-1.586940176747925761e+02,-1.414147318066675325e+02,-1.755964712904551561e+01,-5.236852095164067578e+01,-1.706748766706207334e+02,-1.384653277360141601e+02,2.961850853683654350e+01,-6.080840772401143113e+01,9.255517005920410156e+00,1.529837548732757568e-01,1.453345537185668945e+00,4.890000000000000000e+02
-1.575692454986071880e+02,-1.409794523485495574e+02,-1.630399835093317051e+01,-5.190973837092906251e+01,-1.691870843149529264e+02,-1.370729501529833669e+02,2.655962147333661960e+01,-6.099128849970929878e+01,9.255517005920410156e+00,1.529837548732757568e-01,1.453345537185668945e+00,4.900000000000000000e+02
-1.580858292533775966e+02,-1.418965326975635435e+02,-1.645519018288609914e+01,-5.341667610372428499e+01,-1.690982590511471244e+02,-1.375820085645380004e+02,2.272996695804749834e+01,-6.300460636560046623e+01,9.255517005920410156e+00,1.529837548732757568e-01,1.453345537185668945e+00,4.910000000000000000e+02
-1.603515089248596723e+02,-1.442806445331773375e+02,-1.873299912350444174e+01,-5.637963202111450300e+01,-1.701078043618715583e+02,-1.398414191708955059e+02,1.846852622442406755e+01,-6.565305456165538089e+01,9.255517005920410156e+00,1.529837548732757568e-01,1.453345537185668945e+00,4.920000000000000000e+02
-1.640370451953990596e+02,-1.485258497802763031e+02,-2.324813284360971011e+01,-6.031301403657789706e+01,-1.714980634661646945e+02,-1.431081228551295226e+02,1.376998137964665148e+01,-6.834606729505776457e+01,9.255517005920410156e+00,1.529837548732757568e-01,1.453345537185668945e+00,4.930000000000000000e+02
-1.684280604891614530e+02,-1.543950615558765094e+02,-2.940017554455835125e+01,-6.508332243694746921e+01,-1.728605147325488360e+02,-1.466099962337236775e+02,8.193568168298270393e+00,-7.175831968313809739e+01,9.255517005920410156e+00,1.529837548732757568e-01,1.453345537185668945e+00,4.940000000000000000e+02
-1.724549276589400506e+02,-1.602619468890395638e+02,-3.598082735659977516e+01,-7.037031300775993259e+01,-1.744170168608627591e+02,-1.497431082763032464e+02,1.457928082385933521e+00,-7.690072063030675054e+01,9.255517005920410156e+00,1.529837548732757568e-01,1.453345537185668945e+00,4.950000000000000000e+02
-1.748138315136226311e+02,-1.635714668130766540e+02,-4.142653816701499636e+01,-7.501509957431392195e+01,-1.765132692511203913e+02,-1.518891138465282893e+02,-5.813396080818392875e+00,-8.348459239633280049e+01,9.255517005920410156e+00,1.529837548732757568e-01,1.453345537185668945e+00,4.960000000000000000e+02
-1.743541442865996487e+02,-1.624143155426834255e+02,-4.429575844379769478e+01,-7.728137641177806927e+01,-1.788478548037057863e+02,-1.523829038088317702e+02,-1.205243746801670568e+01,-8.936208834321973882e+01,9.255517005920410156e+00,1.529837548732757568e-01,1.453345537185668945e+00,4.970000000000000000e+02
-1.706782914485640958e+02,-1.569518601837201004e+02,-4.391184989513203618e+01,-7.608612730171705607e+01,-1.803475072878081846e+02,-1.509241953142186503e+02,-1.563738421541142998e+01,-9.186070278812280776e+01,9.255517005920410156e+00,1.529837548732757568e-01,1.453345537185668945e+00,4.980000000000000000e+02
-1.645726305673833849e+02,-1.494571849961182579e+02,-4.079353958690819582e+01,-7.207864507264071108e+01,-1.798831048679624018e+02,-1.480222175679571137e+02,-1.598901339559688495e+01,-8.992233496941378235e+01,9.255517005920410156e+00,1.529837548732757568e-01,1.453345537185668945e+00,4.990000000000000000e+02
-1.578054832490844319e+02,-1.429023609972475697e+02,-3.644871604070476678e+01,-6.740405558488748738e+01,-1.771212297726779070e+02,-1.448478556977775042e+02,-1.392442117060238616e+01,-8.504310708627008353e+01,9.255517005920410156e+00,1.529837548732757568e-01,1.453345537185668945e+00,5.000000000000000000e+02
-1.522085570585607002e+02,-1.392156472674180918e+02,-3.254462045723425945e+01,-6.421112611057515096e+01,-1.727208102378084504e+02,-1.424685092118251077e+02,-1.105413633753664726e+01,-8.010091476242541830e+01,9.255517005920410156e+00,1.529837548732757568e-01,1.453345537185668945e+00,5.010000000000000000e+02
-1.485696155992919785e+02,-1.384934068511932992e+02,-3.001830624819990589e+01,-6.318239160115035702e+01,-1.677973015643306098e+02,-1.411479580798039706e+02,-8.834257029948275886e+00,-7.714416482157139399e+01,9.255517005920410156e+00,1.529837548732757568e-01,1.453345537185668945e+00,5.020000000000000000e+02
-1.461706382853782316e+02,-1.395082439101430509e+02,-2.877911863912265744e+01,-6.335608301736061776e+01,-1.632539827334580878e+02,-1.403863796728578563e+02,-8.020877572636777586e+00,-7.614365472959343606e+01,9.255517005920410156e+00,1.529837548732757568e-01,1.453345537185668945e+00,5.030000000000000000e+02
-1.434227596048739315e+02,-1.408192870138875037e+02,-2.814521089518973440e+01,-6.326083883610419889e+01,-1.595121020961846625e+02,-1.395894544051570847e+02,-8.684367512936091771e+00,-7.567798965707174830e+01,9.255517005920410156e+00,1.529837548732757568e-01,1.453345537185668945e+00,5.040000000000000000e+02
-1.392080740850383336e+02,-1.415418135973146150e+02,-2.754147478534696347e+01,-6.219289413795752353e+01,-1.566327289512415746e+02,-1.386283716184479999e+02,-1.043328854157971364e+01,-7.460758827123049741e+01,9.255517005920410156e+00,1.529837548732757568e-01,1.453345537185668945e+00,5.050000000000000000e+02
-1.339050473102833507e+02,-1.413864526668922394e+02,-2.685800273856688136e+01,-6.048207248249246959e+01,-1.544768850248282206e+02,-1.377533900296262459e+02,-1.256898845558572475e+01,-7.297804859792933030e+01,9.255517005920410156e+00,1.529837548732757568e-01,1.453345537185668945e+00,5.060000000000000000e+02
-1.292252422807027585e+02,-1.402824595883371330e+02,-2.627438459468766041e+01,-5.870005179617402291e+01,-1.526990725909493563e+02,-1.370686378280609006e+02,-1.423421791445406370e+01,-7.139772326206986008e+01,9.255517005920410156e+00,1.529837548732757568e-01,1.453345537185668945e+00,5.070000000000000000e+02
-1.269198298567565075e+02,-1.381287718775366784e+02,-2.586305613252537228e+01,-5.681204424788654705e+01,-1.507280135848204736e+02,-1.362318840560318449e+02,-1.470936115436913383e+01,-6.981526974077564773e+01,9.255517005920410156e+00,1.529837548732757568e-01,1.453345537185668945e+00,5.080000000000000000e+02
-1.273671292196727336e+02,-1.349023294263825505e+02,-2.541830507079184542e+01,-5.418476778625982604e+01,-1.479411631190574212e+02,-1.347138755876812013e+02,-1.374449136863708532e+01,-6.721783280030636831e+01,9.255517005920410156e+00,1.529837548732757568e-01,1.453345537185668945e+00,5.090000000000000000e+02
-1.292246359816556378e+02,-1.309363977729932458e+02,-2.467082007434124336e+01,-5.039290959305827755e+01,-1.440330558657914253e+02,-1.323201553656092528e+02,-1.166291424950545519e+01,-6.270499941313805436e+01,9.255517005920410156e+00,1.529837548732757568e-01,1.453345537185668945e+00,5.100000000000000000e+02
-1.305173056714704671e+02,-1.270473680826984832e+02,-2.366309051204669345e+01,-4.595842703637143245e+01,-1.393499664257845438e+02,-1.294471434658132125e+02,-9.148432861984403530e+00,-5.683623129442221966e+01,9.255517005920410156e+00,1.529837548732757568e-01,1.453345537185668945e+00,5.110000000000000000e+02
-1.303233707496829084e+02,-1.243585070508278250e+02,-2.292046431968290676e+01,-4.227380758622913959e+01,-1.349027997203354801e+02,-1.268684342754052068e+02,-6.926074908228002869e+00,-5.174419392446122856e+01,9.255517005920410156e+00,1.529837548732757568e-01,1.453345537185668945e+00,5.120000000000000000e+02
-1.296206069186766001e+02,-1.238626823624160238e+02,-2.320149358165173226e+01,-4.076165724072816943e+01,-1.319513688672590774e+02,-1.252937547411226547e+02,-5.555940769855737926e+00,-4.966548549989107642e+01,9.255517005920410156e+00,1.529837548732757568e-01,1.453345537185668945e+00,5.130000000000000000e+02
-1.304770413802571056e+02,-1.258679280637201146e+02,-2.494125864326713327e+01,-4.196661769601479364e+01,-1.313174746197310014e+02,-1.250211830350527293e+02,-5.307493613078918315e+00,-5.111008201596462186e+01,9.255517005920410156e+00,1.529837548732757568e-01,1.453345537185668945e+00,5.140000000000000000e+02
-1.341838179822655093e+02,-1.295904842033060618e+02,-2.779257948759584451e+01,-4.523638857924902368e+01,-1.328231454350021750e+02,-1.258145722100830426e+02,-6.003228428946840722e+00,-5.433112983836434751e+01,9.255517005920410156e+00,1.529837548732757568e-01,1.453345537185668945e+00,5.150000000000000000e+02
-1.399411854294588125e+02,-1.332699746377047632e+02,-3.068622277436747936e+01,-4.912459894526398330e+01,-1.352915141800365291e+02,-1.269894691549502568e+02,-6.950980809557904649e+00,-5.663301875646448025e+01,9.255517005920410156e+00,1.529837548732757568e-01,1.453345537185668945e+00,5.160000000000000000e+02
-1.453653430413014576e+02,-1.350280535739174752e+02,-3.249864774748948548e+01,-5.219566925980575434e+01,-1.372265814137872439e+02,-1.276877586217449334e+02,-7.244135856483808311e+00,-5.643854413642759482e+01,9.255517005920410156e+00,1.529837548732757568e-01,1.453345537185668945e+00,5.170000000000000000e+02
-1.485050728337760120e+02,-1.341433909913014304e+02,-3.291469948453095640e+01,-5.378116627335714384e+01,-1.377739701773712113e+02,-1.273278865068468804e+02,-6.441685136472074191e+00,-5.441456895085582346e+01,9.255517005920410156e+00,1.529837548732757568e-01,1.453345537185668945e+00,5.180000000000000000e+02
-1.496013613248380807e+02,-1.318341218306562723e+02,-3.279927436520938500e+01,-5.431093509658580842e+01,-1.372453728020366270e+02,-1.260326233466812482e+02,-5.109654606860431159e+00,-5.281869959764355826e+01,9.255517005920410156e+00,1.529837548732757568e-01,1.453345537185668945e+00,5.190000000000000000e+02
-1.508753200521662166e+02,-1.306625200337695105e+02,-3.365534089127254447e+01,-5.501217600552843123e+01,-1.367674029071649784e+02,-1.246752692436605230e+02,-4.605383473408664941e+00,-5.371107076214923381e+01,9.255517005920410156e+00,1.912296712398529053e-01,1.338607788085937500e+00,5.200000000000000000e+02
-1.543428281234226915e+02,-1.326504728121935841e+02,-3.646794881644382258e+01,-5.704963433304010323e+01,-1.373185665151236208e+02,-1.243588265371251964e+02,-6.087258423528055573e+00,-5.749732604903124411e+01,9.255517005920410156e+00,1.912296712398529053e-01,1.338607788085937500e+00,5.210000000000000000e+02
-1.595821285679562607e+02,-1.374426343078951049e+02,-4.081695989831428051e+01,-6.055944856941459875e+01,-1.389403650659855884e+02,-1.255918691559609215e+02,-9.514428892948672001e+00,-6.283213485515398133e+01,9.255517005920410156e+00,1.912296712398529053e-01,1.338607788085937500e+00,5.220000000000000000e+02
-1.636223352697979863e+02,-1.421434587072717477e+02,-4.501800990119636481e+01,-6.429532224453600975e+01,-1.407485924385528051e+02,-1.277829876076775690e+02,-1.354638737677032623e+01,-6.772048478824262929e+01,9.255517005920410156e+00,1.912296712398529053e-01,1.338607788085937500e+00,5.230000000000000000e+02
-1.632708558962717689e+02,-1.432391716881052162e+02,-4.724487668959545772e+01,-6.632426413223515738e+01,-1.416449112222187523e+02,-1.295158221950118786e+02,-1.649036045176603693e+01,-7.078060925764202693e+01,9.255517005920410156e+00,1.912296712398529053e-01,1.338607788085937500e+00,5.240000000000000000e+02
-1.578826572622465392e+02,-1.391943524147882272e+02,-4.675856422024207859e+01,-6.538802627665813816e+01,-1.410832792509231695e+02,-1.294734171864249674e+02,-1.750997050929095167e+01,-7.172445350688349208e+01,9.255517005920410156e+00,1.912296712398529053e-01,1.338607788085937500e+00,5.250000000000000000e+02
-1.500203252395951949e+02,-1.315839351130505293e+02,-4.428208304390636840e+01,-6.187867953806585319e+01,-1.393093504676160137e+02,-1.273486878596045244e+02,-1.709310792594760642e+01,-7.096110230632348248e+01,9.255517005920410156e+00,1.912296712398529053e-01,1.338607788085937500e+00,5.260000000000000000e+02
-1.433480373377390151e+02,-1.237842785731618278e+02,-4.128399849352672391e+01,-5.754197064335721734e+01,-1.369924596288715293e+02,-1.240427866710838316e+02,-1.645663432082119471e+01,-6.894654973354295180e+01,9.255517005920410156e+00,1.912296712398529053e-01,1.338607788085937500e+00,5.270000000000000000e+02
-1.397039103598735892e+02,-1.183568361553705017e+02,-3.884184083589980219e+01,-5.407605137910309168e+01,-1.346481291362492811e+02,-1.209900125422500423e+02,-1.649905751304868318e+01,-6.593273686348288720e+01,9.255517005920410156e+00,1.912296712398529053e-01,1.338607788085937500e+00,5.280000000000000000e+02
-1.380058730961407036e+02,-1.153769068622000304e+02,-3.703931233849471027e+01,-5.182745123703034551e+01,-1.323162101443813299e+02,-1.191182983568646705e+02,-1.720801230084589406e+01,-6.220325184652756434e+01,9.255517005920410156e+00,1.912296712398529053e-01,1.338607788085937500e+00,5.290000000000000000e+02
-1.358261321013574161e+02,-1.130104621524014874e+02,-3.528101931373521438e+01,-4.974817994718546288e+01,-1.296850466156547554e+02,-1.182401237022845635e+02,-1.791663715402955859e+01,-5.833910825959173962e+01,9.255517005920410156e+00,1.912296712398529053e-01,1.338607788085937500e+00,5.300000000000000000e+02
-1.319403533277748011e+02,-1.095899739751653215e+02,-3.308287480544231585e+01,-4.663155424397064053e+01,-1.264954884551534633e+02,-1.173209715062625946e+02,-1.802842182780796065e+01,-5.508315196268949876e+01,9.255517005920410156e+00,1.912296712398529053e-01,1.338607788085937500e+00,5.310000000000000000e+02
-1.273859342798559737e+02,-1.051998991387824844e+02,-3.055846541402752337e+01,-4.245104326841169495e+01,-1.228679958772609098e+02,-1.153790090650290949e+02,-1.750369136107929080e+01,-5.288113573076043394e+01,9.255517005920410156e+00,1.912296712398529053e-01,1.338607788085937500e+00,5.320000000000000000e+02
-1.242028764330971171e+02,-1.014226046779961052e+02,-2.821644627784826298e+01,-3.855407265672738504e+01,-1.192775586309257960e+02,-1.122829382491850083e+02,-1.673868120490760703e+01,-5.158348284337171208e+01,9.255517005920410156e+00,1.912296712398529053e-01,1.338607788085937500e+00,5.330000000000000000e+02
-1.233217560946941376e+02,-9.969052207216100214e+01,-2.637041545784222762e+01,-3.655813744243096153e+01,-1.161821797956531555e+02,-1.088065664785958688e+02,-1.606434052843223981e+01,-5.064495445998181822e+01,9.255517005920410156e+00,1.912296712398529053e-01,1.338607788085937500e+00,5.340000000000000000e+02
-1.237218717162286339e+02,-9.988768312584306841e+01,-2.479293942955928287e+01,-3.699801442666830553e+01,-1.136421922611671107e+02,-1.059435131596878819e+02,-1.542895619051614631e+01,-4.964068919466853913e+01,9.255517005920410156e+00,1.912296712398529053e-01,1.338607788085937500e+00,5.350000000000000000e+02
-1.235189528579317084e+02,-1.004618131062370594e+02,-2.294227312712700950e+01,-3.892123148705150015e+01,-1.112999375285453425e+02,-1.040887227515258928e+02,-1.456892229667300853e+01,-4.857093703023610942e+01,9.255517005920410156e+00,1.912296712398529053e-01,1.338607788085937500e+00,5.360000000000000000e+02
-1.217009844359768067e+02,-9.984525183636469592e+01,-2.050287320605184505e+01,-4.068266005974328436e+01,-1.087446203042600246e+02,-1.027631333020726743e+02,-1.343244989660888677e+01,-4.768021030567024354e+01,9.255517005920410156e+00,1.912296712398529053e-01,1.338607788085937500e+00,5.370000000000000000e+02
-1.187902241363285611e+02,-9.783735218150968649e+01,-1.770151489485442653e+01,-4.113201985705472907e+01,-1.058978249736619546e+02,-1.010614118947778479e+02,-1.235212081116333138e+01,-4.704749680814256863e+01,9.255517005920410156e+00,1.912296712398529053e-01,1.338607788085937500e+00,5.380000000000000000e+02
-1.160247232669039477e+02,-9.572051628471308504e+01,-1.513095729366841624e+01,-4.019206975243741908e+01,-1.030368166315620329e+02,-9.839543755720842455e+01,-1.172973383013959392e+01,-4.643078663186997801e+01,9.255517005920410156e+00,1.912296712398529053e-01,1.338607788085937500e+00,5.390000000000000000e+02
-1.141140930323290377e+02,-9.503818544859313988e+01,-1.329472841169535968e+01,-3.853761164737943545e+01,-1.004922251137322746e+02,-9.493234324168952298e+01,-1.154338957208437932e+01,-4.552940742945611419e+01,9.255517005920410156e+00,1.912296712398529053e-01,1.338607788085937500e+00,5.400000000000000000e+02
-1.128131784714692003e+02,-9.611891482448390889e+01,-1.229898062370921252e+01,-3.688627183889548178e+01,-9.841604828942490713e+01,-9.144429489442336489e+01,-1.122937068604187516e+01,-4.432902344448666554e+01,9.293763160705566406e+00,1.529837548732757568e-01,1.415099620819091797e+00,5.410000000000000000e+02
-1.115065502897123224e+02,-9.761701327799437422e+01,-1.189002677942062292e+01,-3.556157170073583984e+01,-9.684121794275051798e+01,-8.874640472879673325e+01,-1.013900108737379924e+01,-4.309848450985919044e+01,9.293763160705566406e+00,1.529837548732757568e-01,1.415099620819091797e+00,5.420000000000000000e+02
-1.099666035135564925e+02,-9.747975859997995940e+01,-1.166237627873215388e+01,-3.452545083954373695e+01,-9.580821515917523357e+01,-8.714679350846745365e+01,-8.164942251256434247e+00,-4.201376426895512850e+01,9.293763160705566406e+00,1.529837548732757568e-01,1.415099620819091797e+00,5.430000000000000000e+02
-1.085161586542908481e+02,-9.457639223461092115e+01,-1.118667985667252651e+01,-3.361045023703627521e+01,-9.519634483040044870e+01,-8.624942051344078209e+01,-5.907281180489917460e+00,-4.083912858510393562e+01,9.293763160705566406e+00,1.529837548732757568e-01,1.415099620819091797e+00,5.440000000000000000e+02
-1.076356910425843125e+02,-8.966464757416088105e+01,-1.006559363390442741e+01,-3.267030026180873392e+01,-9.439927127141163510e+01,-8.522684792800100695e+01,-4.209012351555429632e+00,-3.907363133921080589e+01,9.293763160705566406e+00,1.529837548732757568e-01,1.415099620819091797e+00,5.450000000000000000e+02
-1.075872700004738363e+02,-8.490711375419186879e+01,-8.105712923528699321e+00,-3.162913909385952138e+01,-9.244517713733057462e+01,-8.341596791828033020e+01,-3.520327281398749619e+00,-3.648595652419135149e+01,9.293763160705566406e+00,1.529837548732757568e-01,1.415099620819091797e+00,5.460000000000000000e+02
-1.084199414961340153e+02,-8.235589073010623906e+01,-5.628864756695293181e+00,-3.053872311108398208e+01,-8.881932850081193465e+01,-8.085617423884832533e+01,-3.685235016626393190e+00,-3.352365777604063624e+01,9.293763160705566406e+00,1.529837548732757568e-01,1.415099620819091797e+00,5.470000000000000000e+02
-1.101668612738303636e+02,-8.266395356210296086e+01,-3.626668177541432669e+00,-2.965755604879086604e+01,-8.434596345013233076e+01,-7.836582240407005884e+01,-4.287077642758958973e+00,-3.117141744783839385e+01,9.293763160705566406e+00,1.529837548732757568e-01,1.415099620819091797e+00,5.480000000000000000e+02
-1.128901970341757988e+02,-8.501158545349971973e+01,-3.391497735738084884e+00,-2.942461490434379812e+01,-8.105180674990606349e+01,-7.701712427780876169e+01,-5.113966742585034808e+00,-3.034895849894837738e+01,9.293763160705566406e+00,1.529837548732757568e-01,1.415099620819091797e+00,5.490000000000000000e+02
-1.165221719394976390e+02,-8.812075507202280278e+01,-5.688023907619026431e+00,-3.025934430426968902e+01,-8.076086074669547088e+01,-7.735948285030372062e+01,-6.263221975930719054e+00,-3.134772323839752062e+01,9.293763160705566406e+00,1.529837548732757568e-01,1.415099620819091797e+00,5.500000000000000000e+02
-1.207218852596151919e+02,-9.132142012714029988e+01,-1.007794125383952633e+01,-3.231699418331936613e+01,-8.355145609091869119e+01,-7.902760974809007166e+01,-7.862530300457365229e+00,-3.372331155102074263e+01,9.293763160705566406e+00,1.529837548732757568e-01,1.415099620819091797e+00,5.510000000000000000e+02
-1.248889919432222086e+02,-9.475176635149637150e+01,-1.503176685918515432e+01,-3.538971145541017904e+01,-8.757850799828520394e+01,-8.109333517116010626e+01,-9.789793558519704675e+00,-3.664580830148770474e+01,9.293763160705566406e+00,1.529837548732757568e-01,1.415099620819091797e+00,5.520000000000000000e+02
-1.282577522423207483e+02,-9.870569801303827262e+01,-1.885167982272741938e+01,-3.900784770796690282e+01,-9.055473455712581199e+01,-8.284443780592391704e+01,-1.172088367400647257e+01,-3.937967791322989797e+01,9.293763160705566406e+00,1.529837548732757568e-01,1.415099620819091797e+00,5.530000000000000000e+02
-1.300209268055068605e+02,-1.029160055120755715e+02,-2.069854635376032093e+01,-4.258831504451973160e+01,-9.152088988264586078e+01,-8.423663483803829877e+01,-1.341286840962038696e+01,-4.155226475140625553e+01,9.293763160705566406e+00,1.529837548732757568e-01,1.415099620819091797e+00,5.540000000000000000e+02
-1.295943078582031376e+02,-1.064754415881643581e+02,-2.090719679236281081e+01,-4.550371828255174478e+01,-9.125197102620404621e+01,-8.560772457994426077e+01,-1.490506777013797546e+01,-4.312146520119313209e+01,9.293763160705566406e+00,1.529837548732757568e-01,1.415099620819091797e+00,5.550000000000000000e+02
-1.270692553044127635e+02,-1.083668249937891233e+02,-2.040698983761558338e+01,-4.712461577290650894e+01,-9.106120715828728862e+01,-8.702672759270353708e+01,-1.644354306842615188e+01,-4.417843511661794764e+01,9.293763160705566406e+00,1.529837548732757568e-01,1.415099620819091797e+00,5.560000000000000000e+02
-1.235269488174571961e+02,-1.080427345644884554e+02,-1.985081092111249745e+01,-4.696639302135372418e+01,-9.136465788820351008e+01,-8.802692773044691421e+01,-1.821167624950248864e+01,-4.476205220393694617e+01,9.293763160705566406e+00,1.529837548732757568e-01,1.415099620819091797e+00,5.570000000000000000e+02
-1.206488608230883983e+02,-1.056165401185862720e+02,-1.923719094827447407e+01,-4.494062495681009750e+01,-9.149189349676817073e+01,-8.804402629153264570e+01,-2.010108653139468515e+01,-4.478993360285858216e+01,9.293763160705566406e+00,1.529837548732757568e-01,1.415099620819091797e+00,5.580000000000000000e+02
-1.195670516693799073e+02,-1.016863611797180056e+02,-1.826640942684116453e+01,-4.150727052300317155e+01,-9.077350575106902397e+01,-8.706920096728390490e+01,-2.167882705027295742e+01,-4.413459982694166683e+01,9.293763160705566406e+00,1.529837548732757568e-01,1.415099620819091797e+00,5.590000000000000000e+02
-1.198252257678368551e+02,-9.705575871511427977e+01,-1.694099815907793527e+01,-3.752433014576126880e+01,-8.955839311016461579e+01,-8.575334916213068936e+01,-2.237693567554561014e+01,-4.275689085731210071e+01,9.293763160705566406e+00,1.529837548732757568e-01,1.415099620819091797e+00,5.600000000000000000e+02
-1.196531748307079397e+02,-9.246588459483427869e+01,-1.573368456796379178e+01,-3.383458491940837121e+01,-8.896758760019474721e+01,-8.477702458067506086e+01,-2.182360311846059631e+01,-4.076102546941001492e+01,9.293763160705566406e+00,1.529837548732757568e-01,1.415099620819091797e+00,5.610000000000000000e+02
-1.177927416878837903e+02,-8.833331221891057794e+01,-1.514513795142556773e+01,-3.088159700272626651e+01,-8.963267969409207581e+01,-8.411630340162992070e+01,-2.013126990882665268e+01,-3.832090763133783184e+01,9.293763160705566406e+00,1.529837548732757568e-01,1.415099620819091797e+00,5.620000000000000000e+02
-1.154563027551603227e+02,-8.460210833122346230e+01,-1.511129899715524516e+01,-2.864248392232093465e+01,-9.079053956305142492e+01,-8.299191412812433555e+01,-1.791283905999625858e+01,-3.554852818593462871e+01,9.293763160705566406e+00,1.529837548732757568e-01,1.415099620819091797e+00,5.630000000000000000e+02
-1.163818403162686081e+02,-8.093768036905476038e+01,-1.486691228989911906e+01,-2.688408610815258726e+01,-9.073757936405854707e+01,-8.059385313207167201e+01,-1.591622588922109571e+01,-3.245762056832245435e+01,9.293763160705566406e+00,1.529837548732757568e-01,1.415099620819091797e+00,5.640000000000000000e+02
-1.243464988043133417e+02,-7.724370239292693441e+01,-1.344275171330627927e+01,-2.545659830081604014e+01,-8.826980073258528137e+01,-7.689047258923892514e+01,-1.450552717643950018e+01,-2.909949703152597067e+01,9.293763160705566406e+00,1.529837548732757568e-01,1.415099620819091797e+00,5.650000000000000000e+02
-1.399221704206356662e+02,-7.406799938473795919e+01,-1.040738932668682537e+01,-2.436726166733024002e+01,-8.376535590747516835e+01,-7.275229965912876651e+01,-1.344831475864157255e+01,-2.577222067498041724e+01,9.179024696350097656e+00,1.912296712398529053e-01,1.376853704452514648e+00,5.660000000000000000e+02
-1.593376803283927075e+02,-7.237771630220868246e+01,-6.241885615660066833e+00,-2.364383604126487626e+01,-7.890965183763910318e+01,-6.929427919000590919e+01,-1.224502983513411891e+01,-2.307002080074016703e+01,9.179024696350097656e+00,1.912296712398529053e-01,1.376853704452514648e+00,5.670000000000000000e+02
-1.767268174511355028e+02,-7.272371975616169948e+01,-2.053643416456907289e+00,-2.321484930847691430e+01,-7.534098366212310793e+01,-6.706569950055381923e+01,-1.072112192787426466e+01,-2.163996480491550756e+01,9.179024696350097656e+00,1.912296712398529053e-01,1.376853704452514648e+00,5.680000000000000000e+02
-1.880443498038648613e+02,-7.453734747939597582e+01,1.123796668098293594e+00,-2.297674360160726792e+01,-7.342535443396081973e+01,-6.577542208203158225e+01,-9.283885010836456786e+00,-2.179922644480029703e+01,9.179024696350097656e+00,1.912296712398529053e-01,1.376853704452514648e+00,5.690000000000000000e+02
-1.933676116784117767e+02,-7.632667675794345996e+01,2.903697238863969687e+00,-2.296049920492441743e+01,-7.219390091063542059e+01,-6.469895567238381773e+01,-8.557508426007188973e+00,-2.332358623294385325e+01,9.179024696350097656e+00,1.912296712398529053e-01,1.376853704452514648e+00,5.700000000000000000e+02
-1.958097884140661336e+02,-7.673851432664741878e+01,3.608502982933714520e+00,-2.336097890971541347e+01,-7.040956066996659501e+01,-6.332339644339481310e+01,-8.750711050433892524e+00,-2.558737474139707047e+01,9.179024696350097656e+00,1.912296712398529053e-01,1.376853704452514648e+00,5.710000000000000000e+02
-1.983820016332647356e+02,-7.557454305417741125e+01,3.873887811918393709e+00,-2.433132298095370061e+01,-6.776010100476560183e+01,-6.168079434363608016e+01,-9.405572012046832242e+00,-2.793822604888737260e+01,9.179024696350097656e+00,1.912296712398529053e-01,1.376853704452514648e+00,5.720000000000000000e+02
-2.018085295833207056e+02,-7.384021571139055595e+01,4.172732977676787414e+00,-2.572811842460578191e+01,-6.512088526613115391e+01,-6.018954877264513925e+01,-9.784717914073553402e+00,-3.000239971202609013e+01,9.179024696350097656e+00,1.912296712398529053e-01,1.376853704452514648e+00,5.730000000000000000e+02
-2.049764823409823293e+02,-7.281488102674575202e+01,4.612793721886191634e+00,-2.709910249078711786e+01,-6.370210575668716046e+01,-5.924498936674535798e+01,-9.470874529104548856e+00,-3.172773640627019631e+01,9.179024696350097656e+00,1.912296712398529053e-01,1.376853704452514648e+00,5.740000000000000000e+02
-2.069064782125296915e+02,-7.304055340840022836e+01,5.065918214686462306e+00,-2.798368367029070214e+01,-6.391798882093098655e+01,-5.893154413402771752e+01,-8.580480197566430434e+00,-3.323219125481045921e+01,9.179024696350097656e+00,1.912296712398529053e-01,1.376853704452514648e+00,5.750000000000000000e+02
-2.078486395571053436e+02,-7.412160503771156073e+01,5.411355845322759706e+00,-2.826098092745451140e+01,-6.503739706900341844e+01,-5.902312005120984395e+01,-7.454423364211834269e+00,-3.464588005512268865e+01,9.179024696350097656e+00,1.912296712398529053e-01,1.376853704452514648e+00,5.760000000000000000e+02
-2.085202552003556775e+02,-7.534716285231297661e+01,5.653825856668845518e+00,-2.819446224121929845e+01,-6.589419389442446118e+01,-5.917193623867569841e+01,-6.249886172385231475e+00,-3.604649223225715104e+01,9.179024696350097656e+00,1.912296712398529053e-01,1.376853704452514648e+00,5.770000000000000000e+02
-2.088214608203779790e+02,-7.634612432851281483e+01,5.862868657384751714e+00,-2.810843725654558511e+01,-6.591606915254305932e+01,-5.908457727019231243e+01,-4.898169369351307978e+00,-3.744354877693695016e+01,9.179024696350097656e+00,1.912296712398529053e-01,1.376853704452514648e+00,5.780000000000000000e+02
-2.078904312116846995e+02,-7.709824030574236531e+01,6.063302031985585927e+00,-2.800615374596418405e+01,-6.545912495777520235e+01,-5.856527736651514715e+01,-3.416550166892193374e+00,-3.875366251386003569e+01,9.179024696350097656e+00,1.912296712398529053e-01,1.376853704452514648e+00,5.790000000000000000e+02
-2.055241706861052080e+02,-7.745371788798365742e+01,6.220418979441092233e+00,-2.753500443974189693e+01,-6.520131011889498041e+01,-5.749089579588689958e+01,-2.148456628419808112e+00,-3.980281527731131064e+01,9.179024696350097656e+00,1.912296712398529053e-01,1.376853704452514648e+00,5.800000000000000000e+02
-2.030584628200394945e+02,-7.691176716721201956e+01,6.311217411725010606e+00,-2.638258555831635022e+01,-6.532288709478234523e+01,-5.585123384277540026e+01,-1.605884971377236070e+00,-4.044912071485850902e+01,9.179024696350097656e+00,1.912296712398529053e-01,1.376853704452514648e+00,5.810000000000000000e+02
-2.021720712322785403e+02,-7.510649535774427932e+01,6.366842211862604017e+00,-2.476111897659575334e+01,-6.536340310754894745e+01,-5.387535629221019917e+01,-2.051442560183204478e+00,-4.080216555955848889e+01,9.179024696350097656e+00,1.912296712398529053e-01,1.376853704452514648e+00,5.820000000000000000e+02
-2.025168550644630159e+02,-7.253106853708777635e+01,6.403825911604144494e+00,-2.350656850407176535e+01,-6.486433293532536482e+01,-5.210027741257363232e+01,-3.258362443859368796e+00,-4.134224137794990384e+01,9.179024696350097656e+00,1.912296712398529053e-01,1.376853704452514648e+00,5.830000000000000000e+02
-2.008231354403615114e+02,-7.057446723388056853e+01,6.307956639338954119e+00,-2.362903799940977478e+01,-6.401951724170430680e+01,-5.121989459336691652e+01,-4.706826971432747087e+00,-4.273439118983878870e+01,9.179024696350097656e+00,1.912296712398529053e-01,1.376853704452514648e+00,5.840000000000000000e+02
-1.929997367617397686e+02,-7.054159723301563645e+01,5.823102791682686075e+00,-2.560700062811520183e+01,-6.358616694550437387e+01,-5.172786925019318005e+01,-6.047340115575934760e+00,-4.536205741546837089e+01,9.179024696350097656e+00,1.912296712398529053e-01,1.376853704452514648e+00,5.850000000000000000e+02
-1.777330419479567354e+02,-7.243301289722876390e+01,4.715010903244547080e+00,-2.893648129087705456e+01,-6.414644972577298176e+01,-5.356859196222649189e+01,-7.395404294144100277e+00,-4.888814046549669001e+01,9.179024696350097656e+00,1.912296712398529053e-01,1.376853704452514648e+00,5.860000000000000000e+02
-1.582784089280266926e+02,-7.470955795546615263e+01,3.011597848755627638e+00,-3.229907312090290361e+01,-6.550121851195945055e+01,-5.605579186784234480e+01,-9.176277484268211992e+00,-5.224569012111351185e+01,9.179024696350097656e+00,1.912296712398529053e-01,1.376853704452514648e+00,5.870000000000000000e+02
-1.405548652028537617e+02,-7.546149477916333126e+01,1.130613489054667298e+00,-3.426815160742989974e+01,-6.679959642449466628e+01,-5.814201512793442816e+01,-1.160897187171576661e+01,-5.416402250038663624e+01,9.179024696350097656e+00,1.912296712398529053e-01,1.376853704452514648e+00,5.880000000000000000e+02
-1.290487989710400143e+02,-7.402749003296048613e+01,-2.470151669149345253e-01,-3.409519329973591084e+01,-6.722759468430012930e+01,-5.889248873151882435e+01,-1.424875912128118216e+01,-5.391274230106682808e+01,9.179024696350097656e+00,1.912296712398529053e-01,1.376853704452514648e+00,5.890000000000000000e+02
-1.240156008771682536e+02,-7.154449936577475455e+01,-5.330956933830748312e-01,-3.206556047152662359e+01,-6.659290832415717887e+01,-5.792686540507565951e+01,-1.603571412538440200e+01,-5.174984935821521503e+01,9.179024696350097656e+00,1.912296712398529053e-01,1.376853704452514648e+00,5.900000000000000000e+02
-1.221905792331290286e+02,-6.985198252083137049e+01,3.933201124382321723e-01,-2.919527957905847870e+01,-6.536268450686475262e+01,-5.562479519564294606e+01,-1.593136351906650816e+01,-4.875652274837557343e+01,9.179024696350097656e+00,1.912296712398529053e-01,1.376853704452514648e+00,5.910000000000000000e+02
-1.200101283918302215e+02,-6.978159535014310677e+01,2.064110018585779471e+00,-2.650270064280266524e+01,-6.426344782870000927e+01,-5.298599591068705195e+01,-1.370808924173252308e+01,-4.619445621275735903e+01,9.179024696350097656e+00,1.912296712398529053e-01,1.376853704452514648e+00,5.920000000000000000e+02
-1.163130375511409511e+02,-7.050897498183985590e+01,3.674724098684237106e+00,-2.440628869459760608e+01,-6.383615506440764875e+01,-5.116421051649012952e+01,-1.024063208997176844e+01,-4.485700478883518372e+01,9.255517005920410156e+00,1.147378161549568176e-01,1.415099620819091797e+00,5.930000000000000000e+02
-1.124007467035480659e+02,-7.060340590792839066e+01,4.567297605459316401e+00,-2.270597282156995789e+01,-6.419445361149337259e+01,-5.085518271048931638e+01,-6.970577545795094920e+00,-4.483048193236754742e+01,9.255517005920410156e+00,1.147378161549568176e-01,1.415099620819091797e+00,5.940000000000000000e+02
-1.099760480419081432e+02,-6.967252848547104804e+01,4.604928079399542185e+00,-2.112150236554953153e+01,-6.503341812623330043e+01,-5.190385299053014023e+01,-4.917376966161100427e+00,-4.572328804428616422e+01,9.255517005920410156e+00,1.147378161549568176e-01,1.415099620819091797e+00,5.950000000000000000e+02
-1.092386363522255124e+02,-6.888929243048914941e+01,4.163104949406260857e+00,-1.987172106559228268e+01,-6.586036526120005874e+01,-5.344508147214219207e+01,-4.065657370283588534e+00,-4.708268045524164336e+01,9.255517005920410156e+00,1.147378161549568176e-01,1.415099620819091797e+00,5.960000000000000000e+02
-1.088317534941361373e+02,-6.983979260363048525e+01,3.764371250490512466e+00,-1.972880660837290634e+01,-6.636263130023144186e+01,-5.453645752045486006e+01,-3.658852886714157648e+00,-4.866120668437361019e+01,9.255517005920410156e+00,1.147378161549568176e-01,1.415099620819091797e+00,5.970000000000000000e+02
-1.073244621332960378e+02,-7.286724416825018125e+01,3.668095847649965435e+00,-2.145186663642380154e+01,-6.668377001919725444e+01,-5.482679743305561715e+01,-3.098539125439856434e+00,-5.041168590358938673e+01,9.255517005920410156e+00,1.147378161549568176e-01,1.415099620819091797e+00,5.980000000000000000e+02
-1.045739272598239040e+02,-7.661736471313452057e+01,3.736253187678812537e+00,-2.510088151544914581e+01,-6.731664511956842034e+01,-5.472153078683550120e+01,-2.569993046450690599e+00,-5.235233300202526152e+01,9.255517005920410156e+00,1.147378161549568176e-01,1.415099620819091797e+00,5.990000000000000000e+02
-1.017044481193061074e+02,-7.923429447698799777e+01,3.617744002745894250e+00,-2.988764537061615556e+01,-6.861937017381205806e+01,-5.493332164616003865e+01,-2.806921429495560005e+00,-5.448512076499173418e+01,9.255517005920410156e+00,1.147378161549568176e-01,1.415099620819091797e+00,6.000000000000000000e+02
-9.992974079794294084e+01,-7.997199393210030394e+01,3.023874477152276086e+00,-3.471266992073287838e+01,-7.038032688057865016e+01,-5.584546030909041292e+01,-4.255727687545004301e+00,-5.679338959407687071e+01,9.255517005920410156e+00,1.147378161549568176e-01,1.415099620819091797e+00,6.010000000000000000e+02
-9.948666621034863056e+01,-7.964154584505013190e+01,1.857281854525353992e+00,-3.887812111853236274e+01,-7.190381986330612563e+01,-5.724816235796242836e+01,-6.470361706877156394e+00,-5.923188659928564448e+01,9.255517005920410156e+00,1.147378161549568176e-01,1.415099620819091797e+00,6.020000000000000000e+02
-9.963545299319412152e+01,-7.959165768377533823e+01,1.829808718612184748e-01,-4.231993389868148370e+01,-7.258634276618613512e+01,-5.859666347671372932e+01,-8.318940118493628688e+00,-6.164715459191938862e+01,9.255517005920410156e+00,1.147378161549568176e-01,1.415099620819091797e+00,6.030000000000000000e+02
-9.952928058520592458e+01,-8.037387559409035021e+01,-1.798614212897518883e+00,-4.519856369146873476e+01,-7.240271399894118076e+01,-5.943547722512448672e+01,-8.784568981649499619e+00,-6.368620575699605979e+01,9.255517005920410156e+00,1.147378161549568176e-01,1.415099620819091797e+00,6.040000000000000000e+02
-9.896618056141596753e+01,-8.140656387602211908e+01,-3.714086694562865887e+00,-4.735264938458567485e+01,-7.180287398568543722e+01,-5.959109982745576417e+01,-7.645063414351170650e+00,-6.484184621225358569e+01,9.255517005920410156e+00,1.147378161549568176e-01,1.415099620819091797e+00,6.050000000000000000e+02
-9.831317969347946928e+01,-8.178322501179172832e+01,-5.036949110675777774e+00,-4.823317884319476434e+01,-7.116822577590937726e+01,-5.907337780718444264e+01,-5.509994463522161823e+00,-6.470069589359627571e+01,9.255517005920410156e+00,1.147378161549568176e-01,1.415099620819091797e+00,6.060000000000000000e+02
-9.784072328114052652e+01,-8.124247667769668624e+01,-5.308153585472609848e+00,-4.742377518377907109e+01,-7.044330664009612519e+01,-5.794653410107275704e+01,-3.299133562981296564e+00,-6.326132119599787984e+01,9.255517005920410156e+00,1.147378161549568176e-01,1.415099620819091797e+00,6.070000000000000000e+02
-9.730490562204795424e+01,-8.033876991440229176e+01,-4.471322687062638579e+00,-4.521949573601887096e+01,-6.932649356957699638e+01,-5.635901344082958531e+01,-1.651224707962683169e+00,-6.107484734409081284e+01,9.255517005920410156e+00,1.147378161549568176e-01,1.415099620819091797e+00,6.080000000000000000e+02
-9.626998383802492754e+01,-7.982909136243870307e+01,-3.022782780633860966e+00,-4.266279154652147554e+01,-6.774425372732730466e+01,-5.460426657069911016e+01,-6.693251647811848670e-01,-5.904985310311894864e+01,9.255517005920410156e+00,1.147378161549568176e-01,1.415099620819091797e+00,6.090000000000000000e+02
-9.477073365041724173e+01,-8.002157768619508715e+01,-1.764151008748740423e+00,-4.095728108901676023e+01,-6.603927077461412409e+01,-5.300874025508164777e+01,-6.879996881980332546e-02,-5.798816051055109710e+01,9.255517005920410156e+00,1.147378161549568176e-01,1.415099620819091797e+00,6.100000000000000000e+02
-9.349683568193358951e+01,-8.064480439756152919e+01,-1.294740742090652930e+00,-4.073404945311995107e+01,-6.468660979218111606e+01,-5.168422595331139746e+01,4.838246535910002422e-01,-5.812427610889790230e+01,9.255517005920410156e+00,1.147378161549568176e-01,1.415099620819091797e+00,6.110000000000000000e+02
-9.316089010236464674e+01,-8.114849772311936249e+01,-1.645236413784004981e+00,-4.176225356544455281e+01,-6.389913785141106928e+01,-5.042747644919654704e+01,1.108108595461089863e+00,-5.900367012801507371e+01,9.255517005920410156e+00,1.147378161549568176e-01,1.415099620819091797e+00,6.120000000000000000e+02
-9.360126767607289366e+01,-8.103869996857611113e+01,-2.330668727863667300e+00,-4.327572871907250374e+01,-6.354430153870634967e+01,-4.894372237220886745e+01,1.684683304873033194e+00,-5.982304024354380090e+01,9.255517005920410156e+00,1.147378161549568176e-01,1.415099620819091797e+00,6.130000000000000000e+02
-9.361831924549551331e+01,-8.007691290812363150e+01,-2.739546933014935348e+00,-4.457790241518159746e+01,-6.336376889246821520e+01,-4.719821173515083501e+01,2.064513481258472893e+00,-6.001545553797404864e+01,9.255517005920410156e+00,1.147378161549568176e-01,1.415099620819091797e+00,6.140000000000000000e+02
