F3,F4,C3,C4,P3,P4,Cz,Pz,Accel_x,Accel_y,Accel_z,Sample
-4.729372449219226837e-11,-4.365574568510055542e-11,-4.092726157978177071e-11,-4.092726157978177071e-11,-5.820766091346740723e-11,-5.456968210637569427e-11,-4.729372449219226837e-11,-5.093170329928398132e-11,9.332008361816406250e+00,1.147378161549568176e-01,1.338607788085937500e+00,2.010000000000000000e+02
-3.034505150500262971e+01,-2.599358941403625067e+01,-3.372020918615817209e+00,-2.266947229580182466e+00,-3.506946902014533407e+00,-7.961130588933883701e+00,1.425795260521590535e+01,-1.305992838566362479e+01,9.332008361816406250e+00,1.147378161549568176e-01,1.338607788085937500e+00,2.020000000000000000e+02
-5.392232359801710118e+01,-4.547163091196216556e+01,-7.076461838390059711e+00,-7.341298359582651756e+00,-1.606864138470064063e+01,-2.073570952036061499e+01,2.013172447837860091e+01,-2.358378077889483393e+01,9.332008361816406250e+00,1.147378161549568176e-01,1.338607788085937500e+00,2.030000000000000000e+02
-6.912519468349182716e+01,-5.765404060565469990e+01,-1.058250805189345556e+01,-1.564344642798732821e+01,-3.851812827575486153e+01,-3.914619038480304880e+01,1.629190637755527860e+01,-3.111121050719702907e+01,9.332008361816406250e+00,1.147378161549568176e-01,1.338607788085937500e+00,2.040000000000000000e+02
-7.998141334021602233e+01,-6.771679587454036664e+01,-1.279561316761373746e+01,-2.510932700527700945e+01,-6.334265680652060837e+01,-5.979365335985858110e+01,8.649335594072908862e+00,-3.740679616108081973e+01,9.332008361816406250e+00,1.147378161549568176e-01,1.338607788085937500e+00,2.050000000000000000e+02
-9.192102438178972079e+01,-8.160227748778197565e+01,-1.325730295268022019e+01,-3.336672952030494343e+01,-8.234328568573073426e+01,-7.851993781680903339e+01,3.939316026142478222e+00,-4.465749849457097298e+01,9.332008361816406250e+00,1.147378161549568176e-01,1.338607788085937500e+00,2.060000000000000000e+02
-1.072409757271252602e+02,-1.007455521296660663e+02,-1.285758719856949028e+01,-3.996396193078635406e+01,-9.403475902445370593e+01,-9.394215323970638565e+01,3.527081476066086907e+00,-5.351629409460474562e+01,9.332008361816406250e+00,1.147378161549568176e-01,1.338607788085937500e+00,2.070000000000000000e+02
-1.243974077014881914e+02,-1.216229227686126251e+02,-1.317382922343676910e+01,-4.652651659806724638e+01,-1.036774969967445941e+02,-1.077526674935124902e+02,3.452016952558551566e+00,-6.278130323940422386e+01,9.408499717712402344e+00,1.147378161549568176e-01,1.376853704452514648e+00,2.080000000000000000e+02
-1.409245206803643669e+02,-1.397906198587415929e+02,-1.509120391754822776e+01,-5.491644094603907433e+01,-1.169445134858415258e+02,-1.221018412277671814e+02,-1.913256323205132503e-01,-7.077415106175158144e+01,9.408499717712402344e+00,1.147378161549568176e-01,1.376853704452514648e+00,2.090000000000000000e+02
-1.563190070530290541e+02,-1.538133465994496873e+02,-1.818477259999326634e+01,-6.535885465583305631e+01,-1.344577313782983765e+02,-1.372235099373974663e+02,-6.763537793556679389e+00,-7.690719699631881667e+01,9.408499717712402344e+00,1.147378161549568176e-01,1.376853704452514648e+00,2.100000000000000000e+02
-1.720138610911862997e+02,-1.654312839063986758e+02,-2.143704009908105945e+01,-7.627374300162318832e+01,-1.524566762324629963e+02,-1.516646913088452493e+02,-1.199943578674083255e+01,-8.199272648951864539e+01,9.408499717712402344e+00,1.147378161549568176e-01,1.376853704452514648e+00,2.110000000000000000e+02
-1.891434817819290402e+02,-1.767691987127354878e+02,-2.438321414744859794e+01,-8.573342025662896049e+01,-1.677575978453187417e+02,-1.643826844039804200e+02,-1.269869534900317376e+01,-8.728272976257267146e+01,9.408499717712402344e+00,1.147378161549568176e-01,1.376853704452514648e+00,2.120000000000000000e+02
-2.070194550020205497e+02,-1.882142871534788355e+02,-2.740347096775258251e+01,-9.302250721254222299e+01,-1.810088210763933603e+02,-1.760894672938538861e+02,-9.843886366902552254e+00,-9.342640851570104132e+01,9.408499717712402344e+00,1.147378161549568176e-01,1.376853704452514648e+00,2.130000000000000000e+02
-2.239215178474896675e+02,-1.990646065377804916e+02,-3.099392854772486317e+01,-9.900036407417428563e+01,-1.951144480003949866e+02,-1.884538039949038648e+02,-7.182148991739268240e+00,-1.003385551017900070e+02,9.408499717712402344e+00,1.147378161549568176e-01,1.376853704452514648e+00,2.140000000000000000e+02
-2.389663391528774810e+02,-2.095171778922567682e+02,-3.505580928417657560e+01,-1.052744082536200949e+02,-2.114787255407291013e+02,-2.023228701255466149e+02,-7.434351036525185918e+00,-1.078383999204197607e+02,9.408499717712402344e+00,1.147378161549568176e-01,1.376853704452514648e+00,2.150000000000000000e+02
-2.528180337532712656e+02,-2.212102480484645639e+02,-3.910532360645538574e+01,-1.130976102703298238e+02,-2.286563185133754814e+02,-2.170320425237150630e+02,-1.033262573460342537e+01,-1.161365671494777416e+02,9.408499717712402344e+00,1.147378161549568176e-01,1.376853704452514648e+00,2.160000000000000000e+02
-2.666734988213429460e+02,-2.355827017499359499e+02,-4.307938644177102105e+01,-1.227752010719550526e+02,-2.445467675922227500e+02,-2.314076634583752821e+02,-1.402234800338737841e+01,-1.255617395040826523e+02,9.408499717712402344e+00,1.147378161549568176e-01,1.376853704452514648e+00,2.170000000000000000e+02
-2.809833215542248581e+02,-2.520325998881635314e+02,-4.760734654307543678e+01,-1.336913524042347490e+02,-2.590033090676424763e+02,-2.451056915302679045e+02,-1.754823359064539545e+01,-1.358654496321541956e+02,9.408499717712402344e+00,1.147378161549568176e-01,1.376853704452514648e+00,2.180000000000000000e+02
-2.953739358365819498e+02,-2.680470133451526635e+02,-5.325200368999958300e+01,-1.446925285389506826e+02,-2.736694137889653575e+02,-2.587711550176491073e+02,-2.150681391805210296e+01,-1.459576576132794798e+02,9.408499717712402344e+00,1.147378161549568176e-01,1.376853704452514648e+00,2.190000000000000000e+02
-3.095508768562012847e+02,-2.812211506665976231e+02,-5.953800625672010938e+01,-1.546057057039270148e+02,-2.895228870384444235e+02,-2.730182080929807853e+02,-2.660153981611983909e+01,-1.544701142637377416e+02,9.408499717712402344e+00,1.147378161549568176e-01,1.376853704452514648e+00,2.200000000000000000e+02
-3.238128418267779125e+02,-2.911113101432370058e+02,-6.496204172498619300e+01,-1.627421462428828818e+02,-3.053127737982849794e+02,-2.875114077956523033e+02,-3.224740525197921670e+01,-1.607134301784308263e+02,9.408499717712402344e+00,1.147378161549568176e-01,1.376853704452514648e+00,2.210000000000000000e+02
-3.384945865197378225e+02,-2.992209122982822009e+02,-6.816110768169528455e+01,-1.691721328685425760e+02,-3.188060444139055107e+02,-3.011428427531454872e+02,-3.693701589335614699e+01,-1.652015728632441096e+02,9.408499717712402344e+00,1.147378161549568176e-01,1.376853704452514648e+00,2.220000000000000000e+02
-3.531846523413987597e+02,-3.074869624630987346e+02,-6.911236981986075989e+01,-1.745678367250993688e+02,-3.292955180577982901e+02,-3.129513151288501831e+02,-3.974981905252934666e+01,-1.693000546046514501e+02,9.408499717712402344e+00,1.147378161549568176e-01,1.376853704452514648e+00,2.230000000000000000e+02
-3.669117312842035972e+02,-3.169466228770193084e+02,-6.917339731574156758e+01,-1.797342941490469457e+02,-3.384449271686407883e+02,-3.227553819282647964e+02,-4.116968148600790300e+01,-1.743172698359076094e+02,9.408499717712402344e+00,1.147378161549568176e-01,1.376853704452514648e+00,2.240000000000000000e+02
-3.792794562616659277e+02,-3.276553727417413029e+02,-6.998587992768261756e+01,-1.852601535184908244e+02,-3.486276869252142205e+02,-3.310252736715092396e+02,-4.244866234453093057e+01,-1.807953739468721324e+02,9.408499717712402344e+00,1.147378161549568176e-01,1.376853704452514648e+00,2.250000000000000000e+02
-3.912608694085711249e+02,-3.394149565444567997e+02,-7.238763623213981191e+01,-1.915734867292771924e+02,-3.607535009155635635e+02,-3.384046854783891831e+02,-4.447263274641682074e+01,-1.885079462558142041e+02,9.408499717712402344e+00,1.147378161549568176e-01,1.376853704452514648e+00,2.260000000000000000e+02
-4.045691998369843532e+02,-3.521678267485754077e+02,-7.629904601744055981e+01,-1.991730550825627688e+02,-3.739158705490608554e+02,-3.454939135326758333e+02,-4.739731546152324881e+01,-1.970011787345183620e+02,9.408499717712402344e+00,1.147378161549568176e-01,1.376853704452514648e+00,2.270000000000000000e+02
-4.200536047448567842e+02,-3.656492942817753828e+02,-8.137183465983616770e+01,-2.085133758736005802e+02,-3.868795896937426733e+02,-3.529145874302666925e+02,-5.109849088032024156e+01,-2.060479649320823228e+02,9.408499717712402344e+00,1.147378161549568176e-01,1.376853704452514648e+00,2.280000000000000000e+02
-4.366791347525672791e+02,-3.789220492125382407e+02,-8.742234279509921180e+01,-2.194377716403637351e+02,-3.994314060049327963e+02,-3.612530639343476651e+02,-5.551359073136063671e+01,-2.155674289786002191e+02,9.408499717712402344e+00,1.147378161549568176e-01,1.376853704452514648e+00,2.290000000000000000e+02
-4.521194649935850975e+02,-3.905899852375860064e+02,-9.413627619649469125e+01,-2.307583074693443450e+02,-4.121127463260618242e+02,-3.707460696415764687e+02,-6.037969040210282401e+01,-2.251988808136447915e+02,9.408499717712402344e+00,1.147378161549568176e-01,1.376853704452514648e+00,2.300000000000000000e+02
-4.644315904326344935e+02,-3.997307328857064022e+02,-1.005798650563092451e+02,-2.407017046414489414e+02,-4.249475310375846675e+02,-3.810647778998300055e+02,-6.491015952756970364e+01,-2.341497281105494039e+02,9.408499717712402344e+00,1.147378161549568176e-01,1.376853704452514648e+00,2.310000000000000000e+02
-4.732894448759807347e+02,-4.067463140625541200e+02,-1.053980659316175661e+02,-2.481559003989027588e+02,-4.369179799336661745e+02,-3.915742915857135813e+02,-6.817157718851103709e+01,-2.416797093265613512e+02,9.408499717712402344e+00,1.147378161549568176e-01,1.376853704452514648e+00,2.320000000000000000e+02
-4.798114292108534755e+02,-4.133113164381957176e+02,-1.077663178919201528e+02,-2.536722799882450090e+02,-4.468730667235859073e+02,-4.018853243327766904e+02,-6.996229277328529861e+01,-2.478558403177494256e+02,9.408499717712402344e+00,1.147378161549568176e-01,1.376853704452514648e+00,2.330000000000000000e+02
-4.853975536362700041e+02,-4.213136690277483467e+02,-1.081638539633095206e+02,-2.591292734091462080e+02,-4.547938136199027213e+02,-4.121291542188264430e+02,-7.116516563243476412e+01,-2.537401225323392282e+02,9.408499717712402344e+00,1.147378161549568176e-01,1.376853704452514648e+00,2.340000000000000000e+02
-4.908027379305540308e+02,-4.315281922416179441e+02,-1.080610804439238564e+02,-2.661155972493165791e+02,-4.619344210216213469e+02,-4.226489657464562697e+02,-7.297369052696467406e+01,-2.605931285602173375e+02,9.408499717712402344e+00,1.147378161549568176e-01,1.376853704452514648e+00,2.350000000000000000e+02
-4.962237726969015057e+02,-4.430500675188145578e+02,-1.087023858616648795e+02,-2.744004667292956583e+02,-4.696558982323012970e+02,-4.334195605427366900e+02,-7.565425876867993793e+01,-2.686631849367377072e+02,9.408499717712402344e+00,1.147378161549568176e-01,1.376853704452514648e+00,2.360000000000000000e+02
-5.020284655852155993e+02,-4.539901009625336883e+02,-1.101685227331900023e+02,-2.819700293935115951e+02,-4.782376137611772720e+02,-4.438255491267846082e+02,-7.815977900500001851e+01,-2.767062331663837540e+02,9.408499717712402344e+00,1.147378161549568176e-01,1.376853704452514648e+00,2.370000000000000000e+02
-5.091301310742437636e+02,-4.629468520112341139e+02,-1.116591006039570857e+02,-2.867417576375173667e+02,-4.868765624896259396e+02,-4.530284763438503433e+02,-7.910433830298916291e+01,-2.828527715393734070e+02,9.408499717712402344e+00,1.147378161549568176e-01,1.376853704452514648e+00,2.380000000000000000e+02
-5.184461434077106787e+02,-4.700684164016288378e+02,-1.126936159080942161e+02,-2.884760157129217077e+02,-4.947709151888002452e+02,-4.605771184457098570e+02,-7.821960489576304099e+01,-2.861868940316931003e+02,9.293763160705566406e+00,1.147378161549568176e-01,1.376853704452514648e+00,2.390000000000000000e+02
-5.299302699368217873e+02,-4.767755640607770147e+02,-1.139578232904823381e+02,-2.891267671062246336e+02,-5.021007014111264652e+02,-4.667264213912721971e+02,-7.688194863558328507e+01,-2.876622116553699016e+02,9.293763160705566406e+00,1.147378161549568176e-01,1.376853704452514648e+00,2.400000000000000000e+02
-5.422166823126303825e+02,-4.843507777904765135e+02,-1.168663608218057561e+02,-2.912661334430308671e+02,-5.099129114208562896e+02,-4.722498794590501348e+02,-7.717691574779473740e+01,-2.895010376401714893e+02,9.293763160705566406e+00,1.147378161549568176e-01,1.376853704452514648e+00,2.410000000000000000e+02
-5.533995549916025993e+02,-4.926490414154131940e+02,-1.222081645183598084e+02,-2.959881738966123521e+02,-5.190929355523348931e+02,-4.779809092613504617e+02,-8.034209499209191563e+01,-2.935501553814228828e+02,9.293763160705566406e+00,1.147378161549568176e-01,1.376853704452514648e+00,2.420000000000000000e+02
-5.623872834659741784e+02,-5.001738826505338693e+02,-1.291659718741429970e+02,-3.021628763688918298e+02,-5.294338616928089323e+02,-4.844365550922257171e+02,-8.590702078862068447e+01,-2.999917114819550079e+02,9.293763160705566406e+00,1.147378161549568176e-01,1.376853704452514648e+00,2.430000000000000000e+02
-5.696283572002307665e+02,-5.055029542100337494e+02,-1.356593029939349435e+02,-3.076237533897051435e+02,-5.396483490477871783e+02,-4.916974264431964912e+02,-9.212920553793628642e+01,-3.074144431855702351e+02,9.293763160705566406e+00,1.147378161549568176e-01,1.376853704452514648e+00,2.440000000000000000e+02
-5.765205706215383543e+02,-5.087082185395397573e+02,-1.397375244103477598e+02,-3.110917412507769768e+02,-5.482825150160306293e+02,-4.995140954231355863e+02,-9.721036714906858833e+01,-3.140173001339094299e+02,9.293763160705566406e+00,1.147378161549568176e-01,1.376853704452514648e+00,2.450000000000000000e+02
-5.840253091824079092e+02,-5.113619524029281820e+02,-1.408228260888317891e+02,-3.130651854240322791e+02,-5.547519152808495164e+02,-5.075172070001235625e+02,-1.002918301723429977e+02,-3.188312494962578967e+02,9.293763160705566406e+00,1.147378161549568176e-01,1.376853704452514648e+00,2.460000000000000000e+02
-5.918014692764268148e+02,-5.151109423046382290e+02,-1.398244592946207376e+02,-3.150024688983830856e+02,-5.596509031702616994e+02,-5.153843344834858726e+02,-1.015935961166796915e+02,-3.220248825019448304e+02,9.293763160705566406e+00,1.147378161549568176e-01,1.376853704452514648e+00,2.470000000000000000e+02
-5.987071858248882563e+02,-5.202511225500138607e+02,-1.381924764261848395e+02,-3.177597586506003609e+02,-5.640985307794535402e+02,-5.228469761056353491e+02,-1.018192489570083126e+02,-3.242976323728021271e+02,9.293763160705566406e+00,1.147378161549568176e-01,1.376853704452514648e+00,2.480000000000000000e+02
-6.041352025422202132e+02,-5.256892074080269595e+02,-1.368455211854220579e+02,-3.208517494716420515e+02,-5.687427283127608462e+02,-5.295788481101267280e+02,-1.014877261036981508e+02,-3.260972401494577753e+02,9.293763160705566406e+00,1.147378161549568176e-01,1.376853704452514648e+00,2.490000000000000000e+02
-6.087963601602918970e+02,-5.302174336660277731e+02,-1.358555761561815416e+02,-3.231465286911352450e+02,-5.733497365369030376e+02,-5.351547730920265167e+02,-1.007422313857387053e+02,-3.273479257890558074e+02,9.293763160705566406e+00,1.147378161549568176e-01,1.376853704452514648e+00,2.500000000000000000e+02
-6.141202029868823047e+02,-5.337213696590779364e+02,-1.349556402563553092e+02,-3.241579530288017850e+02,-5.773468695307392409e+02,-5.392440875863348992e+02,-9.964661167864596791e+01,-3.278097251094559397e+02,9.293763160705566406e+00,1.147378161549568176e-01,1.376853704452514648e+00,2.510000000000000000e+02
-6.208729250655783289e+02,-5.371288370606011995e+02,-1.342071922442314644e+02,-3.246037273000229106e+02,-5.807498251952715691e+02,-5.419418517710905689e+02,-9.854160912089719204e+01,-3.276827666300291639e+02,9.293763160705566406e+00,1.147378161549568176e-01,1.376853704452514648e+00,2.520000000000000000e+02
-6.284171409674818278e+02,-5.412970172414779881e+02,-1.341466492158579058e+02,-3.257335027526855811e+02,-5.844770682801568000e+02,-5.438973013723903023e+02,-9.804544616302837312e+01,-3.279441452449250392e+02,9.293763160705566406e+00,1.147378161549568176e-01,1.376853704452514648e+00,2.530000000000000000e+02
-6.353812515769050151e+02,-5.461128718656166257e+02,-1.353368967678029549e+02,-3.281775487568070275e+02,-5.896314469878811906e+02,-5.460124159911320021e+02,-9.869899869404071069e+01,-3.300972628447220814e+02,9.293763160705566406e+00,1.147378161549568176e-01,1.376853704452514648e+00,2.540000000000000000e+02
-6.410249019666184722e+02,-5.507110900583650164e+02,-1.378033841926826426e+02,-3.314446356672647198e+02,-5.964072160186929068e+02,-5.489024380327223298e+02,-1.005883888979542462e+02,-3.353655739418627491e+02,9.293763160705566406e+00,1.147378161549568176e-01,1.376853704452514648e+00,2.550000000000000000e+02
-6.458687378568606619e+02,-5.544416107473364264e+02,-1.408758740991111154e+02,-3.344506953254958717e+02,-6.037193074442011493e+02,-5.525789232441161403e+02,-1.032443273665207926e+02,-3.437408600826142901e+02,9.293763160705566406e+00,1.147378161549568176e-01,1.376853704452514648e+00,2.560000000000000000e+02
-6.509668018141180710e+02,-5.574764118897803655e+02,-1.435393511305819629e+02,-3.364532595116561424e+02,-6.099813704488028634e+02,-5.566204142436163238e+02,-1.058403720277001412e+02,-3.535356638638813820e+02,9.293763160705566406e+00,1.147378161549568176e-01,1.376853704452514648e+00,2.570000000000000000e+02
-6.566473152954506531e+02,-5.604847763542791199e+02,-1.449796890164666365e+02,-3.375149872323199816e+02,-6.143338448633226108e+02,-5.606205085377214345e+02,-1.075022268410193647e+02,-3.619488602816900311e+02,9.293763160705566406e+00,1.147378161549568176e-01,1.376853704452514648e+00,2.580000000000000000e+02
-6.620979398843733179e+02,-5.638821574077296646e+02,-1.449441660702032095e+02,-3.382389546942922607e+02,-6.172065298093730235e+02,-5.644480298383095942e+02,-1.076014621190956859e+02,-3.665221051830690158e+02,9.293763160705566406e+00,1.147378161549568176e-01,1.376853704452514648e+00,2.590000000000000000e+02
-6.662328608786579025e+02,-5.675307591816529111e+02,-1.437698659213306200e+02,-3.392335169132434203e+02,-6.197934054131865196e+02,-5.681217722341543777e+02,-1.060478810023973892e+02,-3.666034068797630425e+02,9.293763160705566406e+00,1.147378161549568176e-01,1.300361871719360352e+00,2.600000000000000000e+02
-6.689059308015941951e+02,-5.711099699153567144e+02,-1.421621940256081871e+02,-3.408361357617486647e+02,-6.230422506205968602e+02,-5.715555571103859620e+02,-1.035185529346258591e+02,-3.637311041493376251e+02,9.293763160705566406e+00,1.147378161549568176e-01,1.300361871719360352e+00,2.610000000000000000e+02
-6.711658550301876858e+02,-5.745794141035839857e+02,-1.408819987736160328e+02,-3.431739252970328380e+02,-6.270792844151433201e+02,-5.745388087094474940e+02,-1.013600117103824232e+02,-3.605743082991862138e+02,9.293763160705566406e+00,1.147378161549568176e-01,1.300361871719360352e+00,2.620000000000000000e+02
-6.742728932768495724e+02,-5.781193185571589765e+02,-1.404556790856199768e+02,-3.462348270800241608e+02,-6.313806357105436291e+02,-5.769688081741674068e+02,-1.009440173041853086e+02,-3.591934725911887654e+02,9.293763160705566406e+00,1.147378161549568176e-01,1.300361871719360352e+00,2.630000000000000000e+02
-6.784788726640366576e+02,-5.816404650296952923e+02,-1.409896284739539851e+02,-3.497373369540287626e+02,-6.352788406668797734e+02,-5.790038241926347382e+02,-1.027282464075917687e+02,-3.599270703612395437e+02,9.293763160705566406e+00,1.147378161549568176e-01,1.300361871719360352e+00,2.640000000000000000e+02
-6.828046922888242989e+02,-5.845433286562521289e+02,-1.421786463401489300e+02,-3.530135787911412990e+02,-6.383129999162991908e+02,-5.809115118847760186e+02,-1.057680061402040792e+02,-3.616814366013317112e+02,9.293763160705566406e+00,1.147378161549568176e-01,1.300361871719360352e+00,2.650000000000000000e+02
-6.860445640842350485e+02,-5.861632362939251379e+02,-1.435353260279487131e+02,-3.552499376415732968e+02,-6.403355544259829912e+02,-5.827754971344423893e+02,-1.082568769776675026e+02,-3.632190449534969048e+02,9.293763160705566406e+00,1.147378161549568176e-01,1.300361871719360352e+00,2.660000000000000000e+02
-6.880237731983480671e+02,-5.865286529251247885e+02,-1.447096864370504363e+02,-3.560565958968023210e+02,-6.415484633185906205e+02,-5.843985797617782509e+02,-1.088198819046197059e+02,-3.642332465665365362e+02,9.293763160705566406e+00,1.147378161549568176e-01,1.300361871719360352e+00,2.670000000000000000e+02
-6.899100771494164519e+02,-5.866054049225506333e+02,-1.456666608337585558e+02,-3.558921440526909237e+02,-6.424871329812358454e+02,-5.855082793356999673e+02,-1.075076109821401360e+02,-3.653461841168468709e+02,9.293763160705566406e+00,1.147378161549568176e-01,1.300361871719360352e+00,2.680000000000000000e+02
-6.932849169241885647e+02,-5.876366361206181637e+02,-1.465946546576133187e+02,-3.558837255398597677e+02,-6.437997332629798848e+02,-5.860190408560481501e+02,-1.056324845132473911e+02,-3.672271711912665069e+02,9.293763160705566406e+00,1.147378161549568176e-01,1.300361871719360352e+00,2.690000000000000000e+02
-6.987840036711663743e+02,-5.900783727162869354e+02,-1.476528676954040975e+02,-3.570989067993284607e+02,-6.458420538937938318e+02,-5.860715340900961792e+02,-1.046406894355587838e+02,-3.697876180547667673e+02,9.293763160705566406e+00,1.147378161549568176e-01,1.300361871719360352e+00,2.700000000000000000e+02
-7.054478522552633422e+02,-5.931058905438799229e+02,-1.487936518815615727e+02,-3.598526121743753947e+02,-6.484178424868215416e+02,-5.858868876503232741e+02,-1.050675231553827871e+02,-3.722238702777203798e+02,9.293763160705566406e+00,1.147378161549568176e-01,1.300361871719360352e+00,2.710000000000000000e+02
-7.113025902523796731e+02,-5.952368709667679241e+02,-1.497957601855021039e+02,-3.636423908756052583e+02,-6.509609388476601453e+02,-5.856980909824771970e+02,-1.064424731525288053e+02,-3.737906261615402741e+02,9.293763160705566406e+00,1.147378161549568176e-01,1.300361871719360352e+00,2.720000000000000000e+02
-7.147106667565406042e+02,-5.956150122001419049e+02,-1.504320202840398224e+02,-3.677331754471440490e+02,-6.530036860767535245e+02,-5.858565895452811674e+02,-1.079900956198704307e+02,-3.744845624361937553e+02,9.293763160705566406e+00,1.147378161549568176e-01,1.300361871719360352e+00,2.730000000000000000e+02
-7.154774071654682075e+02,-5.948632642134343769e+02,-1.506103986479663490e+02,-3.718249418409762939e+02,-6.544625080058202684e+02,-5.869024934853584909e+02,-1.092753838643336621e+02,-3.749714474886424114e+02,9.293763160705566406e+00,1.147378161549568176e-01,1.300361871719360352e+00,2.740000000000000000e+02
-7.149238755479562997e+02,-5.947065719819856895e+02,-1.504312899173903588e+02,-3.761610107270662411e+02,-6.554963626880935408e+02,-5.893440963500952421e+02,-1.102332131193525129e+02,-3.758604368102577382e+02,9.293763160705566406e+00,1.147378161549568176e-01,1.300361871719360352e+00,2.750000000000000000e+02
-7.148998383756438670e+02,-5.965894276296844509e+02,-1.502045490027098822e+02,-3.809582309874973589e+02,-6.562041861466884711e+02,-5.932241003509614075e+02,-1.108236433385061446e+02,-3.770826183791396033e+02,9.293763160705566406e+00,1.147378161549568176e-01,1.300361871719360352e+00,2.760000000000000000e+02
-7.164583635816053402e+02,-6.004140934496728050e+02,-1.504208092056088617e+02,-3.857035042276651780e+02,-6.565808018615224455e+02,-5.978702684359376462e+02,-1.109266248472579264e+02,-3.780074479781517880e+02,9.293763160705566406e+00,1.147378161549568176e-01,1.300361871719360352e+00,2.770000000000000000e+02
-7.191530948701222314e+02,-6.045121009644611831e+02,-1.515804044376834554e+02,-3.890590283246380068e+02,-6.567556386013843621e+02,-6.021531362661153253e+02,-1.106431489222676419e+02,-3.781763242274973891e+02,9.293763160705566406e+00,1.147378161549568176e-01,1.300361871719360352e+00,2.780000000000000000e+02
-7.214552415182798768e+02,-6.069386320318596972e+02,-1.538570911879564846e+02,-3.896316328277806633e+02,-6.571204470294429711e+02,-6.051323073986650343e+02,-1.105414534960580113e+02,-3.779063660644433185e+02,9.293763160705566406e+00,1.147378161549568176e-01,1.300361871719360352e+00,2.790000000000000000e+02
-7.219336021166178625e+02,-6.070133829589735797e+02,-1.567995104089314964e+02,-3.870743545330720963e+02,-6.580651439653267971e+02,-6.065914112361397201e+02,-1.113799895407616987e+02,-3.781065482325431617e+02,9.293763160705566406e+00,1.147378161549568176e-01,1.300361871719360352e+00,2.800000000000000000e+02
-7.202651160698853801e+02,-6.057846464758315506e+02,-1.593942674218719731e+02,-3.825919019004351185e+02,-6.595333682310492804e+02,-6.070317230783916784e+02,-1.134441244980843067e+02,-3.793985025935163549e+02,9.293763160705566406e+00,1.147378161549568176e-01,1.300361871719360352e+00,2.810000000000000000e+02
-7.173226636978371289e+02,-6.050021385154143445e+02,-1.606151195090450301e+02,-3.783316458449031074e+02,-6.609029199116180280e+02,-6.071537755517858841e+02,-1.161487158734142895e+02,-3.813566360905716692e+02,9.293763160705566406e+00,1.147378161549568176e-01,1.300361871719360352e+00,2.820000000000000000e+02
-7.143737554575832291e+02,-6.055228094500637326e+02,-1.601320882918838606e+02,-3.760396394974674195e+02,-6.613905886779053844e+02,-6.072719555385756394e+02,-1.183604565715128274e+02,-3.826398676258431806e+02,9.293763160705566406e+00,1.147378161549568176e-01,1.300361871719360352e+00,2.830000000000000000e+02
-7.121517695756972444e+02,-6.065771530489216730e+02,-1.586086392590211744e+02,-3.759881022077499892e+02,-6.606401452058519226e+02,-6.071306683042657824e+02,-1.191884033071979729e+02,-3.819874874955241921e+02,9.293763160705566406e+00,1.147378161549568176e-01,1.300361871719360352e+00,2.840000000000000000e+02
-7.105941848447132543e+02,-6.065275431963550545e+02,-1.573184811953602775e+02,-3.769845193011437914e+02,-6.590009249884876681e+02,-6.062499340225688229e+02,-1.185827440851369374e+02,-3.792640217850969862e+02,9.293763160705566406e+00,1.147378161549568176e-01,1.376853704452514648e+00,2.850000000000000000e+02
-7.093251871394439831e+02,-6.043946310271657012e+02,-1.573322741038757613e+02,-3.774161735800665269e+02,-6.573119411365571523e+02,-6.044983367784370785e+02,-1.172792854428161036e+02,-3.756625795564109467e+02,9.293763160705566406e+00,1.147378161549568176e-01,1.376853704452514648e+00,2.860000000000000000e+02
-7.082352694493002900e+02,-6.007378167792963950e+02,-1.588647829196969496e+02,-3.764657873399854680e+02,-6.564130644223735089e+02,-6.024047488265678112e+02,-1.162153972390084391e+02,-3.728987267077663432e+02,9.293763160705566406e+00,1.147378161549568176e-01,1.376853704452514648e+00,2.870000000000000000e+02
-7.075051379677793193e+02,-5.971007141757057752e+02,-1.612081991048454483e+02,-3.745424910124199300e+02,-6.567020288259006975e+02,-6.009133920330342562e+02,-1.159210541796235248e+02,-3.720655809602703243e+02,9.293763160705566406e+00,1.147378161549568176e-01,1.376853704452514648e+00,2.880000000000000000e+02
-7.070982525590502519e+02,-5.945841949164268954e+02,-1.632085565634124578e+02,-3.726897714253078675e+02,-6.579237479301297071e+02,-6.007387492673781253e+02,-1.162993927099588518e+02,-3.730453415012510732e+02,9.293763160705566406e+00,1.147378161549568176e-01,1.376853704452514648e+00,2.890000000000000000e+02
-7.063813658071657073e+02,-5.929028405270685198e+02,-1.638957802909117163e+02,-3.715862088023332035e+02,-6.592558187099216411e+02,-6.018299549125201793e+02,-1.168619459632813005e+02,-3.748165331632488915e+02,9.293763160705566406e+00,1.147378161549568176e-01,1.376853704452514648e+00,2.900000000000000000e+02
-7.044573320345276670e+02,-5.908013210361002621e+02,-1.628944277763793025e+02,-3.710071836528059634e+02,-6.596914759710107319e+02,-6.033870154232466803e+02,-1.171757582792120047e+02,-3.762616610340893430e+02,9.293763160705566406e+00,1.147378161549568176e-01,1.376853704452514648e+00,2.910000000000000000e+02
-7.010233265750509872e+02,-5.874353612002209957e+02,-1.604941080200490546e+02,-3.701367701233199341e+02,-6.586083034946175303e+02,-6.044243109320075291e+02,-1.172043600550747442e+02,-3.768322572812229510e+02,9.293763160705566406e+00,1.147378161549568176e-01,1.376853704452514648e+00,2.920000000000000000e+02
-6.969034223404989916e+02,-5.834180651532499269e+02,-1.574532692089907187e+02,-3.683715669193483109e+02,-6.561967391653805635e+02,-6.044145623114400223e+02,-1.173242452702746732e+02,-3.767059183598630057e+02,9.293763160705566406e+00,1.147378161549568176e-01,1.376853704452514648e+00,2.930000000000000000e+02
-6.936154140025827246e+02,-5.805077118923640001e+02,-1.546637087523464515e+02,-3.658716488271476237e+02,-6.533875416302246322e+02,-6.034937873321750885e+02,-1.180037924161460978e+02,-3.764820633153726135e+02,9.293763160705566406e+00,1.147378161549568176e-01,1.376853704452514648e+00,2.940000000000000000e+02
-6.922556161783199968e+02,-5.801507017275528142e+02,-1.527975929085042708e+02,-3.633850375557200323e+02,-6.512538465790933060e+02,-6.021342008308503182e+02,-1.193593035048179445e+02,-3.766898120786881918e+02,9.293763160705566406e+00,1.147378161549568176e-01,1.376853704452514648e+00,2.950000000000000000e+02
-6.927197782742309755e+02,-5.821349526862203447e+02,-1.520692420720951077e+02,-3.615177958997410315e+02,-6.503018112593312026e+02,-6.006585654759846875e+02,-1.209051316532817282e+02,-3.773680358014398166e+02,9.293763160705566406e+00,1.147378161549568176e-01,1.376853704452514648e+00,2.960000000000000000e+02
-6.940015324528299061e+02,-5.845359114091759238e+02,-1.522359836618303461e+02,-3.600837858835078009e+02,-6.501902903486057994e+02,-5.990470802974994058e+02,-1.217156332455962229e+02,-3.779224391142127502e+02,9.293763160705566406e+00,1.147378161549568176e-01,1.376853704452514648e+00,2.970000000000000000e+02
-6.952776555193449894e+02,-5.850491436347684839e+02,-1.528539050625233813e+02,-3.581098487914741213e+02,-6.500746939489351917e+02,-5.971476154748900171e+02,-1.209473163179094399e+02,-3.774142461822699488e+02,9.293763160705566406e+00,1.147378161549568176e-01,1.376853704452514648e+00,2.980000000000000000e+02
-6.966848839931809607e+02,-5.826187275215659156e+02,-1.536098260758348033e+02,-3.545584385699275458e+02,-6.492748450142173624e+02,-5.949953158147050090e+02,-1.184066242465604546e+02,-3.752201984182375440e+02,9.293763160705566406e+00,1.147378161549568176e-01,1.376853704452514648e+00,2.990000000000000000e+02
-6.989719963014140376e+02,-5.780412733703175263e+02,-1.544734782016126928e+02,-3.492271293287720937e+02,-6.477469710210804124e+02,-5.928830004629287487e+02,-1.147812363317385689e+02,-3.716418416403160450e+02,9.293763160705566406e+00,1.147378161549568176e-01,1.376853704452514648e+00,3.000000000000000000e+02
-7.023806369333460680e+02,-5.731580114405011273e+02,-1.555516504442701944e+02,-3.431046275319380356e+02,-6.460466756279857918e+02,-5.911238090549726394e+02,-1.113414996536691888e+02,-3.679172368326957780e+02,9.293763160705566406e+00,1.147378161549568176e-01,1.376853704452514648e+00,3.010000000000000000e+02
-7.059351959018985099e+02,-5.694441392698352047e+02,-1.567814133895695932e+02,-3.378665956056768209e+02,-6.448549680281558949e+02,-5.897712157004079927e+02,-1.092451193789672743e+02,-3.654731864629962956e+02,9.293763160705566406e+00,1.147378161549568176e-01,1.376853704452514648e+00,3.020000000000000000e+02
-7.079547646476340788e+02,-5.672134323452520448e+02,-1.577662549541529415e+02,-3.348654071828473207e+02,-6.444186066654547176e+02,-5.885921885724392268e+02,-1.088618392920648148e+02,-3.649196894842870620e+02,9.293763160705566406e+00,1.147378161549568176e-01,1.376853704452514648e+00,3.030000000000000000e+02
-7.073649637132671160e+02,-5.659461123276009857e+02,-1.579536111309812441e+02,-3.343390662421359139e+02,-6.442948127796129256e+02,-5.873114309696476312e+02,-1.095758237487128781e+02,-3.655805919650265423e+02,9.293763160705566406e+00,1.147378161549568176e-01,1.376853704452514648e+00,3.040000000000000000e+02
-7.045717796329588509e+02,-5.651621787363371823e+02,-1.570387104831289662e+02,-3.353654180550453816e+02,-6.435991854629070303e+02,-5.858797150829402653e+02,-1.102472952646706972e+02,-3.659763521352014664e+02,9.293763160705566406e+00,1.147378161549568176e-01,1.376853704452514648e+00,3.050000000000000000e+02
-7.010847734381596865e+02,-5.648569657642892707e+02,-1.552627037859471102e+02,-3.364889488485184756e+02,-6.416061733256574371e+02,-5.844798846584931198e+02,-1.100334253613473265e+02,-3.648688671076810124e+02,9.293763160705566406e+00,1.147378161549568176e-01,1.376853704452514648e+00,3.060000000000000000e+02
-6.982935071623201111e+02,-5.651047971184486869e+02,-1.533187680561436537e+02,-3.364836461935590251e+02,-6.382427697840507790e+02,-5.832152606777334540e+02,-1.089339012479215398e+02,-3.619998125334987549e+02,9.293763160705566406e+00,1.147378161549568176e-01,1.376853704452514648e+00,3.070000000000000000e+02
-6.965709417806456258e+02,-5.653981349738601239e+02,-1.519110424325111808e+02,-3.347662340940607919e+02,-6.340695519539260658e+02,-5.817623834940648067e+02,-1.076138746107951647e+02,-3.580279361344586846e+02,9.293763160705566406e+00,1.147378161549568176e-01,1.376853704452514648e+00,3.080000000000000000e+02
-6.953917469065693240e+02,-5.645902522352890855e+02,-1.513216801254376378e+02,-3.313859193076478959e+02,-6.298024056511200115e+02,-5.793772552563493718e+02,-1.066842401605858868e+02,-3.539245574497713278e+02,9.293763160705566406e+00,1.147378161549568176e-01,1.376853704452514648e+00,3.090000000000000000e+02
-6.940646555776781952e+02,-5.616629922826564325e+02,-1.513510084379701084e+02,-3.268517534458087539e+02,-6.258863864209499752e+02,-5.754030270197308710e+02,-1.061420023333205336e+02,-3.504765497262771987e+02,9.293763160705566406e+00,1.147378161549568176e-01,1.376853704452514648e+00,3.100000000000000000e+02
-6.921705870018488440e+02,-5.566539088355435752e+02,-1.516490393589035648e+02,-3.220008963420729060e+02,-6.225562732963583130e+02,-5.699500813779711734e+02,-1.055165794256000709e+02,-3.482250710441193178e+02,9.293763160705566406e+00,1.147378161549568176e-01,1.376853704452514648e+00,3.110000000000000000e+02
-6.893658138479138415e+02,-5.508426813524348518e+02,-1.520910446581727911e+02,-3.178607311532160793e+02,-6.202242032215353902e+02,-5.641442512209753204e+02,-1.045427501610585068e+02,-3.476042444312134876e+02,9.293763160705566406e+00,1.529837548732757568e-01,1.300361871719360352e+00,3.120000000000000000e+02
-6.851052337779285608e+02,-5.459467559677244708e+02,-1.528215831086411072e+02,-3.153734884937808829e+02,-6.195663323156211391e+02,-5.595872317942097425e+02,-1.036061464497148563e+02,-3.488832015709824645e+02,9.293763160705566406e+00,1.529837548732757568e-01,1.300361871719360352e+00,3.130000000000000000e+02
-6.789622335868623395e+02,-5.429634874638277324e+02,-1.539337176699107204e+02,-3.150383844160227795e+02,-6.209668832100765030e+02,-5.573553668328014510e+02,-1.034456337579227920e+02,-3.518754105894257691e+02,9.293763160705566406e+00,1.529837548732757568e-01,1.300361871719360352e+00,3.140000000000000000e+02
-6.713862791220367399e+02,-5.415911178717685743e+02,-1.551351235710517358e+02,-3.167172780311581164e+02,-6.237975110162857391e+02,-5.573365763954689101e+02,-1.044071465308028337e+02,-3.557732372130476506e+02,9.293763160705566406e+00,1.529837548732757568e-01,1.300361871719360352e+00,3.150000000000000000e+02
-6.639901971382889769e+02,-5.406308035273987116e+02,-1.557841245404146093e+02,-3.197534899003085229e+02,-6.263931551383591341e+02,-5.584458789487596277e+02,-1.060489701091937604e+02,-3.593944255793591083e+02,9.293763160705566406e+00,1.529837548732757568e-01,1.300361871719360352e+00,3.160000000000000000e+02
-6.587487340217212477e+02,-5.389569283464895761e+02,-1.553097924406885113e+02,-3.232764354605899939e+02,-6.269914338968767424e+02,-5.594726603670486611e+02,-1.075392281631256992e+02,-3.616894181092952749e+02,9.293763160705566406e+00,1.529837548732757568e-01,1.300361871719360352e+00,3.170000000000000000e+02
-6.565977614362335544e+02,-5.362323716316871014e+02,-1.536489221362257922e+02,-3.264235468931952369e+02,-6.248806914353395996e+02,-5.597551389341058439e+02,-1.084172317163831849e+02,-3.620924866005624381e+02,9.293763160705566406e+00,1.529837548732757568e-01,1.300361871719360352e+00,3.180000000000000000e+02
-6.566862505909693937e+02,-5.328612678473298274e+02,-1.513139888155100152e+02,-3.283939932852428001e+02,-6.207039933377993748e+02,-5.591429558991355862e+02,-1.089171165576381100e+02,-3.605012210079881925e+02,9.293763160705566406e+00,1.529837548732757568e-01,1.300361871719360352e+00,3.190000000000000000e+02
-6.570491344097632691e+02,-5.293690477898944664e+02,-1.490526658715198209e+02,-3.285130781247517007e+02,-6.156983398075713012e+02,-5.575167793736947033e+02,-1.095518664325928739e+02,-3.570794940025875803e+02,9.293763160705566406e+00,1.529837548732757568e-01,1.300361871719360352e+00,3.200000000000000000e+02
-6.561579189671285803e+02,-5.258438546941245022e+02,-1.474128707016128601e+02,-3.264696717034485687e+02,-6.107052362614697358e+02,-5.545868042149824078e+02,-1.104533584870057439e+02,-3.522192636365257385e+02,9.293763160705566406e+00,1.529837548732757568e-01,1.300361871719360352e+00,3.210000000000000000e+02
-6.539677566998688008e+02,-5.219406967030231499e+02,-1.465431352252031729e+02,-3.225976292532250227e+02,-6.059123158048344067e+02,-5.502669956483463238e+02,-1.111904877129391025e+02,-3.466777317693383793e+02,9.293763160705566406e+00,1.529837548732757568e-01,1.300361871719360352e+00,3.220000000000000000e+02
-6.515880369076091938e+02,-5.174078823004927017e+02,-1.462935359236091699e+02,-3.178678936896061487e+02,-6.013885909227243474e+02,-5.451294516830197381e+02,-1.112347369237021439e+02,-3.415606883881646354e+02,9.293763160705566406e+00,1.529837548732757568e-01,1.300361871719360352e+00,3.230000000000000000e+02
-6.500067764313042744e+02,-5.125837414369184444e+02,-1.464357925606617528e+02,-3.134330081276351621e+02,-5.975932592311181679e+02,-5.402445848685808869e+02,-1.105523576826843737e+02,-3.379079020510732789e+02,9.293763160705566406e+00,1.529837548732757568e-01,1.300361871719360352e+00,3.240000000000000000e+02
-6.491252256031224306e+02,-5.083299508375126265e+02,-1.467958470219999754e+02,-3.099934374413485330e+02,-5.951452187722671852e+02,-5.363773854584386527e+02,-1.097020788790320012e+02,-3.360730167289192423e+02,9.293763160705566406e+00,1.529837548732757568e-01,1.300361871719360352e+00,3.250000000000000000e+02
-6.479575819689860054e+02,-5.054107515284438250e+02,-1.472546455528647584e+02,-3.074873144645393950e+02,-5.940810165016017663e+02,-5.333208490043875827e+02,-1.093607604572108585e+02,-3.354364001264063972e+02,9.293763160705566406e+00,1.529837548732757568e-01,1.300361871719360352e+00,3.260000000000000000e+02
-6.456806341647750287e+02,-5.038838623557774099e+02,-1.476952558701726730e+02,-3.053610815333598794e+02,-5.934758783856750597e+02,-5.301317113708686293e+02,-1.097667889088793345e+02,-3.348051923390164575e+02,9.293763160705566406e+00,1.529837548732757568e-01,1.300361871719360352e+00,3.270000000000000000e+02
-6.424578579958200635e+02,-5.030831091096017644e+02,-1.479705087750520534e+02,-3.031608123557356294e+02,-5.919476443546236624e+02,-5.261248553756124693e+02,-1.105938837195269571e+02,-3.332449157697985811e+02,9.293763160705566406e+00,1.529837548732757568e-01,1.300361871719360352e+00,3.280000000000000000e+02
-6.392675940186409207e+02,-5.022178500784256130e+02,-1.479117794964743098e+02,-3.009141327087147602e+02,-5.886477798848923157e+02,-5.216648074711005165e+02,-1.113219385907268588e+02,-3.306884700359300950e+02,9.293763160705566406e+00,1.529837548732757568e-01,1.300361871719360352e+00,3.290000000000000000e+02
-6.369589033012192658e+02,-5.009987676551585309e+02,-1.473809710044906751e+02,-2.989921401023188992e+02,-5.838495466790437831e+02,-5.179412621174492415e+02,-1.117255257477654595e+02,-3.278485959426568570e+02,9.293763160705566406e+00,1.529837548732757568e-01,1.300361871719360352e+00,3.300000000000000000e+02
-6.354473048135598674e+02,-4.996827833182387621e+02,-1.463544392207861620e+02,-2.976372389233163176e+02,-5.786265067267596578e+02,-5.159186038882635330e+02,-1.120287958373066886e+02,-3.255557971430858970e+02,9.293763160705566406e+00,1.529837548732757568e-01,1.300361871719360352e+00,3.310000000000000000e+02
-6.337614153802538794e+02,-4.985434822159573969e+02,-1.449966768338526890e+02,-2.966384193478000952e+02,-5.739478571278920072e+02,-5.154569302617248923e+02,-1.126004635898217430e+02,-3.241249101360779150e+02,9.293763160705566406e+00,1.529837548732757568e-01,1.300361871719360352e+00,3.320000000000000000e+02
-6.308511514282701000e+02,-4.973579647089842410e+02,-1.436574218758394181e+02,-2.954503361254915035e+02,-5.699976929096965250e+02,-5.154021074658173802e+02,-1.134621955457938611e+02,-3.232612780544750422e+02,9.293763160705566406e+00,1.529837548732757568e-01,1.300361871719360352e+00,3.330000000000000000e+02
-6.264128677033219219e+02,-4.954515896413603286e+02,-1.427565849970810632e+02,-2.936007862071658110e+02,-5.662759215855098773e+02,-5.144948730832585397e+02,-1.140652772170926710e+02,-3.224740441867737673e+02,9.293763160705566406e+00,1.529837548732757568e-01,1.300361871719360352e+00,3.340000000000000000e+02
-6.210375872768426007e+02,-4.922238589352305098e+02,-1.426134748720090784e+02,-2.909709954930355025e+02,-5.623442907506071151e+02,-5.122473210578900762e+02,-1.136076004086494322e+02,-3.215251076276310869e+02,9.293763160705566406e+00,1.529837548732757568e-01,1.300361871719360352e+00,3.350000000000000000e+02
-6.156267257802189761e+02,-4.876051343659878512e+02,-1.433113477406299126e+02,-2.877006023690920529e+02,-5.585078695130105189e+02,-5.090654022799235463e+02,-1.117046155810462551e+02,-3.204905256849719990e+02,9.293763160705566406e+00,1.529837548732757568e-01,1.300361871719360352e+00,3.360000000000000000e+02
-6.106300174002641370e+02,-4.820388222867793502e+02,-1.446406239106270277e+02,-2.839018988353238910e+02,-5.557401962429489686e+02,-5.056632348723614996e+02,-1.088621958737005571e+02,-3.194583015212278951e+02,9.293763160705566406e+00,1.529837548732757568e-01,1.300361871719360352e+00,3.370000000000000000e+02
-6.057477691911750526e+02,-4.761513471995115196e+02,-1.461003372266922042e+02,-2.795962260847319385e+02,-5.547935412304057081e+02,-5.024223017770559636e+02,-1.062745556549177763e+02,-3.182471931434337193e+02,9.293763160705566406e+00,1.529837548732757568e-01,1.300361871719360352e+00,3.380000000000000000e+02
-6.002933623212428529e+02,-4.705558526777183488e+02,-1.469777019215852079e+02,-2.750345294172446984e+02,-5.552252395728401098e+02,-4.992537893501639701e+02,-1.050203875787835841e+02,-3.164685549118726158e+02,9.293763160705566406e+00,1.529837548732757568e-01,1.300361871719360352e+00,3.390000000000000000e+02
-5.938871802590838342e+02,-4.659273450038535884e+02,-1.466000600784118433e+02,-2.710603300258439958e+02,-5.553097425583850963e+02,-4.959604474076834322e+02,-1.053133583402986915e+02,-3.138792022150269077e+02,9.293763160705566406e+00,1.529837548732757568e-01,1.300361871719360352e+00,3.400000000000000000e+02
-5.869321442890119442e+02,-4.629896677353873429e+02,-1.447496159512656959e+02,-2.689474980203046925e+02,-5.531420292518507722e+02,-4.926295063801762808e+02,-1.064585593452079593e+02,-3.106572077313762748e+02,9.293763160705566406e+00,1.529837548732757568e-01,1.300361871719360352e+00,3.410000000000000000e+02
-5.804878924072711470e+02,-4.620946574194688310e+02,-1.419791937444238101e+02,-2.695620029046817763e+02,-5.481268475178594599e+02,-4.896258798985536487e+02,-1.075151734310616121e+02,-3.073087289273096303e+02,9.293763160705566406e+00,1.529837548732757568e-01,1.300361871719360352e+00,3.420000000000000000e+02
-5.755852866940329022e+02,-4.626430039183807139e+02,-1.394720618096532689e+02,-2.724387426807156771e+02,-5.415462475806286875e+02,-4.872041040112192150e+02,-1.079982122177598285e+02,-3.042961305942541230e+02,9.332008361816406250e+00,1.147378161549568176e-01,1.300361871719360352e+00,3.430000000000000000e+02
-5.724164172346198711e+02,-4.630243612693649311e+02,-1.383681485781692118e+02,-2.756948585521702171e+02,-5.356243685543154243e+02,-4.851652361744327209e+02,-1.079823279804384129e+02,-3.017641460945114886e+02,9.332008361816406250e+00,1.147378161549568176e-01,1.300361871719360352e+00,3.440000000000000000e+02
-5.699920123662462856e+02,-4.614500541290581168e+02,-1.389945144274249742e+02,-2.771323418792941311e+02,-5.318928022184884412e+02,-4.829643293180527053e+02,-1.076625385282318348e+02,-2.996389802504022555e+02,9.332008361816406250e+00,1.147378161549568176e-01,1.300361871719360352e+00,3.450000000000000000e+02
-5.666228593586902207e+02,-4.571967447884175044e+02,-1.406578269924611959e+02,-2.757852540667028052e+02,-5.303093808000683111e+02,-4.802268605357030538e+02,-1.069974028786045892e+02,-2.979789537357860354e+02,9.332008361816406250e+00,1.147378161549568176e-01,1.300361871719360352e+00,3.460000000000000000e+02
-5.610304108288418092e+02,-4.512267124681760606e+02,-1.422372574506359797e+02,-2.725988663130092391e+02,-5.297941686883225429e+02,-4.771695644405033363e+02,-1.058704091965773841e+02,-2.971556707381364504e+02,9.332008361816406250e+00,1.147378161549568176e-01,1.300361871719360352e+00,3.470000000000000000e+02
-5.533658772505903016e+02,-4.455721254771215172e+02,-1.430956254605912363e+02,-2.695856010128464959e+02,-5.294287524704936914e+02,-4.744508444914681604e+02,-1.045186455484417820e+02,-2.975940601819861513e+02,9.332008361816406250e+00,1.147378161549568176e-01,1.300361871719360352e+00,3.480000000000000000e+02
-5.453234265039511683e+02,-4.419294801579794694e+02,-1.435038287091315397e+02,-2.681747971552254057e+02,-5.290241891232585658e+02,-4.725368312546413563e+02,-1.036333384827355530e+02,-2.992652512348261098e+02,9.332008361816406250e+00,1.147378161549568176e-01,1.300361871719360352e+00,3.490000000000000000e+02
-5.391016643192208448e+02,-4.405878111282438567e+02,-1.442049928717651710e+02,-2.682285359836189400e+02,-5.286321572756571641e+02,-4.711980723189758464e+02,-1.039109435220227624e+02,-3.014139072201123781e+02,9.332008361816406250e+00,1.147378161549568176e-01,1.300361871719360352e+00,3.500000000000000000e+02
-5.358988640656444886e+02,-4.404850499721424057e+02,-1.455496015686533156e+02,-2.685486292276934819e+02,-5.278123177220932121e+02,-4.696791905469626727e+02,-1.054677182412306138e+02,-3.028501570589455696e+02,9.332008361816406250e+00,1.147378161549568176e-01,1.300361871719360352e+00,3.510000000000000000e+02
-5.351025005418061937e+02,-4.401937848333061538e+02,-1.470363418880001518e+02,-2.682546936860919686e+02,-5.256903771746706298e+02,-4.674445320105214705e+02,-1.077047451688349611e+02,-3.026538792020533037e+02,9.332008361816406250e+00,1.147378161549568176e-01,1.300361871719360352e+00,3.520000000000000000e+02
-5.348282774559903601e+02,-4.389116097218930008e+02,-1.476827686309800356e+02,-2.675959298210983661e+02,-5.218235130314067192e+02,-4.647796056368422342e+02,-1.097246373930674963e+02,-3.007471155430218914e+02,9.332008361816406250e+00,1.147378161549568176e-01,1.300361871719360352e+00,3.530000000000000000e+02
-5.333385176217129811e+02,-4.366948638524972921e+02,-1.468747375393879793e+02,-2.674218401586407481e+02,-5.168817582078140731e+02,-4.626185025599611436e+02,-1.108785487015916260e+02,-2.978907442517904656e+02,9.332008361816406250e+00,1.147378161549568176e-01,1.300361871719360352e+00,3.540000000000000000e+02
-5.301804812906736970e+02,-4.339690828643991836e+02,-1.449300836417874052e+02,-2.679845582905929859e+02,-5.123045114896681298e+02,-4.617328096834353346e+02,-1.110231803487686193e+02,-2.951316570751155268e+02,9.332008361816406250e+00,1.147378161549568176e-01,1.300361871719360352e+00,3.550000000000000000e+02
-5.261932846733150200e+02,-4.309775683223369924e+02,-1.429129286705181130e+02,-2.684261777295473621e+02,-5.091851426862403969e+02,-4.620276948427838306e+02,-1.104554125962756643e+02,-2.931393336621795243e+02,9.332008361816406250e+00,1.147378161549568176e-01,1.300361871719360352e+00,3.560000000000000000e+02
-5.225780413612571920e+02,-4.277083179707634599e+02,-1.419035369322168663e+02,-2.675239004673460386e+02,-5.074457423462804400e+02,-4.625598667163785649e+02,-1.097506678702486624e+02,-2.918860038983232243e+02,9.332008361816406250e+00,1.147378161549568176e-01,1.300361871719360352e+00,3.570000000000000000e+02
-5.200034448971591701e+02,-4.242253405366628840e+02,-1.423340308070205538e+02,-2.648907639724625369e+02,-5.060356334935065661e+02,-4.621849241155218806e+02,-1.096002259699307615e+02,-2.908108500901118987e+02,9.332008361816406250e+00,1.147378161549568176e-01,1.300361871719360352e+00,3.580000000000000000e+02
-5.184803785354797583e+02,-4.208916356403491363e+02,-1.438531575009396875e+02,-2.613442281171362538e+02,-5.038659057423510603e+02,-4.602223336517813550e+02,-1.105547062165549050e+02,-2.892645426808358025e+02,9.332008361816406250e+00,1.147378161549568176e-01,1.300361871719360352e+00,3.590000000000000000e+02
-5.178233443316785269e+02,-4.181532934559573960e+02,-1.457072226036634675e+02,-2.580698701661217456e+02,-5.005925831023462251e+02,-4.566742330579777445e+02,-1.126875070571682045e+02,-2.869218827013178270e+02,9.332008361816406250e+00,1.147378161549568176e-01,1.300361871719360352e+00,3.600000000000000000e+02
-5.179661383737575306e+02,-4.161075455894259676e+02,-1.472589570717466358e+02,-2.554863967206940742e+02,-4.966642378686037773e+02,-4.520365714541921989e+02,-1.154471882434172585e+02,-2.839532092534736876e+02,9.332008361816406250e+00,1.147378161549568176e-01,1.300361871719360352e+00,3.610000000000000000e+02
-5.187301020297290961e+02,-4.143510526039856359e+02,-1.482515634408575806e+02,-2.529968904701768224e+02,-4.927871705908494278e+02,-4.470229425562033612e+02,-1.179538895353866792e+02,-2.808996698157925493e+02,9.332008361816406250e+00,1.147378161549568176e-01,1.300361871719360352e+00,3.620000000000000000e+02
-5.194080989441879410e+02,-4.122887742870241254e+02,-1.486910470945108500e+02,-2.498167381733728689e+02,-4.893646499697108538e+02,-4.423588905352753500e+02,-1.195754200754131489e+02,-2.783271203023778071e+02,9.332008361816406250e+00,1.147378161549568176e-01,1.300361871719360352e+00,3.630000000000000000e+02
-5.188181379325342277e+02,-4.095784703127267221e+02,-1.485448863884655566e+02,-2.459295022921305645e+02,-4.863146295100536918e+02,-4.385630847897484728e+02,-1.202660070556962637e+02,-2.764432751748513510e+02,9.332008361816406250e+00,1.147378161549568176e-01,1.300361871719360352e+00,3.640000000000000000e+02
-5.159775849232082692e+02,-4.062485901226896203e+02,-1.475919445920517319e+02,-2.421692054341594940e+02,-4.832912621191428570e+02,-4.357168069721899428e+02,-1.203541990527137386e+02,-2.749428557561525395e+02,9.332008361816406250e+00,1.147378161549568176e-01,1.300361871719360352e+00,3.650000000000000000e+02
-5.108656297369473123e+02,-4.024236928596938014e+02,-1.456183140013838511e+02,-2.394325245448644637e+02,-4.800834839896244830e+02,-4.334410461422521621e+02,-1.200437925652179274e+02,-2.732793039433488502e+02,9.332008361816406250e+00,1.147378161549568176e-01,1.300361871719360352e+00,3.660000000000000000e+02
-5.045463577999744302e+02,-3.980753853812416310e+02,-1.428298406090061690e+02,-2.379277423351288689e+02,-4.769011835734590932e+02,-4.312396131853454335e+02,-1.192095522386134689e+02,-2.712314627086416294e+02,9.332008361816406250e+00,1.147378161549568176e-01,1.300361871719360352e+00,3.670000000000000000e+02
-4.984789628331882341e+02,-3.931855465811108843e+02,-1.400947191835221020e+02,-2.372028427986570023e+02,-4.743212400886816340e+02,-4.289825391333379230e+02,-1.177265998349218989e+02,-2.692809906001407398e+02,9.332008361816406250e+00,1.147378161549568176e-01,1.300361871719360352e+00,3.680000000000000000e+02
-4.936051756757642579e+02,-3.881767125551393747e+02,-1.386955856437707553e+02,-2.367630586964799022e+02,-4.728867003749569449e+02,-4.270481149657343849e+02,-1.159526149899440952e+02,-2.683516828699744110e+02,9.332008361816406250e+00,1.147378161549568176e-01,1.300361871719360352e+00,3.690000000000000000e+02
-4.899331572314647474e+02,-3.840370560985243173e+02,-1.396244702151727779e+02,-2.364872363516999485e+02,-4.726318870131472067e+02,-4.259051198553652284e+02,-1.147614747254201575e+02,-2.689813210386948867e+02,9.332008361816406250e+00,1.147378161549568176e-01,1.300361871719360352e+00,3.700000000000000000e+02
-4.868387325159549164e+02,-3.818163027343173326e+02,-1.428614471856203636e+02,-2.364122967722555586e+02,-4.729206156674320027e+02,-4.255148177103014859e+02,-1.149749488344441488e+02,-2.706115164424634258e+02,9.332008361816406250e+00,1.147378161549568176e-01,1.300361871719360352e+00,3.710000000000000000e+02
-4.836756376835978699e+02,-3.818399963034137272e+02,-1.471809784450474581e+02,-2.362896060702018985e+02,-4.727688484926627552e+02,-4.251825223336124964e+02,-1.166757352313138654e+02,-2.717463510019333626e+02,9.332008361816406250e+00,1.147378161549568176e-01,1.300361871719360352e+00,3.720000000000000000e+02
-4.801181201189122021e+02,-3.833553512282257998e+02,-1.507014402434681415e+02,-2.355949016111817400e+02,-4.713962520360551025e+02,-4.240714621794629693e+02,-1.190348339439894971e+02,-2.710132554924539363e+02,9.332008361816406250e+00,1.147378161549568176e-01,1.300361871719360352e+00,3.730000000000000000e+02
-4.760420127185975616e+02,-3.849682868785489518e+02,-1.518757522736741521e+02,-2.340615902703470965e+02,-4.685612253984586459e+02,-4.219062824434358845e+02,-1.208304310418059231e+02,-2.682611715693185488e+02,9.332008361816406250e+00,1.147378161549568176e-01,1.300361871719360352e+00,3.740000000000000000e+02
-4.712697956141289524e+02,-3.855292317948274103e+02,-1.503038892781919458e+02,-2.320974508747256095e+02,-4.644893001837735937e+02,-4.191830471006985590e+02,-1.212309047426110737e+02,-2.646891950340263975e+02,9.332008361816406250e+00,1.147378161549568176e-01,1.300361871719360352e+00,3.750000000000000000e+02
-4.656276727589629445e+02,-3.847755408260215972e+02,-1.468649919238264374e+02,-2.305115852913602339e+02,-4.595960203146266849e+02,-4.166832682810409096e+02,-1.202329340881735789e+02,-2.618343248914809465e+02,9.332008361816406250e+00,1.147378161549568176e-01,1.300361871719360352e+00,3.760000000000000000e+02
-4.593560834236445771e+02,-3.833324650388881309e+02,-1.431179347021225112e+02,-2.297500361735098977e+02,-4.543053589852097502e+02,-4.147563680569380722e+02,-1.184888665472340108e+02,-2.602816718857036449e+02,9.332008361816406250e+00,1.147378161549568176e-01,1.300361871719360352e+00,3.770000000000000000e+02
-4.534127206611651673e+02,-3.822356836576511796e+02,-1.404018059113282106e+02,-2.294461269938476562e+02,-4.490283494183827315e+02,-4.130300775762120793e+02,-1.167611098381257762e+02,-2.592392016824269376e+02,9.332008361816406250e+00,1.147378161549568176e-01,1.300361871719360352e+00,3.780000000000000000e+02
-4.491284842009001750e+02,-3.823824606882235457e+02,-1.392179667577881901e+02,-2.287817270297741743e+02,-4.441385317249946638e+02,-4.107632328609133765e+02,-1.154661257588036278e+02,-2.573188932216501144e+02,9.332008361816406250e+00,1.147378161549568176e-01,1.300361871719360352e+00,3.790000000000000000e+02
-4.472531329558196376e+02,-3.841223633229242296e+02,-1.392292421904817274e+02,-2.272724710244435755e+02,-4.398525418463618735e+02,-4.074676363540270358e+02,-1.145976393640571587e+02,-2.537628967121881942e+02,9.332008361816406250e+00,1.147378161549568176e-01,1.300361871719360352e+00,3.800000000000000000e+02
-4.471496463723583474e+02,-3.870335911241268150e+02,-1.397497316150938786e+02,-2.251147438351888468e+02,-4.361317736706919277e+02,-4.032680777684208806e+02,-1.139669635684754212e+02,-2.490348768399471737e+02,9.332008361816406250e+00,1.147378161549568176e-01,1.300361871719360352e+00,3.810000000000000000e+02
-4.469915568027902282e+02,-3.900034887080587396e+02,-1.402711339196027893e+02,-2.227507022672612038e+02,-4.327587486367301608e+02,-3.987805442535213842e+02,-1.134799129956186334e+02,-2.443831673148747541e+02,9.332008361816406250e+00,1.147378161549568176e-01,1.300361871719360352e+00,3.820000000000000000e+02
-4.450042513810901710e+02,-3.917531382490019496e+02,-1.406336881776992414e+02,-2.202186537756865619e+02,-4.295380980887148326e+02,-3.947007188339111963e+02,-1.132190981321418803e+02,-2.409272419663375331e+02,9.332008361816406250e+00,1.147378161549568176e-01,1.300361871719360352e+00,3.830000000000000000e+02
-4.407457622563833866e+02,-3.916621137315826218e+02,-1.408144029313589272e+02,-2.170895980607472211e+02,-4.264228288005151626e+02,-3.914434013082732235e+02,-1.133125070084529398e+02,-2.390934485700979621e+02,9.332008361816406250e+00,1.147378161549568176e-01,1.300361871719360352e+00,3.840000000000000000e+02
-4.352635233773742129e+02,-3.903149328152576345e+02,-1.406563135410531231e+02,-2.130976205895776729e+02,-4.234769250831373029e+02,-3.890326275852489744e+02,-1.137527731868058254e+02,-2.386799409238949465e+02,9.332008361816406250e+00,1.147378161549568176e-01,1.300361871719360352e+00,3.850000000000000000e+02
-4.299883639431207030e+02,-3.892002361007096169e+02,-1.398782978085680497e+02,-2.087275594870036457e+02,-4.207625087396436356e+02,-3.872004864077412094e+02,-1.143302499024998724e+02,-2.391925215601818309e+02,9.332008361816406250e+00,1.147378161549568176e-01,1.300361871719360352e+00,3.860000000000000000e+02
-4.254838329597132542e+02,-3.896278636935810482e+02,-1.383755398518032962e+02,-2.050016800165492441e+02,-4.182628060160895984e+02,-3.855497000078371457e+02,-1.147126538074994642e+02,-2.400117038848709399e+02,9.332008361816406250e+00,1.147378161549568176e-01,1.300361871719360352e+00,3.870000000000000000e+02
-4.213560747210879072e+02,-3.916930075535606193e+02,-1.364754982683275557e+02,-2.025526606670107412e+02,-4.158140136332112888e+02,-3.836740815459224905e+02,-1.145798877956326578e+02,-2.403631420040665034e+02,9.332008361816406250e+00,1.147378161549568176e-01,1.300361871719360352e+00,3.880000000000000000e+02
-4.174281899048814921e+02,-3.941862804830541336e+02,-1.348407188066403251e+02,-2.009074950586368686e+02,-4.130196489752529487e+02,-3.812306464326825335e+02,-1.137467262920190478e+02,-2.394157375383763338e+02,9.293763160705566406e+00,1.147378161549568176e-01,1.262115836143493652e+00,3.890000000000000000e+02
-4.148486926662799306e+02,-3.955196934538680580e+02,-1.340655705563267475e+02,-1.987644876708332049e+02,-4.092947159596265010e+02,-3.780084290131717353e+02,-1.122572660882774471e+02,-2.366778162508255718e+02,9.293763160705566406e+00,1.147378161549568176e-01,1.262115836143493652e+00,3.900000000000000000e+02
-4.157428974160177404e+02,-3.948606705522338416e+02,-1.343182070224411291e+02,-1.950704753724126022e+02,-4.042189308583024285e+02,-3.739930436794347770e+02,-1.104099383589723402e+02,-2.324242035714305530e+02,9.293763160705566406e+00,1.147378161549568176e-01,1.262115836143493652e+00,3.910000000000000000e+02
-4.214670923923613373e+02,-3.925682569260270611e+02,-1.353245177101257468e+02,-1.899185262189123478e+02,-3.980668561388570197e+02,-3.693690097931403216e+02,-1.086467027456042160e+02,-2.277285190415491343e+02,9.293763160705566406e+00,1.147378161549568176e-01,1.262115836143493652e+00,3.920000000000000000e+02
-4.310338048833807534e+02,-3.897374953684304728e+02,-1.366467757498317042e+02,-1.844961427568591716e+02,-3.920052476906048469e+02,-3.644411746542823494e+02,-1.073120430313792895e+02,-2.239731068821311055e+02,9.293763160705566406e+00,1.147378161549568176e-01,1.262115836143493652e+00,3.930000000000000000e+02
-4.412686083985213372e+02,-3.874303279489295164e+02,-1.379583964134221787e+02,-1.802340367011818216e+02,-3.875584094088058009e+02,-3.595335754081015693e+02,-1.064485403271364703e+02,-2.221497550832859815e+02,9.293763160705566406e+00,1.147378161549568176e-01,1.262115836143493652e+00,3.940000000000000000e+02
-4.486856688199370637e+02,-3.862094302986129151e+02,-1.391011604672639805e+02,-1.779529675025460165e+02,-3.855987167524217512e+02,-3.549512830119392675e+02,-1.058441894654442876e+02,-2.223894307369539547e+02,9.293763160705566406e+00,1.147378161549568176e-01,1.262115836143493652e+00,3.950000000000000000e+02
-4.515583141133101890e+02,-3.860959778178105353e+02,-1.399965640992932094e+02,-1.776119323130581051e+02,-3.856714043381498414e+02,-3.510024211367208409e+02,-1.053230324855203435e+02,-2.239465683363473545e+02,9.293763160705566406e+00,1.147378161549568176e-01,1.262115836143493652e+00,3.960000000000000000e+02
-4.506519535119091415e+02,-3.866782412147065315e+02,-1.406280284718054645e+02,-1.785925880402285202e+02,-3.862631182159252603e+02,-3.479600507862332961e+02,-1.049850155445083146e+02,-2.255652789163032139e+02,9.293763160705566406e+00,1.147378161549568176e-01,1.262115836143493652e+00,3.970000000000000000e+02
-4.483865010328277094e+02,-3.871979053417330761e+02,-1.411519109273735921e+02,-1.800644805541769529e+02,-3.857937082333437502e+02,-3.458923195464631135e+02,-1.051023294751885260e+02,-2.260232740257229125e+02,9.293763160705566406e+00,1.147378161549568176e-01,1.262115836143493652e+00,3.980000000000000000e+02
-4.473519085320756403e+02,-3.867504767436460043e+02,-1.419449298745576016e+02,-1.811615414446293926e+02,-3.834978072391400019e+02,-3.444741882486946452e+02,-1.057339882030400986e+02,-2.246299064302438637e+02,9.293763160705566406e+00,1.147378161549568176e-01,1.262115836143493652e+00,3.990000000000000000e+02
-4.491093250690628338e+02,-3.847259411269537850e+02,-1.433930892537255204e+02,-1.811060728943591585e+02,-3.795703133559286471e+02,-3.430251652776864830e+02,-1.064858234409257420e+02,-2.214759894302505927e+02,9.293763160705566406e+00,1.147378161549568176e-01,1.262115836143493652e+00,4.000000000000000000e+02
-4.534828774548768706e+02,-3.812666832109869119e+02,-1.455017478787685832e+02,-1.794616507058660773e+02,-3.746721319874923211e+02,-3.408664432516507077e+02,-1.067435078946909925e+02,-2.172969637195392352e+02,9.293763160705566406e+00,1.147378161549568176e-01,1.262115836143493652e+00,4.010000000000000000e+02
-4.582522376968424851e+02,-3.773157714625424433e+02,-1.476711075153139063e+02,-1.764037805516186381e+02,-3.693727881688078014e+02,-3.377577030784532326e+02,-1.062030355252113623e+02,-2.130010265439650539e+02,9.293763160705566406e+00,1.147378161549568176e-01,1.262115836143493652e+00,4.020000000000000000e+02
-4.595519577119800942e+02,-3.741030489212905650e+02,-1.489198609349800790e+02,-1.726899010950917273e+02,-3.639406064217532730e+02,-3.340173332722051782e+02,-1.051605382993811872e+02,-2.091681506951067604e+02,9.293763160705566406e+00,1.147378161549568176e-01,1.262115836143493652e+00,4.030000000000000000e+02
-4.534272337415911807e+02,-3.724238295371990262e+02,-1.484904693528874304e+02,-1.692255588853081463e+02,-3.584550193296709040e+02,-3.301992454848559646e+02,-1.042531141359063440e+02,-2.058971081453591978e+02,9.293763160705566406e+00,1.147378161549568176e-01,1.262115836143493652e+00,4.040000000000000000e+02
-4.381692530211007579e+02,-3.722522106337962668e+02,-1.464156863308612628e+02,-1.665263738931698754e+02,-3.530185695727795974e+02,-3.266543732387071941e+02,-1.039238164742264416e+02,-2.030943752827515709e+02,9.293763160705566406e+00,1.147378161549568176e-01,1.262115836143493652e+00,4.050000000000000000e+02
-4.159192907545575508e+02,-3.729202347064579044e+02,-1.436105365329067354e+02,-1.645086879524942560e+02,-3.479441961189677386e+02,-3.234251924760651491e+02,-1.041564309674454307e+02,-2.008838878679616755e+02,9.293763160705566406e+00,1.147378161549568176e-01,1.262115836143493652e+00,4.060000000000000000e+02
-3.920098878112480634e+02,-3.735999582438478228e+02,-1.414135173693293837e+02,-1.627517957516924980e+02,-3.438816712617649500e+02,-3.205552228870474210e+02,-1.047004652294808693e+02,-1.997069808326473321e+02,9.293763160705566406e+00,1.147378161549568176e-01,1.262115836143493652e+00,4.070000000000000000e+02
-3.721083630955051831e+02,-3.736575076511935549e+02,-1.408757244181178976e+02,-1.609306635268128503e+02,-3.417286080984222281e+02,-3.183817829530339623e+02,-1.054275831534760073e+02,-1.999674631798748123e+02,9.293763160705566406e+00,1.147378161549568176e-01,1.262115836143493652e+00,4.080000000000000000e+02
-3.591415952913141609e+02,-3.727367262475772804e+02,-1.422572213961748275e+02,-1.590253718838121131e+02,-3.421750646920186227e+02,-3.173522659907062007e+02,-1.063584713319619368e+02,-2.015352767412264257e+02,9.293763160705566406e+00,1.147378161549568176e-01,1.262115836143493652e+00,4.090000000000000000e+02
-3.522859296065039416e+02,-3.707574984058962855e+02,-1.450132144002291170e+02,-1.571880064366464467e+02,-3.450665526162915739e+02,-3.174493639295965295e+02,-1.073725626492660012e+02,-2.035877617974701934e+02,9.293763160705566406e+00,1.147378161549568176e-01,1.262115836143493652e+00,4.100000000000000000e+02
-3.485606152233908688e+02,-3.680077630538914946e+02,-1.481929094061579235e+02,-1.554752432143375245e+02,-3.491064870410305048e+02,-3.178257670262187276e+02,-1.080362249176491787e+02,-2.049647925872832275e+02,9.293763160705566406e+00,1.147378161549568176e-01,1.262115836143493652e+00,4.110000000000000000e+02
-3.453650223265394743e+02,-3.652070695116326533e+02,-1.509264002042109496e+02,-1.537141397988439167e+02,-3.523121999996888007e+02,-3.171563497844294943e+02,-1.078592309435698553e+02,-2.047597723519588726e+02,9.293763160705566406e+00,1.147378161549568176e-01,1.262115836143493652e+00,4.120000000000000000e+02
-3.418049985174616268e+02,-3.632506287320766205e+02,-1.527022280345577201e+02,-1.515783790317250350e+02,-3.530427035383704606e+02,-3.145374182384630330e+02,-1.067560297811687633e+02,-2.027146680669370653e+02,9.293763160705566406e+00,1.147378161549568176e-01,1.262115836143493652e+00,4.130000000000000000e+02
-3.381609858984868424e+02,-3.625706926799766734e+02,-1.533766157635354830e+02,-1.487707340536856009e+02,-3.508794362469311636e+02,-3.101838364712480143e+02,-1.051969365821323663e+02,-1.992130624147266644e+02,9.293763160705566406e+00,1.147378161549568176e-01,1.262115836143493652e+00,4.140000000000000000e+02
-3.346529347725090702e+02,-3.625510892974550643e+02,-1.530420871064275161e+02,-1.451728853514214279e+02,-3.466990780347155123e+02,-3.052985986521853192e+02,-1.038336048926921649e+02,-1.949753639396085418e+02,9.293763160705566406e+00,1.147378161549568176e-01,1.262115836143493652e+00,4.150000000000000000e+02
-3.310074808354627294e+02,-3.616293649644260313e+02,-1.519189508038753047e+02,-1.408974958515966591e+02,-3.419243666864745137e+02,-3.012024447218527712e+02,-1.029342019431551307e+02,-1.907123323883570265e+02,9.332008361816406250e+00,1.529837548732757568e-01,1.338607788085937500e+00,4.160000000000000000e+02
-3.270426564022016009e+02,-3.582603850289597176e+02,-1.502994823390704369e+02,-1.362285788704689367e+02,-3.375676372752805037e+02,-2.984276460073256203e+02,-1.021575745505042505e+02,-1.868982801844795176e+02,9.332008361816406250e+00,1.529837548732757568e-01,1.338607788085937500e+00,4.170000000000000000e+02
-3.232029809043651767e+02,-3.521376839247900534e+02,-1.484667720976485725e+02,-1.314780389960089906e+02,-3.337314371134575595e+02,-2.964684059734941002e+02,-1.008445395829376139e+02,-1.836734323323598801e+02,9.332008361816406250e+00,1.529837548732757568e-01,1.338607788085937500e+00,4.180000000000000000e+02
-3.201533688901172354e+02,-3.446771999762231644e+02,-1.465750279049993878e+02,-1.268370288595242528e+02,-3.297960029596624736e+02,-2.943092197562082220e+02,-9.854912059379012135e+01,-1.808634121124509875e+02,9.332008361816406250e+00,1.529837548732757568e-01,1.338607788085937500e+00,4.190000000000000000e+02
-3.178305294341591889e+02,-3.382519541202191249e+02,-1.445993825465511691e+02,-1.223543623798195767e+02,-3.250588366356923871e+02,-2.912654027447292719e+02,-9.541398424554790836e+01,-1.781621136244784793e+02,9.332008361816406250e+00,1.529837548732757568e-01,1.338607788085937500e+00,4.200000000000000000e+02
-3.151548605512718950e+02,-3.346660378836218115e+02,-1.424575016675544248e+02,-1.180974710620648693e+02,-3.193720352184386684e+02,-2.874940676243963935e+02,-9.219482418692405190e+01,-1.754535729184167394e+02,9.332008361816406250e+00,1.529837548732757568e-01,1.338607788085937500e+00,4.210000000000000000e+02
-3.109272537821248079e+02,-3.340304088715447506e+02,-1.402190787887961960e+02,-1.143473719502030690e+02,-3.133872598137759269e+02,-2.838306840177324375e+02,-8.995932263129043349e+01,-1.730685016938045919e+02,9.332008361816406250e+00,1.529837548732757568e-01,1.338607788085937500e+00,4.220000000000000000e+02
-3.050593062160160116e+02,-3.349005921718821810e+02,-1.381925422865283508e+02,-1.115795414489930408e+02,-3.082640333438312155e+02,-2.811244028611936301e+02,-8.958848440548899816e+01,-1.717249822979397322e+02,9.332008361816406250e+00,1.529837548732757568e-01,1.338607788085937500e+00,4.230000000000000000e+02
-2.988004394880410928e+02,-3.354583999900385152e+02,-1.367615802763907595e+02,-1.101239380064769193e+02,-3.050203771099331789e+02,-2.795972523820591960e+02,-9.128000889487248060e+01,-1.720939123243879294e+02,9.332008361816406250e+00,1.529837548732757568e-01,1.338607788085937500e+00,4.240000000000000000e+02
-2.936570520718994430e+02,-3.346846905033589792e+02,-1.360992664877567222e+02,-1.097463275388379316e+02,-3.039601795767748627e+02,-2.787259724213936352e+02,-9.434047956688436898e+01,-1.742546811508918836e+02,9.332008361816406250e+00,1.529837548732757568e-01,1.338607788085937500e+00,4.250000000000000000e+02
-2.901183874409337022e+02,-3.326333355484077856e+02,-1.360170209377024548e+02,-1.095680715016108024e+02,-3.045423570913162621e+02,-2.777091961577830261e+02,-9.747050927867576320e+01,-1.774443046108267481e+02,9.332008361816406250e+00,1.529837548732757568e-01,1.338607788085937500e+00,4.260000000000000000e+02
-2.875380406283220509e+02,-3.298397882162112182e+02,-1.360790042489279585e+02,-1.084968052039400845e+02,-3.057079442857216236e+02,-2.760774252679211713e+02,-9.943541332162385515e+01,-1.803112199644992870e+02,9.332008361816406250e+00,1.529837548732757568e-01,1.338607788085937500e+00,4.270000000000000000e+02
-2.852487888840787491e+02,-3.266416277060561697e+02,-1.358556823066946890e+02,-1.058932978079387794e+02,-3.063371120206743399e+02,-2.738774089844378068e+02,-9.968247755003812927e+01,-1.815208335929301029e+02,9.332008361816406250e+00,1.529837548732757568e-01,1.338607788085937500e+00,4.280000000000000000e+02
-2.836117110577965832e+02,-3.230592190915840547e+02,-1.350895981292451324e+02,-1.019517335812461170e+02,-3.055239266634289379e+02,-2.712909349506912804e+02,-9.847705998997844290e+01,-1.803390554382899609e+02,9.332008361816406250e+00,1.529837548732757568e-01,1.338607788085937500e+00,4.290000000000000000e+02
-2.837179195036233068e+02,-3.191539373427833652e+02,-1.337079130197466839e+02,-9.751092370930791731e+01,-3.026946671265668556e+02,-2.681685290640875792e+02,-9.655352086292305103e+01,-1.769132844995979212e+02,9.332008361816406250e+00,1.529837548732757568e-01,1.338607788085937500e+00,4.300000000000000000e+02
-2.859524519854237496e+02,-3.152960020983894083e+02,-1.317995775788535866e+02,-9.351622268987739517e+01,-2.977922612738361750e+02,-2.640892290738888732e+02,-9.466242380326411876e+01,-1.722265397154765196e+02,9.332008361816406250e+00,1.529837548732757568e-01,1.338607788085937500e+00,4.310000000000000000e+02
-2.889764101296796071e+02,-3.119941952225062778e+02,-1.296378889119496307e+02,-9.058067968809700687e+01,-2.915231116165282401e+02,-2.589920783925495016e+02,-9.335423697895703299e+01,-1.678092069015383458e+02,9.332008361816406250e+00,1.529837548732757568e-01,1.338607788085937500e+00,4.320000000000000000e+02
-2.903786127277637661e+02,-3.095192014472941082e+02,-1.276184986005259816e+02,-8.887120181797627083e+01,-2.852901902864018666e+02,-2.536976106817446635e+02,-9.294269207339584682e+01,-1.652085223194135324e+02,9.332008361816406250e+00,1.529837548732757568e-01,1.338607788085937500e+00,4.330000000000000000e+02
-2.885715439990024151e+02,-3.077475203879012042e+02,-1.259758190117681806e+02,-8.817146135230018444e+01,-2.805238039880391625e+02,-2.495776181260434896e+02,-9.337941626139991058e+01,-1.652396723964434386e+02,9.332008361816406250e+00,1.529837548732757568e-01,1.338607788085937500e+00,4.340000000000000000e+02
-2.841826023259311569e+02,-3.063365107454837926e+02,-1.244374875490766499e+02,-8.790828545472641053e+01,-2.777459229537453211e+02,-2.474659366781265817e+02,-9.405197974127258931e+01,-1.673322130205533540e+02,9.332008361816406250e+00,1.529837548732757568e-01,1.338607788085937500e+00,4.350000000000000000e+02
-2.795874221248625418e+02,-3.049652891573350644e+02,-1.222221234326143531e+02,-8.719756646969062786e+01,-2.761590221080755327e+02,-2.467726802089619014e+02,-9.386404697959505938e+01,-1.695095291412849292e+02,9.332008361816406250e+00,1.529837548732757568e-01,1.338607788085937500e+00,4.360000000000000000e+02
-2.769663608255041254e+02,-3.033842438967969883e+02,-1.185948062531483629e+02,-8.516741148576920750e+01,-2.742375878512202689e+02,-2.457321954522299166e+02,-9.183979703516070003e+01,-1.693335153660700598e+02,9.332008361816406250e+00,1.529837548732757568e-01,1.338607788085937500e+00,4.370000000000000000e+02
-2.766453152399064948e+02,-3.013736903330216137e+02,-1.136292483483989599e+02,-8.158302747304651348e+01,-2.708996110586285795e+02,-2.427184508333293707e+02,-8.791775847279814116e+01,-1.654428934946422487e+02,9.332008361816406250e+00,1.529837548732757568e-01,1.338607788085937500e+00,4.380000000000000000e+02
-2.771462539908027338e+02,-2.988322333456953857e+02,-1.084524019252344260e+02,-7.731070311744133505e+01,-2.662690129543034345e+02,-2.375276197228558885e+02,-8.320460791457617233e+01,-1.586297582782340214e+02,9.332008361816406250e+00,1.529837548732757568e-01,1.338607788085937500e+00,4.390000000000000000e+02
-2.766876465731093049e+02,-2.959636980958748609e+02,-1.045853126710499055e+02,-7.402730937918113341e+01,-2.614226136392057924e+02,-2.315141914028040446e+02,-7.930024195007399612e+01,-1.515068978094923295e+02,9.332008361816406250e+00,1.529837548732757568e-01,1.338607788085937500e+00,4.400000000000000000e+02
-2.746247682736075149e+02,-2.932725446031236061e+02,-1.028147334830205182e+02,-7.311888893071204620e+01,-2.574570014146629546e+02,-2.264878498708494590e+02,-7.714505300042583258e+01,-1.468390503185173657e+02,9.332008361816406250e+00,1.529837548732757568e-01,1.338607788085937500e+00,4.410000000000000000e+02
-2.715969545381906300e+02,-2.912158130224877368e+02,-1.025554187140814975e+02,-7.452348941803529669e+01,-2.547701137118406223e+02,-2.233638592963020528e+02,-7.635838866354697529e+01,-1.457542312893074268e+02,9.332008361816406250e+00,1.529837548732757568e-01,1.338607788085937500e+00,4.420000000000000000e+02
-2.685277241042715559e+02,-2.897715754476971597e+02,-1.023096753568361237e+02,-7.653392298645621850e+01,-2.530948331832360054e+02,-2.216788428533391198e+02,-7.565558893741808788e+01,-1.472144313414924000e+02,9.332008361816406250e+00,1.529837548732757568e-01,1.338607788085937500e+00,4.430000000000000000e+02
-2.656599778346783296e+02,-2.883790102095485963e+02,-1.008658319960009067e+02,-7.687298667388108697e+01,-2.520312238315254945e+02,-2.202078877294384256e+02,-7.396628702318002979e+01,-1.490814385205903818e+02,9.332008361816406250e+00,1.529837548732757568e-01,1.338607788085937500e+00,4.440000000000000000e+02
-2.625744458278443290e+02,-2.863810629906436134e+02,-9.821869341466754122e+01,-7.426411483895685706e+01,-2.514377950670200335e+02,-2.179791981931225564e+02,-7.127415251194679513e+01,-1.497865646411587477e+02,9.332008361816406250e+00,1.529837548732757568e-01,1.338607788085937500e+00,4.450000000000000000e+02
-2.590246056313449117e+02,-2.835718492094663361e+02,-9.544691144677244665e+01,-6.925763777997258330e+01,-2.513233332316563065e+02,-2.147937965243645522e+02,-6.849418120861901116e+01,-1.491871778878294208e+02,9.332008361816406250e+00,1.529837548732757568e-01,1.338607788085937500e+00,4.460000000000000000e+02
-2.555918144793349711e+02,-2.803239375800101243e+02,-9.373345256839320427e+01,-6.369524202897696341e+01,-2.514623036065181623e+02,-2.109837273549478596e+02,-6.659372270708536234e+01,-1.480569906483783598e+02,9.255517005920410156e+00,7.649187743663787842e-02,1.300361871719360352e+00,4.470000000000000000e+02
-2.534153455640021093e+02,-2.772142475658529293e+02,-9.343590141962931739e+01,-5.935315443266949842e+01,-2.512018836745851331e+02,-2.068636698864074788e+02,-6.579676167846582757e+01,-1.469397979400760050e+02,9.255517005920410156e+00,7.649187743663787842e-02,1.300361871719360352e+00,4.480000000000000000e+02
-2.532150925850551175e+02,-2.745571975987299993e+02,-9.395674583190884732e+01,-5.690209781409112111e+01,-2.497135513729917875e+02,-2.024890995099904103e+02,-6.553827001890522297e+01,-1.455549532053350958e+02,9.255517005920410156e+00,7.649187743663787842e-02,1.300361871719360352e+00,4.490000000000000000e+02
-2.545157738437890202e+02,-2.722804823291814955e+02,-9.437380919542511037e+01,-5.587751283282022996e+01,-2.465307698184806213e+02,-1.978817590930293591e+02,-6.508800889477606688e+01,-1.432440383739694880e+02,9.255517005920410156e+00,7.649187743663787842e-02,1.300361871719360352e+00,4.500000000000000000e+02
-2.557445897507543577e+02,-2.701660238425738498e+02,-9.412464157898557460e+01,-5.540545538641072199e+01,-2.419479018501724568e+02,-1.933587910652358914e+02,-6.416188565044194547e+01,-1.398631333636249110e+02,9.255517005920410156e+00,7.649187743663787842e-02,1.300361871719360352e+00,4.510000000000000000e+02
-2.551274336565754766e+02,-2.681069588162376931e+02,-9.313666975670867032e+01,-5.489422549716778121e+01,-2.369317793469749631e+02,-1.895327126374754698e+02,-6.294554115162236485e+01,-1.361524519408994820e+02,9.255517005920410156e+00,7.649187743663787842e-02,1.300361871719360352e+00,4.520000000000000000e+02
-2.516933934888670592e+02,-2.661068642429654574e+02,-9.146334681340340467e+01,-5.418308967603798010e+01,-2.325436473613735870e+02,-1.869237111446168456e+02,-6.161699511607230306e+01,-1.332392522786685731e+02,9.255517005920410156e+00,7.649187743663787842e-02,1.300361871719360352e+00,4.530000000000000000e+02
-2.456945736453967584e+02,-2.640838864937570634e+02,-8.897973829995407868e+01,-5.326686373124243801e+01,-2.292620963724693866e+02,-1.855441894565828989e+02,-5.997446318828315270e+01,-1.318081257088333587e+02,9.255517005920410156e+00,7.649187743663787842e-02,1.300361871719360352e+00,4.540000000000000000e+02
-2.383018441034723764e+02,-2.617529990632926911e+02,-8.555505642576054015e+01,-5.201032950082480966e+01,-2.267553245078770487e+02,-1.848641045918338932e+02,-5.762999821170751602e+01,-1.317062928586292401e+02,9.255517005920410156e+00,7.649187743663787842e-02,1.300361871719360352e+00,4.550000000000000000e+02
-2.309700382146420452e+02,-2.587332716168250499e+02,-8.152057715625483070e+01,-5.009132491746936466e+01,-2.243250916419565328e+02,-1.841937958838525446e+02,-5.456602198731161479e+01,-1.322401027250280094e+02,9.255517005920410156e+00,7.649187743663787842e-02,1.300361871719360352e+00,4.560000000000000000e+02
-2.249361392717141825e+02,-2.547829550723690772e+02,-7.784751899544835396e+01,-4.712223566191960344e+01,-2.216436394782190291e+02,-1.831243013396433525e+02,-5.138738768320672534e+01,-1.327551307480573541e+02,9.255517005920410156e+00,7.649187743663787842e-02,1.300361871719360352e+00,4.570000000000000000e+02
-2.209844709275964760e+02,-2.499863053507024233e+02,-7.568445946531460322e+01,-4.284344383916891275e+01,-2.190937819784637668e+02,-1.816382407873711600e+02,-4.888640503820397498e+01,-1.329593344177865220e+02,9.255517005920410156e+00,7.649187743663787842e-02,1.300361871719360352e+00,4.580000000000000000e+02
-2.193040117560854014e+02,-2.447895335719229024e+02,-7.555825766877683236e+01,-3.737879274843908206e+01,-2.173793489232680258e+02,-1.798657910826691477e+02,-4.731559181515012824e+01,-1.328557131754471357e+02,9.255517005920410156e+00,7.649187743663787842e-02,1.300361871719360352e+00,4.590000000000000000e+02
-2.193170507943923440e+02,-2.398714260680194457e+02,-7.693891481218633999e+01,-3.146755997295736051e+01,-2.168150980268746935e+02,-1.778271867652786113e+02,-4.616998540665417750e+01,-1.325468199274821472e+02,9.255517005920410156e+00,7.649187743663787842e-02,1.300361871719360352e+00,4.600000000000000000e+02
-2.196888121406327627e+02,-2.358934204838762980e+02,-7.859242411270884077e+01,-2.637595510705841662e+01,-2.170325526079570864e+02,-1.754799628821924671e+02,-4.478672668543481450e+01,-1.321583860421269492e+02,9.255517005920410156e+00,7.649187743663787842e-02,1.300361871719360352e+00,4.610000000000000000e+02
-2.188650061004227609e+02,-2.332367627006487965e+02,-7.946535729280708438e+01,-2.328758756955335230e+01,-2.173854472391774380e+02,-1.730108612162659938e+02,-4.317605242875515614e+01,-1.318799037268961456e+02,9.255517005920410156e+00,7.649187743663787842e-02,1.300361871719360352e+00,4.620000000000000000e+02
-2.160853287970469410e+02,-2.318774564999143877e+02,-7.938437418241392152e+01,-2.247669867831677948e+01,-2.175789664813369200e+02,-1.709986476486860738e+02,-4.217812054930004706e+01,-1.319615554153906487e+02,9.255517005920410156e+00,7.649187743663787842e-02,1.300361871719360352e+00,4.630000000000000000e+02
-2.121988294328525626e+02,-2.315056140470326227e+02,-7.905592392996527451e+01,-2.302782561168760367e+01,-2.178462657638374367e+02,-1.702078492545795143e+02,-4.273558474432275034e+01,-1.326231958743824180e+02,9.255517005920410156e+00,7.649187743663787842e-02,1.300361871719360352e+00,4.640000000000000000e+02
-2.094277676042634084e+02,-2.318221166967864519e+02,-7.946875483312578581e+01,-2.359041833963669887e+01,-2.185684055135984636e+02,-1.711947060152579070e+02,-4.504465426545539231e+01,-1.340250771994928982e+02,9.255517005920410156e+00,7.649187743663787842e-02,1.300361871719360352e+00,4.650000000000000000e+02
-2.099248705546808651e+02,-2.327704215841088171e+02,-8.126264375456776179e+01,-2.371360888438766779e+01,-2.198838542388498354e+02,-1.741225935905429196e+02,-4.849533634766316936e+01,-1.364099280968928269e+02,9.255517005920410156e+00,7.649187743663787842e-02,1.300361871719360352e+00,4.660000000000000000e+02
-2.140891048753023824e+02,-2.344932770895343310e+02,-8.453399704407615900e+01,-2.455611260159344056e+01,-2.218010355872133914e+02,-1.789381181394421674e+02,-5.244192187498219937e+01,-1.402835222290077581e+02,9.255517005920410156e+00,7.649187743663787842e-02,1.300361871719360352e+00,4.670000000000000000e+02
-2.200622421385139660e+02,-2.370741848492974668e+02,-8.907467975525378279e+01,-2.813818310301758174e+01,-2.246379871861167885e+02,-1.856469132650063329e+02,-5.691179864687342160e+01,-1.463632698161363805e+02,9.293763160705566406e+00,1.529837548732757568e-01,1.262115836143493652e+00,4.680000000000000000e+02
-2.249948994639487410e+02,-2.403569790959967349e+02,-9.468278808954391934e+01,-3.561164213376321186e+01,-2.291323190092523419e+02,-1.943071789364685173e+02,-6.245224101239364245e+01,-1.551736843945152486e+02,9.293763160705566406e+00,1.529837548732757568e-01,1.262115836143493652e+00,4.690000000000000000e+02
-2.271376743339048971e+02,-2.440510722078968229e+02,-1.012298461968171068e+02,-4.605458189748230780e+01,-2.359103983552527097e+02,-2.047014037043068129e+02,-6.932253385613012142e+01,-1.665347491382365206e+02,9.293763160705566406e+00,1.529837548732757568e-01,1.262115836143493652e+00,4.700000000000000000e+02
-2.270047864069908883e+02,-2.479934880894077196e+02,-1.084773841690951031e+02,-5.692984502530828195e+01,-2.447673602107256556e+02,-2.160458854014034387e+02,-7.697868562294388539e+01,-1.793452532013191103e+02,9.293763160705566406e+00,1.529837548732757568e-01,1.262115836143493652e+00,4.710000000000000000e+02
-2.266266184181333756e+02,-2.522461689616659442e+02,-1.158884074819184207e+02,-6.583506124589177944e+01,-2.545151448146527855e+02,-2.271114274084800400e+02,-8.443653527612127618e+01,-1.918840194441097537e+02,9.293763160705566406e+00,1.529837548732757568e-01,1.262115836143493652e+00,4.720000000000000000e+02
-2.276176185989211262e+02,-2.568718917485980455e+02,-1.226643779808930503e+02,-7.200674615776563314e+01,-2.636199109225995016e+02,-2.367517117807949489e+02,-9.107394455326243587e+01,-2.024773285942086432e+02,9.293763160705566406e+00,1.529837548732757568e-01,1.262115836143493652e+00,4.730000000000000000e+02
-2.298417683203658726e+02,-2.615954088538674114e+02,-1.280356032916957929e+02,-7.632655245214300521e+01,-2.710725072996592644e+02,-2.444457450818854340e+02,-9.694634553427204082e+01,-2.101262417132068094e+02,9.293763160705566406e+00,1.529837548732757568e-01,1.262115836143493652e+00,4.740000000000000000e+02
-2.318323875537814729e+02,-2.657265106534042616e+02,-1.316339486625796553e+02,-8.001241816236392879e+01,-2.767513951481561207e+02,-2.504355295771558758e+02,-1.023027987546871600e+02,-2.147429176556249786e+02,9.293763160705566406e+00,1.529837548732757568e-01,1.262115836143493652e+00,4.750000000000000000e+02
-2.324110892606678362e+02,-2.684889873421423090e+02,-1.336841195939917952e+02,-8.334483082197959902e+01,-2.810642472796978382e+02,-2.553651868935229459e+02,-1.069297534274087411e+02,-2.169230489768197003e+02,9.293763160705566406e+00,1.529837548732757568e-01,1.262115836143493652e+00,4.760000000000000000e+02
-2.318528821039824379e+02,-2.695206577796653846e+02,-1.348491720958072619e+02,-8.558773619323710591e+01,-2.843190929448908264e+02,-2.597085774670331375e+02,-1.101299878264437666e+02,-2.174739403461201164e+02,9.293763160705566406e+00,1.529837548732757568e-01,1.262115836143493652e+00,4.770000000000000000e+02
-2.314911172770829921e+02,-2.691240286603003824e+02,-1.357899988886007350e+02,-8.598761726091390756e+01,-2.864143735955574357e+02,-2.633920717739927113e+02,-1.113782443145308889e+02,-2.170112302369425379e+02,9.293763160705566406e+00,1.529837548732757568e-01,1.262115836143493652e+00,4.780000000000000000e+02
-2.322564970152850492e+02,-2.680513167625946949e+02,-1.367299579462641077e+02,-8.471697297879171629e+01,-2.870324686563237719e+02,-2.658687818393040061e+02,-1.109188241001909319e+02,-2.158276171940243557e+02,9.293763160705566406e+00,1.529837548732757568e-01,1.262115836143493652e+00,4.790000000000000000e+02
-2.336729679005405274e+02,-2.670177303494340890e+02,-1.373579946729037715e+02,-8.281735353561623469e+01,-2.860623564896276889e+02,-2.666028331059828815e+02,-1.096658412922183743e+02,-2.140427121941601172e+02,9.293763160705566406e+00,1.529837548732757568e-01,1.262115836143493652e+00,4.800000000000000000e+02
-2.343069855375259181e+02,-2.663135853004397404e+02,-1.371628598835402499e+02,-8.126909649415318881e+01,-2.838409351635829125e+02,-2.656076333971104759e+02,-1.085465345684568774e+02,-2.118613690268438177e+02,9.293763160705566406e+00,1.529837548732757568e-01,1.262115836143493652e+00,4.810000000000000000e+02
-2.331704874161800944e+02,-2.657373545793943208e+02,-1.359346377436349371e+02,-8.014362463055607577e+01,-2.810316881856484770e+02,-2.635918608224388890e+02,-1.079727824263142679e+02,-2.096949374024918029e+02,9.293763160705566406e+00,1.529837548732757568e-01,1.262115836143493652e+00,4.820000000000000000e+02
-2.306548112418242624e+02,-2.647704725606527063e+02,-1.340010100079937274e+02,-7.861260474584591407e+01,-2.782702248797838251e+02,-2.615291847890883332e+02,-1.078669897519873189e+02,-2.080059070221348634e+02,9.293763160705566406e+00,1.529837548732757568e-01,1.262115836143493652e+00,4.830000000000000000e+02
-2.281021663759513274e+02,-2.627831843548717643e+02,-1.319911461941354958e+02,-7.570657126294000250e+01,-2.758604488659153162e+02,-2.599407428013017807e+02,-1.080090952997781528e+02,-2.069533737593321803e+02,9.293763160705566406e+00,1.529837548732757568e-01,1.262115836143493652e+00,4.840000000000000000e+02
-2.264882918552456204e+02,-2.591945948118132037e+02,-1.303463524646062410e+02,-7.106012268620821715e+01,-2.737315467389665287e+02,-2.584981014523933709e+02,-1.082115290588583747e+02,-2.061115584528339468e+02,9.293763160705566406e+00,1.529837548732757568e-01,1.262115836143493652e+00,4.850000000000000000e+02
-2.255339488199443281e+02,-2.536901220461362527e+02,-1.290073112739075896e+02,-6.504324714368641480e+01,-2.716305119685660543e+02,-2.563275861318841180e+02,-1.081913068853112350e+02,-2.045487878500395311e+02,9.293763160705566406e+00,1.529837548732757568e-01,1.262115836143493652e+00,4.860000000000000000e+02
-2.240560336284492564e+02,-2.465321854573427345e+02,-1.275045014746414722e+02,-5.833864037949595627e+01,-2.693241907217985158e+02,-2.527691480707568132e+02,-1.074588984771826574e+02,-2.013133252565184250e+02,9.293763160705566406e+00,1.529837548732757568e-01,1.262115836143493652e+00,4.870000000000000000e+02
-2.211076554779441210e+02,-2.387408568137829548e+02,-1.252967219431074568e+02,-5.149175744235068919e+01,-2.666059861920080039e+02,-2.479000296046824587e+02,-1.055137520695238322e+02,-1.960219859718391717e+02,9.293763160705566406e+00,1.529837548732757568e-01,1.262115836143493652e+00,4.880000000000000000e+02
-2.167512117291418576e+02,-2.318124777589781615e+02,-1.220245850955463425e+02,-4.482354413299776752e+01,-2.631516263747095081e+02,-2.423698098060090160e+02,-1.022169331399302337e+02,-1.890965327448448079e+02,9.293763160705566406e+00,1.529837548732757568e-01,1.262115836143493652e+00,4.890000000000000000e+02
-2.117955172422953183e+02,-2.269677251490587651e+02,-1.175455485654482572e+02,-3.862319193010205254e+01,-2.585003001089489771e+02,-2.367974747176581332e+02,-9.795426282226969761e+01,-1.814483583935733009e+02,9.293763160705566406e+00,1.529837548732757568e-01,1.262115836143493652e+00,4.900000000000000000e+02
-2.069165683661658477e+02,-2.244095349077916239e+02,-1.118999150835926457e+02,-3.325870087207010783e+01,-2.523347645772358874e+02,-2.313983731001117121e+02,-9.338610294524653455e+01,-1.738824810663951439e+02,9.293763160705566406e+00,1.529837548732757568e-01,1.262115836143493652e+00,4.910000000000000000e+02
-2.021152902697037916e+02,-2.232210932338514340e+02,-1.053518767774012304e+02,-2.899175760961452397e+01,-2.448336574687143639e+02,-2.261614866196964613e+02,-8.899223782045839926e+01,-1.667161091215994020e+02,9.293763160705566406e+00,1.529837548732757568e-01,1.262115836143493652e+00,4.920000000000000000e+02
-1.969960806359721346e+02,-2.220655716328178642e+02,-9.845757416673018270e+01,-2.568172667627140981e+01,-2.366818501258710512e+02,-2.212420119269684164e+02,-8.482472292949182702e+01,-1.599038385455130538e+02,9.332008361816406250e+00,1.147378161549568176e-01,1.262115836143493652e+00,4.930000000000000000e+02
-1.914619713159701178e+02,-2.201154540154444703e+02,-9.196351830170942776e+01,-2.272942979443280365e+01,-2.286381266136829709e+02,-2.169977638060931895e+02,-8.066678412057490277e+01,-1.534685385153699144e+02,9.332008361816406250e+00,1.147378161549568176e-01,1.262115836143493652e+00,4.940000000000000000e+02
-1.860473033671589747e+02,-2.174012978637113065e+02,-8.649373706131245854e+01,-1.940242521456673330e+01,-2.210714067961316687e+02,-2.135709364242266020e+02,-7.641294051342788407e+01,-1.477335105087959164e+02,9.332008361816406250e+00,1.147378161549568176e-01,1.262115836143493652e+00,4.950000000000000000e+02
-1.815620202255277036e+02,-2.143453056482696866e+02,-8.224243354905206616e+01,-1.529595738439684283e+01,-2.139550355966036932e+02,-2.105166364594028892e+02,-7.228999479883805179e+01,-1.430725440636765597e+02,9.332008361816406250e+00,1.147378161549568176e-01,1.262115836143493652e+00,4.960000000000000000e+02
-1.784562509963243429e+02,-2.110741797391824548e+02,-7.895425657333726122e+01,-1.054796858701024576e+01,-2.073219044702113933e+02,-2.069947398543474719e+02,-6.871383731296600672e+01,-1.394419899613328653e+02,9.332008361816406250e+00,1.147378161549568176e-01,1.262115836143493652e+00,4.970000000000000000e+02
-1.765190255678483027e+02,-2.072989723149325982e+02,-7.621966966886611772e+01,-5.639843507819023216e+00,-2.016173731804881299e+02,-2.024117867823879351e+02,-6.589940357993918951e+01,-1.362324111994826126e+02,9.332008361816406250e+00,1.147378161549568176e-01,1.262115836143493652e+00,4.980000000000000000e+02
-1.750975569379745593e+02,-2.028754316202775954e+02,-7.380337392572437238e+01,-9.781773636102570890e-01,-1.974552551276501617e+02,-1.968841541491096905e+02,-6.357375329857336510e+01,-1.326843094288130942e+02,9.332008361816406250e+00,1.147378161549568176e-01,1.262115836143493652e+00,4.990000000000000000e+02
-1.735225144251949132e+02,-1.983362818731816333e+02,-7.171103720925111702e+01,3.365571912582026926e+00,-1.949777998305658002e+02,-1.910916703958112066e+02,-6.109245213804297236e+01,-1.285297308414360486e+02,9.332008361816406250e+00,1.147378161549568176e-01,1.262115836143493652e+00,5.000000000000000000e+02
-1.713683023748928917e+02,-1.946521496832356206e+02,-6.998067574866900031e+01,7.551127934437545264e+00,-1.935180418993236344e+02,-1.857264041881903722e+02,-5.791161615154578612e+01,-1.242500287962182028e+02,9.332008361816406250e+00,1.147378161549568176e-01,1.262115836143493652e+00,5.010000000000000000e+02
-1.684945026484522259e+02,-1.923277289970885704e+02,-6.845266049990959800e+01,1.163600578118553130e+01,-1.919674239773717090e+02,-1.811025538650069393e+02,-5.403288491313742270e+01,-1.206692797368823449e+02,9.332008361816406250e+00,1.147378161549568176e-01,1.262115836143493652e+00,5.020000000000000000e+02
-1.650334328425697095e+02,-1.907486383714890508e+02,-6.676611611298312710e+01,1.536658697793518513e+01,-1.894964103261277160e+02,-1.772133482435892802e+02,-5.002210732421781358e+01,-1.182491505856060030e+02,9.332008361816406250e+00,1.147378161549568176e-01,1.262115836143493652e+00,5.030000000000000000e+02
-1.613815950128175700e+02,-1.885332072005094233e+02,-6.458933715692546684e+01,1.833374849139477192e+01,-1.859554523212491404e+02,-1.739984565755548829e+02,-4.656852819786263353e+01,-1.167431804605794241e+02,9.332008361816406250e+00,1.147378161549568176e-01,1.262115836143493652e+00,5.040000000000000000e+02
-1.580594273840783899e+02,-1.846466920626357933e+02,-6.186956262702187814e+01,2.040190059434439718e+01,-1.817056863736725063e+02,-1.714405635656103186e+02,-4.397585044456991454e+01,-1.154978738927970880e+02,9.332008361816406250e+00,1.147378161549568176e-01,1.262115836143493652e+00,5.050000000000000000e+02
-1.553974432939012331e+02,-1.792614203950060983e+02,-5.887296831416142595e+01,2.203614997960971778e+01,-1.772297919786251441e+02,-1.694358008046992836e+02,-4.201906057778523973e+01,-1.140643698754743127e+02,9.332008361816406250e+00,1.147378161549568176e-01,1.262115836143493652e+00,5.060000000000000000e+02
-1.532803406742627885e+02,-1.735914089753578082e+02,-5.596649736296012634e+01,2.418584409443428740e+01,-1.729606710553498488e+02,-1.677045211405961709e+02,-4.022226951673746953e+01,-1.125056500457549191e+02,9.332008361816406250e+00,1.147378161549568176e-01,1.262115836143493652e+00,5.070000000000000000e+02
-1.512427727089630025e+02,-1.689233082056884996e+02,-5.331058663076919402e+01,2.772253523918925566e+01,-1.693120663643312582e+02,-1.659268522407137425e+02,-3.820803572148633975e+01,-1.111271615939231197e+02,9.332008361816406250e+00,1.147378161549568176e-01,1.262115836143493652e+00,5.080000000000000000e+02
-1.488822095190616892e+02,-1.657780029600044145e+02,-5.071868148358271355e+01,3.279942683275203308e+01,-1.665963575107389261e+02,-1.639625606002878158e+02,-3.578289923582360643e+01,-1.099644939696613619e+02,9.332008361816406250e+00,1.147378161549568176e-01,1.262115836143493652e+00,5.090000000000000000e+02
-1.461893668122311283e+02,-1.638753671397512335e+02,-4.781243250374291165e+01,3.863904047380356133e+01,-1.647566418386795704e+02,-1.618800341863125141e+02,-3.281211853071727091e+01,-1.085760817251562003e+02,9.332008361816406250e+00,1.147378161549568176e-01,1.262115836143493652e+00,5.100000000000000000e+02
-1.434638909884092755e+02,-1.627319666050730120e+02,-4.439608470302573551e+01,4.396928751928362544e+01,-1.632621781179764184e+02,-1.597753508920391141e+02,-2.921517418068970073e+01,-1.063789764471080161e+02,9.332008361816406250e+00,1.147378161549568176e-01,1.262115836143493652e+00,5.110000000000000000e+02
-1.409379877415240117e+02,-1.621732343358903563e+02,-4.075587114955169454e+01,4.782331884042787351e+01,-1.614474385808989609e+02,-1.576312572978968092e+02,-2.520490356366462947e+01,-1.032125649130371130e+02,9.332008361816406250e+00,1.147378161549568176e-01,1.262115836143493652e+00,5.120000000000000000e+02
-1.385684287174717610e+02,-1.623033103202815255e+02,-3.759267220816627741e+01,5.011235175880756287e+01,-1.590496668840823986e+02,-1.554034459116674043e+02,-2.147151685111748520e+01,-9.958597601303063129e+01,9.332008361816406250e+00,1.147378161549568176e-01,1.262115836143493652e+00,5.130000000000000000e+02
-1.362252420880950012e+02,-1.631142579870315785e+02,-3.558267393373080267e+01,5.154176296725654538e+01,-1.563927688110743475e+02,-1.532184004099690355e+02,-1.893976827704591415e+01,-9.638524248099474789e+01,9.332008361816406250e+00,1.147378161549568176e-01,1.262115836143493652e+00,5.140000000000000000e+02
-1.340063092210812101e+02,-1.642350427865503661e+02,-3.489034958316096890e+01,5.297400576471227396e+01,-1.540215891935977197e+02,-1.513917735507311590e+02,-1.815632422922408296e+01,-9.431040346421013965e+01,9.332008361816406250e+00,1.147378161549568176e-01,1.262115836143493652e+00,5.150000000000000000e+02
-1.322288479812737023e+02,-1.650768774792891236e+02,-3.504252872302276955e+01,5.479839614007323689e+01,-1.521998659588462033e+02,-1.501598926953329283e+02,-1.883298453692714247e+01,-9.349259482154320722e+01,9.332008361816406250e+00,1.147378161549568176e-01,1.262115836143493652e+00,5.160000000000000000e+02
-1.310286079153565879e+02,-1.651771691683588870e+02,-3.528380237247256446e+01,5.684126711158069156e+01,-1.508085177508555716e+02,-1.493646253472052194e+02,-2.000578499209041183e+01,-9.350729427757050871e+01,9.332008361816406250e+00,1.147378161549568176e-01,1.262115836143493652e+00,5.170000000000000000e+02
-1.300240234449183845e+02,-1.643913309680965540e+02,-3.509895736510861752e+01,5.884110099480585632e+01,-1.496604694589395876e+02,-1.484334465543925035e+02,-2.070017547146744619e+01,-9.366012536426660517e+01,9.332008361816406250e+00,1.147378161549568176e-01,1.262115836143493652e+00,5.180000000000000000e+02
-1.285073449352244097e+02,-1.628244265931666632e+02,-3.444926195919015299e+01,6.097651251271099682e+01,-1.487513329991097635e+02,-1.467411326651936179e+02,-2.052166032734930923e+01,-9.328393979957581905e+01,9.332008361816406250e+00,1.147378161549568176e-01,1.262115836143493652e+00,5.190000000000000000e+02
-1.260498837002355685e+02,-1.606713076179612472e+02,-3.354549549132752873e+01,6.389161065951293494e+01,-1.480916479271090793e+02,-1.440759526010042464e+02,-1.969249995618520188e+01,-9.190264867719361064e+01,9.332008361816406250e+00,1.147378161549568176e-01,1.262115836143493652e+00,5.200000000000000000e+02
-1.229161004390202834e+02,-1.581690523752354238e+02,-3.242955801355583390e+01,6.816836533628884354e+01,-1.473393118411358955e+02,-1.408160982897743452e+02,-1.859541620443542342e+01,-8.930570098871430673e+01,9.332008361816406250e+00,1.147378161549568176e-01,1.262115836143493652e+00,5.210000000000000000e+02
-1.198561185604612547e+02,-1.556676515068947992e+02,-3.082925077573145245e+01,7.372393759175065497e+01,-1.457751217742033987e+02,-1.376775613973950385e+02,-1.732847370517356467e+01,-8.562316438634388760e+01,9.332008361816406250e+00,1.147378161549568176e-01,1.262115836143493652e+00,5.220000000000000000e+02
-1.174886507857527249e+02,-1.536230120561713193e+02,-2.845654490203378373e+01,7.969708870387694333e+01,-1.427991925594396889e+02,-1.352367608623990236e+02,-1.567850168216318707e+01,-8.134814640817785403e+01,9.332008361816406250e+00,1.147378161549568176e-01,1.262115836143493652e+00,5.230000000000000000e+02
-1.158924795967359387e+02,-1.523943230369131925e+02,-2.545011486886596686e+01,8.493455222633838275e+01,-1.385113374397842563e+02,-1.335974356599399471e+02,-1.346790334013167012e+01,-7.719832557691370312e+01,9.332008361816406250e+00,1.147378161549568176e-01,1.262115836143493652e+00,5.240000000000000000e+02
-1.147623684733553091e+02,-1.519654826644482455e+02,-2.249314149405563512e+01,8.866711886385110120e+01,-1.337987270048915889e+02,-1.324351140194039544e+02,-1.090958560524904897e+01,-7.382874733460084826e+01,9.332008361816406250e+00,1.147378161549568176e-01,1.262115836143493652e+00,5.250000000000000000e+02
-1.138725160037347450e+02,-1.518672837025496847e+02,-2.042812826421140926e+01,9.085939162690647208e+01,-1.298019624615662906e+02,-1.313256889619715366e+02,-8.630243469021479541e+00,-7.156090019825569470e+01,9.332008361816406250e+00,1.147378161549568176e-01,1.262115836143493652e+00,5.260000000000000000e+02
-1.132984988779580817e+02,-1.514482415654956640e+02,-1.966146131237474037e+01,9.204735504765267251e+01,-1.271903711390277749e+02,-1.300443749374662730e+02,-7.312429881076241145e+00,-7.029339201116908953e+01,9.332008361816406250e+00,1.147378161549568176e-01,1.262115836143493652e+00,5.270000000000000000e+02
-1.131640905290496448e+02,-1.503256979176949244e+02,-1.984479153499160020e+01,9.292062473714486259e+01,-1.257990728092117934e+02,-1.285989226888823396e+02,-7.189535029531725741e+00,-6.960355539941065217e+01,9.332008361816406250e+00,1.147378161549568176e-01,1.262115836143493652e+00,5.280000000000000000e+02
-1.132277031536796130e+02,-1.486315904224820770e+02,-2.009627289297168318e+01,9.401689349279604357e+01,-1.248437875354020434e+02,-1.270446002449380103e+02,-7.762980576449990622e+00,-6.893227700706938776e+01,9.332008361816406250e+00,1.147378161549568176e-01,1.262115836143493652e+00,5.290000000000000000e+02
-1.128175121101012337e+02,-1.468042909835030514e+02,-1.959047037201071362e+01,9.564557202330070140e+01,-1.235035601675817816e+02,-1.253537641987986717e+02,-8.008355682321052882e+00,-6.778384418884070328e+01,9.332008361816406250e+00,1.147378161549568176e-01,1.262115836143493652e+00,5.300000000000000000e+02
-1.112692493376189304e+02,-1.451030990702265626e+02,-1.807487265706549806e+01,9.791641237710609857e+01,-1.214629907028411253e+02,-1.235203905759972258e+02,-7.024684157313458854e+00,-6.596198197646936023e+01,9.332008361816406250e+00,1.147378161549568176e-01,1.262115836143493652e+00,5.310000000000000000e+02
-1.085248281298345319e+02,-1.433162580559792332e+02,-1.596442806121103786e+01,1.007425804213289666e+02,-1.190840876224519889e+02,-1.217686701797520072e+02,-4.717747377180785406e+00,-6.380344348828657530e+01,9.332008361816406250e+00,1.147378161549568176e-01,1.262115836143493652e+00,5.320000000000000000e+02
-1.053774175547323466e+02,-1.409910215689606048e+02,-1.401727087578001374e+01,1.038598856742792123e+02,-1.171225371949440159e+02,-1.205469987760225195e+02,-1.969240387425088556e+00,-6.219533030096772563e+01,9.332008361816406250e+00,1.147378161549568176e-01,1.262115836143493652e+00,5.330000000000000000e+02
-1.031119096266938868e+02,-1.380020495353073784e+02,-1.287940677855658578e+01,1.069627883639805077e+02,-1.161953443293677992e+02,-1.201806730633088591e+02,-8.523953933217853773e-02,-6.215624576838672510e+01,9.332008361816406250e+00,1.147378161549568176e-01,1.262115836143493652e+00,5.340000000000000000e+02
-1.027486055836343439e+02,-1.348952822848877986e+02,-1.279840365708878380e+01,1.099134153862032690e+02,-1.163801030825743510e+02,-1.204664053580254404e+02,1.095622780121630058e-01,-6.407584721314560738e+01,9.332008361816406250e+00,1.147378161549568176e-01,1.262115836143493652e+00,5.350000000000000000e+02
-1.043920725274065262e+02,-1.326216070909995324e+02,-1.361338433607306797e+01,1.128260279857549904e+02,-1.172191164022297016e+02,-1.206485356471421255e+02,-1.161844135054707294e+00,-6.715572354378855380e+01,9.332008361816406250e+00,1.147378161549568176e-01,1.262115836143493652e+00,5.360000000000000000e+02
-1.071118985265757146e+02,-1.318537016684058472e+02,-1.490228385689624702e+01,1.159012169779380201e+02,-1.180646852470908925e+02,-1.199130236515629804e+02,-2.835202399846821208e+00,-6.965929539619901334e+01,9.332008361816406250e+00,1.147378161549568176e-01,1.262115836143493652e+00,5.370000000000000000e+02
-1.094379761436312037e+02,-1.324879838309552724e+02,-1.611295320637327677e+01,1.191554438394296085e+02,-1.184090217969751393e+02,-1.180122109238218400e+02,-3.763461374388498371e+00,-6.997211230388893455e+01,9.332008361816406250e+00,1.147378161549568176e-01,1.262115836143493652e+00,5.380000000000000000e+02
-1.101596156438317848e+02,-1.337629738844207168e+02,-1.666220050651463680e+01,1.223347194816706178e+02,-1.179524244408130471e+02,-1.154649738737734879e+02,-3.401856133095861878e+00,-6.772578824076663295e+01,9.332008361816406250e+00,1.147378161549568176e-01,1.262115836143493652e+00,5.390000000000000000e+02
-1.089326874871530890e+02,-1.348457303894565484e+02,-1.610311733582966554e+01,1.251366831082686986e+02,-1.165177189789028489e+02,-1.131517671156198048e+02,-1.967225626938670757e+00,-6.405351459608027653e+01,9.332008361816406250e+00,1.147378161549568176e-01,1.262115836143493652e+00,5.400000000000000000e+02
-1.063345989003564682e+02,-1.353646243057710308e+02,-1.438560163648799062e+01,1.275240044468555425e+02,-1.140695539536191063e+02,-1.116582791674845794e+02,-1.102603669314703438e-01,-6.071960581556231773e+01,9.332008361816406250e+00,1.147378161549568176e-01,1.262115836143493652e+00,5.410000000000000000e+02
-1.033891913638235565e+02,-1.354901658976805265e+02,-1.203652549119578907e+01,1.297858779115858852e+02,-1.108727717682613729e+02,-1.109159004465473117e+02,1.525720432215166511e+00,-5.884176174483945942e+01,9.332008361816406250e+00,1.147378161549568176e-01,1.262115836143493652e+00,5.420000000000000000e+02
-1.009445652776676070e+02,-1.356059400505719168e+02,-1.001917294623490307e+01,1.322563146819211397e+02,-1.075300726280747767e+02,-1.103822443030585418e+02,2.562283607287099585e+00,-5.826918344207660994e+01,9.332008361816406250e+00,1.147378161549568176e-01,1.262115836143493652e+00,5.430000000000000000e+02
-9.930984770069699152e+01,-1.359162174628982029e+02,-9.227702741365646943e+00,1.349864170667060534e+02,-1.046895447657607292e+02,-1.095221398616304214e+02,2.938668945595054538e+00,-5.803702458062980440e+01,9.332008361816406250e+00,1.147378161549568176e-01,1.262115836143493652e+00,5.440000000000000000e+02
-9.829694870734965662e+01,-1.362797185587796776e+02,-9.901508290869969642e+00,1.377528356309121591e+02,-1.026213940600628121e+02,-1.081700196026486083e+02,2.875051598501158878e+00,-5.734059317915853171e+01,9.332008361816406250e+00,1.147378161549568176e-01,1.262115836143493652e+00,5.450000000000000000e+02
-9.750193795981431322e+01,-1.363199957802326026e+02,-1.139171780415563262e+01,1.404163751077430788e+02,-1.010953444330461934e+02,-1.065280581518436520e+02,2.802919229643521248e+00,-5.609332375233316270e+01,9.332008361816406250e+00,1.147378161549568176e-01,1.262115836143493652e+00,5.460000000000000000e+02
-9.655340643992531113e+01,-1.356781580415354256e+02,-1.249861690767647815e+01,1.432220044914593018e+02,-9.970076803851225122e+01,-1.048793557599728956e+02,3.233668561439117184e+00,-5.466438328511321743e+01,9.332008361816406250e+00,1.147378161549568176e-01,1.262115836143493652e+00,5.470000000000000000e+02
-9.521532973467583361e+01,-1.342347546302989940e+02,-1.218250349115442077e+01,1.466511286563654721e+02,-9.824268682081310544e+01,-1.032854745214790455e+02,4.562633857438413543e+00,-5.323924300302132906e+01,9.332008361816406250e+00,1.147378161549568176e-01,1.262115836143493652e+00,5.480000000000000000e+02
-9.341376730192496325e+01,-1.321588041079030518e+02,-1.018109765266854083e+01,1.509226395621699339e+02,-9.676539412148304109e+01,-1.015013069360684312e+02,6.892723143244438688e+00,-5.154278793163030059e+01,9.332008361816406250e+00,1.147378161549568176e-01,1.262115836143493652e+00,5.490000000000000000e+02
-9.127047159385074337e+01,-1.297356673370595672e+02,-7.140550813190202462e+00,1.556588167083027656e+02,-9.525030289821552287e+01,-9.917636278154532192e+01,9.962226552395804902e+00,-4.918897892111817782e+01,9.332008361816406250e+00,1.147378161549568176e-01,1.262115836143493652e+00,5.500000000000000000e+02
-8.910554326429155481e+01,-1.270982122242421610e+02,-4.216775237209731131e+00,1.601141082545891550e+02,-9.347771733163608587e+01,-9.620625201716757147e+01,1.320087043336025090e+01,-4.624178765812212077e+01,9.332008361816406250e+00,1.147378161549568176e-01,1.262115836143493652e+00,5.510000000000000000e+02
-8.732382640347532288e+01,-1.241300630638361326e+02,-2.418258405092274188e+00,1.637853427723384812e+02,-9.133237769185507204e+01,-9.296143891097381129e+01,1.590363353057728091e+01,-4.336657372058107285e+01,9.332008361816406250e+00,1.147378161549568176e-01,1.262115836143493652e+00,5.520000000000000000e+02
-8.617229776513340767e+01,-1.207061645939211303e+02,-2.062698908192032832e+00,1.667991818160116964e+02,-8.918946538734053320e+01,-9.015156025672149553e+01,1.750191161716975330e+01,-4.137507086543701007e+01,9.332008361816406250e+00,1.147378161549568176e-01,1.262115836143493652e+00,5.530000000000000000e+02
-8.553252528262055421e+01,-1.170848387776513846e+02,-2.639903970131854294e+00,1.696691092261935410e+02,-8.777051585407571110e+01,-8.835152537437534193e+01,1.785907388550549513e+01,-4.055891394412356021e+01,9.332008361816406250e+00,1.147378161549568176e-01,1.262115836143493652e+00,5.540000000000000000e+02
-8.496234873401226650e+01,-1.139985397725322400e+02,-3.142722864422466955e+00,1.726903315543368080e+02,-8.741529369360796409e+01,-8.753328647616945091e+01,1.743066639899006987e+01,-4.037548378024257545e+01,9.332008361816406250e+00,1.147378161549568176e-01,1.262115836143493652e+00,5.550000000000000000e+02
-8.402990395469896612e+01,-1.122039392663282342e+02,-2.689016510543297045e+00,1.756229189506630064e+02,-8.749581063220830401e+01,-8.702049046077445382e+01,1.710938284128133091e+01,-3.976515860023573623e+01,9.332008361816406250e+00,1.147378161549568176e-01,1.262115836143493652e+00,5.560000000000000000e+02
-8.273349728732864605e+01,-1.118380553250499361e+02,-1.082407298115867889e+00,1.779633514393372025e+02,-8.672380275990690279e+01,-8.596716329799528467e+01,1.774656442601553863e+01,-3.788609935652675631e+01,9.332008361816406250e+00,1.147378161549568176e-01,1.262115836143493652e+00,5.570000000000000000e+02
-8.165558966343814973e+01,-1.122311876197290985e+02,1.048064146689284826e+00,1.794444635419058613e+02,-8.423169165312719997e+01,-8.399666686117052450e+01,1.962248075398383662e+01,-3.475954639400151791e+01,9.332008361816406250e+00,1.147378161549568176e-01,1.262115836143493652e+00,5.580000000000000000e+02
-8.162097939028535620e+01,-1.124449565691902535e+02,2.642024695722284378e+00,1.801605715241312282e+02,-8.045527220303483773e+01,-8.147907821402623085e+01,2.222532698677969165e+01,-3.138180348964488076e+01,9.332008361816406250e+00,1.147378161549568176e-01,1.262115836143493652e+00,5.590000000000000000e+02
-8.301963672187957854e+01,-1.120514951785298763e+02,2.892241371329873800e+00,1.802105000728133746e+02,-7.694235380658210488e+01,-7.923196663221096969e+01,2.451401709027777542e+01,-2.916490374712702760e+01,9.332008361816406250e+00,1.147378161549568176e-01,1.262115836143493652e+00,5.600000000000000000e+02
-8.530344979605797562e+01,-1.113578763613586489e+02,1.770964555613318225e+00,1.793883745364037168e+02,-7.519787406469185953e+01,-7.790741739415170741e+01,2.552337585737404879e+01,-2.901439135113287193e+01,9.332008361816406250e+00,1.147378161549568176e-01,1.262115836143493652e+00,5.610000000000000000e+02
-8.714232031994652061e+01,-1.108324567238560121e+02,5.596140214402112179e-02,1.774400347664141009e+02,-7.556592481517509441e+01,-7.753657465547075844e+01,2.494957506004357128e+01,-3.065328846852753486e+01,9.332008361816406250e+00,1.147378161549568176e-01,1.262115836143493652e+00,5.620000000000000000e+02
-8.726756847089018265e+01,-1.103756182465931488e+02,-1.141673616530169966e+00,1.746814716577500803e+02,-7.708120145030989079e+01,-7.752195346112421248e+01,2.335611444939786452e+01,-3.273550525163591374e+01,9.332008361816406250e+00,1.147378161549568176e-01,1.262115836143493652e+00,5.630000000000000000e+02
-8.543061852762730268e+01,-1.092942916996344138e+02,-1.036011175834573805e+00,1.721924750313210097e+02,-7.833206309929664712e+01,-7.702594745785972918e+01,2.184643176579629653e+01,-3.377052466432360234e+01,9.332008361816406250e+00,1.147378161549568176e-01,1.262115836143493652e+00,5.640000000000000000e+02
-8.269571874877692608e+01,-1.070814452474714926e+02,3.918581344514677767e-01,1.711116299424102181e+02,-7.853439667036582250e+01,-7.548696992799887084e+01,2.136926218982989667e+01,-3.321459841358955600e+01,9.332008361816406250e+00,1.147378161549568176e-01,1.262115836143493652e+00,5.650000000000000000e+02
-8.073260407704947283e+01,-1.041865975085656828e+02,2.410942423128290102e+00,1.715430671498979791e+02,-7.795031116423706408e+01,-7.297762240249721799e+01,2.208936915491722175e+01,-3.185344380085371085e+01,9.332008361816406250e+00,1.147378161549568176e-01,1.262115836143493652e+00,5.660000000000000000e+02
-8.059817432855197694e+01,-1.018847163342397835e+02,3.999559855688858079e+00,1.721986555533658247e+02,-7.742272783169028116e+01,-7.020241021238325629e+01,2.329465481354782241e+01,-3.110595797321730061e+01,9.332008361816406250e+00,1.147378161549568176e-01,1.262115836143493652e+00,5.670000000000000000e+02
-8.197412432847158925e+01,-1.012667701958544058e+02,4.487649899281677790e+00,1.713309234588923573e+02,-7.751906124837842071e+01,-6.809293543653984671e+01,2.397942803010300850e+01,-3.176535820300341584e+01,9.332008361816406250e+00,1.147378161549568176e-01,1.262115836143493652e+00,5.680000000000000000e+02
-8.346978309808582708e+01,-1.022991678351827431e+02,3.999738260798039846e+00,1.682441644183345488e+02,-7.801660188102323445e+01,-6.719076612786375335e+01,2.369212907856126549e+01,-3.322887116817582864e+01,9.332008361816406250e+00,1.147378161549568176e-01,1.262115836143493652e+00,5.690000000000000000e+02
-8.372471150148703600e+01,-1.038665403949580650e+02,3.390219469049043255e+00,1.639857232338599715e+02,-7.811855245363040012e+01,-6.723062804120854707e+01,2.293405419336340856e+01,-3.390452173865560326e+01,9.332008361816406250e+00,1.147378161549568176e-01,1.262115836143493652e+00,5.700000000000000000e+02
-8.239390022360930743e+01,-1.047474586807929882e+02,3.674770677815104136e+00,1.605069394728216139e+02,-7.715867306130894576e+01,-6.728709848538346705e+01,2.272711198629258433e+01,-3.248399366096782614e+01,9.332008361816406250e+00,1.147378161549568176e-01,1.262115836143493652e+00,5.710000000000000000e+02
-8.024981788297736784e+01,-1.045718383946859831e+02,5.335386571761773666e+00,1.590338230855377333e+02,-7.515547975829758798e+01,-6.643532138615410076e+01,2.372062453542457661e+01,-2.900436325505143031e+01,9.293763160705566406e+00,1.147378161549568176e-01,1.300361871719360352e+00,5.720000000000000000e+02
-7.843288151814158482e+01,-1.038876935556072567e+02,8.026372022486611968e+00,1.591392560262174811e+02,-7.272460404383673449e+01,-6.440903126781995525e+01,2.566623304948370787e+01,-2.478428196567620034e+01,9.293763160705566406e+00,1.147378161549568176e-01,1.300361871719360352e+00,5.730000000000000000e+02
-7.756306579342344776e+01,-1.033749372840193246e+02,1.091239708850480383e+01,1.593286372481161379e+02,-7.045086301705305232e+01,-6.168697141035954701e+01,2.773914100146430428e+01,-2.128862696268333821e+01,9.293763160705566406e+00,1.147378161549568176e-01,1.300361871719360352e+00,5.740000000000000000e+02
-7.742847221137344604e+01,-1.030472853165701963e+02,1.333996013411888271e+01,1.585089188120582548e+02,-6.833829584800696466e+01,-5.894030256918631494e+01,2.933633656584424898e+01,-1.890740479964370024e+01,9.293763160705566406e+00,1.147378161549568176e-01,1.300361871719360352e+00,5.750000000000000000e+02
-7.736558724766473460e+01,-1.022154311417107238e+02,1.526508113188901916e+01,1.569268137925064366e+02,-6.587612903366243700e+01,-5.637476322177462862e+01,3.051882445553928846e+01,-1.669580851713180891e+01,9.293763160705566406e+00,1.147378161549568176e-01,1.300361871719360352e+00,5.760000000000000000e+02
-7.685936801384741557e+01,-1.001942228908774268e+02,1.708902320284687448e+01,1.557498102243625908e+02,-6.264329207811533706e+01,-5.361676016124329180e+01,3.167920574891104479e+01,-1.329734136083425255e+01,9.293763160705566406e+00,1.147378161549568176e-01,1.300361871719360352e+00,5.770000000000000000e+02
-7.581776896385053988e+01,-9.702773347735092102e+01,1.912877778406618745e+01,1.557857460305021959e+02,-5.882271464528821525e+01,-5.025626361259492114e+01,3.287051897160563385e+01,-8.254851136218348984e+00,9.293763160705566406e+00,1.147378161549568176e-01,1.300361871719360352e+00,5.780000000000000000e+02
-7.440346335570939118e+01,-9.351738458521504072e+01,2.125814384630211862e+01,1.566031591061764630e+02,-5.511352982544849510e+01,-4.649294176515104482e+01,3.358779673870230909e+01,-2.581518873565073591e+00,9.293763160705566406e+00,1.147378161549568176e-01,1.300361871719360352e+00,5.790000000000000000e+02
-7.273096857922064373e+01,-9.053562606145169411e+01,2.304460048339387868e+01,1.568411274232530559e+02,-5.217280550600480638e+01,-4.322984105346040451e+01,3.327692191684764111e+01,1.894621186856966233e+00,9.293763160705566406e+00,1.147378161549568176e-01,1.300361871719360352e+00,5.800000000000000000e+02
-7.080409888402573415e+01,-8.828016671002114890e+01,2.419733934496616712e+01,1.553629651133414882e+02,-5.017798085184404044e+01,-4.147696403389272746e+01,3.202422228179784724e+01,3.873445585981244221e+00,9.293763160705566406e+00,1.147378161549568176e-01,1.300361871719360352e+00,5.810000000000000000e+02
-6.873915084262625896e+01,-8.615963305639525061e+01,2.486413999298383715e+01,1.521960040211488376e+02,-4.888688598559747334e+01,-4.155475980896153487e+01,3.067513096953189233e+01,3.518604276370751904e+00,9.293763160705566406e+00,1.147378161549568176e-01,1.300361871719360352e+00,5.820000000000000000e+02
-6.696072092565736966e+01,-8.341126802713188226e+01,2.552051796802697936e+01,1.484864942269996391e+02,-4.797206806837857584e+01,-4.277029473114816938e+01,3.021572043389096507e+01,2.261399523082218366e+00,9.293763160705566406e+00,1.147378161549568176e-01,1.300361871719360352e+00,5.830000000000000000e+02
-6.605309064337416203e+01,-7.987428734835702926e+01,2.661107685307433712e+01,1.456207488094332803e+02,-4.716650053594639758e+01,-4.381304151178119355e+01,3.099434433704300318e+01,1.707840244362159865e+00,9.293763160705566406e+00,1.147378161549568176e-01,1.300361871719360352e+00,5.840000000000000000e+02
-6.630731160673167324e+01,-7.619665649695889442e+01,2.827522448700619861e+01,1.443282385863312811e+02,-4.612846364554206957e+01,-4.352075332006279496e+01,3.250269730050786166e+01,2.575058237987832399e+00,9.293763160705566406e+00,1.147378161549568176e-01,1.300361871719360352e+00,5.850000000000000000e+02
-6.735927588798585930e+01,-7.329695218034248683e+01,3.031994602560371277e+01,1.444276305135608709e+02,-4.439132839432204491e+01,-4.145267941037309356e+01,3.386184047813367215e+01,4.437689903243153822e+00,9.293763160705566406e+00,1.147378161549568176e-01,1.300361871719360352e+00,5.860000000000000000e+02
-6.830792978602403309e+01,-7.159755352793217753e+01,3.235784802875787136e+01,1.452108794056694023e+02,-4.168467287073508487e+01,-3.794563186599407345e+01,3.452145108036347665e+01,6.303483575044083409e+00,9.293763160705566406e+00,1.147378161549568176e-01,1.300361871719360352e+00,5.870000000000000000e+02
-6.832141577002039412e+01,-7.075181800004793331e+01,3.394921029378383537e+01,1.459540868404474168e+02,-3.838198648902107379e+01,-3.376857112717334530e+01,3.456716743619836052e+01,7.376343320949672488e+00,9.293763160705566406e+00,1.147378161549568176e-01,1.300361871719360352e+00,5.880000000000000000e+02
-6.725684882727728109e+01,-7.010419511821601191e+01,3.470013560688312282e+01,1.461162577611612505e+02,-3.551490000705234706e+01,-2.972143483758190996e+01,3.445748052527778782e+01,7.381968750352825737e+00,9.293763160705566406e+00,1.147378161549568176e-01,1.300361871719360352e+00,5.890000000000000000e+02
-6.574453357874153880e+01,-6.939395351632265374e+01,3.437871704321150901e+01,1.452558995618273912e+02,-3.415315989700320642e+01,-2.641748341337734018e+01,3.452291201806656318e+01,6.395092025661142543e+00,9.293763160705566406e+00,1.147378161549568176e-01,1.300361871719360352e+00,5.900000000000000000e+02
