F3,F4,C3,C4,P3,P4,Cz,Pz,Accel_x,Accel_y,Accel_z,Sample
-5.093170329928398132e-11,-4.911271389573812485e-11,-4.365574568510055542e-11,-1.637090463191270828e-11,-5.638867150992155075e-11,-4.729372449219226837e-11,-6.730260793119668961e-11,-4.274625098332762718e-11,9.332008361816406250e+00,1.912296712398529053e-01,1.262115836143493652e+00,2.010000000000000000e+02
-1.434370017096625816e+01,-1.354714044558750174e+01,-2.031793281621867209e+01,-1.952505358251983125e+01,-6.013494227740375209e+01,-4.372939532448253885e+01,-3.285986625384066429e+01,-1.333620250964850129e+01,9.332008361816406250e+00,1.912296712398529053e-01,1.262115836143493652e+00,2.020000000000000000e+02
-3.485529816471716913e+01,-3.279592405759103713e+01,-3.627069580787610903e+01,-3.724888511191693397e+01,-1.008068918873159419e+02,-7.655083487355659599e+01,-5.238077307572348218e+01,-2.860775383686723217e+01,9.332008361816406250e+00,1.912296712398529053e-01,1.262115836143493652e+00,2.030000000000000000e+02
-6.203407587319634331e+01,-5.825756059273862775e+01,-4.699664768479487975e+01,-5.289010120634247869e+01,-1.191633128695593768e+02,-9.652032578367288806e+01,-5.674673000266011513e+01,-4.610240218033504789e+01,9.332008361816406250e+00,1.912296712398529053e-01,1.262115836143493652e+00,2.040000000000000000e+02
-9.061387323800772720e+01,-8.541771487281675945e+01,-5.517914809705871448e+01,-6.781595067292346357e+01,-1.293948339065227628e+02,-1.111850474064631271e+02,-5.600426419095128949e+01,-6.437642152542684926e+01,9.332008361816406250e+00,1.912296712398529053e-01,1.262115836143493652e+00,2.050000000000000000e+02
-1.148455563137513309e+02,-1.097729164353104352e+02,-6.387130171227454412e+01,-8.371092040756047936e+01,-1.476016203145982217e+02,-1.297356014570050320e+02,-6.155197672307804169e+01,-8.164420990740472917e+01,9.332008361816406250e+00,1.912296712398529053e-01,1.262115836143493652e+00,2.060000000000000000e+02
-1.336217564418202528e+02,-1.311332009551852025e+02,-7.363467764438064478e+01,-1.010437251164121335e+02,-1.771262811687893191e+02,-1.548765610262944392e+02,-7.579184071061899886e+01,-9.712164476492762333e+01,9.332008361816406250e+00,1.912296712398529053e-01,1.262115836143493652e+00,2.070000000000000000e+02
-1.504845814745813186e+02,-1.527400237539195587e+02,-8.284379350119252194e+01,-1.186926435858476907e+02,-2.084349751960589856e+02,-1.819723732276725059e+02,-9.182102147446676099e+01,-1.111059979846486385e+02,9.255517005920410156e+00,7.649187743663787842e-02,1.262115836143493652e+00,2.080000000000000000e+02
-1.691662177801963480e+02,-1.766709489803079123e+02,-9.031394651271239127e+01,-1.349193934679042286e+02,-2.314714172942558434e+02,-2.050858063149744339e+02,-1.020155841549367324e+02,-1.241089517394402719e+02,9.255517005920410156e+00,7.649187743663787842e-02,1.262115836143493652e+00,2.090000000000000000e+02
-1.897414208681166201e+02,-2.009298355500386606e+02,-9.699641690345561074e+01,-1.486892292937236562e+02,-2.461444191753498671e+02,-2.229467663727518811e+02,-1.056956102399517476e+02,-1.362900006591744386e+02,9.255517005920410156e+00,7.649187743663787842e-02,1.262115836143493652e+00,2.100000000000000000e+02
-2.092238291993216990e+02,-2.213782674859339750e+02,-1.048732020144761918e+02,-1.602159744802838759e+02,-2.606339793703709802e+02,-2.391444481134876696e+02,-1.084360266663670700e+02,-1.477720306248511406e+02,9.255517005920410156e+00,7.649187743663787842e-02,1.262115836143493652e+00,2.110000000000000000e+02
-2.253878257148599005e+02,-2.361499950022525809e+02,-1.145179126739094499e+02,-1.704637670556421654e+02,-2.813321633094419667e+02,-2.575337559402496481e+02,-1.151831023233326050e+02,-1.591436586024028657e+02,9.255517005920410156e+00,7.649187743663787842e-02,1.262115836143493652e+00,2.120000000000000000e+02
-2.393834829802499371e+02,-2.476367901378043825e+02,-1.242218499065547803e+02,-1.802382548097575636e+02,-3.063576888419047464e+02,-2.783892915767355589e+02,-1.253117075314994509e+02,-1.711959678031253134e+02,9.255517005920410156e+00,7.649187743663787842e-02,1.262115836143493652e+00,2.130000000000000000e+02
-2.545000345114931406e+02,-2.600956700392480343e+02,-1.316724589285677212e+02,-1.896726992388357758e+02,-3.288761664162093439e+02,-2.989527363184924980e+02,-1.343811663535398111e+02,-1.839968053284928828e+02,9.255517005920410156e+00,7.649187743663787842e-02,1.262115836143493652e+00,2.140000000000000000e+02
-2.727655270475233920e+02,-2.756880149313228685e+02,-1.362909635294845430e+02,-1.983919755895512935e+02,-3.450465887048794684e+02,-3.168181143654583138e+02,-1.395724906946306874e+02,-1.964194600864302629e+02,9.255517005920410156e+00,7.649187743663787842e-02,1.262115836143493652e+00,2.150000000000000000e+02
-2.930840525205330778e+02,-2.930386477989623017e+02,-1.397476637452564319e+02,-2.060424759775296479e+02,-3.573856003005985258e+02,-3.320939012171238574e+02,-1.424787422359831908e+02,-2.069004473084132769e+02,9.255517005920410156e+00,7.649187743663787842e-02,1.262115836143493652e+00,2.160000000000000000e+02
-3.125264569571645552e+02,-3.092658717955400789e+02,-1.442506426945956264e+02,-2.126736419368680799e+02,-3.708279581623992271e+02,-3.464952935340179465e+02,-1.467681928691281428e+02,-2.148282515187966055e+02,9.255517005920410156e+00,7.649187743663787842e-02,1.262115836143493652e+00,2.170000000000000000e+02
-3.289483255291515889e+02,-3.227772317973585814e+02,-1.504708091501233866e+02,-2.186876558984913572e+02,-3.870754858888149101e+02,-3.611327521950679511e+02,-1.540234780628716180e+02,-2.211367570790607715e+02,9.255517005920410156e+00,7.649187743663787842e-02,1.262115836143493652e+00,2.180000000000000000e+02
-3.421195245171056740e+02,-3.339194661408118918e+02,-1.570464579684476121e+02,-2.244432999400551125e+02,-4.035717330338593456e+02,-3.756141700264552128e+02,-1.623178618564315911e+02,-2.274106641234848212e+02,9.255517005920410156e+00,7.649187743663787842e-02,1.262115836143493652e+00,2.190000000000000000e+02
-3.526597779187768538e+02,-3.434525290483989011e+02,-1.618010722066119342e+02,-2.298488899983412921e+02,-4.171631778257742553e+02,-3.889526532869185758e+02,-1.683977205665387373e+02,-2.343151408116827952e+02,9.255517005920410156e+00,7.649187743663787842e-02,1.262115836143493652e+00,2.200000000000000000e+02
-3.605560157312402225e+02,-3.511658534686307576e+02,-1.632968720784547259e+02,-2.342817331921487494e+02,-4.274088187010665933e+02,-4.007024272585713334e+02,-1.705706497959799890e+02,-2.408451720304828996e+02,9.255517005920410156e+00,7.649187743663787842e-02,1.262115836143493652e+00,2.210000000000000000e+02
-3.651798587770226732e+02,-3.563199812795628532e+02,-1.614936194811998575e+02,-2.369540400185578619e+02,-4.359892232839911230e+02,-4.110015932823152980e+02,-1.694313738544196895e+02,-2.450910284672963826e+02,9.255517005920410156e+00,7.649187743663787842e-02,1.262115836143493652e+00,2.220000000000000000e+02
-3.666753889928122589e+02,-3.591466741945682770e+02,-1.574550816647933971e+02,-2.375187237076033853e+02,-4.438909003989019766e+02,-4.199134231194902895e+02,-1.664891650301588015e+02,-2.458087527251254869e+02,9.255517005920410156e+00,7.649187743663787842e-02,1.262115836143493652e+00,2.230000000000000000e+02
-3.668750066037732722e+02,-3.614134285400486988e+02,-1.527016821956985950e+02,-2.364532340661089620e+02,-4.502657228561920419e+02,-4.272179957472671958e+02,-1.627446563199464435e+02,-2.434339527555976019e+02,9.255517005920410156e+00,7.649187743663787842e-02,1.262115836143493652e+00,2.240000000000000000e+02
-3.684225798517277326e+02,-3.652532865183770809e+02,-1.486025946673344151e+02,-2.348689481685205465e+02,-4.541076878387011675e+02,-4.329226177189912050e+02,-1.585503933585569030e+02,-2.398086727163190517e+02,9.255517005920410156e+00,7.649187743663787842e-02,1.262115836143493652e+00,2.250000000000000000e+02
-3.728211702024887018e+02,-3.714436962224935996e+02,-1.458621528209960161e+02,-2.338436910842210636e+02,-4.562153240399502465e+02,-4.376730540939988714e+02,-1.542546960592271716e+02,-2.370085260210471461e+02,9.255517005920410156e+00,7.649187743663787842e-02,1.262115836143493652e+00,2.260000000000000000e+02
-3.793597677295942958e+02,-3.788686410714517478e+02,-1.442265108427127416e+02,-2.337840507277355755e+02,-4.587950003866808402e+02,-4.423882072548094584e+02,-1.504505856341702383e+02,-2.362201925160425162e+02,9.255517005920410156e+00,7.649187743663787842e-02,1.262115836143493652e+00,2.270000000000000000e+02
-3.860348272983796960e+02,-3.856098221393376662e+02,-1.427609970158191572e+02,-2.343301703219030969e+02,-4.632539877591043478e+02,-4.475054757599182267e+02,-1.475922482138339547e+02,-2.373620203491618668e+02,9.255517005920410156e+00,7.649187743663787842e-02,1.262115836143493652e+00,2.280000000000000000e+02
-3.916004248540607477e+02,-3.905569450496773243e+02,-1.407048367005936598e+02,-2.348650984987721131e+02,-4.689159920839638289e+02,-4.527152568367437198e+02,-1.456324499805377854e+02,-2.394887400380312101e+02,9.255517005920410156e+00,7.649187743663787842e-02,1.262115836143493652e+00,2.290000000000000000e+02
-3.967747238319352618e+02,-3.941219609511490489e+02,-1.382241531324398238e+02,-2.351611005377458241e+02,-4.741198312620263096e+02,-4.574302454540757026e+02,-1.441590858905528876e+02,-2.415505540962058149e+02,9.255517005920410156e+00,7.649187743663787842e-02,1.262115836143493652e+00,2.300000000000000000e+02
-4.034737580010291822e+02,-3.976491438993011798e+02,-1.362909223027609187e+02,-2.355956657730248480e+02,-4.782929393348476879e+02,-4.613814388448918180e+02,-1.427903182195750560e+02,-2.430018411727551211e+02,9.255517005920410156e+00,7.649187743663787842e-02,1.262115836143493652e+00,2.310000000000000000e+02
-4.128616660262423466e+02,-4.022538405716436500e+02,-1.357137563080323162e+02,-2.367670729447390841e+02,-4.825668066844382338e+02,-4.647093735986136380e+02,-1.413382247560448377e+02,-2.439483759678569186e+02,9.255517005920410156e+00,7.649187743663787842e-02,1.262115836143493652e+00,2.320000000000000000e+02
-4.241045323202520194e+02,-4.080676751109958786e+02,-1.362914400430217938e+02,-2.388882855551764806e+02,-4.883828420786167044e+02,-4.676432113956407193e+02,-1.397135829930739419e+02,-2.448374759753896797e+02,9.255517005920410156e+00,7.649187743663787842e-02,1.262115836143493652e+00,2.330000000000000000e+02
-4.350049747568500607e+02,-4.143289105432768338e+02,-1.370056638031510374e+02,-2.415197106573268684e+02,-4.958171333388645508e+02,-4.703247566356858442e+02,-1.378871951346873175e+02,-2.460119216754819718e+02,9.255517005920410156e+00,7.649187743663787842e-02,1.262115836143493652e+00,2.340000000000000000e+02
-4.438859420296985263e+02,-4.200502119418665643e+02,-1.370673531804122831e+02,-2.438613392552206278e+02,-5.034879408147098729e+02,-4.729910319470873219e+02,-1.360286725878586367e+02,-2.475064273303896698e+02,9.332008361816406250e+00,7.649187743663787842e-02,1.300361871719360352e+00,2.350000000000000000e+02
-4.509347500331182346e+02,-4.247036685279244921e+02,-1.367018396663152089e+02,-2.453360914672580293e+02,-5.100313019384921063e+02,-4.761584141617076966e+02,-1.345936396106499160e+02,-2.492306288779172974e+02,9.332008361816406250e+00,7.649187743663787842e-02,1.300361871719360352e+00,2.360000000000000000e+02
-4.578127627479948387e+02,-4.285057777960128078e+02,-1.368141368602446164e+02,-2.459584310021314195e+02,-5.154415201950660048e+02,-4.803986180063375286e+02,-1.341102967606193488e+02,-2.512797402350297489e+02,9.332008361816406250e+00,7.649187743663787842e-02,1.300361871719360352e+00,2.370000000000000000e+02
-4.659929048584990596e+02,-4.322181171507986619e+02,-1.378962846459335196e+02,-2.462360035800747937e+02,-5.209031476676400416e+02,-4.858534251029805091e+02,-1.347912317129594157e+02,-2.539531898458862997e+02,9.332008361816406250e+00,7.649187743663787842e-02,1.300361871719360352e+00,2.380000000000000000e+02
-4.754412808438864886e+02,-4.367006610210992221e+02,-1.393939409755139422e+02,-2.468079355994568687e+02,-5.274240667224612480e+02,-4.920439689167751567e+02,-1.363326736677445297e+02,-2.574105256285583891e+02,9.332008361816406250e+00,7.649187743663787842e-02,1.300361871719360352e+00,2.390000000000000000e+02
-4.847940762724579145e+02,-4.425048663917727936e+02,-1.402305131399807578e+02,-2.481841464427930077e+02,-5.347441226742139406e+02,-4.982376370224701532e+02,-1.380648081685612851e+02,-2.613307074851854850e+02,9.332008361816406250e+00,7.649187743663787842e-02,1.300361871719360352e+00,2.400000000000000000e+02
-4.926800672183658207e+02,-4.496508985743071207e+02,-1.399414250005374925e+02,-2.507148176496107226e+02,-5.415695141975675142e+02,-5.040161406905153854e+02,-1.393154185241692176e+02,-2.650030193110287655e+02,9.332008361816406250e+00,7.649187743663787842e-02,1.300361871719360352e+00,2.410000000000000000e+02
-4.988573047027070970e+02,-4.576394674852563185e+02,-1.392272305294291073e+02,-2.546094593363418426e+02,-5.467986223119623901e+02,-5.094783891350934937e+02,-1.397435148837121233e+02,-2.678725389727724178e+02,9.332008361816406250e+00,7.649187743663787842e-02,1.300361871719360352e+00,2.420000000000000000e+02
-5.041900828603197624e+02,-4.656605050707630653e+02,-1.393575610579109707e+02,-2.597901490388389902e+02,-5.505450704998775109e+02,-5.149455002324248198e+02,-1.395243419220514625e+02,-2.700375056083003074e+02,9.332008361816406250e+00,7.649187743663787842e-02,1.300361871719360352e+00,2.430000000000000000e+02
-5.097442927876068097e+02,-4.729230956628302920e+02,-1.410474764189302732e+02,-2.656472723353908805e+02,-5.540546304520303238e+02,-5.205487360252482176e+02,-1.393201201290166864e+02,-2.721536789391861930e+02,9.332008361816406250e+00,7.649187743663787842e-02,1.300361871719360352e+00,2.440000000000000000e+02
-5.160026288230587852e+02,-4.790117532924873558e+02,-1.438928097038842679e+02,-2.710589621490858008e+02,-5.586467754207988037e+02,-5.261180521706755826e+02,-1.399395754956613018e+02,-2.747824596973996449e+02,9.332008361816406250e+00,7.649187743663787842e-02,1.300361871719360352e+00,2.450000000000000000e+02
-5.227980420836961457e+02,-4.841144140261667417e+02,-1.467871988096212590e+02,-2.749164030746242133e+02,-5.645842405102398516e+02,-5.313786013659073433e+02,-1.417172336561952761e+02,-2.778201890892628398e+02,9.332008361816406250e+00,7.649187743663787842e-02,1.300361871719360352e+00,2.460000000000000000e+02
-5.296813148001315312e+02,-4.889117421646433286e+02,-1.487979065221561541e+02,-2.768984485450873763e+02,-5.708420912321216747e+02,-5.361919982967192482e+02,-1.440535062282178842e+02,-2.806193139168117341e+02,9.332008361816406250e+00,7.649187743663787842e-02,1.300361871719360352e+00,2.470000000000000000e+02
-5.361502212873697317e+02,-4.940918973910738714e+02,-1.497059300838045601e+02,-2.778450436124871885e+02,-5.760059207509434600e+02,-5.406575314621754842e+02,-1.456892616701143197e+02,-2.827231754751414883e+02,9.332008361816406250e+00,7.649187743663787842e-02,1.300361871719360352e+00,2.480000000000000000e+02
-5.416668102702183205e+02,-4.998376913472857268e+02,-1.499267497323262432e+02,-2.793027078502573204e+02,-5.795094783028048369e+02,-5.450730905194150182e+02,-1.457153996011566051e+02,-2.845096742644914229e+02,9.332008361816406250e+00,7.649187743663787842e-02,1.300361871719360352e+00,2.490000000000000000e+02
-5.458523270791888535e+02,-5.057450618590992235e+02,-1.501436021002809866e+02,-2.825058189780111206e+02,-5.821179425595246357e+02,-5.498191427031042622e+02,-1.445254245089690812e+02,-2.870804407284499575e+02,9.332008361816406250e+00,7.649187743663787842e-02,1.300361871719360352e+00,2.500000000000000000e+02
-5.489779960220762405e+02,-5.112397820864616733e+02,-1.510570058245584733e+02,-2.875702326168434411e+02,-5.852634356732237393e+02,-5.551711322231785743e+02,-1.437692892538489104e+02,-2.913974778614192473e+02,9.332008361816406250e+00,7.649187743663787842e-02,1.300361871719360352e+00,2.510000000000000000e+02
-5.522046131132324263e+02,-5.160632209252371467e+02,-1.532604107800707425e+02,-2.935159016278316813e+02,-5.899125015623294530e+02,-5.610776421312325510e+02,-1.451913065888120400e+02,-2.973898782569990544e+02,9.332008361816406250e+00,7.649187743663787842e-02,1.300361871719360352e+00,2.520000000000000000e+02
-5.570079803479989096e+02,-5.203860778963548910e+02,-1.570087649760253043e+02,-2.990511934972632844e+02,-5.959870584387740564e+02,-5.670672624612197978e+02,-1.492686544116595542e+02,-3.038547438015357329e+02,9.332008361816406250e+00,7.649187743663787842e-02,1.300361871719360352e+00,2.530000000000000000e+02
-5.640517703886375784e+02,-5.245338301124056670e+02,-1.619040488244995686e+02,-3.034568033970858778e+02,-6.027277525739818884e+02,-5.724623907435543515e+02,-1.548088175163111373e+02,-3.092944545048731015e+02,9.332008361816406250e+00,7.649187743663787842e-02,1.300361871719360352e+00,2.540000000000000000e+02
-5.725532959644365292e+02,-5.287187948826308457e+02,-1.668608200104349635e+02,-3.069150714998172589e+02,-6.094628445220459980e+02,-5.768503624531590503e+02,-1.598191608738284231e+02,-3.130207428519283894e+02,9.332008361816406250e+00,7.649187743663787842e-02,1.300361871719360352e+00,2.550000000000000000e+02
-5.808886550354736755e+02,-5.330823166649943232e+02,-1.706563367117068992e+02,-3.101859944926882235e+02,-6.160127153831981559e+02,-5.804798435886714287e+02,-1.628938928812435734e+02,-3.156389457740360740e+02,9.332008361816406250e+00,7.649187743663787842e-02,1.300361871719360352e+00,2.560000000000000000e+02
-5.879419250731175453e+02,-5.378632078024393195e+02,-1.727825887815374699e+02,-3.140161270461071581e+02,-6.225336367489362601e+02,-5.842122558227347326e+02,-1.640204134427790450e+02,-3.185106170142853443e+02,9.332008361816406250e+00,7.649187743663787842e-02,1.300361871719360352e+00,2.570000000000000000e+02
-5.938879206489682474e+02,-5.432742072653538798e+02,-1.738547910214597323e+02,-3.187178244988604092e+02,-6.291882114269146768e+02,-5.889718716390034388e+02,-1.643024966540942842e+02,-3.226454683999545523e+02,9.332008361816406250e+00,7.649187743663787842e-02,1.300361871719360352e+00,2.580000000000000000e+02
-5.996457309744432678e+02,-5.490692428564523198e+02,-1.751018811312042089e+02,-3.240947210538274703e+02,-6.360246005444018920e+02,-5.950842161917007616e+02,-1.650126046135342222e+02,-3.279295759485630697e+02,9.332008361816406250e+00,7.649187743663787842e-02,1.300361871719360352e+00,2.590000000000000000e+02
-6.056424039703615563e+02,-5.543473832210861474e+02,-1.773063537741381879e+02,-3.296224644074563912e+02,-6.429875298037322864e+02,-6.020138372402834648e+02,-1.667790443441108437e+02,-3.332835131242572970e+02,9.332008361816406250e+00,7.649187743663787842e-02,1.300361871719360352e+00,2.600000000000000000e+02
-6.112531238961996678e+02,-5.580720855075348936e+02,-1.801357263022628103e+02,-3.347428646849739380e+02,-6.498096649918393268e+02,-6.087055938341377441e+02,-1.694000196072242943e+02,-3.375563893484863911e+02,9.332008361816406250e+00,7.649187743663787842e-02,1.300361871719360352e+00,2.610000000000000000e+02
-6.155067522471474604e+02,-5.600196702385760545e+02,-1.824889778977321839e+02,-3.391433312860067417e+02,-6.558666456157625362e+02,-6.142542631626279217e+02,-1.722029437623391459e+02,-3.403567460290978488e+02,9.332008361816406250e+00,7.649187743663787842e-02,1.300361871719360352e+00,2.620000000000000000e+02
-6.182361704547668069e+02,-5.612320511596901724e+02,-1.835195245078930384e+02,-3.428602661103609535e+02,-6.603506375248998665e+02,-6.183650531766907079e+02,-1.745163306148997435e+02,-3.421300839513573919e+02,9.332008361816406250e+00,7.649187743663787842e-02,1.300361871719360352e+00,2.630000000000000000e+02
-6.203610194567095277e+02,-5.633250086874735416e+02,-1.833583030797974516e+02,-3.460951121223526457e+02,-6.628574700015907410e+02,-6.212821743157386436e+02,-1.759142993598701423e+02,-3.435134702603438654e+02,9.332008361816406250e+00,7.649187743663787842e-02,1.300361871719360352e+00,2.640000000000000000e+02
-6.229775301681635256e+02,-5.671111098066485283e+02,-1.828697296269006074e+02,-3.488456174712882785e+02,-6.638736068157852515e+02,-6.233397604913529904e+02,-1.761918223891561865e+02,-3.446354583079649956e+02,9.332008361816406250e+00,7.649187743663787842e-02,1.300361871719360352e+00,2.650000000000000000e+02
-6.262675436502662478e+02,-5.717838274477317100e+02,-1.827415707230774160e+02,-3.507036499729217667e+02,-6.645405262315559867e+02,-6.245919530585147186e+02,-1.752718300874757915e+02,-3.450222461881206755e+02,9.332008361816406250e+00,7.649187743663787842e-02,1.262115836143493652e+00,2.660000000000000000e+02
-6.294173935451187845e+02,-5.754847702524268698e+02,-1.828403107816955071e+02,-3.511108316216335652e+02,-6.657708752389794427e+02,-6.248766739240447805e+02,-1.732579998042363059e+02,-3.441710950107628832e+02,9.332008361816406250e+00,7.649187743663787842e-02,1.262115836143493652e+00,2.670000000000000000e+02
-6.316124783283510169e+02,-5.768058165673805888e+02,-1.824290500755487301e+02,-3.499228944518313256e+02,-6.675104429980682426e+02,-6.242021075834688872e+02,-1.705852277541011972e+02,-3.422062055989581495e+02,9.332008361816406250e+00,7.649187743663787842e-02,1.262115836143493652e+00,2.680000000000000000e+02
-6.330098734564816141e+02,-5.758711913015522441e+02,-1.809710225815140348e+02,-3.477497607469142054e+02,-6.688974953141464539e+02,-6.230086212339392659e+02,-1.680176946942131053e+02,-3.399670437426966600e+02,9.332008361816406250e+00,7.649187743663787842e-02,1.262115836143493652e+00,2.690000000000000000e+02
-6.346426647097219984e+02,-5.740674598002196944e+02,-1.786948342372802472e+02,-3.456546849442362941e+02,-6.691725724515363254e+02,-6.219809209368054326e+02,-1.663109853325263430e+02,-3.384417542912810291e+02,9.332008361816406250e+00,7.649187743663787842e-02,1.262115836143493652e+00,2.700000000000000000e+02
-6.373841528108473540e+02,-5.727859616563561076e+02,-1.764270682609746927e+02,-3.443976890843009642e+02,-6.684308330658686828e+02,-6.215633665934090004e+02,-1.657126234657882833e+02,-3.380643931759246357e+02,9.332008361816406250e+00,7.649187743663787842e-02,1.262115836143493652e+00,2.710000000000000000e+02
-6.410940223394889017e+02,-5.724167041954812021e+02,-1.749575193815383045e+02,-3.439241644564090166e+02,-6.675209656998800938e+02,-6.216926818085548803e+02,-1.657588213871410971e+02,-3.384853577016903614e+02,9.332008361816406250e+00,7.649187743663787842e-02,1.262115836143493652e+00,2.720000000000000000e+02
-6.447999439426514527e+02,-5.724713747706982758e+02,-1.745660910845099352e+02,-3.436028666293860283e+02,-6.672506293692761119e+02,-6.220501344513975255e+02,-1.656331693403047893e+02,-3.389649227984375557e+02,9.332008361816406250e+00,7.649187743663787842e-02,1.262115836143493652e+00,2.730000000000000000e+02
-6.476164153210092991e+02,-5.725129676226054016e+02,-1.750389013522652704e+02,-3.429673434860658290e+02,-6.676897640448512448e+02,-6.225736581861361856e+02,-1.648332873950494104e+02,-3.389887462372940945e+02,9.332008361816406250e+00,7.649187743663787842e-02,1.262115836143493652e+00,2.740000000000000000e+02
-6.493854239708964542e+02,-5.728306892637049259e+02,-1.759748560321545483e+02,-3.422112021218823088e+02,-6.681646135053579201e+02,-6.236563191558510653e+02,-1.635413678213574258e+02,-3.385891406342595928e+02,9.332008361816406250e+00,7.649187743663787842e-02,1.262115836143493652e+00,2.750000000000000000e+02
-6.504413050663576996e+02,-5.741482823063506657e+02,-1.770210725466465647e+02,-3.419500320492342667e+02,-6.678506581935690747e+02,-6.257577565583803789e+02,-1.623601089042368812e+02,-3.381966587506340716e+02,9.332008361816406250e+00,7.649187743663787842e-02,1.262115836143493652e+00,2.760000000000000000e+02
-6.509387943162333841e+02,-5.767134005318762320e+02,-1.779430654374349388e+02,-3.425316728023282167e+02,-6.664337904633654261e+02,-6.288034002935098670e+02,-1.617285897940223549e+02,-3.382508466175990520e+02,9.332008361816406250e+00,7.649187743663787842e-02,1.262115836143493652e+00,2.770000000000000000e+02
-6.506722310713935258e+02,-5.797656814180510310e+02,-1.786872180810943291e+02,-3.436324624253297770e+02,-6.643697277216658676e+02,-6.320056859601214683e+02,-1.616284794924756625e+02,-3.389211049914458158e+02,9.332008361816406250e+00,7.649187743663787842e-02,1.262115836143493652e+00,2.780000000000000000e+02
-6.496760131832332945e+02,-5.819797282880407465e+02,-1.794893529781719508e+02,-3.445506209647836044e+02,-6.626451619053358399e+02,-6.343461029305617558e+02,-1.618281196841985548e+02,-3.400883516225648577e+02,9.332008361816406250e+00,7.649187743663787842e-02,1.262115836143493652e+00,2.790000000000000000e+02
-6.488869286561624676e+02,-5.824969104649931069e+02,-1.808332876542298209e+02,-3.448576074050183706e+02,-6.622238930948733469e+02,-6.352851507046138977e+02,-1.622677109167275376e+02,-3.414831391578172202e+02,9.332008361816406250e+00,7.649187743663787842e-02,1.262115836143493652e+00,2.800000000000000000e+02
-6.499303218147313146e+02,-5.815852295394988687e+02,-1.831187328773930858e+02,-3.447343149649890393e+02,-6.634916096761065774e+02,-6.350601881624145335e+02,-1.630525025876179370e+02,-3.428225076242533191e+02,9.332008361816406250e+00,7.649187743663787842e-02,1.262115836143493652e+00,2.810000000000000000e+02
-6.539437871077697082e+02,-5.803333915730979697e+02,-1.862455313260436469e+02,-3.446862846861897651e+02,-6.660326674596576595e+02,-6.343611670501828712e+02,-1.640504640697486138e+02,-3.438896918282749766e+02,9.332008361816406250e+00,7.649187743663787842e-02,1.262115836143493652e+00,2.820000000000000000e+02
-6.604078369155072323e+02,-5.797133199623514201e+02,-1.895419637008967584e+02,-3.449863498326740228e+02,-6.688937573604944191e+02,-6.337552792820623608e+02,-1.646374890029366043e+02,-3.445927530487975332e+02,9.332008361816406250e+00,7.649187743663787842e-02,1.262115836143493652e+00,2.830000000000000000e+02
-6.671127892441957101e+02,-5.798722615698051186e+02,-1.922124282100356822e+02,-3.454284374477044821e+02,-6.711734948614687255e+02,-6.333921785602017280e+02,-1.640453941576878378e+02,-3.450217301796743641e+02,9.332008361816406250e+00,7.649187743663787842e-02,1.262115836143493652e+00,2.840000000000000000e+02
-6.714426968065459960e+02,-5.802085614580423680e+02,-1.939445872303509759e+02,-3.455801721516264706e+02,-6.725012566481838121e+02,-6.331388833231233093e+02,-1.620769334284876777e+02,-3.454492528958004982e+02,9.332008361816406250e+00,7.649187743663787842e-02,1.262115836143493652e+00,2.850000000000000000e+02
-6.719997773637230694e+02,-5.800253488756329716e+02,-1.951131488754436987e+02,-3.451841266436414344e+02,-6.730623054742584372e+02,-6.328680961738582482e+02,-1.594787527184469127e+02,-3.462157423249228714e+02,9.332008361816406250e+00,7.649187743663787842e-02,1.262115836143493652e+00,2.860000000000000000e+02
-6.693125676032406091e+02,-5.791145302035311033e+02,-1.964093103167837171e+02,-3.442837958642383001e+02,-6.732587771087089550e+02,-6.326075306483091936e+02,-1.575513617634987895e+02,-3.475370106135621313e+02,9.293763160705566406e+00,1.147378161549568176e-01,1.300361871719360352e+00,2.870000000000000000e+02
-6.651919901299602316e+02,-5.778440193736598758e+02,-1.982795746590757062e+02,-3.430310443669558254e+02,-6.733946052936705655e+02,-6.324891654857217418e+02,-1.572993932549783267e+02,-3.493651917725597400e+02,9.293763160705566406e+00,1.147378161549568176e-01,1.300361871719360352e+00,2.880000000000000000e+02
-6.614132425075626998e+02,-5.768278455013780786e+02,-2.006948163493972856e+02,-3.414872565969837979e+02,-6.736358441534915755e+02,-6.326299411254036613e+02,-1.588394214661332171e+02,-3.513934714047200600e+02,9.293763160705566406e+00,1.147378161549568176e-01,1.300361871719360352e+00,2.890000000000000000e+02
-6.588116296701739429e+02,-5.765693309328845544e+02,-2.033728779689812995e+02,-3.396757121251472427e+02,-6.741013201373511947e+02,-6.330467316469301977e+02,-1.614739187076082771e+02,-3.531885741804186978e+02,9.293763160705566406e+00,1.147378161549568176e-01,1.300361871719360352e+00,2.900000000000000000e+02
-6.573344055434404254e+02,-5.773376847344177349e+02,-2.061257494042465055e+02,-3.378021513967890996e+02,-6.748302197046544961e+02,-6.336396972262371037e+02,-1.642425341176717666e+02,-3.544047491552058204e+02,9.293763160705566406e+00,1.147378161549568176e-01,1.300361871719360352e+00,2.910000000000000000e+02
-6.567286107207467012e+02,-5.792418922593768684e+02,-2.089810747964361894e+02,-3.363550377072330093e+02,-6.756854991518360976e+02,-6.342815494928300950e+02,-1.664830004297805317e+02,-3.550273729821531106e+02,9.293763160705566406e+00,1.147378161549568176e-01,1.300361871719360352e+00,2.920000000000000000e+02
-6.571365928914025289e+02,-5.823783107030553765e+02,-2.120859357311985036e+02,-3.359464114738758553e+02,-6.764755911656770877e+02,-6.350274456379254389e+02,-1.680979083119530060e+02,-3.555749050762576076e+02,9.293763160705566406e+00,1.147378161549568176e-01,1.300361871719360352e+00,2.930000000000000000e+02
-6.591258812302485239e+02,-5.869545000602968230e+02,-2.156496924820532968e+02,-3.370583589649457963e+02,-6.773483894929206599e+02,-6.363224894422098714e+02,-1.695363597502597486e+02,-3.570990220308494827e+02,9.293763160705566406e+00,1.147378161549568176e-01,1.300361871719360352e+00,2.940000000000000000e+02
-6.632297516042920051e+02,-5.932805376930450620e+02,-2.200133536942397541e+02,-3.399288206368223655e+02,-6.790352299441565265e+02,-6.389226596947854659e+02,-1.715782588280924301e+02,-3.608011300374927259e+02,9.293763160705566406e+00,1.147378161549568176e-01,1.300361871719360352e+00,2.950000000000000000e+02
-6.694142718949076425e+02,-6.015062647480272062e+02,-2.256413161343078855e+02,-3.445970855379838440e+02,-6.824951182417946711e+02,-6.434004332978740877e+02,-1.749676194925708614e+02,-3.673198739731080877e+02,9.293763160705566406e+00,1.147378161549568176e-01,1.300361871719360352e+00,2.960000000000000000e+02
-6.768608519829484749e+02,-6.111556673081881854e+02,-2.328474892088362935e+02,-3.509097000599884950e+02,-6.881316656120887956e+02,-6.495585409949688938e+02,-1.800145116430172720e+02,-3.761149621778869232e+02,9.293763160705566406e+00,1.147378161549568176e-01,1.300361871719360352e+00,2.970000000000000000e+02
-6.842292383584260733e+02,-6.208539836193972405e+02,-2.414105942426253932e+02,-3.583614915410678918e+02,-6.953111933574358545e+02,-6.563166628260669313e+02,-1.864017096867279406e+02,-3.855168806319260852e+02,9.293763160705566406e+00,1.147378161549568176e-01,1.300361871719360352e+00,2.980000000000000000e+02
-6.902702040002443482e+02,-6.287373802116225079e+02,-2.504828651527902821e+02,-3.659566561516077741e+02,-7.027283773669453240e+02,-6.623277679027593194e+02,-1.933925488648688997e+02,-3.936227433702806593e+02,9.293763160705566406e+00,1.147378161549568176e-01,1.300361871719360352e+00,2.990000000000000000e+02
-6.944335196908233456e+02,-6.335347502728913014e+02,-2.589796360859606921e+02,-3.723911385438390766e+02,-7.092966643217923775e+02,-6.668700818192428414e+02,-2.002992096585728632e+02,-3.994771476732974520e+02,9.293763160705566406e+00,1.147378161549568176e-01,1.300361871719360352e+00,3.000000000000000000e+02
-6.970606498345468935e+02,-6.355306036046938516e+02,-2.661555470573319440e+02,-3.766077917653100258e+02,-7.146881993218465823e+02,-6.702157020045879108e+02,-2.068034221651139433e+02,-4.035806262547923779e+02,9.293763160705566406e+00,1.147378161549568176e-01,1.300361871719360352e+00,3.010000000000000000e+02
-6.990148154742500992e+02,-6.364595010493344489e+02,-2.718852287814894453e+02,-3.783767146104287349e+02,-7.190711456163359117e+02,-6.731377570203046616e+02,-2.128578377829803685e+02,-4.072259487819908372e+02,9.293763160705566406e+00,1.147378161549568176e-01,1.300361871719360352e+00,3.020000000000000000e+02
-7.010192373761195768e+02,-6.382444513498330707e+02,-2.764632050198077877e+02,-3.784268354566312951e+02,-7.224795936923450199e+02,-6.760499712385532121e+02,-2.183223321519849378e+02,-4.112097949942011610e+02,9.293763160705566406e+00,1.147378161549568176e-01,1.300361871719360352e+00,3.030000000000000000e+02
-7.032291591944405127e+02,-6.416288987677396563e+02,-2.802195548972009647e+02,-3.779721669321152149e+02,-7.246352117034429057e+02,-6.786513222579436615e+02,-2.227985052871105154e+02,-4.150992204913284240e+02,9.293763160705566406e+00,1.147378161549568176e-01,1.300361871719360352e+00,3.040000000000000000e+02
-7.053735176708939889e+02,-6.459747252042425316e+02,-2.833684266768786983e+02,-3.779712899728601201e+02,-7.254386715256248408e+02,-6.804020861741514636e+02,-2.259109175484703655e+02,-4.177640597764652171e+02,9.293763160705566406e+00,1.147378161549568176e-01,1.300361871719360352e+00,3.050000000000000000e+02
-7.072602008680437393e+02,-6.503744984293066409e+02,-2.861641764166345183e+02,-3.786699444555154059e+02,-7.254870410707360406e+02,-6.812762925234516160e+02,-2.277786410591518234e+02,-4.186736672809288393e+02,9.293763160705566406e+00,1.147378161549568176e-01,1.300361871719360352e+00,3.060000000000000000e+02
-7.090574489908822216e+02,-6.548320717191650147e+02,-2.890228332932995272e+02,-3.796835301696090710e+02,-7.258718968394118747e+02,-6.819489865213108715e+02,-2.291554773020802713e+02,-4.186405228809866230e+02,9.293763160705566406e+00,1.147378161549568176e-01,1.300361871719360352e+00,3.070000000000000000e+02
-7.109963522574925037e+02,-6.601331998261189256e+02,-2.922617371448911854e+02,-3.803992583482256578e+02,-7.272691267537784370e+02,-6.831683683219534942e+02,-2.309629800148917411e+02,-4.191636169694538125e+02,9.293763160705566406e+00,1.147378161549568176e-01,1.300361871719360352e+00,3.080000000000000000e+02
-7.128020493329011060e+02,-6.664282781843955945e+02,-2.955924760177118742e+02,-3.803005488474306617e+02,-7.291734314245886708e+02,-6.849290608924590060e+02,-2.335526801801798911e+02,-4.209261413583689659e+02,9.293763160705566406e+00,1.147378161549568176e-01,1.300361871719360352e+00,3.090000000000000000e+02
-7.135174010416810688e+02,-6.720403441039100016e+02,-2.978987157318085792e+02,-3.790154805248971002e+02,-7.300771753724851578e+02,-6.862828531632133036e+02,-2.363382675776338147e+02,-4.229034452117943488e+02,9.293763160705566406e+00,1.147378161549568176e-01,1.300361871719360352e+00,3.100000000000000000e+02
-7.120316907550568430e+02,-6.739722183969906837e+02,-2.976990653139083634e+02,-3.762134998581022387e+02,-7.285304953790894160e+02,-6.860050128530328948e+02,-2.381533696082876759e+02,-4.230192984726931513e+02,9.293763160705566406e+00,1.147378161549568176e-01,1.300361871719360352e+00,3.110000000000000000e+02
-7.079333950615380218e+02,-6.699920263500818010e+02,-2.941174226403956027e+02,-3.716142215726724203e+02,-7.242201317703331824e+02,-6.835254010323733382e+02,-2.380975765638747816e+02,-4.198321056611637232e+02,9.332008361816406250e+00,1.147378161549568176e-01,1.185624003410339355e+00,3.120000000000000000e+02
-7.019437318943955688e+02,-6.605631791463545142e+02,-2.876259696317983980e+02,-3.651913389102579117e+02,-7.181525760080473901e+02,-6.792938661374219009e+02,-2.361752051348170198e+02,-4.137313537154215055e+02,9.332008361816406250e+00,1.147378161549568176e-01,1.185624003410339355e+00,3.130000000000000000e+02
-6.955394318698677125e+02,-6.488892756065315552e+02,-2.799065815308554193e+02,-3.573887242831697222e+02,-7.118142237011513771e+02,-6.743019986051962178e+02,-2.332122024597236987e+02,-4.065848743047384914e+02,9.332008361816406250e+00,1.147378161549568176e-01,1.185624003410339355e+00,3.140000000000000000e+02
-6.900611649309889799e+02,-6.389761723853574722e+02,-2.728593109519802056e+02,-3.490922571504600569e+02,-7.060352516220326606e+02,-6.692560533854380083e+02,-2.301515264584699025e+02,-4.002242479520184588e+02,9.332008361816406250e+00,1.147378161549568176e-01,1.185624003410339355e+00,3.150000000000000000e+02
-6.859617215027975590e+02,-6.332413840194053591e+02,-2.674825433140208588e+02,-3.412791750322687676e+02,-7.004923428292513563e+02,-6.641595905234166821e+02,-2.273550344647181873e+02,-3.951694201402665385e+02,9.332008361816406250e+00,1.147378161549568176e-01,1.185624003410339355e+00,3.160000000000000000e+02
-6.826368700928283033e+02,-6.313999299709173556e+02,-2.634661631464196034e+02,-3.345259395623695013e+02,-6.942407296812514232e+02,-6.586150144566859126e+02,-2.245124542607178455e+02,-3.906478824390283080e+02,9.332008361816406250e+00,1.147378161549568176e-01,1.185624003410339355e+00,3.170000000000000000e+02
-6.788487153362885920e+02,-6.311506374605148721e+02,-2.597423338271332796e+02,-3.286826928849226874e+02,-6.867628328840444283e+02,-6.524562467882517467e+02,-2.211632613904970412e+02,-3.856863210531786308e+02,9.332008361816406250e+00,1.147378161549568176e-01,1.185624003410339355e+00,3.180000000000000000e+02
-6.734610314076880968e+02,-6.298527033113847438e+02,-2.554800198075265598e+02,-3.229812696833456584e+02,-6.785998314424811042e+02,-6.460719043659796625e+02,-2.172971900425244485e+02,-3.801485655249798583e+02,9.332008361816406250e+00,1.147378161549568176e-01,1.185624003410339355e+00,3.190000000000000000e+02
-6.661612532712676966e+02,-6.259855947940869783e+02,-2.507098831495713966e+02,-3.166030607182255494e+02,-6.709979569282032799e+02,-6.401310254054059214e+02,-2.134781980979012133e+02,-3.748157996076613472e+02,9.332008361816406250e+00,1.147378161549568176e-01,1.185624003410339355e+00,3.200000000000000000e+02
-6.578438814177851555e+02,-6.196614106085420417e+02,-2.461414376479594921e+02,-3.093903830289809775e+02,-6.648830205754730969e+02,-6.350127575790395440e+02,-2.104245787401538337e+02,-3.705825476067300315e+02,9.332008361816406250e+00,1.147378161549568176e-01,1.185624003410339355e+00,3.210000000000000000e+02
-6.503401214753624799e+02,-6.121811788125186240e+02,-2.424628246667828080e+02,-3.021789150683905518e+02,-6.601124339388854878e+02,-6.305165406238343166e+02,-2.084845214394540562e+02,-3.676107546043191405e+02,9.332008361816406250e+00,1.147378161549568176e-01,1.185624003410339355e+00,3.220000000000000000e+02
-6.454608607308018691e+02,-6.050885876262735792e+02,-2.397983434246370962e+02,-2.963857044576088811e+02,-6.556827262500466986e+02,-6.261132949177779210e+02,-2.074547409919759957e+02,-3.651877317189180303e+02,9.332008361816406250e+00,1.147378161549568176e-01,1.185624003410339355e+00,3.230000000000000000e+02
-6.438292607904434135e+02,-5.992747422154919832e+02,-2.377485865381122494e+02,-2.930152913341217982e+02,-6.506790848699423577e+02,-6.214658232402136946e+02,-2.068044561341760073e+02,-3.623187681809700962e+02,9.332008361816406250e+00,1.147378161549568176e-01,1.185624003410339355e+00,3.240000000000000000e+02
-6.443532801225401272e+02,-5.946108353015906687e+02,-2.358792847918488178e+02,-2.918066322378912218e+02,-6.450693465403105620e+02,-6.167132736703072169e+02,-2.060329712920365637e+02,-3.585035111580450575e+02,9.332008361816406250e+00,1.147378161549568176e-01,1.185624003410339355e+00,3.250000000000000000e+02
-6.448635181752312064e+02,-5.903168703637628596e+02,-2.341505974203698770e+02,-2.912883818803750273e+02,-6.396535655866777006e+02,-6.122963794370610913e+02,-2.049003775524756747e+02,-3.541030791509252822e+02,9.332008361816406250e+00,1.147378161549568176e-01,1.185624003410339355e+00,3.260000000000000000e+02
-6.435244583417770627e+02,-5.857614478114480789e+02,-2.328986330081808092e+02,-2.898337156145552171e+02,-6.353273283445653306e+02,-6.085631893327015405e+02,-2.034984215772069547e+02,-3.500846643351371767e+02,9.332008361816406250e+00,1.147378161549568176e-01,1.185624003410339355e+00,3.270000000000000000e+02
-6.399327263221292696e+02,-5.810145504779852672e+02,-2.324276825916688267e+02,-2.868883794097190503e+02,-6.323978433249534419e+02,-6.055207492506016251e+02,-2.021956244829557363e+02,-3.473592119979068684e+02,9.332008361816406250e+00,1.147378161549568176e-01,1.185624003410339355e+00,3.280000000000000000e+02
-6.350284639805095139e+02,-5.766578383840349034e+02,-2.326162965919577346e+02,-2.832894027459760764e+02,-6.304933103979274165e+02,-6.028581907818170293e+02,-2.014185351885083719e+02,-3.461332634735053944e+02,9.332008361816406250e+00,1.147378161549568176e-01,1.185624003410339355e+00,3.290000000000000000e+02
-6.300187088599120671e+02,-5.730508340473670614e+02,-2.329104572987138226e+02,-2.803522540761675828e+02,-6.289280072669249648e+02,-6.000973351306394079e+02,-2.012809146682684514e+02,-3.457002267378428542e+02,9.332008361816406250e+00,1.147378161549568176e-01,1.185624003410339355e+00,3.300000000000000000e+02
-6.253703316069367020e+02,-5.697859214371731014e+02,-2.327157766156736898e+02,-2.785248577791867319e+02,-6.270481158591987878e+02,-5.967217084198374550e+02,-2.013103117014600230e+02,-3.448593459693129262e+02,9.332008361816406250e+00,1.147378161549568176e-01,1.185624003410339355e+00,3.310000000000000000e+02
-6.207659372921543763e+02,-5.659311224453136902e+02,-2.318746528220751770e+02,-2.768742018310916819e+02,-6.243686948249999205e+02,-5.923304820917783218e+02,-2.006526324179451422e+02,-3.427558058026097569e+02,9.332008361816406250e+00,1.147378161549568176e-01,1.185624003410339355e+00,3.320000000000000000e+02
-6.159303575237915993e+02,-5.609179884993542373e+02,-2.308521860300351136e+02,-2.739531412118274147e+02,-6.206892997817788000e+02,-5.868962440297918874e+02,-1.987810547414043185e+02,-3.396251606327687114e+02,9.332008361816406250e+00,1.147378161549568176e-01,1.185624003410339355e+00,3.330000000000000000e+02
-6.113788959843803923e+02,-5.552748583226758683e+02,-2.304645880788850718e+02,-2.692923817761134160e+02,-6.163340641463512384e+02,-5.810011318501340156e+02,-1.961483387359764947e+02,-3.368721027176634379e+02,9.332008361816406250e+00,1.147378161549568176e-01,1.185624003410339355e+00,3.340000000000000000e+02
-6.082780275061631983e+02,-5.505248282966081206e+02,-2.313276429339744027e+02,-2.641463366048867556e+02,-6.122716037936007751e+02,-5.757428236882403780e+02,-1.940692254727709951e+02,-3.363229236692939139e+02,9.332008361816406250e+00,1.147378161549568176e-01,1.185624003410339355e+00,3.350000000000000000e+02
-6.075213617297729343e+02,-5.483046379199162175e+02,-2.334259189167595423e+02,-2.607765636980011550e+02,-6.097669312250195617e+02,-5.722092542756461171e+02,-1.937797842989957644e+02,-3.391041423751494222e+02,9.332008361816406250e+00,1.147378161549568176e-01,1.185624003410339355e+00,3.360000000000000000e+02
-6.088854966192945994e+02,-5.493801099248657920e+02,-2.361269018176609507e+02,-2.608555430277067444e+02,-6.096515746986869999e+02,-5.708690486245748161e+02,-1.954952622257310395e+02,-3.449055459794451508e+02,9.332008361816406250e+00,1.147378161549568176e-01,1.185624003410339355e+00,3.370000000000000000e+02
-6.110378782104847915e+02,-5.532232967295187791e+02,-2.386255775596059721e+02,-2.643140449125905889e+02,-6.117456137586873410e+02,-5.713609727311441020e+02,-1.983625077414794760e+02,-3.521205631268933303e+02,9.332008361816406250e+00,1.147378161549568176e-01,1.185624003410339355e+00,3.380000000000000000e+02
-6.123900822981513556e+02,-5.583268239149759893e+02,-2.404679146132207279e+02,-2.695113748811356800e+02,-6.149295859682044920e+02,-5.728351473153641109e+02,-2.013464740090253144e+02,-3.587344088094890822e+02,9.255517005920410156e+00,7.649187743663787842e-02,1.223870038986206055e+00,3.390000000000000000e+02
-6.120916191707467533e+02,-5.629477185629782525e+02,-2.417586391372099115e+02,-2.744452172386640996e+02,-6.177961807985782343e+02,-5.744859653092812550e+02,-2.041235379249671951e+02,-3.633431421323987252e+02,9.255517005920410156e+00,7.649187743663787842e-02,1.223870038986206055e+00,3.400000000000000000e+02
-6.104139531585785790e+02,-5.658260028773356680e+02,-2.429283304411487734e+02,-2.779260666720091422e+02,-6.193409690021799179e+02,-5.757965873774389820e+02,-2.070719756829646485e+02,-3.656769952915847171e+02,9.255517005920410156e+00,7.649187743663787842e-02,1.223870038986206055e+00,3.410000000000000000e+02
-6.083307175982643002e+02,-5.665679859240049154e+02,-2.442972551542707151e+02,-2.798744594132754173e+02,-6.192592975239438147e+02,-5.764229731705172526e+02,-2.104590605967391639e+02,-3.664377264308964186e+02,9.255517005920410156e+00,7.649187743663787842e-02,1.223870038986206055e+00,3.420000000000000000e+02
-6.067076719815196384e+02,-5.656097006538471987e+02,-2.458075694348785873e+02,-2.807773759455799336e+02,-6.178310306681041766e+02,-5.760600349306148473e+02,-2.137926947691694295e+02,-3.667247988907869285e+02,9.255517005920410156e+00,7.649187743663787842e-02,1.223870038986206055e+00,3.430000000000000000e+02
-6.057054728398937868e+02,-5.638214094870792223e+02,-2.471016906349457258e+02,-2.810039926805607138e+02,-6.156513312054137259e+02,-5.745800283250259781e+02,-2.160960994094230045e+02,-3.674571088706290993e+02,9.255517005920410156e+00,7.649187743663787842e-02,1.223870038986206055e+00,3.440000000000000000e+02
-6.047344424425733678e+02,-5.619445567227464835e+02,-2.477879644867489333e+02,-2.805780783500388225e+02,-6.133508209853937387e+02,-5.722769954411010076e+02,-2.167892838743532593e+02,-3.690273388255659484e+02,9.255517005920410156e+00,7.649187743663787842e-02,1.223870038986206055e+00,3.450000000000000000e+02
-6.028802652586806516e+02,-5.601642284583826950e+02,-2.476162888865464993e+02,-2.794133680451227519e+02,-6.112826831517900246e+02,-5.698138879993712180e+02,-2.161882173660555964e+02,-3.712143980896985340e+02,9.255517005920410156e+00,7.649187743663787842e-02,1.223870038986206055e+00,3.460000000000000000e+02
-5.994256182216339539e+02,-5.580522995976670018e+02,-2.464453129399093996e+02,-2.775655901296394177e+02,-6.092595314221912304e+02,-5.677623880398682559e+02,-2.150901422825950249e+02,-3.732963432310355074e+02,9.255517005920410156e+00,7.649187743663787842e-02,1.223870038986206055e+00,3.470000000000000000e+02
-5.941322563885297541e+02,-5.549049447240620339e+02,-2.441347361511789131e+02,-2.751655387820648002e+02,-6.065665476868668975e+02,-5.661185231303502405e+02,-2.139273043871598929e+02,-3.743426999154032728e+02,9.255517005920410156e+00,7.649187743663787842e-02,1.223870038986206055e+00,3.480000000000000000e+02
-5.872154574478281575e+02,-5.502195399193067260e+02,-2.405700025508469935e+02,-2.721536307723322352e+02,-6.023881072417009364e+02,-5.642971025041470057e+02,-2.124251574010759214e+02,-3.736334648005060899e+02,9.255517005920410156e+00,7.649187743663787842e-02,1.223870038986206055e+00,3.490000000000000000e+02
-5.791737560908391060e+02,-5.439760026469865579e+02,-2.358420565120209176e+02,-2.682184832865896169e+02,-5.964085965162960292e+02,-5.616443194042467439e+02,-2.100852566838029816e+02,-3.710279961880257815e+02,9.255517005920410156e+00,7.649187743663787842e-02,1.223870038986206055e+00,3.500000000000000000e+02
-5.706518643230707539e+02,-5.365868741723870698e+02,-2.303943283262351542e+02,-2.631258672762663764e+02,-5.891091970251723069e+02,-5.579945649718069944e+02,-2.068856722706623259e+02,-3.670497811730961075e+02,9.255517005920410156e+00,7.649187743663787842e-02,1.223870038986206055e+00,3.510000000000000000e+02
-5.623382722783893541e+02,-5.286366184357789280e+02,-2.249193166350069077e+02,-2.571502926185652314e+02,-5.814935308483650260e+02,-5.537521448546485772e+02,-2.033769005657022717e+02,-3.625585594948781818e+02,9.255517005920410156e+00,7.649187743663787842e-02,1.223870038986206055e+00,3.520000000000000000e+02
-5.547836587194515232e+02,-5.206495978416261323e+02,-2.200043532883692023e+02,-2.511288167389025148e+02,-5.744542213984536829e+02,-5.494540075770637486e+02,-2.000460964252779377e+02,-3.582117397832198549e+02,9.255517005920410156e+00,7.649187743663787842e-02,1.223870038986206055e+00,3.530000000000000000e+02
-5.480950498991110180e+02,-5.130111257379653580e+02,-2.157844682050815663e+02,-2.459787492424541142e+02,-5.682892536156036840e+02,-5.452740179933848594e+02,-1.966636874160060415e+02,-3.541344989590254499e+02,9.255517005920410156e+00,7.649187743663787842e-02,1.223870038986206055e+00,3.540000000000000000e+02
-5.417133622148805898e+02,-5.059876238362328422e+02,-2.119194650544825436e+02,-2.420533818013111613e+02,-5.627060672880243146e+02,-5.409313029973056928e+02,-1.923775359908001974e+02,-3.500800855488396337e+02,9.255517005920410156e+00,7.649187743663787842e-02,1.223870038986206055e+00,3.550000000000000000e+02
-5.345891827033469781e+02,-4.997215698363351066e+02,-2.079654508684291159e+02,-2.389141262721304884e+02,-5.572407073237122859e+02,-5.360373409134954272e+02,-1.865597780630678244e+02,-3.459182836564400532e+02,9.255517005920410156e+00,7.649187743663787842e-02,1.223870038986206055e+00,3.560000000000000000e+02
-5.258123824358156071e+02,-4.941586387843303783e+02,-2.038499612700463786e+02,-2.357099760571379647e+02,-5.517241267837544001e+02,-5.305018601513716021e+02,-1.796237850464187886e+02,-3.419342206625215113e+02,9.255517005920410156e+00,7.649187743663787842e-02,1.223870038986206055e+00,3.570000000000000000e+02
-5.153479456273614687e+02,-4.890178010247668681e+02,-2.000181356311784384e+02,-2.317834479834293688e+02,-5.464236115405494729e+02,-5.245980905605542830e+02,-1.729843487045866368e+02,-3.385882722876594926e+02,9.255517005920410156e+00,7.649187743663787842e-02,1.223870038986206055e+00,3.580000000000000000e+02
-5.042896061139294943e+02,-4.839224457879117836e+02,-1.970768242907483909e+02,-2.269687943095395894e+02,-5.417667477284494453e+02,-5.186705040536110118e+02,-1.681004118628770811e+02,-3.359464840134733095e+02,9.255517005920410156e+00,7.649187743663787842e-02,1.223870038986206055e+00,3.590000000000000000e+02
-4.943141508937692379e+02,-4.786586920751587968e+02,-1.952177277917548963e+02,-2.214324967571219531e+02,-5.378879314682837958e+02,-5.128165616192986818e+02,-1.653746317154088956e+02,-3.334134555248519973e+02,9.255517005920410156e+00,7.649187743663787842e-02,1.223870038986206055e+00,3.600000000000000000e+02
-4.866583176955198269e+02,-4.733816553627075336e+02,-1.939555782622692277e+02,-2.154006179815387441e+02,-5.344067512320675633e+02,-5.068829121020514776e+02,-1.638463055567051470e+02,-3.301773473696612200e+02,9.255517005920410156e+00,7.649187743663787842e-02,1.223870038986206055e+00,3.610000000000000000e+02
-4.813792484124523980e+02,-4.685980418975939301e+02,-1.924688675029849492e+02,-2.091704719755607584e+02,-5.306969936378079638e+02,-5.007908933790552055e+02,-1.619621488050579501e+02,-3.260477619850719293e+02,9.255517005920410156e+00,7.649187743663787842e-02,1.223870038986206055e+00,3.620000000000000000e+02
-4.774730785290830681e+02,-4.649209076086372079e+02,-1.902638574382685874e+02,-2.033429460101772293e+02,-5.264517204670382853e+02,-4.948420903828873634e+02,-1.587824211338720488e+02,-3.218607207676809594e+02,9.255517005920410156e+00,7.649187743663787842e-02,1.223870038986206055e+00,3.630000000000000000e+02
-4.737162781623276260e+02,-4.627445236343573924e+02,-1.875500729021896404e+02,-1.988174413134279348e+02,-5.219974384420538627e+02,-4.896339691187399694e+02,-1.546256968354391574e+02,-3.189147401287450521e+02,9.255517005920410156e+00,7.649187743663787842e-02,1.223870038986206055e+00,3.640000000000000000e+02
-4.695260738321039753e+02,-4.620079751914674944e+02,-1.849818527567408637e+02,-1.962813671402134332e+02,-5.179728624918443529e+02,-4.855821960075516017e+02,-1.506550537640407583e+02,-3.178327092319850635e+02,9.255517005920410156e+00,7.649187743663787842e-02,1.223870038986206055e+00,3.650000000000000000e+02
-4.651608857625997189e+02,-4.621147888584621342e+02,-1.830348681816774388e+02,-1.955422510655230326e+02,-5.146394680339117258e+02,-4.824635667520776678e+02,-1.478461106339275375e+02,-3.178833493008824007e+02,9.255517005920410156e+00,7.649187743663787842e-02,1.223870038986206055e+00,3.660000000000000000e+02
-4.612085435939541185e+02,-4.620295791285634550e+02,-1.816625573642031668e+02,-1.953970241772944973e+02,-5.115779870701621803e+02,-4.794620495620272322e+02,-1.462900817127745086e+02,-3.174761778316192249e+02,9.255517005920410156e+00,7.649187743663787842e-02,1.223870038986206055e+00,3.670000000000000000e+02
-4.579483624483630138e+02,-4.606045597526219808e+02,-1.805517357169264869e+02,-1.943253212710303615e+02,-5.081731521002272984e+02,-4.757518861873732021e+02,-1.453702549808613185e+02,-3.154663396225032557e+02,9.255517005920410156e+00,7.649187743663787842e-02,1.223870038986206055e+00,3.680000000000000000e+02
-4.551728184473151941e+02,-4.571210040997923443e+02,-1.796304154278107035e+02,-1.915015704037245996e+02,-5.044079841159216357e+02,-4.711088147711727743e+02,-1.444786663421509729e+02,-3.120985006466039522e+02,9.255517005920410156e+00,7.649187743663787842e-02,1.223870038986206055e+00,3.690000000000000000e+02
-4.525292253896038801e+02,-4.518210811677856782e+02,-1.792126953102192601e+02,-1.872646749143807483e+02,-5.010307812014079900e+02,-4.659756547211163706e+02,-1.434782698502208405e+02,-3.087205694435533587e+02,9.370253562927246094e+00,7.649187743663787842e-02,1.300361871719360352e+00,3.700000000000000000e+02
-4.499260678581608772e+02,-4.460124706108533701e+02,-1.795921905022223655e+02,-1.826801371349299643e+02,-4.987875967668323938e+02,-4.609505947479399310e+02,-1.425052603971507779e+02,-3.065502980301657772e+02,9.370253562927246094e+00,7.649187743663787842e-02,1.300361871719360352e+00,3.710000000000000000e+02
-4.475847468931028743e+02,-4.414451517382040038e+02,-1.805441560532972289e+02,-1.786722902929705015e+02,-4.975278504236798653e+02,-4.562631693890898532e+02,-1.415011839572659937e+02,-3.056636646668587218e+02,9.370253562927246094e+00,7.649187743663787842e-02,1.300361871719360352e+00,3.720000000000000000e+02
-4.457906043327579937e+02,-4.392033457199620443e+02,-1.813259089708221836e+02,-1.755217931491363288e+02,-4.962334970710553534e+02,-4.517840610105297401e+02,-1.401210414723775557e+02,-3.051224444697602394e+02,9.370253562927246094e+00,7.649187743663787842e-02,1.300361871719360352e+00,3.730000000000000000e+02
-4.446826771813075538e+02,-4.388865703521125852e+02,-1.812152536628823327e+02,-1.730605308944552689e+02,-4.940428928818441818e+02,-4.474959528564495486e+02,-1.381618747295942740e+02,-3.040124348674398789e+02,9.370253562927246094e+00,7.649187743663787842e-02,1.300361871719360352e+00,3.740000000000000000e+02
-4.442487968783311771e+02,-4.387795804092058916e+02,-1.800053225144074531e+02,-1.711627666840315669e+02,-4.911274291587330936e+02,-4.437987381032662597e+02,-1.359771604750119423e+02,-3.022885290674043972e+02,9.370253562927246094e+00,7.649187743663787842e-02,1.300361871719360352e+00,3.750000000000000000e+02
-4.443102922193183986e+02,-4.369758211056318942e+02,-1.779234046949095500e+02,-1.699100216393874234e+02,-4.883343189601746417e+02,-4.411923680791987863e+02,-1.343091781468720001e+02,-3.005863568036884317e+02,9.370253562927246094e+00,7.649187743663787842e-02,1.300361871719360352e+00,3.760000000000000000e+02
-4.442777585332339640e+02,-4.326032196135183767e+02,-1.751091755847814966e+02,-1.692792540923160232e+02,-4.858973421042926475e+02,-4.396285321994623700e+02,-1.336253950104937758e+02,-2.992691377209780512e+02,9.370253562927246094e+00,7.649187743663787842e-02,1.300361871719360352e+00,3.770000000000000000e+02
-4.429573334848744253e+02,-4.262087259045683822e+02,-1.713112202688289472e+02,-1.687780613304703365e+02,-4.826841393817244352e+02,-4.382668819614955282e+02,-1.336110805024459296e+02,-2.977805854740940958e+02,9.370253562927246094e+00,7.649187743663787842e-02,1.300361871719360352e+00,3.780000000000000000e+02
-4.389557572406811232e+02,-4.190856499558033192e+02,-1.662245367603386512e+02,-1.675239570383419050e+02,-4.770305483252691374e+02,-4.360002796162798404e+02,-1.333471245467235349e+02,-2.950481466460855700e+02,9.370253562927246094e+00,7.649187743663787842e-02,1.300361871719360352e+00,3.790000000000000000e+02
-4.317803971670450665e+02,-4.122185065223150104e+02,-1.601315138347124503e+02,-1.647859540864603787e+02,-4.684900233808966732e+02,-4.322829377139851204e+02,-1.319966513977160503e+02,-2.905623498181064406e+02,9.370253562927246094e+00,7.649187743663787842e-02,1.300361871719360352e+00,3.800000000000000000e+02
-4.228285681065922290e+02,-4.057405544905798251e+02,-1.540952329828178335e+02,-1.605091390230600155e+02,-4.587088473353760492e+02,-4.274423737252773208e+02,-1.293590585924930565e+02,-2.850084664182402321e+02,9.370253562927246094e+00,7.649187743663787842e-02,1.300361871719360352e+00,3.810000000000000000e+02
-4.151268968589959059e+02,-3.992137833647234402e+02,-1.493787076996641190e+02,-1.553604565738469319e+02,-4.504022456334369053e+02,-4.222068937332542191e+02,-1.258912057728580294e+02,-2.797578132495491445e+02,9.370253562927246094e+00,7.649187743663787842e-02,1.300361871719360352e+00,3.820000000000000000e+02
-4.115484405883660202e+02,-3.922905037338396141e+02,-1.465597457652470439e+02,-1.502751254557010725e+02,-4.452671777380901403e+02,-4.169893972798085997e+02,-1.223469040588870484e+02,-2.756888575958951151e+02,9.370253562927246094e+00,7.649187743663787842e-02,1.300361871719360352e+00,3.830000000000000000e+02
-4.127010548375005783e+02,-3.851047682857504242e+02,-1.451492746682915822e+02,-1.458943669813095312e+02,-4.427392179891062369e+02,-4.116677524717247252e+02,-1.194446395765326088e+02,-2.724941418120479284e+02,9.370253562927246094e+00,7.649187743663787842e-02,1.300361871719360352e+00,3.840000000000000000e+02
-4.162732281445100853e+02,-3.781693780325927037e+02,-1.440493716398636934e+02,-1.423261504759898344e+02,-4.406713137874203312e+02,-4.060116599396901620e+02,-1.177397605470468989e+02,-2.691545949155974995e+02,9.370253562927246094e+00,7.649187743663787842e-02,1.300361871719360352e+00,3.850000000000000000e+02
-4.185836720400232025e+02,-3.720572783697830346e+02,-1.424076667411172821e+02,-1.393319682201922660e+02,-4.372054300281656651e+02,-4.001965926710659005e+02,-1.175425336912330749e+02,-2.650759286991105910e+02,9.370253562927246094e+00,7.649187743663787842e-02,1.300361871719360352e+00,3.860000000000000000e+02
-4.171945756496920694e+02,-3.672262815764649986e+02,-1.401401841623082873e+02,-1.367143256722968090e+02,-4.321386300223521175e+02,-3.948125480751555187e+02,-1.187473796307135672e+02,-2.607247651879963541e+02,9.370253562927246094e+00,7.649187743663787842e-02,1.300361871719360352e+00,3.870000000000000000e+02
-4.124974143284282491e+02,-3.640378020462667337e+02,-1.377964466088083100e+02,-1.345758817016308058e+02,-4.267333187610256573e+02,-3.903710364640191983e+02,-1.206988204008139292e+02,-2.571305015518671553e+02,9.370253562927246094e+00,7.649187743663787842e-02,1.300361871719360352e+00,3.880000000000000000e+02
-4.070702010589943711e+02,-3.627471945637266799e+02,-1.360465138204181130e+02,-1.332692403767571250e+02,-4.224172555823743096e+02,-3.868637142228631092e+02,-1.223605392923950603e+02,-2.547903785019652787e+02,9.370253562927246094e+00,7.649187743663787842e-02,1.300361871719360352e+00,3.890000000000000000e+02
-4.034852313580113332e+02,-3.633074242301049708e+02,-1.352771235019954474e+02,-1.330870563038092769e+02,-4.196353863878994161e+02,-3.838182772868108259e+02,-1.228204423414545090e+02,-2.531188484310987405e+02,9.370253562927246094e+00,7.649187743663787842e-02,1.300361871719360352e+00,3.900000000000000000e+02
-4.024472571443463949e+02,-3.651266431519454727e+02,-1.355113183003300037e+02,-1.339293277462788865e+02,-4.177228367019897632e+02,-3.807501904689047478e+02,-1.218186740584060317e+02,-2.510187597551600902e+02,9.293763160705566406e+00,1.147378161549568176e-01,1.262115836143493652e+00,3.910000000000000000e+02
-4.026122774445066170e+02,-3.670705205741028294e+02,-1.365020461801245801e+02,-1.352373888300257931e+02,-4.156523113913917769e+02,-3.775355745474016658e+02,-1.199123418476633560e+02,-2.480041213421889097e+02,9.293763160705566406e+00,1.147378161549568176e-01,1.262115836143493652e+00,3.920000000000000000e+02
-4.019065616575285276e+02,-3.678645012390766169e+02,-1.377850024870940615e+02,-1.363011427972708134e+02,-4.128343174327892484e+02,-3.743625005020262506e+02,-1.181292225279385093e+02,-2.447353777093003373e+02,9.293763160705566406e+00,1.147378161549568176e-01,1.262115836143493652e+00,3.930000000000000000e+02
-3.990498801569192437e+02,-3.667055808881571011e+02,-1.386881943981784389e+02,-1.367299353655735104e+02,-4.093325467996323823e+02,-3.713917197003852380e+02,-1.173268166071220548e+02,-2.424052014848753061e+02,9.293763160705566406e+00,1.147378161549568176e-01,1.262115836143493652e+00,3.940000000000000000e+02
-3.941478315565332196e+02,-3.636794260580215905e+02,-1.384739416632219218e+02,-1.366773002391266800e+02,-4.055089251732401863e+02,-3.685264065956948798e+02,-1.176706699165420105e+02,-2.415785790187160273e+02,9.293763160705566406e+00,1.147378161549568176e-01,1.262115836143493652e+00,3.950000000000000000e+02
-3.882451455832833744e+02,-3.596741628660456627e+02,-1.366988015124056801e+02,-1.365722763069718440e+02,-4.016022581467659620e+02,-3.655338027919096930e+02,-1.185750477740803035e+02,-2.416247688307471435e+02,9.293763160705566406e+00,1.147378161549568176e-01,1.262115836143493652e+00,3.960000000000000000e+02
-3.825041119692850771e+02,-3.557943654352729936e+02,-1.335951811671957330e+02,-1.365540955784490507e+02,-3.976786318184340416e+02,-3.623838660132491896e+02,-1.191460322630236988e+02,-2.412744231008282441e+02,9.293763160705566406e+00,1.147378161549568176e-01,1.262115836143493652e+00,3.970000000000000000e+02
-3.776769226988017181e+02,-3.526661368023846990e+02,-1.301253150408992951e+02,-1.361514874883657740e+02,-3.939036729894060045e+02,-3.594379884383274657e+02,-1.188030266527357526e+02,-2.397535301730749779e+02,9.293763160705566406e+00,1.147378161549568176e-01,1.262115836143493652e+00,3.980000000000000000e+02
-3.740160861691479113e+02,-3.501153153771329016e+02,-1.275374086250699293e+02,-1.346101159967288368e+02,-3.907278248480292859e+02,-3.572583695478824666e+02,-1.175985122458259866e+02,-2.374009150998363111e+02,9.293763160705566406e+00,1.147378161549568176e-01,1.262115836143493652e+00,3.990000000000000000e+02
-3.713965127814494736e+02,-3.474377995691027081e+02,-1.266465751233868104e+02,-1.316792414628523602e+02,-3.886471610042558495e+02,-3.561414857985491835e+02,-1.159666902420717634e+02,-2.352114374029956707e+02,9.293763160705566406e+00,1.147378161549568176e-01,1.262115836143493652e+00,4.000000000000000000e+02
-3.694358666410475962e+02,-3.440106432082773154e+02,-1.273253141193454212e+02,-1.281421704562715149e+02,-3.876887280565574656e+02,-3.557416236390713493e+02,-1.141296852971468070e+02,-2.337805790556635657e+02,9.293763160705566406e+00,1.147378161549568176e-01,1.262115836143493652e+00,4.010000000000000000e+02
-3.676279384178271812e+02,-3.397393881560183218e+02,-1.285994732386543546e+02,-1.254962570603906897e+02,-3.871721206468851051e+02,-3.551441726693938108e+02,-1.117656431822019840e+02,-2.326768196086986791e+02,9.293763160705566406e+00,1.147378161549568176e-01,1.262115836143493652e+00,4.020000000000000000e+02
-3.655497480513463415e+02,-3.350491584697917915e+02,-1.293127737038548730e+02,-1.249274624562278859e+02,-3.860772455518681454e+02,-3.534066784761025701e+02,-1.083438704091345244e+02,-2.308521643399035383e+02,9.293763160705566406e+00,1.147378161549568176e-01,1.262115836143493652e+00,4.030000000000000000e+02
-3.630686919977081288e+02,-3.305527379051982280e+02,-1.288647016087288648e+02,-1.264196446144387664e+02,-3.837500465481434730e+02,-3.501894158982709087e+02,-1.038785446448514449e+02,-2.276946821884180281e+02,9.293763160705566406e+00,1.147378161549568176e-01,1.262115836143493652e+00,4.040000000000000000e+02
-3.604102429430508892e+02,-3.267799482806692595e+02,-1.274861520579561329e+02,-1.287969067371855090e+02,-3.803189942788599183e+02,-3.459931371895740995e+02,-9.936063343760042699e+01,-2.237606540134088391e+02,9.293763160705566406e+00,1.147378161549568176e-01,1.262115836143493652e+00,4.050000000000000000e+02
-3.580412335162791351e+02,-3.241718674716219084e+02,-1.259269858791249135e+02,-1.306955510435659562e+02,-3.764834075141711764e+02,-3.418204710241016073e+02,-9.634886794085332440e+01,-2.205182281885454358e+02,9.293763160705566406e+00,1.147378161549568176e-01,1.262115836143493652e+00,4.060000000000000000e+02
-3.564508088574680187e+02,-3.231322591929738337e+02,-1.248927514444039844e+02,-1.316349239142525676e+02,-3.729810673709794173e+02,-3.385584223218461375e+02,-9.597464012628461205e+01,-2.193049320340987833e+02,9.293763160705566406e+00,1.147378161549568176e-01,1.262115836143493652e+00,4.070000000000000000e+02
-3.559392991180484387e+02,-3.238324728320421855e+02,-1.246948896802850868e+02,-1.322675187468519198e+02,-3.702747466775426801e+02,-3.365580461106328585e+02,-9.816129745517764604e+01,-2.203631898750782057e+02,9.293763160705566406e+00,1.147378161549568176e-01,1.262115836143493652e+00,4.080000000000000000e+02
-3.564672146248587978e+02,-3.258193691123142344e+02,-1.252771048674421763e+02,-1.336286876138899515e+02,-3.686112919654292455e+02,-3.356337776482091613e+02,-1.016675678906663052e+02,-2.226797953697191588e+02,9.293763160705566406e+00,1.147378161549568176e-01,1.262115836143493652e+00,4.090000000000000000e+02
-3.575794270985879848e+02,-3.278862398056091934e+02,-1.263913693666222571e+02,-1.360764981043250827e+02,-3.680905553643601706e+02,-3.353039681830064183e+02,-1.048325367504294263e+02,-2.246417158835820373e+02,9.293763160705566406e+00,1.147378161549568176e-01,1.262115836143493652e+00,4.100000000000000000e+02
-3.584638494518881089e+02,-3.285653640727587117e+02,-1.276588456534536817e+02,-1.388410787027075912e+02,-3.684433955533677363e+02,-3.349654535535769355e+02,-1.063915525959896513e+02,-2.249241733396470408e+02,9.293763160705566406e+00,1.147378161549568176e-01,1.262115836143493652e+00,4.110000000000000000e+02
-3.582328424379052194e+02,-3.270009175269904063e+02,-1.285407200805384491e+02,-1.405008388034150357e+02,-3.687817366048707299e+02,-3.339329558566496416e+02,-1.058757696678967477e+02,-2.229797581238058228e+02,9.293763160705566406e+00,1.147378161549568176e-01,1.262115836143493652e+00,4.120000000000000000e+02
-3.563818631167273452e+02,-3.234952837006908339e+02,-1.284528020834077324e+02,-1.399193870240080741e+02,-3.678299911509038793e+02,-3.315406294720905862e+02,-1.035627989577947119e+02,-2.189951380416796383e+02,9.293763160705566406e+00,1.147378161549568176e-01,1.262115836143493652e+00,4.130000000000000000e+02
-3.531426253434251521e+02,-3.192061523954894255e+02,-1.270969860273012273e+02,-1.369121250888540544e+02,-3.647087532486521013e+02,-3.274518411857466162e+02,-1.002341462446438527e+02,-2.136319459397691389e+02,9.293763160705566406e+00,1.147378161549568176e-01,1.262115836143493652e+00,4.140000000000000000e+02
-3.493562629465679947e+02,-3.152113425582338095e+02,-1.247219292348177078e+02,-1.322439990006760127e+02,-3.596082113334159658e+02,-3.219746996548310563e+02,-9.687404169088813433e+01,-2.078375196806409804e+02,9.293763160705566406e+00,1.147378161549568176e-01,1.262115836143493652e+00,4.150000000000000000e+02
-3.458034023347322545e+02,-3.117672565265370395e+02,-1.219572611102157680e+02,-1.271313488871821846e+02,-3.536322710247909527e+02,-3.160222325641811949e+02,-9.429988900465377810e+01,-2.026907291314109898e+02,9.293763160705566406e+00,7.649187743663787842e-02,1.223870038986206055e+00,4.160000000000000000e+02
-3.424655572640972423e+02,-3.083695560836076766e+02,-1.192676889619751819e+02,-1.226629363254239706e+02,-3.479059008353569880e+02,-3.106272435971759478e+02,-9.279292814109658138e+01,-1.990878401514364668e+02,9.293763160705566406e+00,7.649187743663787842e-02,1.223870038986206055e+00,4.170000000000000000e+02
-3.384117992324709121e+02,-3.044542188456650820e+02,-1.165150588997180421e+02,-1.194228447531913844e+02,-3.427980013005726505e+02,-3.063522309284767289e+02,-9.195006300629211182e+01,-1.972971526592023110e+02,9.293763160705566406e+00,7.649187743663787842e-02,1.223870038986206055e+00,4.180000000000000000e+02
-3.325861570798060711e+02,-3.000050955575011358e+02,-1.131299495269267936e+02,-1.173874823807561825e+02,-3.379912242749219331e+02,-3.030851703422208629e+02,-9.094662773800246214e+01,-1.967571112599694061e+02,9.293763160705566406e+00,7.649187743663787842e-02,1.223870038986206055e+00,4.190000000000000000e+02
-3.249575647236235909e+02,-2.955363682261095164e+02,-1.088471825377860114e+02,-1.160672299615175689e+02,-3.332226461784730418e+02,-3.003656218646606249e+02,-8.909738080776105562e+01,-1.964646816266285896e+02,9.293763160705566406e+00,7.649187743663787842e-02,1.223870038986206055e+00,4.200000000000000000e+02
-3.170370532448430367e+02,-2.916111257098373244e+02,-1.043562358265530747e+02,-1.148385333341218484e+02,-3.288436923050994665e+02,-2.979045185035574832e+02,-8.634592709610069505e+01,-1.957668915673580159e+02,9.293763160705566406e+00,7.649187743663787842e-02,1.223870038986206055e+00,4.210000000000000000e+02
-3.111731559969291538e+02,-2.885040280560201609e+02,-1.011909950484978253e+02,-1.133297836190915859e+02,-3.256285940990924246e+02,-2.958140927965650917e+02,-8.337248053933217307e+01,-1.948730791085363308e+02,9.293763160705566406e+00,7.649187743663787842e-02,1.223870038986206055e+00,4.220000000000000000e+02
-3.090682216038485421e+02,-2.863658146479926927e+02,-1.008080908134497804e+02,-1.116194098027358450e+02,-3.240887160687930191e+02,-2.943701063622515903e+02,-8.127785354110210392e+01,-1.945600258401841529e+02,9.293763160705566406e+00,7.649187743663787842e-02,1.223870038986206055e+00,4.230000000000000000e+02
-3.106580109466972317e+02,-2.855726233227665034e+02,-1.035352592428603202e+02,-1.100885942403865556e+02,-3.240282957509452899e+02,-2.935907447280801534e+02,-8.105162521252077568e+01,-1.953009489601968198e+02,9.293763160705566406e+00,7.649187743663787842e-02,1.223870038986206055e+00,4.240000000000000000e+02
-3.141847873603160224e+02,-2.866342394193293330e+02,-1.082075425147286296e+02,-1.090417741456733438e+02,-3.246929958377359071e+02,-2.930486483655063239e+02,-8.306868526450853096e+01,-1.966447874293198765e+02,9.293763160705566406e+00,7.649187743663787842e-02,1.223870038986206055e+00,4.250000000000000000e+02
-3.172827284930478982e+02,-2.894950378039482075e+02,-1.127763215050072176e+02,-1.084305311736641215e+02,-3.252202462761688366e+02,-2.921025799274739256e+02,-8.682464593039821921e+01,-1.974848456607305707e+02,9.293763160705566406e+00,7.649187743663787842e-02,1.223870038986206055e+00,4.260000000000000000e+02
-3.181513939334113275e+02,-2.928667793536594672e+02,-1.154412885911106059e+02,-1.079415454676425270e+02,-3.249403785230583708e+02,-2.903721576655639183e+02,-9.108465978115600592e+01,-1.969933548889603117e+02,9.293763160705566406e+00,7.649187743663787842e-02,1.223870038986206055e+00,4.270000000000000000e+02
-3.160734646841897302e+02,-2.944838292552376515e+02,-1.154945426899093945e+02,-1.073272467995334409e+02,-3.234098732560923963e+02,-2.880532191044812862e+02,-9.443575662187004127e+01,-1.953027611036163762e+02,9.293763160705566406e+00,7.649187743663787842e-02,1.223870038986206055e+00,4.280000000000000000e+02
-3.112957662360879567e+02,-2.924499257045113154e+02,-1.133856103541043012e+02,-1.066118574383208397e+02,-3.204189809657209480e+02,-2.858130410376024884e+02,-9.598190925544395213e+01,-1.932754305569019380e+02,9.293763160705566406e+00,7.649187743663787842e-02,1.223870038986206055e+00,4.290000000000000000e+02
-3.047383452210763153e+02,-2.867324694754920529e+02,-1.101260139952546524e+02,-1.059551914721462254e+02,-3.161084054264852057e+02,-2.843299497373996019e+02,-9.572408325891365166e+01,-1.916203511201401852e+02,9.293763160705566406e+00,7.649187743663787842e-02,1.223870038986206055e+00,4.300000000000000000e+02
-2.977438863316453990e+02,-2.794552845774896923e+02,-1.065955428752049556e+02,-1.053194514963583970e+02,-3.110331673454547854e+02,-2.838068631999431091e+02,-9.433649519601885913e+01,-1.902593140559833955e+02,9.293763160705566406e+00,7.649187743663787842e-02,1.223870038986206055e+00,4.310000000000000000e+02
-2.916518126133914848e+02,-2.735138573968126821e+02,-1.032576621551947937e+02,-1.042959700904696092e+02,-3.059626327177152234e+02,-2.838091372372718979e+02,-9.254017672178542853e+01,-1.885398952888745043e+02,9.293763160705566406e+00,7.649187743663787842e-02,1.223870038986206055e+00,4.320000000000000000e+02
-2.871116039097189514e+02,-2.705076497517168264e+02,-1.003205651370071791e+02,-1.022827035468610575e+02,-3.014575705856991590e+02,-2.835054277053891383e+02,-9.060814557090634480e+01,-1.859815403729085119e+02,9.293763160705566406e+00,7.649187743663787842e-02,1.223870038986206055e+00,4.330000000000000000e+02
-2.836000498538808188e+02,-2.697034528662825323e+02,-9.798837566958218304e+01,-9.888761656024416880e+01,-2.975488693325669374e+02,-2.821127352398502808e+02,-8.840490396300219800e+01,-1.827238700129423705e+02,9.293763160705566406e+00,7.649187743663787842e-02,1.223870038986206055e+00,4.340000000000000000e+02
-2.798017900061799992e+02,-2.689085307293830738e+02,-9.644438731411628396e+01,-9.422759421451837625e+01,-2.937746860097204262e+02,-2.792343170992580781e+02,-8.581514212138381481e+01,-1.792214961774579933e+02,9.293763160705566406e+00,7.649187743663787842e-02,1.223870038986206055e+00,4.350000000000000000e+02
-2.748352515402330027e+02,-2.664634163483590328e+02,-9.558122372999650906e+01,-8.891434642109288689e+01,-2.895462075896407441e+02,-2.749451767582404500e+02,-8.305724022520143990e+01,-1.756032920668430961e+02,9.293763160705566406e+00,7.649187743663787842e-02,1.223870038986206055e+00,4.360000000000000000e+02
-2.693142345441192447e+02,-2.625784137215043756e+02,-9.484955289997242289e+01,-8.378007776483627822e+01,-2.845969423872484185e+02,-2.697249521363733038e+02,-8.057129353077698397e+01,-1.715089649032029229e+02,9.293763160705566406e+00,7.649187743663787842e-02,1.223870038986206055e+00,4.370000000000000000e+02
-2.651172329884429928e+02,-2.589159433857739714e+02,-9.351625755704890253e+01,-7.952681877700479163e+01,-2.792014434052771321e+02,-2.643464355454066208e+02,-7.862614555841400943e+01,-1.666663915619014915e+02,9.293763160705566406e+00,7.649187743663787842e-02,1.223870038986206055e+00,4.380000000000000000e+02
-2.638457908048255831e+02,-2.569653474246601945e+02,-9.120334248275366917e+01,-7.648687279183241117e+01,-2.740296015046224056e+02,-2.597048662082679584e+02,-7.708220623108309155e+01,-1.616148343460599790e+02,9.293763160705566406e+00,7.649187743663787842e-02,1.223870038986206055e+00,4.390000000000000000e+02
-2.653086997510172296e+02,-2.567793512288990314e+02,-8.823719780256442391e+01,-7.462082102942554229e+01,-2.697407466798285895e+02,-2.565098247086093579e+02,-7.556051847369235475e+01,-1.577340790698785895e+02,9.293763160705566406e+00,7.649187743663787842e-02,1.223870038986206055e+00,4.400000000000000000e+02
-2.675141523909412626e+02,-2.571472986549329107e+02,-8.547606933974384447e+01,-7.377642126862269834e+01,-2.666140942514757626e+02,-2.549242941273364522e+02,-7.385186152116057201e+01,-1.563900637021270086e+02,9.293763160705566406e+00,7.649187743663787842e-02,1.223870038986206055e+00,4.410000000000000000e+02
-2.682631116893433045e+02,-2.568120559958997546e+02,-8.375959866639004758e+01,-7.404441439784818613e+01,-2.645065798795822047e+02,-2.544335447831094825e+02,-7.217218702275931719e+01,-1.578786405165237738e+02,9.293763160705566406e+00,7.649187743663787842e-02,1.223870038986206055e+00,4.420000000000000000e+02
-2.668847981924629948e+02,-2.554551503675013464e+02,-8.345661112163088546e+01,-7.587591158987470408e+01,-2.631536581054383532e+02,-2.541492609784786509e+02,-7.102158747986413800e+01,-1.610941380762133122e+02,9.332008361816406250e+00,1.147378161549568176e-01,1.223870038986206055e+00,4.430000000000000000e+02
-2.645231542541851013e+02,-2.536324910480291237e+02,-8.443788213005382204e+01,-7.972826169884160663e+01,-2.624956170383761673e+02,-2.533934531485856496e+02,-7.077548768089400255e+01,-1.642162937776793115e+02,9.332008361816406250e+00,1.147378161549568176e-01,1.223870038986206055e+00,4.440000000000000000e+02
-2.628131314621939509e+02,-2.519820204169368481e+02,-8.634801298538741321e+01,-8.542035443406120976e+01,-2.626389871283404318e+02,-2.520929927837569267e+02,-7.135567370808030319e+01,-1.658375584730069932e+02,9.332008361816406250e+00,1.147378161549568176e-01,1.223870038986206055e+00,4.450000000000000000e+02
-2.623295657946830488e+02,-2.506292193285062240e+02,-8.879722799124465382e+01,-9.178626366480534671e+01,-2.634676383262985837e+02,-2.506596096150815356e+02,-7.226084245737774836e+01,-1.656630945054666881e+02,9.332008361816406250e+00,1.147378161549568176e-01,1.223870038986206055e+00,4.460000000000000000e+02
-2.622963974911813239e+02,-2.492795861482509281e+02,-9.130823700815517441e+01,-9.710959841845055962e+01,-2.643939727645270068e+02,-2.495178052052929161e+02,-7.294946842869785542e+01,-1.643852507865071857e+02,9.332008361816406250e+00,1.147378161549568176e-01,1.223870038986206055e+00,4.470000000000000000e+02
-2.616735740785245525e+02,-2.476988674818128402e+02,-9.324831900221033720e+01,-1.001530956165674979e+02,-2.646537859086770368e+02,-2.487426278495281622e+02,-7.325151165730676439e+01,-1.630282814592069371e+02,9.332008361816406250e+00,1.147378161549568176e-01,1.223870038986206055e+00,4.480000000000000000e+02
-2.603414537799772006e+02,-2.459771628066482663e+02,-9.403073067755894954e+01,-1.009593861516907509e+02,-2.639492673703871333e+02,-2.480983373020912950e+02,-7.343519714950571142e+01,-1.623339599743453618e+02,9.332008361816406250e+00,1.147378161549568176e-01,1.223870038986206055e+00,4.490000000000000000e+02
-2.591285829412358908e+02,-2.443795568527211799e+02,-9.352823775552587904e+01,-1.006862903592023031e+02,-2.627451582172848248e+02,-2.473315174359336197e+02,-7.384596248726757040e+01,-1.625256294759301454e+02,9.332008361816406250e+00,1.147378161549568176e-01,1.223870038986206055e+00,4.500000000000000000e+02
-2.587497101557814858e+02,-2.430679073248038549e+02,-9.229803526028717897e+01,-1.005694890402464807e+02,-2.617923289634868524e+02,-2.463619737227209043e+02,-7.445888956154749394e+01,-1.633923436163563565e+02,9.332008361816406250e+00,1.147378161549568176e-01,1.223870038986206055e+00,4.510000000000000000e+02
-2.588805309877441232e+02,-2.419969133363983929e+02,-9.129087993183202343e+01,-1.009172388402407705e+02,-2.613096387522555233e+02,-2.452417793123495358e+02,-7.482831094448556541e+01,-1.644854375755514866e+02,9.332008361816406250e+00,1.147378161549568176e-01,1.223870038986206055e+00,4.520000000000000000e+02
-2.584013124929053902e+02,-2.409774849551577063e+02,-9.118996622473878233e+01,-1.009915476720786955e+02,-2.606955165945687440e+02,-2.440309331405142075e+02,-7.453692574593833342e+01,-1.653128065987243644e+02,9.332008361816406250e+00,1.147378161549568176e-01,1.223870038986206055e+00,4.530000000000000000e+02
-2.565627495293897482e+02,-2.397308308887641033e+02,-9.192176571237541793e+01,-9.978781677482038504e+01,-2.591326500712120833e+02,-2.427685364239705450e+02,-7.370107673919983426e+01,-1.655010558981016402e+02,9.332008361816406250e+00,1.147378161549568176e-01,1.223870038986206055e+00,4.540000000000000000e+02
-2.538465919102566204e+02,-2.379183627433442325e+02,-9.276918248101173958e+01,-9.691734324866160932e+01,-2.564604277004423238e+02,-2.414942051834636914e+02,-7.294245703594197039e+01,-1.648870096397781708e+02,9.332008361816406250e+00,1.147378161549568176e-01,1.223870038986206055e+00,4.550000000000000000e+02
-2.516001349221162400e+02,-2.352993293456604533e+02,-9.295788007138071407e+01,-9.282786277111063100e+01,-2.533628537746262737e+02,-2.401664888888471978e+02,-7.274903908153419252e+01,-1.634780864724048115e+02,9.332008361816406250e+00,1.147378161549568176e-01,1.223870038986206055e+00,4.560000000000000000e+02
-2.507708902093420420e+02,-2.320189438837232956e+02,-9.219850962142891149e+01,-8.835247714420142984e+01,-2.506804468950208502e+02,-2.385329987112836534e+02,-7.286028532713453387e+01,-1.613509832222587193e+02,9.332008361816406250e+00,1.147378161549568176e-01,1.223870038986206055e+00,4.570000000000000000e+02
-2.509781788956393029e+02,-2.287303252314789006e+02,-9.074888140113034751e+01,-8.419932575779830586e+01,-2.486011323989396260e+02,-2.361973508129754009e+02,-7.239966275270398910e+01,-1.586561557876814277e+02,9.332008361816406250e+00,1.147378161549568176e-01,1.223870038986206055e+00,4.580000000000000000e+02
-2.508257512240138567e+02,-2.262532485165279468e+02,-8.904074610968996240e+01,-8.086278212923025421e+01,-2.466028437296531592e+02,-2.329860097844125448e+02,-7.075841308162034693e+01,-1.557744950073815744e+02,9.332008361816406250e+00,1.147378161549568176e-01,1.223870038986206055e+00,4.590000000000000000e+02
-2.491575609627138874e+02,-2.249110890936826763e+02,-8.728800330415128883e+01,-7.880926647640967531e+01,-2.441437047014965174e+02,-2.293087424168211328e+02,-6.839013958764689960e+01,-1.534111552913666401e+02,9.332008361816406250e+00,1.147378161549568176e-01,1.223870038986206055e+00,4.600000000000000000e+02
-2.460754168688488335e+02,-2.241271816129217314e+02,-8.543115633227716899e+01,-7.846884323128551841e+01,-2.412782723377467846e+02,-2.260710338347789730e+02,-6.664052679494579934e+01,-1.523321513185285312e+02,9.332008361816406250e+00,1.147378161549568176e-01,1.223870038986206055e+00,4.610000000000000000e+02
-2.428093601539790143e+02,-2.227666904661734861e+02,-8.340341356171416010e+01,-7.989665371494356805e+01,-2.385448743133106291e+02,-2.240865765849994204e+02,-6.665302161653085022e+01,-1.527706759087884620e+02,9.332008361816406250e+00,1.147378161549568176e-01,1.223870038986206055e+00,4.620000000000000000e+02
-2.406088987987245673e+02,-2.200474279204818231e+02,-8.138245393444935871e+01,-8.248180716108686283e+01,-2.363112486186964816e+02,-2.234496753791090669e+02,-6.831743788474773282e+01,-1.539953533394564147e+02,9.332008361816406250e+00,1.147378161549568176e-01,1.223870038986206055e+00,4.630000000000000000e+02
-2.396688379798085862e+02,-2.162459157497901288e+02,-7.973384672487486569e+01,-8.514744099605491101e+01,-2.343516458853102904e+02,-2.234458843343043100e+02,-7.025490490843276348e+01,-1.545713829534397519e+02,9.332008361816406250e+00,1.147378161549568176e-01,1.223870038986206055e+00,4.640000000000000000e+02
-2.389796186236837912e+02,-2.125234813981051047e+02,-7.867441246355110707e+01,-8.696549993635176179e+01,-2.320918302030167979e+02,-2.230860871989011684e+02,-7.086810273052219600e+01,-1.532787477942126770e+02,9.332008361816406250e+00,1.147378161549568176e-01,1.223870038986206055e+00,4.650000000000000000e+02
-2.371373519221901915e+02,-2.099614652408679376e+02,-7.798363749546865620e+01,-8.763353022984824747e+01,-2.291944847296085754e+02,-2.217780290763635094e+02,-6.952846145997727945e+01,-1.499909405505432005e+02,9.332008361816406250e+00,1.147378161549568176e-01,1.223870038986206055e+00,4.660000000000000000e+02
-2.333965880032253608e+02,-2.086401316114702240e+02,-7.708845708608032510e+01,-8.739990089884872759e+01,-2.258582842459823041e+02,-2.195865009991441639e+02,-6.692833790593658705e+01,-1.457665322326909063e+02,9.332008361816406250e+00,1.147378161549568176e-01,1.223870038986206055e+00,4.670000000000000000e+02
-2.282208026849473299e+02,-2.076214559371862833e+02,-7.553976332532943161e+01,-8.661873778782182853e+01,-2.225985330209314270e+02,-2.169772556770567462e+02,-6.442940156483905412e+01,-1.420958843292535221e+02,9.332008361816406250e+00,1.147378161549568176e-01,1.223870038986206055e+00,4.680000000000000000e+02
-2.230586191030890859e+02,-2.058719714462731645e+02,-7.351712496061873026e+01,-8.548037392347873720e+01,-2.198488775301254918e+02,-2.144106020075980723e+02,-6.308827036177717673e+01,-1.399732542534698041e+02,9.332008361816406250e+00,1.147378161549568176e-01,1.223870038986206055e+00,4.690000000000000000e+02
-2.195976041626018969e+02,-2.032804497422658869e+02,-7.190852193318255559e+01,-8.416533071453898174e+01,-2.178043338802515336e+02,-2.121518989825854078e+02,-6.314300711374130515e+01,-1.395143680838104956e+02,9.332008361816406250e+00,1.147378161549568176e-01,1.223870038986206055e+00,4.700000000000000000e+02
-2.189197360493792530e+02,-2.008061350560610663e+02,-7.179891286757356283e+01,-8.309833303671621252e+01,-2.165246611761069744e+02,-2.103223113550284324e+02,-6.417242564125194804e+01,-1.402164296377345636e+02,9.332008361816406250e+00,1.147378161549568176e-01,1.223870038986206055e+00,4.710000000000000000e+02
-2.209158758222984034e+02,-1.995673390298892400e+02,-7.366925106485746255e+01,-8.282339732161779011e+01,-2.160230797411954882e+02,-2.089711628233937972e+02,-6.555216612622598404e+01,-1.413666697265666699e+02,9.332008361816406250e+00,1.147378161549568176e-01,1.223870038986206055e+00,4.720000000000000000e+02
-2.242285292376288908e+02,-1.997194684494758121e+02,-7.689117997057678622e+01,-8.350113589219961341e+01,-2.161655236798205806e+02,-2.080370965138974952e+02,-6.673718159630629998e+01,-1.422050758343357302e+02,9.332008361816406250e+00,1.147378161549568176e-01,1.223870038986206055e+00,4.730000000000000000e+02
-2.268607524960192450e+02,-2.002258241749752870e+02,-7.996933896745326820e+01,-8.460460440659835513e+01,-2.165592349920366360e+02,-2.073192784060386202e+02,-6.727842133197282237e+01,-1.419918226749498444e+02,9.293763160705566406e+00,7.649187743663787842e-02,1.338607788085937500e+00,4.740000000000000000e+02
-2.272767481376029082e+02,-1.998243470441332192e+02,-8.146827582913203969e+01,-8.531738659149993964e+01,-2.167051889508761633e+02,-2.066243386830934696e+02,-6.682392244253787794e+01,-1.403623262943714280e+02,9.293763160705566406e+00,7.649187743663787842e-02,1.338607788085937500e+00,4.750000000000000000e+02
-2.253705650925745658e+02,-1.983107937006377597e+02,-8.102565137686360686e+01,-8.540520336728206985e+01,-2.164118524978960068e+02,-2.060116006770629156e+02,-6.532383320348924372e+01,-1.378831317241345005e+02,9.293763160705566406e+00,7.649187743663787842e-02,1.338607788085937500e+00,4.760000000000000000e+02
-2.225909664817231715e+02,-1.968937210259354060e+02,-7.971639714591719894e+01,-8.570194258282845112e+01,-2.161299391484188845e+02,-2.058703060718767119e+02,-6.334038409400648106e+01,-1.361682426574050169e+02,9.293763160705566406e+00,7.649187743663787842e-02,1.338607788085937500e+00,4.770000000000000000e+02
-2.210379163798779132e+02,-1.972342588185291561e+02,-7.943522476023088075e+01,-8.758905183892966306e+01,-2.168189624423660007e+02,-2.066679335130527306e+02,-6.208719296707556623e+01,-1.370902362673260768e+02,9.293763160705566406e+00,7.649187743663787842e-02,1.338607788085937500e+00,4.780000000000000000e+02
-2.221441736459420326e+02,-2.000525422515258924e+02,-8.167693532796010913e+01,-9.181950945355481508e+01,-2.193435178307147453e+02,-2.085511132322820913e+02,-6.294646857748034563e+01,-1.414945967124826893e+02,9.293763160705566406e+00,7.649187743663787842e-02,1.338607788085937500e+00,4.790000000000000000e+02
-2.259406103876946759e+02,-2.046097793639030442e+02,-8.657349109382937513e+01,-9.776635468977212895e+01,-2.238270533154056920e+02,-2.111767523189651001e+02,-6.664932977826299521e+01,-1.484963463076296648e+02,9.293763160705566406e+00,7.649187743663787842e-02,1.338607788085937500e+00,4.800000000000000000e+02
-2.313748387359763683e+02,-2.095051188817810726e+02,-9.288065798987418020e+01,-1.038561804186925883e+02,-2.294812152699827266e+02,-2.139568122259922234e+02,-7.268903126008876825e+01,-1.560429462518426362e+02,9.293763160705566406e+00,7.649187743663787842e-02,1.338607788085937500e+00,4.810000000000000000e+02
-2.372135859938731528e+02,-2.139222399987846757e+02,-9.889022706730372647e+01,-1.088239322819602535e+02,-2.350695577004006509e+02,-2.165047685424562474e+02,-7.948373525153692754e+01,-1.622659966947472867e+02,9.293763160705566406e+00,7.649187743663787842e-02,1.338607788085937500e+00,4.820000000000000000e+02
-2.426234633810066441e+02,-2.180476485396173416e+02,-1.035180311464351348e+02,-1.126029582258449864e+02,-2.396011095735881327e+02,-2.188351793348643355e+02,-8.524810920655249902e+01,-1.664046596788426484e+02,9.293763160705566406e+00,7.649187743663787842e-02,1.338607788085937500e+00,4.830000000000000000e+02
-2.470122709755361257e+02,-2.222806347661913264e+02,-1.067160639393240018e+02,-1.159966498627782414e+02,-2.426581856112928506e+02,-2.210888641411607125e+02,-8.895600401805239699e+01,-1.685826561333274753e+02,9.293763160705566406e+00,7.649187743663787842e-02,1.338607788085937500e+00,4.840000000000000000e+02
-2.496229053798456619e+02,-2.261503325001742155e+02,-1.089835926429047532e+02,-1.194605327343707870e+02,-2.441490028893170461e+02,-2.230333878741924991e+02,-9.068578871026745958e+01,-1.689369596095381212e+02,9.293763160705566406e+00,7.649187743663787842e-02,1.338607788085937500e+00,4.850000000000000000e+02
-2.496440446766783907e+02,-2.281783400427553943e+02,-1.105517453125770686e+02,-1.222194007755907279e+02,-2.438807048534293926e+02,-2.238701993868071725e+02,-9.116923727597921356e+01,-1.672009904502731672e+02,9.293763160705566406e+00,7.649187743663787842e-02,1.338607788085937500e+00,4.860000000000000000e+02
-2.469018992591463189e+02,-2.269435166111201170e+02,-1.110396263573821898e+02,-1.226320802770592024e+02,-2.415387422437041209e+02,-2.226577182042609593e+02,-9.103540283587039994e+01,-1.632073605311482538e+02,9.293763160705566406e+00,7.649187743663787842e-02,1.338607788085937500e+00,4.870000000000000000e+02
-2.423769956308925657e+02,-2.223653055283473918e+02,-1.098370081270986702e+02,-1.195080793267949275e+02,-2.371532123449546816e+02,-2.190590897878898886e+02,-9.040263633048516567e+01,-1.576285545848344327e+02,9.293763160705566406e+00,7.649187743663787842e-02,1.338607788085937500e+00,4.880000000000000000e+02
-2.377893797416207917e+02,-2.159724055604530122e+02,-1.067583246636586409e+02,-1.131906774530347661e+02,-2.315106432869233686e+02,-2.137633857617198601e+02,-8.906515159997923092e+01,-1.519457456903076036e+02,9.293763160705566406e+00,7.649187743663787842e-02,1.338607788085937500e+00,4.890000000000000000e+02
-2.344091655673798300e+02,-2.098770600176122798e+02,-1.023015100150707894e+02,-1.054358861034770598e+02,-2.258912168467195443e+02,-2.081469758542671116e+02,-8.693206167831624498e+01,-1.474512997919928807e+02,9.293763160705566406e+00,7.649187743663787842e-02,1.338607788085937500e+00,4.900000000000000000e+02
-2.321168495076647105e+02,-2.053477788492989475e+02,-9.731814978524948856e+01,-9.822702266362125556e+01,-2.212031894293785399e+02,-2.034056597116887133e+02,-8.421949074324993489e+01,-1.442105633099190527e+02,9.293763160705566406e+00,7.649187743663787842e-02,1.338607788085937500e+00,4.910000000000000000e+02
-2.296052939693120152e+02,-2.021723406770165639e+02,-9.249945957529575935e+01,-9.257056051754307191e+01,-2.173341677410583088e+02,-1.998672717159989816e+02,-8.126914970516452286e+01,-1.410677955278520130e+02,9.293763160705566406e+00,7.649187743663787842e-02,1.338607788085937500e+00,4.920000000000000000e+02
-2.255728492439104684e+02,-1.992178453422388884e+02,-8.816480012374881881e+01,-8.821857500428347976e+01,-2.134059376925390552e+02,-1.970199821474884629e+02,-7.826716829370718642e+01,-1.367785265240252102e+02,9.293763160705566406e+00,7.649187743663787842e-02,1.338607788085937500e+00,4.930000000000000000e+02
-2.198054093322269864e+02,-1.955353905591753119e+02,-8.441563501208884190e+01,-8.437249753052992673e+01,-2.087328349453100600e+02,-1.941542360000378267e+02,-7.519674776655983806e+01,-1.312408104428185425e+02,9.293763160705566406e+00,7.649187743663787842e-02,1.338607788085937500e+00,4.940000000000000000e+02
-2.132173617963840115e+02,-1.910341761223460253e+02,-8.132505837851044816e+01,-8.060010821429909811e+01,-2.035421035080601087e+02,-1.910036011892425449e+02,-7.205731684787542690e+01,-1.257020391814319282e+02,9.293763160705566406e+00,7.649187743663787842e-02,1.300361871719360352e+00,4.950000000000000000e+02
-2.069812052888207745e+02,-1.862990219211585554e+02,-7.891349104680512028e+01,-7.715864235277319949e+01,-1.987605043641533484e+02,-1.878755781270865555e+02,-6.909793156469527275e+01,-1.217968978569092542e+02,9.293763160705566406e+00,7.649187743663787842e-02,1.300361871719360352e+00,4.960000000000000000e+02
-2.016967992208512896e+02,-1.819247192536749935e+02,-7.703008125402948281e+01,-7.456306280549370058e+01,-1.951569809356283258e+02,-1.852884870350112578e+02,-6.680825620150244504e+01,-1.203069448311712222e+02,9.293763160705566406e+00,7.649187743663787842e-02,1.300361871719360352e+00,4.970000000000000000e+02
-1.973513183696586566e+02,-1.780626311939963671e+02,-7.540995654338439635e+01,-7.289087514621564878e+01,-1.927285480495877437e+02,-1.834993171528551557e+02,-6.562961911428715212e+01,-1.206623683375435121e+02,9.293763160705566406e+00,7.649187743663787842e-02,1.300361871719360352e+00,4.980000000000000000e+02
-1.938761813828791674e+02,-1.745150787932161620e+02,-7.390161326719930912e+01,-7.147348009307506800e+01,-1.908595081018220299e+02,-1.822840465547001259e+02,-6.558800013606355606e+01,-1.214326640749873150e+02,9.293763160705566406e+00,7.649187743663787842e-02,1.300361871719360352e+00,4.990000000000000000e+02
-1.915076191019095404e+02,-1.711466706628177690e+02,-7.255687292310653902e+01,-6.924894339373577168e+01,-1.889185498572144297e+02,-1.810330218219110066e+02,-6.611994668863417246e+01,-1.212449805216685945e+02,9.293763160705566406e+00,7.649187743663787842e-02,1.300361871719360352e+00,5.000000000000000000e+02
-1.904815602024368673e+02,-1.681209805580228931e+02,-7.139944467381747017e+01,-6.550547686507411527e+01,-1.866071186878971275e+02,-1.790265012552840744e+02,-6.628010815835568792e+01,-1.194141604298897619e+02,9.293763160705566406e+00,7.649187743663787842e-02,1.300361871719360352e+00,5.010000000000000000e+02
-1.904451066787987656e+02,-1.656980310211201868e+02,-7.011707455102668973e+01,-6.043838009421392599e+01,-1.838467929485332206e+02,-1.757729943834056030e+02,-6.529195604090182314e+01,-1.160114693243942838e+02,9.293763160705566406e+00,7.649187743663787842e-02,1.300361871719360352e+00,5.020000000000000000e+02
-1.903723821079893241e+02,-1.638346764088385044e+02,-6.813275614620897613e+01,-5.507506015288254275e+01,-1.805650122335146079e+02,-1.713029494812426492e+02,-6.309566904125767905e+01,-1.115957767001095817e+02,9.293763160705566406e+00,7.649187743663787842e-02,1.300361871719360352e+00,5.030000000000000000e+02
-1.892564325326425205e+02,-1.620536248181367682e+02,-6.514077524892945803e+01,-5.061029823517378645e+01,-1.767710000456204398e+02,-1.662508662426948831e+02,-6.045465295926214822e+01,-1.069303614672794538e+02,9.293763160705566406e+00,7.649187743663787842e-02,1.300361871719360352e+00,5.040000000000000000e+02
-1.869664108715046495e+02,-1.597930610322387111e+02,-6.161012938563317221e+01,-4.765031179592551780e+01,-1.727936420132568855e+02,-1.615795178417629359e+02,-5.844572315401956075e+01,-1.027768573909247607e+02,9.293763160705566406e+00,7.649187743663787842e-02,1.300361871719360352e+00,5.050000000000000000e+02
-1.843625792505222307e+02,-1.569220057909403749e+02,-5.865288775776161856e+01,-4.593866306548670764e+01,-1.692546929582249504e+02,-1.580402659264964313e+02,-5.766729381012783051e+01,-9.968799074276648753e+01,9.293763160705566406e+00,7.649187743663787842e-02,1.300361871719360352e+00,5.060000000000000000e+02
-1.824556289526035471e+02,-1.538922871661511635e+02,-5.724843006906485243e+01,-4.475482268830228350e+01,-1.666765544593117738e+02,-1.557630582578140093e+02,-5.781924256251159022e+01,-9.779938732079108377e+01,9.293763160705566406e+00,7.649187743663787842e-02,1.300361871719360352e+00,5.070000000000000000e+02
-1.813788663634863951e+02,-1.513336533590481849e+02,-5.746823570398964875e+01,-4.359834565329310863e+01,-1.650856588304341130e+02,-1.542998243902420654e+02,-5.800196150812371343e+01,-9.675639930236320652e+01,9.293763160705566406e+00,7.649187743663787842e-02,1.300361871719360352e+00,5.080000000000000000e+02
-1.801717651050557834e+02,-1.494528871310772047e+02,-5.840464995551883476e+01,-4.253117010667665454e+01,-1.640118560395153509e+02,-1.530447151699895585e+02,-5.743356032487099583e+01,-9.587411148980891085e+01,9.293763160705566406e+00,7.649187743663787842e-02,1.300361871719360352e+00,5.090000000000000000e+02
-1.776453210976892478e+02,-1.478598742859371669e+02,-5.887362966744967707e+01,-4.190627696152205317e+01,-1.628516594516308942e+02,-1.516075708863954787e+02,-5.592319142563019341e+01,-9.449020479197906752e+01,9.293763160705566406e+00,7.649187743663787842e-02,1.300361871719360352e+00,5.100000000000000000e+02
-1.735629126760291001e+02,-1.460579779290656006e+02,-5.827609192252930370e+01,-4.183220348367103725e+01,-1.612306958218573527e+02,-1.498287737240179922e+02,-5.375198687120882823e+01,-9.231246392333923723e+01,9.293763160705566406e+00,7.649187743663787842e-02,1.300361871719360352e+00,5.110000000000000000e+02
-1.690720253025501734e+02,-1.441471795881657272e+02,-5.693420888349328379e+01,-4.198118911052733893e+01,-1.591219948912184918e+02,-1.475906555294350255e+02,-5.126114438246804639e+01,-8.957298759668265120e+01,9.293763160705566406e+00,7.649187743663787842e-02,1.300361871719360352e+00,5.120000000000000000e+02
-1.660216285033388885e+02,-1.430403923417247825e+02,-5.574814293467625248e+01,-4.199265542568264209e+01,-1.567765808371968888e+02,-1.448164602256565558e+02,-4.868118521839824098e+01,-8.695496651864959858e+01,9.293763160705566406e+00,7.649187743663787842e-02,1.300361871719360352e+00,5.130000000000000000e+02
-1.657760815776523486e+02,-1.439124990093619090e+02,-5.556042834943400521e+01,-4.206247037041248404e+01,-1.546261205454293304e+02,-1.417455949601308021e+02,-4.634208954465429997e+01,-8.533321795966139689e+01,9.293763160705566406e+00,7.649187743663787842e-02,1.300361871719360352e+00,5.140000000000000000e+02
-1.684924951017742387e+02,-1.473277027698886741e+02,-5.672130634463428578e+01,-4.303333273837824891e+01,-1.531509046446244611e+02,-1.390992609712156991e+02,-4.485837782430371590e+01,-8.541525978823074183e+01,9.293763160705566406e+00,7.649187743663787842e-02,1.300361871719360352e+00,5.150000000000000000e+02
-1.733075045881128062e+02,-1.527988545390471700e+02,-5.905597183755526203e+01,-4.576867954706312958e+01,-1.526534830799009796e+02,-1.377442620172560055e+02,-4.489560146875192004e+01,-8.740839210954891314e+01,9.293763160705566406e+00,7.649187743663787842e-02,1.300361871719360352e+00,5.160000000000000000e+02
-1.790738247425824738e+02,-1.591179663848370183e+02,-6.211635547498553933e+01,-5.034478295332064590e+01,-1.530786316424055258e+02,-1.380329283879782452e+02,-4.668196280497795669e+01,-9.088883009627716092e+01,9.293763160705566406e+00,7.649187743663787842e-02,1.300361871719360352e+00,5.170000000000000000e+02
-1.849587003590731911e+02,-1.651122172275918274e+02,-6.548983565632443060e+01,-5.584652813135517135e+01,-1.541087426968297223e+02,-1.394669929999181477e+02,-4.979644152486980602e+01,-9.500702520417871710e+01,9.293763160705566406e+00,7.649187743663787842e-02,1.300361871719360352e+00,5.180000000000000000e+02
-1.905473302825739665e+02,-1.701693901725411706e+02,-6.899273594958140166e+01,-6.101292266379959983e+01,-1.555258641903274111e+02,-1.411144587806684285e+02,-5.349317659772350453e+01,-9.895694926893611409e+01,9.293763160705566406e+00,7.649187743663787842e-02,1.300361871719360352e+00,5.190000000000000000e+02
-1.956266804621486699e+02,-1.742070038264464529e+02,-7.267817383043438895e+01,-6.519262115221590648e+01,-1.574831471791858348e+02,-1.424620774326267565e+02,-5.722278544516757393e+01,-1.024443700763986271e+02,9.370253562927246094e+00,1.529837548732757568e-01,1.300361871719360352e+00,5.200000000000000000e+02
-2.000281660461769206e+02,-1.773155762136657358e+02,-7.667153556918128743e+01,-6.877378357767065609e+01,-1.603506555721842233e+02,-1.438901856118009164e+02,-6.081909089447799488e+01,-1.058221246503244402e+02,9.370253562927246094e+00,1.529837548732757568e-01,1.300361871719360352e+00,5.210000000000000000e+02
-2.036834203256221372e+02,-1.795429141820395671e+02,-8.096468572597405000e+01,-7.274999161006508075e+01,-1.642767781061684218e+02,-1.463130319062065610e+02,-6.427086740844242740e+01,-1.097750759179343731e+02,9.370253562927246094e+00,1.529837548732757568e-01,1.300361871719360352e+00,5.220000000000000000e+02
-2.067497469795889629e+02,-1.810291527603030772e+02,-8.534752213349747763e+01,-7.785146074107342429e+01,-1.689605044414720396e+02,-1.503391140389967404e+02,-6.749023987927830603e+01,-1.147891027052128265e+02,9.370253562927246094e+00,1.529837548732757568e-01,1.300361871719360352e+00,5.230000000000000000e+02
-2.096024211107260271e+02,-1.822609414925573219e+02,-8.956011226667487790e+01,-8.400561368931539619e+01,-1.739059868120939427e+02,-1.557441958387416889e+02,-7.044639945084873034e+01,-1.207846804048203921e+02,9.370253562927246094e+00,1.529837548732757568e-01,1.300361871719360352e+00,5.240000000000000000e+02
-2.126526406685588881e+02,-1.840479370653210935e+02,-9.351832177716914885e+01,-9.050037310113839339e+01,-1.788239677341171046e+02,-1.616674602499806497e+02,-7.347294061791762942e+01,-1.271183094658517803e+02,9.370253562927246094e+00,1.529837548732757568e-01,1.300361871719360352e+00,5.250000000000000000e+02
-2.160942289117492692e+02,-1.870489937107058722e+02,-9.734994371013999626e+01,-9.654496497449235903e+01,-1.836384139632618826e+02,-1.672043389159662183e+02,-7.721896970888701617e+01,-1.328329249802645791e+02,9.370253562927246094e+00,1.529837548732757568e-01,1.300361871719360352e+00,5.260000000000000000e+02
-2.197200807707922650e+02,-1.911349342201037871e+02,-1.011511894506666067e+02,-1.016295181291861809e+02,-1.880672320895673693e+02,-1.717827206875372212e+02,-8.208611778291469818e+01,-1.369218748410467015e+02,9.370253562927246094e+00,1.529837548732757568e-01,1.300361871719360352e+00,5.270000000000000000e+02
-2.229165811293933075e+02,-1.951350292161405378e+02,-1.046654727411214481e+02,-1.054022608286932154e+02,-1.913136999872403976e+02,-1.750577054787754605e+02,-8.762633951989391790e+01,-1.385065834262177304e+02,9.370253562927246094e+00,1.529837548732757568e-01,1.300361871719360352e+00,5.280000000000000000e+02
-2.248764678846555398e+02,-1.972918999431594784e+02,-1.072160225534489655e+02,-1.073407956548408038e+02,-1.923773112661383493e+02,-1.766258471145156363e+02,-9.255873638599950937e+01,-1.370135374545534432e+02,9.370253562927246094e+00,1.529837548732757568e-01,1.300361871719360352e+00,5.290000000000000000e+02
-2.249704314974915178e+02,-1.962147127358593934e+02,-1.080139433297053984e+02,-1.067233035485769506e+02,-1.907872759214242251e+02,-1.759979830892261816e+02,-9.550645371823156893e+01,-1.324291642464013421e+02,9.370253562927246094e+00,1.529837548732757568e-01,1.300361871719360352e+00,5.300000000000000000e+02
-2.230712763091360102e+02,-1.916745473568826128e+02,-1.066280994841672509e+02,-1.030897487395805001e+02,-1.870348416694923799e+02,-1.729288314649347740e+02,-9.586284117722789233e+01,-1.255150111684870353e+02,9.370253562927246094e+00,1.529837548732757568e-01,1.300361871719360352e+00,5.310000000000000000e+02
-2.195843261950612941e+02,-1.846474746908625093e+02,-1.032603018405116018e+02,-9.683032175056541746e+01,-1.822498400027507159e+02,-1.678007287694381375e+02,-9.407502851692152035e+01,-1.177201267475675195e+02,9.370253562927246094e+00,1.529837548732757568e-01,1.300361871719360352e+00,5.320000000000000000e+02
-2.151192570113653346e+02,-1.766030186866373697e+02,-9.863053601050887664e+01,-8.929458098062423232e+01,-1.774057912934094929e+02,-1.616679427507333457e+02,-9.116686709556233836e+01,-1.106800645812363655e+02,9.370253562927246094e+00,1.529837548732757568e-01,1.300361871719360352e+00,5.330000000000000000e+02
-2.100439497303204917e+02,-1.686387091136803065e+02,-9.358474367795861326e+01,-8.215940108950326248e+01,-1.727835462065231695e+02,-1.558542490146737691e+02,-8.797848636661547062e+01,-1.055178832747114939e+02,9.370253562927246094e+00,1.529837548732757568e-01,1.300361871719360352e+00,5.340000000000000000e+02
-2.043089700825721593e+02,-1.611430708651187160e+02,-8.870467126032053784e+01,-7.644546035028633924e+01,-1.680891489056029968e+02,-1.513376222208753461e+02,-8.474191425653407350e+01,-1.023744788716558105e+02,9.370253562927246094e+00,1.529837548732757568e-01,1.300361871719360352e+00,5.350000000000000000e+02
-1.977042322050119765e+02,-1.541286943619270460e+02,-8.414048833756532986e+01,-7.193503117704403849e+01,-1.629647286957606411e+02,-1.483018651754227903e+02,-8.122075424955983181e+01,-1.004532057908982097e+02,9.370253562927246094e+00,1.529837548732757568e-01,1.300361871719360352e+00,5.360000000000000000e+02
-1.902934269292727549e+02,-1.477150057563485461e+02,-7.970475399715178355e+01,-6.746527563250674575e+01,-1.573686095498233044e+02,-1.461178783171053510e+02,-7.715158507988780912e+01,-9.850560040398704587e+01,9.370253562927246094e+00,1.529837548732757568e-01,1.300361871719360352e+00,5.370000000000000000e+02
-1.826185988626266408e+02,-1.421580057139117343e+02,-7.513521424546706839e+01,-6.187137550398711028e+01,-1.515699044750999747e+02,-1.437483822163685545e+02,-7.255595136545889545e+01,-9.545164339391521935e+01,9.370253562927246094e+00,1.529837548732757568e-01,1.300361871719360352e+00,5.380000000000000000e+02
-1.754756417947410227e+02,-1.374038562091172935e+02,-7.035267797328560846e+01,-5.482779314095296286e+01,-1.459129705640643806e+02,-1.403239568798362598e+02,-6.770645859552132606e+01,-9.080950359016787843e+01,9.370253562927246094e+00,1.529837548732757568e-01,1.300361871719360352e+00,5.390000000000000000e+02
-1.694719730848792096e+02,-1.327606825331558866e+02,-6.554477620002398908e+01,-4.696610001684439339e+01,-1.406206932200839219e+02,-1.355486034811347054e+02,-6.285932590410629928e+01,-8.480711488347878912e+01,9.370253562927246094e+00,1.529837548732757568e-01,1.300361871719360352e+00,5.400000000000000000e+02
-1.647527329410931998e+02,-1.272671007374847250e+02,-6.103275634593228460e+01,-3.929054809238004964e+01,-1.357501079394969565e+02,-1.297443183099603630e+02,-5.806208338518990786e+01,-7.822598299331730232e+01,9.370253562927246094e+00,1.529837548732757568e-01,1.300361871719360352e+00,5.410000000000000000e+02
-1.610650274090221501e+02,-1.206173573486703390e+02,-5.703221799158200156e+01,-3.248627393442893663e+01,-1.312528964741268283e+02,-1.235953076318292005e+02,-5.323335566645437211e+01,-7.207075982062633557e+01,9.370253562927246094e+00,1.529837548732757568e-01,1.300361871719360352e+00,5.420000000000000000e+02
-1.580061312295401876e+02,-1.138238335402675148e+02,-5.350934273753955495e+01,-2.669798432820243761e+01,-1.270590691335619340e+02,-1.178096626681599446e+02,-4.841853866357996594e+01,-6.717107743402812048e+01,9.370253562927246094e+00,1.529837548732757568e-01,1.300361871719360352e+00,5.430000000000000000e+02
-1.551822664346473175e+02,-1.088795757210646116e+02,-5.025884782972025278e+01,-2.184367986908728199e+01,-1.231504309111078328e+02,-1.128937320989953150e+02,-4.394619470833640662e+01,-6.386925506087936810e+01,9.370253562927246094e+00,1.529837548732757568e-01,1.300361871719360352e+00,5.440000000000000000e+02
-1.521945562124074058e+02,-1.075074407360662008e+02,-4.711321205504646059e+01,-1.803591015831079858e+01,-1.195802772000752157e+02,-1.090654228401308501e+02,-4.026286272903780628e+01,-6.194725565442786319e+01,9.370253562927246094e+00,1.529837548732757568e-01,1.300361871719360352e+00,5.450000000000000000e+02
-1.485952495284982433e+02,-1.099119193301921769e+02,-4.405701766212405346e+01,-1.566434272167316522e+01,-1.164155018225210370e+02,-1.062384259639511583e+02,-3.754802931490849005e+01,-6.083987544679257553e+01,9.370253562927246094e+00,1.529837548732757568e-01,1.300361871719360352e+00,5.460000000000000000e+02
-1.439857070761536306e+02,-1.145079241575385822e+02,-4.114298990794486599e+01,-1.510070068879031169e+01,-1.136757820011516742e+02,-1.040636680196275847e+02,-3.548379707388994575e+01,-6.000113295488699805e+01,9.293763160705566406e+00,7.649187743663787842e-02,1.338607788085937500e+00,5.470000000000000000e+02
-1.382617791449829383e+02,-1.188533446922792791e+02,-3.833615484288930020e+01,-1.635422318902055849e+01,-1.113473496845890622e+02,-1.020718987199416006e+02,-3.343829279667988885e+01,-5.918005063404052635e+01,9.293763160705566406e+00,7.649187743663787842e-02,1.338607788085937500e+00,5.480000000000000000e+02
-1.318046263475152955e+02,-1.211009665092315117e+02,-3.550303033528507513e+01,-1.899739033285186451e+01,-1.094558033055764099e+02,-9.991194472762617806e+01,-3.093518517487609643e+01,-5.843711995346711774e+01,9.293763160705566406e+00,7.649187743663787842e-02,1.338607788085937500e+00,5.490000000000000000e+02
-1.254055898895712744e+02,-1.209528708426678349e+02,-3.257763354847156734e+01,-2.236741612817786518e+01,-1.080449904354445607e+02,-9.753786776762717636e+01,-2.796994821076077642e+01,-5.793360670447873417e+01,9.293763160705566406e+00,7.649187743663787842e-02,1.338607788085937500e+00,5.500000000000000000e+02
-1.198971752791076142e+02,-1.195419372095893777e+02,-2.969401349334111728e+01,-2.582033963441790547e+01,-1.069885848915910174e+02,-9.518255204625711485e+01,-2.488099294164931052e+01,-5.768418055883012130e+01,9.293763160705566406e+00,7.649187743663787842e-02,1.338607788085937500e+00,5.510000000000000000e+02
-1.156911246666641091e+02,-1.184624383973114163e+02,-2.706744406370125944e+01,-2.885279158782577724e+01,-1.058173273060165229e+02,-9.311785328239238879e+01,-2.194942467760847649e+01,-5.744322933595503855e+01,9.293763160705566406e+00,7.649187743663787842e-02,1.338607788085937500e+00,5.520000000000000000e+02
-1.125313695185159304e+02,-1.186964734129887802e+02,-2.468342368813500798e+01,-3.110022365106851794e+01,-1.038224052268142259e+02,-9.137986417318097665e+01,-1.914752870618394809e+01,-5.676688496790848149e+01,9.293763160705566406e+00,7.649187743663787842e-02,1.338607788085937500e+00,5.530000000000000000e+02
-1.096674178451194166e+02,-1.201176985456168040e+02,-2.214539026482088957e+01,-3.231266464767031721e+01,-1.004811328803243669e+02,-8.968301270110168844e+01,-1.627042388380505145e+01,-5.518904192658010288e+01,9.293763160705566406e+00,7.649187743663787842e-02,1.338607788085937500e+00,5.540000000000000000e+02
-1.063913079479843873e+02,-1.217543943187283730e+02,-1.895335026665088662e+01,-3.233861303141020471e+01,-9.587851974736622651e+01,-8.757304724546338548e+01,-1.325104799705513869e+01,-5.243785684215072251e+01,9.293763160705566406e+00,7.649187743663787842e-02,1.338607788085937500e+00,5.550000000000000000e+02
-1.025987469976771536e+02,-1.224861741303684539e+02,-1.506433875491529761e+01,-3.110456707933735743e+01,-9.075267540787535836e+01,-8.470146412542089820e+01,-1.029454658463873784e+01,-4.862343630123359617e+01,9.293763160705566406e+00,7.649187743663787842e-02,1.338607788085937500e+00,5.560000000000000000e+02
-9.895098218945531698e+01,-1.216801000325540372e+02,-1.122300914431616548e+01,-2.861900430530840822e+01,-8.612236450133423205e+01,-8.104613968264311552e+01,-7.716572302539134398e+00,-4.431029264264361700e+01,9.293763160705566406e+00,7.649187743663787842e-02,1.338607788085937500e+00,5.570000000000000000e+02
-9.646019674729359394e+01,-1.194528882297217933e+02,-8.635084974663186586e+00,-2.506189600847028487e+01,-8.279387453992967494e+01,-7.696234555399132660e+01,-5.683833920862525702e+00,-4.039002149276348064e+01,9.293763160705566406e+00,7.649187743663787842e-02,1.338607788085937500e+00,5.580000000000000000e+02
-9.572963598265050678e+01,-1.165465224703730200e+02,-8.111055312398093520e+00,-2.093241294116523932e+01,-8.107742698617948918e+01,-7.304501465949579142e+01,-4.106555766658857465e+00,-3.773564516672922764e+01,9.293763160705566406e+00,7.649187743663787842e-02,1.338607788085937500e+00,5.590000000000000000e+02
-9.635788480668998091e+01,-1.139617415711654758e+02,-9.322351799990428844e+00,-1.704496739700334729e+01,-8.075006801181370975e+01,-6.983540073870244669e+01,-2.699051821564353304e+00,-3.676099185979546746e+01,9.293763160705566406e+00,7.649187743663787842e-02,1.338607788085937500e+00,5.600000000000000000e+02
-9.695171879457848263e+01,-1.125095788463295321e+02,-1.081626849151143688e+01,-1.419377048290516541e+01,-8.114104996338210185e+01,-6.751668105332282721e+01,-1.092852816804224858e+00,-3.714560444260860095e+01,9.293763160705566406e+00,7.649187743663787842e-02,1.338607788085937500e+00,5.610000000000000000e+02
-9.580169371915690135e+01,-1.124236596891969384e+02,-1.086732322648822446e+01,-1.263512013388390187e+01,-8.130579603239311837e+01,-6.581214787283170153e+01,1.054838006326463073e+00,-3.794679115819963044e+01,9.293763160705566406e+00,7.649187743663787842e-02,1.338607788085937500e+00,5.620000000000000000e+02
-9.183382474194513634e+01,-1.132244849639173481e+02,-8.566846150595665677e+00,-1.185826675791213347e+01,-8.035241575124382507e+01,-6.421302906871642335e+01,3.915991390054841759e+00,-3.811637876428176241e+01,9.293763160705566406e+00,7.649187743663787842e-02,1.338607788085937500e+00,5.630000000000000000e+02
-8.526297968551807571e+01,-1.139598814964028861e+02,-4.362924927670974284e+00,-1.099355375696904957e+01,-7.788369109008635860e+01,-6.240487644294989877e+01,7.314865450614888687e+00,-3.713729374246395309e+01,9.293763160705566406e+00,7.649187743663787842e-02,1.338607788085937500e+00,5.640000000000000000e+02
-7.755455650457406591e+01,-1.137276656967987947e+02,3.070782946306280792e-01,-9.606589815062761772e+00,-7.426463386243631248e+01,-6.052100505041744327e+01,1.071385035389903351e+01,-3.534324245705283829e+01,9.293763160705566406e+00,7.649187743663787842e-02,1.338607788085937500e+00,5.650000000000000000e+02
-7.070194410106705618e+01,-1.121394990100525320e+02,3.949044211458385689e+00,-8.144815975456367596e+00,-7.044620729662710801e+01,-5.896840113650614512e+01,1.349780418126101722e+01,-3.365712342078768415e+01,9.293763160705566406e+00,7.649187743663787842e-02,1.338607788085937500e+00,5.660000000000000000e+02
-6.619401372649554105e+01,-1.093584501561381330e+02,5.830887534662906546e+00,-7.490386414527165471e+00,-6.741356418384748395e+01,-5.795840376769774593e+01,1.539558771948577487e+01,-3.287603153547752299e+01,9.293763160705566406e+00,7.649187743663787842e-02,1.338607788085937500e+00,5.670000000000000000e+02
-6.426149025339691434e+01,-1.057157469548328663e+02,6.202328110641246894e+00,-7.921819592867905158e+00,-6.565045835638011340e+01,-5.718629584020527545e+01,1.667902045055234339e+01,-3.302274456656959956e+01,9.293763160705566406e+00,7.649187743663787842e-02,1.338607788085937500e+00,5.680000000000000000e+02
-6.386440500400749443e+01,-1.013359976408864895e+02,5.919357244922139216e+00,-8.508911278566301917e+00,-6.499007586531661218e+01,-5.600369459667854244e+01,1.792259017171818414e+01,-3.329351068670803215e+01,9.293763160705566406e+00,7.649187743663787842e-02,1.338607788085937500e+00,5.690000000000000000e+02
-6.344254034094046801e+01,-9.620353115100624564e+01,5.845044139430683572e+00,-7.696767300847568549e+00,-6.484638063539023278e+01,-5.394848149755489430e+01,1.953125208267010748e+01,-3.268444582049414748e+01,9.293763160705566406e+00,7.649187743663787842e-02,1.338607788085937500e+00,5.700000000000000000e+02
-6.194388870225157007e+01,-9.060042181495737168e+01,6.401353198441938730e+00,-4.704928430883228430e+00,-6.457020207523601130e+01,-5.114891736155914259e+01,2.145491998381839949e+01,-3.082193643031496322e+01,9.293763160705566406e+00,7.649187743663787842e-02,1.338607788085937500e+00,5.710000000000000000e+02
-5.941971391241168021e+01,-8.534781222264791722e+01,7.452168463230918860e+00,-4.593470604995673057e-01,-6.372554294459405355e+01,-4.823233802830509376e+01,2.329764591148705222e+01,-2.830625846798648126e+01,9.293763160705566406e+00,7.649187743663787842e-02,1.338607788085937500e+00,5.720000000000000000e+02
-5.678355004073273449e+01,-8.141938102525637078e+01,8.505699588098650565e+00,2.945500780160728027e+00,-6.224411041952771484e+01,-4.582527375882636989e+01,2.465509105207092944e+01,-2.625912469925970072e+01,9.293763160705566406e+00,7.649187743663787842e-02,1.338607788085937500e+00,5.730000000000000000e+02
-5.495741456552059390e+01,-7.916111069963517366e+01,9.098546936736966018e+00,3.911394689039298100e+00,-6.045551310184964677e+01,-4.410291068313017604e+01,2.535132201859960333e+01,-2.543833835466284654e+01,9.293763160705566406e+00,7.649187743663787842e-02,1.338607788085937500e+00,5.740000000000000000e+02
-5.411515072230031365e+01,-7.787078546175325755e+01,9.160585459820140386e+00,2.665179447645641631e+00,-5.891300727041743812e+01,-4.275194232459762134e+01,2.545540976458505611e+01,-2.565776302215454052e+01,9.293763160705566406e+00,7.649187743663787842e-02,1.338607788085937500e+00,5.750000000000000000e+02
-5.364546191798217478e+01,-7.625268884763318056e+01,9.110627954854862764e+00,1.018507419597881380e+00,-5.803930469459373853e+01,-4.132015252396377036e+01,2.519437578829456470e+01,-2.597629983206570614e+01,9.293763160705566406e+00,7.649187743663787842e-02,1.338607788085937500e+00,5.760000000000000000e+02
-5.279941011383925797e+01,-7.341592956704698736e+01,9.558037982100358931e+00,7.595495343921356834e-01,-5.783244159455716726e+01,-3.960806333393702516e+01,2.488795957468028064e+01,-2.544107052062827279e+01,9.293763160705566406e+00,7.649187743663787842e-02,1.338607788085937500e+00,5.770000000000000000e+02
-5.137802980429842137e+01,-6.951969952334911795e+01,1.080004504917087615e+01,2.172784087266336428e+00,-5.790534840021427954e+01,-3.776643657912427443e+01,2.489712218514614506e+01,-2.372930015961901518e+01,9.293763160705566406e+00,1.147378161549568176e-01,1.262115836143493652e+00,5.780000000000000000e+02
-4.981978797190095065e+01,-6.548893204435080406e+01,1.253046563666430302e+01,4.022096190521551762e+00,-5.786474517325768829e+01,-3.607414136208899436e+01,2.550621047520689899e+01,-2.120407972445173073e+01,9.293763160705566406e+00,1.147378161549568176e-01,1.262115836143493652e+00,5.790000000000000000e+02
-4.863656318853463745e+01,-6.214230354403116507e+01,1.406905702991934959e+01,4.903844747343100607e+00,-5.764904185839259299e+01,-3.463920806700116373e+01,2.678748558806546498e+01,-1.847085705720746773e+01,9.293763160705566406e+00,1.147378161549568176e-01,1.262115836143493652e+00,5.800000000000000000e+02
-4.778371752825478325e+01,-5.959870219269578229e+01,1.494749660613160813e+01,4.597973326202918543e+00,-5.747351376146980328e+01,-3.330702405601914506e+01,2.857763926824554801e+01,-1.592921204244703404e+01,9.293763160705566406e+00,1.147378161549568176e-01,1.262115836143493652e+00,5.810000000000000000e+02
-4.661024838910452672e+01,-5.746293440330555313e+01,1.531172655107002356e+01,4.152847246787132462e+00,-5.747233467474507052e+01,-3.185199458699935349e+01,3.060039442340348614e+01,-1.369657355589151848e+01,9.293763160705566406e+00,1.147378161549568176e-01,1.262115836143493652e+00,5.820000000000000000e+02
-4.448144046404195251e+01,-5.548191793265505112e+01,1.574470817469045869e+01,4.746625430321728345e+00,-5.747142635237469221e+01,-3.026198776536330115e+01,3.260635712113071349e+01,-1.184450882042801823e+01,9.293763160705566406e+00,1.147378161549568176e-01,1.262115836143493652e+00,5.830000000000000000e+02
-4.149215860748154228e+01,-5.391430250805206015e+01,1.667157912655966356e+01,6.519850158874760382e+00,-5.716885903287402471e+01,-2.883777179529715795e+01,3.437840342166964547e+01,-1.059477775456252857e+01,9.293763160705566406e+00,1.147378161549568176e-01,1.262115836143493652e+00,5.840000000000000000e+02
-3.853609828684784588e+01,-5.321796047096358961e+01,1.796006967610082938e+01,8.491584476345451549e+00,-5.648318500458844937e+01,-2.797068753419080167e+01,3.565798006833210820e+01,-1.021648358941092738e+01,9.293763160705566406e+00,1.147378161549568176e-01,1.262115836143493652e+00,5.850000000000000000e+02
-3.658348355460475432e+01,-5.340145278655108996e+01,1.912149292540561873e+01,9.524063270087935962e+00,-5.564084946769435192e+01,-2.777586622343733325e+01,3.618493512852364802e+01,-1.071757288193111890e+01,9.293763160705566406e+00,1.147378161549568176e-01,1.262115836143493652e+00,5.860000000000000000e+02
-3.577991483476216672e+01,-5.375692573187916423e+01,1.987365564267020090e+01,9.308244579373422312e+00,-5.490660417661638348e+01,-2.792845409699657466e+01,3.590957229281775653e+01,-1.166803759487447678e+01,9.293763160705566406e+00,1.147378161549568176e-01,1.262115836143493652e+00,5.870000000000000000e+02
-3.522618202426019707e+01,-5.332581822951033246e+01,2.044249682272857171e+01,8.459004738051589811e+00,-5.430356119298448903e+01,-2.789042242942377925e+01,3.518602335243122070e+01,-1.240310221631079912e+01,9.293763160705566406e+00,1.147378161549568176e-01,1.262115836143493652e+00,5.880000000000000000e+02
-3.371657981678436045e+01,-5.172302658263288322e+01,2.126693049903406063e+01,7.766570820989727508e+00,-5.368857470427610679e+01,-2.737015068235996296e+01,3.467010529662729823e+01,-1.250069605401222361e+01,9.293763160705566406e+00,1.147378161549568176e-01,1.262115836143493652e+00,5.890000000000000000e+02
