F3,F4,C3,C4,P3,P4,Cz,Pz,Accel_x,Accel_y,Accel_z,Sample
-6.002665031701326370e-11,-2.637534635141491890e-11,-3.365130396559834480e-11,-5.002220859751105309e-11,-4.638422979041934013e-11,-5.820766091346740723e-11,-5.638867150992155075e-11,-4.911271389573812485e-11,9.217270851135253906e+00,1.912296712398529053e-01,1.453345537185668945e+00,2.000000000000000000e+02
-3.507168658310729370e+01,-3.191343770140520064e+01,-2.649283154423392261e+01,-2.029102542143118626e+01,-9.898038650761191093e+01,-7.472431560997938504e+01,-4.860416933642591175e+01,-2.435399405567841313e+01,9.217270851135253906e+00,1.912296712398529053e-01,1.453345537185668945e+00,2.010000000000000000e+02
-8.093051966097209515e+01,-7.292505291484667396e+01,-4.871301039014088019e+01,-4.280251703153771814e+01,-1.713234045468425393e+02,-1.353385187241165113e+02,-7.966071304202159808e+01,-5.059771611184532958e+01,9.217270851135253906e+00,1.912296712398529053e-01,1.453345537185668945e+00,2.020000000000000000e+02
-1.396825158343472140e+02,-1.237756878445652546e+02,-6.663163815300231363e+01,-6.795692470233916538e+01,-2.130390163357769779e+02,-1.797062551799972425e+02,-9.089126720163403661e+01,-7.956881588354190171e+01,9.217270851135253906e+00,1.912296712398529053e-01,1.453345537185668945e+00,2.030000000000000000e+02
-2.040685016916240784e+02,-1.770522504281707370e+02,-8.436139013010142662e+01,-9.434387321830854489e+01,-2.436600783941012196e+02,-2.181114595441067650e+02,-9.581450688677068683e+01,-1.108974337652680333e+02,9.217270851135253906e+00,1.912296712398529053e-01,1.453345537185668945e+00,2.040000000000000000e+02
-2.647822146596754465e+02,-2.253386972675380093e+02,-1.059618678406923209e+02,-1.203357290002340960e+02,-2.858868351287710539e+02,-2.624890976784454324e+02,-1.098947168514450823e+02,-1.436835635080778957e+02,9.217270851135253906e+00,1.912296712398529053e-01,1.453345537185668945e+00,2.050000000000000000e+02
-3.182230293046632141e+02,-2.684379004219013041e+02,-1.315889132022230115e+02,-1.455300825112490202e+02,-3.452902263775840765e+02,-3.157087437516156569e+02,-1.367433954296111551e+02,-1.771537881082376771e+02,9.217270851135253906e+00,1.912296712398529053e-01,1.453345537185668945e+00,2.060000000000000000e+02
-3.675939477777010325e+02,-3.123272599813903980e+02,-1.577721836006749072e+02,-1.705871111171882148e+02,-4.092562641823196827e+02,-3.710382360079001955e+02,-1.674210123700231634e+02,-2.106851373007357324e+02,9.217270851135253906e+00,1.912296712398529053e-01,1.453345537185668945e+00,2.070000000000000000e+02
-4.175958817426935639e+02,-3.617335463687913943e+02,-1.810934943814645521e+02,-1.959257301889983864e+02,-4.631637374855035887e+02,-4.206700503388174184e+02,-1.915263239724945379e+02,-2.434745405485291485e+02,9.332008361816406250e+00,2.294756323099136353e-01,1.491591572761535645e+00,2.080000000000000000e+02
-4.690504502213252636e+02,-4.147520061835853085e+02,-2.011820786458056318e+02,-2.209493841335661273e+02,-5.050975601327490949e+02,-4.634390419249975821e+02,-2.073912500941123653e+02,-2.745665135195595212e+02,9.332008361816406250e+00,2.294756323099136353e-01,1.491591572761535645e+00,2.090000000000000000e+02
-5.187254711816685813e+02,-4.650103722410058253e+02,-2.201725091169346342e+02,-2.446891164289381777e+02,-5.448496216446010294e+02,-5.043025551967884894e+02,-2.216136723016907126e+02,-3.033945065238185634e+02,9.332008361816406250e+00,2.294756323099136353e-01,1.491591572761535645e+00,2.100000000000000000e+02
-5.634854215103123352e+02,-5.083711534527969889e+02,-2.398104578593920451e+02,-2.669885869934505536e+02,-5.912250312437708999e+02,-5.477655651567347377e+02,-2.404841590735395584e+02,-3.302331916086604906e+02,9.332008361816406250e+00,2.294756323099136353e-01,1.491591572761535645e+00,2.110000000000000000e+02
-6.036734011270486917e+02,-5.466486558520255130e+02,-2.596425839887369875e+02,-2.887256809586356212e+02,-6.429429882091153559e+02,-5.932374202720884568e+02,-2.635920799580908351e+02,-3.559598851490181914e+02,9.332008361816406250e+00,2.294756323099136353e-01,1.491591572761535645e+00,2.120000000000000000e+02
-6.423614829996986373e+02,-5.847649972812896522e+02,-2.780236226706429079e+02,-3.107352618073223312e+02,-6.919255888789411983e+02,-6.367647251091639191e+02,-2.856905488442707792e+02,-3.812973093680348029e+02,9.332008361816406250e+00,2.294756323099136353e-01,1.491591572761535645e+00,2.130000000000000000e+02
-6.819481765271411859e+02,-6.250808107809939429e+02,-2.943539669942592809e+02,-3.326716090689201337e+02,-7.331837019221020455e+02,-6.760113768085011543e+02,-3.031590775856429900e+02,-4.063106317834481160e+02,9.332008361816406250e+00,2.294756323099136353e-01,1.491591572761535645e+00,2.140000000000000000e+02
-7.220003328395418976e+02,-6.651822165942417087e+02,-3.098366198363310104e+02,-3.531855910696567662e+02,-7.695972185022492340e+02,-7.125109781393402955e+02,-3.173426337340342798e+02,-4.306252593831195554e+02,9.332008361816406250e+00,2.294756323099136353e-01,1.491591572761535645e+00,2.150000000000000000e+02
-7.602367127855654871e+02,-7.010619800061108435e+02,-3.260310706076716087e+02,-3.713201405510922086e+02,-8.074304880608251551e+02,-7.492787086222724611e+02,-3.319240330249094768e+02,-4.540078714544488321e+02,9.332008361816406250e+00,2.294756323099136353e-01,1.491591572761535645e+00,2.160000000000000000e+02
-7.950563603167929614e+02,-7.317730321054859814e+02,-3.430101517620323648e+02,-3.876312511224314221e+02,-8.490565525548745427e+02,-7.872677998746239609e+02,-3.484439151753376791e+02,-4.765793558126642893e+02,9.332008361816406250e+00,2.294756323099136353e-01,1.491591572761535645e+00,2.170000000000000000e+02
-8.269320840164577930e+02,-7.605691760387535396e+02,-3.591759494547841314e+02,-4.037724475793288548e+02,-8.910952234680962647e+02,-8.247084198798920625e+02,-3.651789028068378684e+02,-4.984538890574422112e+02,9.332008361816406250e+00,2.294756323099136353e-01,1.491591572761535645e+00,2.180000000000000000e+02
-8.577405961889376158e+02,-7.917172819715165133e+02,-3.728007191668802989e+02,-4.209001293907258514e+02,-9.288507216640327897e+02,-8.594438043387071957e+02,-3.798288517375895026e+02,-5.193422362540013637e+02,9.332008361816406250e+00,2.294756323099136353e-01,1.491591572761535645e+00,2.190000000000000000e+02
-8.891949408378559383e+02,-8.265686520094818661e+02,-3.835751480963617723e+02,-4.385076665721126119e+02,-9.611802495423517030e+02,-8.911496578234064145e+02,-3.922136144220594360e+02,-5.387128298824263766e+02,9.332008361816406250e+00,2.294756323099136353e-01,1.491591572761535645e+00,2.200000000000000000e+02
-9.219341590310255015e+02,-8.627027945616191573e+02,-3.927107223481807523e+02,-4.548776542019759290e+02,-9.907805057200557712e+02,-9.211501505752830781e+02,-4.039982648388013331e+02,-5.564185258119241553e+02,9.332008361816406250e+00,2.294756323099136353e-01,1.491591572761535645e+00,2.210000000000000000e+02
-9.556758317183102918e+02,-8.964587223530297706e+02,-4.018290224698557722e+02,-4.687288751211922317e+02,-1.020830722137387056e+03,-9.506930928024976311e+02,-4.164389329979949252e+02,-5.730982739762612255e+02,9.332008361816406250e+00,2.294756323099136353e-01,1.491591572761535645e+00,2.220000000000000000e+02
-9.898474812939230105e+02,-9.260402357936372937e+02,-4.119444232199648468e+02,-4.804612787148021198e+02,-1.052367768522513870e+03,-9.799426931447087554e+02,-4.291313262271150961e+02,-5.898613325825908760e+02,9.332008361816406250e+00,2.294756323099136353e-01,1.491591572761535645e+00,2.230000000000000000e+02
-1.024063576377327081e+03,-9.524485564444157717e+02,-4.233291072336651268e+02,-4.918429519844216884e+02,-1.084652440113737612e+03,-1.008482910099921355e+03,-4.409332636179551628e+02,-6.075008505530850016e+02,9.332008361816406250e+00,2.294756323099136353e-01,1.491591572761535645e+00,2.240000000000000000e+02
-1.058219152247717375e+03,-9.779660379658539568e+02,-4.359224268466296053e+02,-5.045045859559704695e+02,-1.116930881610624056e+03,-1.036189228227198328e+03,-4.515023122695674829e+02,-6.259679940682153756e+02,9.332008361816406250e+00,2.294756323099136353e-01,1.491591572761535645e+00,2.250000000000000000e+02
-1.092290839981360477e+03,-1.004054598809160325e+03,-4.495361191329884605e+02,-5.186686565003747091e+02,-1.149060932113922718e+03,-1.063255780711740954e+03,-4.615200317812959838e+02,-6.445421340793946001e+02,9.332008361816406250e+00,2.294756323099136353e-01,1.491591572761535645e+00,2.260000000000000000e+02
-1.126022882562599534e+03,-1.030570011390828313e+03,-4.636880370809303713e+02,-5.332513721130353588e+02,-1.180757833493002181e+03,-1.089653266432396777e+03,-4.716624966068820868e+02,-6.624765620660064087e+02,9.332008361816406250e+00,2.294756323099136353e-01,1.491591572761535645e+00,2.270000000000000000e+02
-1.158818426940074914e+03,-1.056645963888739971e+03,-4.775351358604784764e+02,-5.471559402534162473e+02,-1.211097684299957109e+03,-1.115043437158597953e+03,-4.818595674997386595e+02,-6.795654456030761139e+02,9.332008361816406250e+00,2.294756323099136353e-01,1.491591572761535645e+00,2.280000000000000000e+02
-1.190108501115932540e+03,-1.082111137980173226e+03,-4.902553551892842734e+02,-5.604919096940011514e+02,-1.239208461247980267e+03,-1.139365866997096418e+03,-4.917242103582211712e+02,-6.962504168059772383e+02,9.140779495239257812e+00,2.294756323099136353e-01,1.453345537185668945e+00,2.290000000000000000e+02
-1.219996221698977024e+03,-1.108020011739200527e+03,-5.016152485689481182e+02,-5.745920732467975540e+02,-1.265263953436857264e+03,-1.163251996114438953e+03,-5.014242018284694495e+02,-7.133273608490972038e+02,9.140779495239257812e+00,2.294756323099136353e-01,1.453345537185668945e+00,2.300000000000000000e+02
-1.249489140664100432e+03,-1.135819450722929560e+03,-5.121367974631966717e+02,-5.908274931706719144e+02,-1.290452483079200647e+03,-1.187549137776722091e+03,-5.117453930613201010e+02,-7.315025871303396343e+02,9.140779495239257812e+00,2.294756323099136353e-01,1.453345537185668945e+00,2.310000000000000000e+02
-1.279835203448009452e+03,-1.165913324710998950e+03,-5.226551033591586020e+02,-6.093165853813511603e+02,-1.315947287145352675e+03,-1.212420212086047286e+03,-5.232055748832171957e+02,-7.509863320676836338e+02,9.140779495239257812e+00,2.294756323099136353e-01,1.453345537185668945e+00,2.320000000000000000e+02
-1.311416157289297189e+03,-1.196948610534706631e+03,-5.336693107242090264e+02,-6.286995620865732235e+02,-1.342044486037269508e+03,-1.237067272897139446e+03,-5.352377362329307289e+02,-7.712764303690382803e+02,9.140779495239257812e+00,2.294756323099136353e-01,1.453345537185668945e+00,2.330000000000000000e+02
-1.343290158777014312e+03,-1.226547892900787701e+03,-5.450542926987750434e+02,-6.471618786509288839e+02,-1.368241669117236142e+03,-1.260430734949587531e+03,-5.463857647061440730e+02,-7.912847424207661788e+02,9.140779495239257812e+00,2.294756323099136353e-01,1.453345537185668945e+00,2.340000000000000000e+02
-1.373925035093618135e+03,-1.252911788636347637e+03,-5.563224391665207804e+02,-6.637724706517706181e+02,-1.393895731136630275e+03,-1.282126508426383225e+03,-5.553795387200834739e+02,-8.098756737937146681e+02,9.140779495239257812e+00,2.294756323099136353e-01,1.453345537185668945e+00,2.350000000000000000e+02
-1.402397181657659985e+03,-1.275913737247226891e+03,-5.671332801679645854e+02,-6.789540551722679993e+02,-1.418649267231182876e+03,-1.302679303760932271e+03,-5.621200349987839218e+02,-8.266173170098340961e+02,9.140779495239257812e+00,2.294756323099136353e-01,1.453345537185668945e+00,2.360000000000000000e+02
-1.428798428984972361e+03,-1.296785248448840548e+03,-5.775998756847916411e+02,-6.937516262737917714e+02,-1.442441662895514128e+03,-1.322976224338558495e+03,-5.678098452606318460e+02,-8.422231142728342093e+02,9.140779495239257812e+00,2.294756323099136353e-01,1.453345537185668945e+00,2.370000000000000000e+02
-1.453531988563853702e+03,-1.316807463288092777e+03,-5.881759542796758069e+02,-7.086606319581082971e+02,-1.465466106694887458e+03,-1.343604765549938293e+03,-5.742094420965186146e+02,-8.582066364906499984e+02,9.140779495239257812e+00,2.294756323099136353e-01,1.453345537185668945e+00,2.380000000000000000e+02
-1.476507657487391953e+03,-1.336318496186388529e+03,-5.992595838481656756e+02,-7.231169435314873226e+02,-1.488238329295405947e+03,-1.364639694533192596e+03,-5.825844144325774323e+02,-8.758256908867892889e+02,9.140779495239257812e+00,2.294756323099136353e-01,1.453345537185668945e+00,2.390000000000000000e+02
-1.497354524442678894e+03,-1.354895480490795990e+03,-6.108109955036379688e+02,-7.360516455772058180e+02,-1.511464010467331263e+03,-1.385788597819072947e+03,-5.929797842097032117e+02,-8.950271035490927716e+02,9.140779495239257812e+00,2.294756323099136353e-01,1.453345537185668945e+00,2.400000000000000000e+02
-1.516479578249573933e+03,-1.372299007284887921e+03,-6.222568573525695683e+02,-7.468759699111351438e+02,-1.535453413483342956e+03,-1.406494137550695086e+03,-6.041838909181497002e+02,-9.142303846237655307e+02,9.140779495239257812e+00,2.294756323099136353e-01,1.453345537185668945e+00,2.410000000000000000e+02
-1.535535535570991215e+03,-1.389024215158537572e+03,-6.327513437978682305e+02,-7.559406387641702167e+02,-1.559514786745783567e+03,-1.425953909513088547e+03,-6.144091801785607458e+02,-9.311882756205031910e+02,9.140779495239257812e+00,2.294756323099136353e-01,1.453345537185668945e+00,2.420000000000000000e+02
-1.556284086047006667e+03,-1.405872082049687833e+03,-6.416595136503710819e+02,-7.641420705902496593e+02,-1.582088106875405629e+03,-1.443358950046332666e+03,-6.223169827694810010e+02,-9.443422977482082388e+02,9.140779495239257812e+00,2.294756323099136353e-01,1.453345537185668945e+00,2.430000000000000000e+02
-1.578687485249184192e+03,-1.423103989487240597e+03,-6.489747303832727994e+02,-7.722173253928049235e+02,-1.601761070263696638e+03,-1.458435154208579206e+03,-6.277430960973315450e+02,-9.537154740329942797e+02,9.140779495239257812e+00,2.294756323099136353e-01,1.453345537185668945e+00,2.440000000000000000e+02
-1.600265293022762307e+03,-1.440187765422673465e+03,-6.553648166211551143e+02,-7.804748119657679126e+02,-1.618335784397026146e+03,-1.471833737798006041e+03,-6.316026901295999778e+02,-9.607886893093359504e+02,9.140779495239257812e+00,2.294756323099136353e-01,1.453345537185668945e+00,2.450000000000000000e+02
-1.617721540370622506e+03,-1.456365142744420837e+03,-6.617601005615579197e+02,-7.890886392205943594e+02,-1.633009329501630418e+03,-1.484882291577402611e+03,-6.351066892238741275e+02,-9.675688183345678226e+02,9.140779495239257812e+00,2.294756323099136353e-01,1.453345537185668945e+00,2.460000000000000000e+02
-1.629570206946182907e+03,-1.471315189096085987e+03,-6.687276431581335601e+02,-7.984072914548662538e+02,-1.647541895186052443e+03,-1.498787740232795386e+03,-6.390040240327402898e+02,-9.755516484927406964e+02,9.140779495239257812e+00,2.294756323099136353e-01,1.453345537185668945e+00,2.470000000000000000e+02
-1.637410680655963233e+03,-1.485199179533553888e+03,-6.760600280267040034e+02,-8.087656863478384821e+02,-1.663050882320371329e+03,-1.513899213657534801e+03,-6.433982053115882991e+02,-9.851967994473288854e+02,9.140779495239257812e+00,2.294756323099136353e-01,1.453345537185668945e+00,2.480000000000000000e+02
-1.644712776846473616e+03,-1.498190873585492000e+03,-6.829169993416226134e+02,-8.199524354961522477e+02,-1.679286786138280604e+03,-1.529597342285981085e+03,-6.480752872029543141e+02,-9.960461949948225993e+02,9.140779495239257812e+00,2.294756323099136353e-01,1.453345537185668945e+00,2.490000000000000000e+02
-1.654268362551829568e+03,-1.510211332175581219e+03,-6.884882269025865753e+02,-8.309951358281227840e+02,-1.694880187567299799e+03,-1.544842897606778934e+03,-6.528601148281177302e+02,-1.007206760620186742e+03,9.140779495239257812e+00,2.294756323099136353e-01,1.453345537185668945e+00,2.500000000000000000e+02
-1.666532690819484742e+03,-1.521249499880748544e+03,-6.927093464983677222e+02,-8.406463912665533371e+02,-1.708397456110325038e+03,-1.558904996629943071e+03,-6.576796697176678208e+02,-1.017824318914993000e+03,9.140779495239257812e+00,2.294756323099136353e-01,1.453345537185668945e+00,2.510000000000000000e+02
-1.680041503974969601e+03,-1.531828174318144193e+03,-6.964601264340922171e+02,-8.481980829371079835e+02,-1.719474373971287150e+03,-1.571712494339757541e+03,-6.624388513294470613e+02,-1.027363361758455994e+03,9.140779495239257812e+00,2.294756323099136353e-01,1.453345537185668945e+00,2.520000000000000000e+02
-1.693104136167142997e+03,-1.542917868498902408e+03,-7.010140399547472043e+02,-8.538760111528865764e+02,-1.729190606432881850e+03,-1.583656277051898996e+03,-6.670036935380626346e+02,-1.035693584467848723e+03,9.140779495239257812e+00,2.294756323099136353e-01,1.453345537185668945e+00,2.530000000000000000e+02
-1.705054288010406253e+03,-1.555209339261669811e+03,-7.071140996771500795e+02,-8.584778537353820411e+02,-1.739332698155015350e+03,-1.595119539622184675e+03,-6.713646500791201106e+02,-1.043031936469432821e+03,9.255517005920410156e+00,1.529837548732757568e-01,1.491591572761535645e+00,2.540000000000000000e+02
-1.716169981774506596e+03,-1.568434780220633002e+03,-7.144005493498962096e+02,-8.626661067620577796e+02,-1.751053857793695443e+03,-1.606158340800624956e+03,-6.757585584198859578e+02,-1.049767041112088918e+03,9.255517005920410156e+00,1.529837548732757568e-01,1.491591572761535645e+00,2.550000000000000000e+02
-1.726831960443094431e+03,-1.581487650978325973e+03,-7.216686765777758410e+02,-8.666230125450704236e+02,-1.764011326572977396e+03,-1.616576554999541258e+03,-6.805534329399592934e+02,-1.056234534967872605e+03,9.255517005920410156e+00,1.529837548732757568e-01,1.491591572761535645e+00,2.560000000000000000e+02
-1.737023768853328193e+03,-1.593299133179033561e+03,-7.277511699289852913e+02,-8.703251529890912934e+02,-1.776713733635932385e+03,-1.626262589968323937e+03,-6.859471525814847155e+02,-1.062600497636447471e+03,9.255517005920410156e+00,1.529837548732757568e-01,1.491591572761535645e+00,2.570000000000000000e+02
-1.746583872374136035e+03,-1.603641633512287171e+03,-7.322871476805462407e+02,-8.740114821790582482e+02,-1.787766378189305669e+03,-1.635441627253640945e+03,-6.917340112353531367e+02,-1.068936336471847426e+03,9.255517005920410156e+00,1.529837548732757568e-01,1.491591572761535645e+00,2.580000000000000000e+02
-1.755674001324769961e+03,-1.613080061861955983e+03,-7.357673976871478771e+02,-8.782412002088906320e+02,-1.796902715684598661e+03,-1.644591119306390738e+03,-6.973389011315566677e+02,-1.075373453558954225e+03,9.255517005920410156e+00,1.529837548732757568e-01,1.491591572761535645e+00,2.590000000000000000e+02
-1.764802647963829259e+03,-1.622133734593635836e+03,-7.389388108821826791e+02,-8.834373105482441133e+02,-1.804972397404925687e+03,-1.654095010162908238e+03,-7.021036860088420326e+02,-1.082130733154695008e+03,9.255517005920410156e+00,1.529837548732757568e-01,1.491591572761535645e+00,2.600000000000000000e+02
-1.774395322918471493e+03,-1.630522995593519227e+03,-7.422203021655409430e+02,-8.893746116483036985e+02,-1.813110300044745145e+03,-1.663966129145523155e+03,-7.056598359875674760e+02,-1.089329443782304224e+03,9.255517005920410156e+00,1.529837548732757568e-01,1.491591572761535645e+00,2.610000000000000000e+02
-1.784432874733448216e+03,-1.637318185430919129e+03,-7.456378106955053227e+02,-8.951354385086515322e+02,-1.821972533681991536e+03,-1.673860634910720364e+03,-7.081548858075111639e+02,-1.096767920549964856e+03,9.255517005920410156e+00,1.529837548732757568e-01,1.491591572761535645e+00,2.620000000000000000e+02
-1.794517010540877436e+03,-1.641918607711795630e+03,-7.491579906300845551e+02,-8.996179272818834534e+02,-1.831607292775372116e+03,-1.683323884374104182e+03,-7.101851093836933160e+02,-1.103935985915691390e+03,9.255517005920410156e+00,1.529837548732757568e-01,1.491591572761535645e+00,2.630000000000000000e+02
-1.804183712212041428e+03,-1.644907099600772199e+03,-7.528953650791772816e+02,-9.021870023501938931e+02,-1.841727719040964303e+03,-1.692002678569330328e+03,-7.124493639032307328e+02,-1.110335009914834700e+03,9.255517005920410156e+00,1.529837548732757568e-01,1.491591572761535645e+00,2.640000000000000000e+02
-1.813076520662276835e+03,-1.647842350310955226e+03,-7.569165751870543772e+02,-9.029861528345320494e+02,-1.851858729130601887e+03,-1.699677500286781651e+03,-7.153398676706868855e+02,-1.115832702605534678e+03,9.255517005920410156e+00,1.529837548732757568e-01,1.491591572761535645e+00,2.650000000000000000e+02
-1.820908693736104397e+03,-1.652052772219856706e+03,-7.609439986855167035e+02,-9.027713310892111167e+02,-1.861296667375625930e+03,-1.706242436743436656e+03,-7.187544476353555183e+02,-1.120707453718114948e+03,9.255517005920410156e+00,1.529837548732757568e-01,1.491591572761535645e+00,2.660000000000000000e+02
-1.827529479782137969e+03,-1.657513575379692156e+03,-7.644630059025206492e+02,-9.024784232509767889e+02,-1.869253898494728219e+03,-1.711798888161358263e+03,-7.222415298620061321e+02,-1.125345795929565838e+03,9.255517005920410156e+00,1.529837548732757568e-01,1.491591572761535645e+00,2.670000000000000000e+02
-1.833215117223268862e+03,-1.662928515228922606e+03,-7.672598855291372502e+02,-9.028236211239657223e+02,-1.875352274438668928e+03,-1.716788101333833538e+03,-7.253144082890974005e+02,-1.129904642167714201e+03,9.255517005920410156e+00,1.529837548732757568e-01,1.491591572761535645e+00,2.680000000000000000e+02
-1.838830453729074634e+03,-1.667009748440815883e+03,-7.698173188867684757e+02,-9.040827171447822366e+02,-1.880008100586855562e+03,-1.721883336853541095e+03,-7.276499299755259926e+02,-1.134250602770540354e+03,9.255517005920410156e+00,1.529837548732757568e-01,1.491591572761535645e+00,2.690000000000000000e+02
-1.845421952738907294e+03,-1.669745216971925856e+03,-7.730271181565109373e+02,-9.060356600884035743e+02,-1.884153498615714398e+03,-1.727548356530421188e+03,-7.290826162599053077e+02,-1.138167216827806669e+03,9.255517005920410156e+00,1.529837548732757568e-01,1.491591572761535645e+00,2.700000000000000000e+02
-1.853365470838256442e+03,-1.672374805418508458e+03,-7.773626292234564517e+02,-9.080533679994637168e+02,-1.888423192787970038e+03,-1.733590762258808127e+03,-7.295729848301970151e+02,-1.141543344060276468e+03,9.255517005920410156e+00,1.529837548732757568e-01,1.491591572761535645e+00,2.710000000000000000e+02
-1.861839273104060339e+03,-1.676035226172836246e+03,-7.822852782969472401e+02,-9.093252684067994096e+02,-1.892585741175470048e+03,-1.739160983053184282e+03,-7.292947770176422182e+02,-1.144327647101129287e+03,9.255517005920410156e+00,1.529837548732757568e-01,1.491591572761535645e+00,2.720000000000000000e+02
-1.869257472883328319e+03,-1.680398804504772443e+03,-7.864874825308500021e+02,-9.091711383364282710e+02,-1.895811378368499618e+03,-1.743269610060290915e+03,-7.287104900412641655e+02,-1.146357064117769823e+03,9.255517005920410156e+00,1.529837548732757568e-01,1.491591572761535645e+00,2.730000000000000000e+02
-1.874391613616122186e+03,-1.683715501555290075e+03,-7.887802365483163385e+02,-9.072827944983880570e+02,-1.897485842968734460e+03,-1.745387572673925433e+03,-7.283892787720271826e+02,-1.147334669255946437e+03,9.255517005920410156e+00,1.529837548732757568e-01,1.491591572761535645e+00,2.740000000000000000e+02
-1.877148856182620648e+03,-1.684289058350452024e+03,-7.888436571956376611e+02,-9.037646296083021298e+02,-1.897729948846248362e+03,-1.745626715110920486e+03,-7.285995410504617666e+02,-1.147049287568181626e+03,9.255517005920410156e+00,1.529837548732757568e-01,1.491591572761535645e+00,2.750000000000000000e+02
-1.878265195355113519e+03,-1.681965465730953611e+03,-7.872300106740773344e+02,-8.989890514764121008e+02,-1.897153784189657927e+03,-1.744455597058356943e+03,-7.290617794599129411e+02,-1.145585640504941239e+03,9.255517005920410156e+00,1.529837548732757568e-01,1.491591572761535645e+00,2.760000000000000000e+02
-1.878315822200899674e+03,-1.678185782732029793e+03,-7.847547847003945662e+02,-8.934289896314913904e+02,-1.896202367219839971e+03,-1.742339457167510318e+03,-7.291816500899892617e+02,-1.143236454385013076e+03,9.255517005920410156e+00,1.529837548732757568e-01,1.491591572761535645e+00,2.770000000000000000e+02
-1.877187529303746487e+03,-1.674584578464272226e+03,-7.819227665545510035e+02,-8.875992772873928516e+02,-1.894806636820575477e+03,-1.739658259154928146e+03,-7.285734601791476734e+02,-1.140171667379895098e+03,9.255517005920410156e+00,1.529837548732757568e-01,1.491591572761535645e+00,2.780000000000000000e+02
-1.874622215730845028e+03,-1.671560526853453666e+03,-7.788473385995520175e+02,-8.820695505762689663e+02,-1.892613734550044683e+03,-1.736819258849589005e+03,-7.273201441123916311e+02,-1.136237860696362532e+03,9.255517005920410156e+00,1.529837548732757568e-01,1.491591572761535645e+00,2.790000000000000000e+02
-1.871176476806038409e+03,-1.668210539718645123e+03,-7.755561881415064818e+02,-8.773901479317648864e+02,-1.889445018585414800e+03,-1.734236252378327208e+03,-7.257039239919812417e+02,-1.131169511609323308e+03,9.255517005920410156e+00,1.529837548732757568e-01,1.491591572761535645e+00,2.800000000000000000e+02
-1.868385745467624474e+03,-1.663575649093913853e+03,-7.722433032818825041e+02,-8.738692603208628498e+02,-1.885521372462762884e+03,-1.732075065136030844e+03,-7.237661404061052508e+02,-1.125051870527294795e+03,9.293763160705566406e+00,2.294756323099136353e-01,1.491591572761535645e+00,2.810000000000000000e+02
-1.867733678359056285e+03,-1.657859054497520674e+03,-7.692104291298467160e+02,-8.713748788196699024e+02,-1.881328590992419095e+03,-1.730036914149283803e+03,-7.212721007345411408e+02,-1.118560040801438390e+03,9.293763160705566406e+00,2.294756323099136353e-01,1.491591572761535645e+00,2.820000000000000000e+02
-1.869367339077959286e+03,-1.652409893787898682e+03,-7.666336700640616755e+02,-8.694249626084947522e+02,-1.877335133260367911e+03,-1.727507086170585580e+03,-7.181858827669376524e+02,-1.112692009760703286e+03,9.293763160705566406e+00,2.294756323099136353e-01,1.491591572761535645e+00,2.830000000000000000e+02
-1.871875430078158388e+03,-1.648569628650021514e+03,-7.644366137554161469e+02,-8.675876297989872228e+02,-1.873777802073731436e+03,-1.724020777195188884e+03,-7.150976605360400526e+02,-1.108218600580841894e+03,9.293763160705566406e+00,2.294756323099136353e-01,1.491591572761535645e+00,2.840000000000000000e+02
-1.873431518438083231e+03,-1.646580686857468208e+03,-7.623976940451390192e+02,-8.658733602705522117e+02,-1.870592517513541907e+03,-1.719648629625846525e+03,-7.130212843936444642e+02,-1.105349738921896915e+03,9.293763160705566406e+00,2.294756323099136353e-01,1.491591572761535645e+00,2.850000000000000000e+02
-1.873265694787034590e+03,-1.645580833352397576e+03,-7.603819427907387762e+02,-8.647281349115960438e+02,-1.867520560255419241e+03,-1.714971226555804833e+03,-7.126606468739252023e+02,-1.103880495612554114e+03,9.293763160705566406e+00,2.294756323099136353e-01,1.491591572761535645e+00,2.860000000000000000e+02
-1.872143749505118649e+03,-1.644541434306036990e+03,-7.584936198208647511e+02,-8.645704131166003208e+02,-1.864372528280901179e+03,-1.710677717443511710e+03,-7.138309915766706126e+02,-1.103557622909031124e+03,9.293763160705566406e+00,2.294756323099136353e-01,1.491591572761535645e+00,2.870000000000000000e+02
-1.871537689142136969e+03,-1.643135607062602048e+03,-7.570457108520903375e+02,-8.652950478356474378e+02,-1.861292974561128631e+03,-1.707133084160722547e+03,-7.155781176841064735e+02,-1.104194138278439141e+03,9.293763160705566406e+00,2.294756323099136353e-01,1.491591572761535645e+00,2.880000000000000000e+02
-1.872353514114719246e+03,-1.641747490529155584e+03,-7.563795181404136656e+02,-8.662555186479630720e+02,-1.858738325993643684e+03,-1.704209704434524156e+03,-7.168400092763306475e+02,-1.105416482754004846e+03,9.293763160705566406e+00,2.294756323099136353e-01,1.491591572761535645e+00,2.890000000000000000e+02
-1.874320909215164647e+03,-1.640795681326860176e+03,-7.566506837712704510e+02,-8.667876517528550266e+02,-1.857083387410619935e+03,-1.701448831886491007e+03,-7.170538778285967965e+02,-1.106448216693715722e+03,9.293763160705566406e+00,2.294756323099136353e-01,1.491591572761535645e+00,2.900000000000000000e+02
-1.876414617385359861e+03,-1.640169892832451978e+03,-7.577241744562567192e+02,-8.667766462877447111e+02,-1.856200240071338612e+03,-1.698431351291267219e+03,-7.163144119220728498e+02,-1.106386869146253957e+03,9.293763160705566406e+00,2.294756323099136353e-01,1.491591572761535645e+00,2.910000000000000000e+02
-1.877734768122785226e+03,-1.639351374751553067e+03,-7.592649966572216726e+02,-8.666768045038563741e+02,-1.855462764320838687e+03,-1.695113372970703040e+03,-7.151706927362923807e+02,-1.104901754649530858e+03,9.293763160705566406e+00,2.294756323099136353e-01,1.491591572761535645e+00,2.920000000000000000e+02
-1.878053509370206484e+03,-1.637999316856347150e+03,-7.609659156347324824e+02,-8.669218160325208373e+02,-1.854242728629346857e+03,-1.691901724450211532e+03,-7.143405567723798413e+02,-1.102692772615347621e+03,9.293763160705566406e+00,2.294756323099136353e-01,1.491591572761535645e+00,2.930000000000000000e+02
-1.877727464891460613e+03,-1.636295093705776935e+03,-7.626911793233739445e+02,-8.672899610706760996e+02,-1.852394973729148433e+03,-1.689345964830051116e+03,-7.144080706975616977e+02,-1.101074098927720343e+03,9.293763160705566406e+00,2.294756323099136353e-01,1.491591572761535645e+00,2.940000000000000000e+02
-1.877165759514062074e+03,-1.634628996535334636e+03,-7.643563198405142884e+02,-8.668912824749351103e+02,-1.850193882232975739e+03,-1.687607511660820819e+03,-7.154618989013342798e+02,-1.100833737972877543e+03,9.293763160705566406e+00,2.294756323099136353e-01,1.491591572761535645e+00,2.950000000000000000e+02
-1.876267713016297648e+03,-1.632965664869604780e+03,-7.656293249931729861e+02,-8.648629620666680466e+02,-1.847792604944922459e+03,-1.686137603861826619e+03,-7.168470912274675584e+02,-1.101332100880320922e+03,9.293763160705566406e+00,2.294756323099136353e-01,1.491591572761535645e+00,2.960000000000000000e+02
-1.874242551858902971e+03,-1.630631406087898995e+03,-7.658043674978778199e+02,-8.611618643503074964e+02,-1.844831102926935728e+03,-1.683923051434937179e+03,-7.173665899419013385e+02,-1.100792489365232541e+03,9.293763160705566406e+00,2.294756323099136353e-01,1.491591572761535645e+00,2.970000000000000000e+02
-1.870015906482679611e+03,-1.626877769380693508e+03,-7.641422543362130000e+02,-8.567299216086582874e+02,-1.840688085281796702e+03,-1.680217760240216421e+03,-7.160219922330900317e+02,-1.097747829796241149e+03,9.293763160705566406e+00,2.294756323099136353e-01,1.491591572761535645e+00,2.980000000000000000e+02
-1.863015720135932497e+03,-1.621754118133931115e+03,-7.605167388485574520e+02,-8.528687877798240606e+02,-1.835151471341901697e+03,-1.675171191940557947e+03,-7.128026142355116690e+02,-1.092468500600409925e+03,9.293763160705566406e+00,2.294756323099136353e-01,1.491591572761535645e+00,2.990000000000000000e+02
-1.853709527262295069e+03,-1.616403331407337646e+03,-7.558029046020303667e+02,-8.503636728359986137e+02,-1.828802355091647087e+03,-1.669764725857442727e+03,-7.088190238957707834e+02,-1.087041955880389196e+03,9.293763160705566406e+00,2.294756323099136353e-01,1.491591572761535645e+00,3.000000000000000000e+02
-1.843285727679799948e+03,-1.612354011524688303e+03,-7.515368979739923816e+02,-8.490734033863312789e+02,-1.822700577299651286e+03,-1.665048851263783035e+03,-7.055627782040279499e+02,-1.083857999960217967e+03,9.293763160705566406e+00,2.294756323099136353e-01,1.491591572761535645e+00,3.010000000000000000e+02
-1.832548637092312902e+03,-1.610366076399413259e+03,-7.489818289082110141e+02,-8.482571474547833077e+02,-1.817636868451980263e+03,-1.661311040450575774e+03,-7.038645232659379189e+02,-1.083695180019680947e+03,9.293763160705566406e+00,2.294756323099136353e-01,1.491591572761535645e+00,3.020000000000000000e+02
-1.820941998466603536e+03,-1.609889541547299359e+03,-7.483299067711816406e+02,-8.472735717224862810e+02,-1.813611621879021413e+03,-1.657891588080274232e+03,-7.034434632254032067e+02,-1.085067042571559341e+03,9.293763160705566406e+00,2.294756323099136353e-01,1.491591572761535645e+00,3.030000000000000000e+02
-1.806740133247643826e+03,-1.609638406413757366e+03,-7.487136517400358571e+02,-8.460508623768081407e+02,-1.809910196461835994e+03,-1.653777038895291298e+03,-7.033902660245850029e+02,-1.085426734237249775e+03,9.293763160705566406e+00,2.294756323099136353e-01,1.491591572761535645e+00,3.040000000000000000e+02
-1.788488847607403159e+03,-1.608701218824116495e+03,-7.489898314203551308e+02,-8.449933488313077987e+02,-1.805602452503324912e+03,-1.648424575938037833e+03,-7.030733435421359445e+02,-1.083187261808012863e+03,9.293763160705566406e+00,2.294756323099136353e-01,1.491591572761535645e+00,3.050000000000000000e+02
-1.766516906548009729e+03,-1.607084469479076688e+03,-7.485737155494374520e+02,-8.444679789023439298e+02,-1.800043850708551645e+03,-1.642131845977635066e+03,-7.026215584419911693e+02,-1.078810507615428378e+03,9.293763160705566406e+00,2.294756323099136353e-01,1.491591572761535645e+00,3.060000000000000000e+02
-1.743116216881072887e+03,-1.605245528477307062e+03,-7.476073874670166788e+02,-8.443406736472123839e+02,-1.793103811919758527e+03,-1.635725194717380418e+03,-7.025889589994820881e+02,-1.074114267032645785e+03,9.293763160705566406e+00,2.294756323099136353e-01,1.491591572761535645e+00,3.070000000000000000e+02
-1.721147554575247113e+03,-1.603258668077696711e+03,-7.464394756281780019e+02,-8.439627818369211809e+02,-1.785123233309882835e+03,-1.629932291976013403e+03,-7.031958968961065466e+02,-1.070576439599999503e+03,9.293763160705566406e+00,2.294756323099136353e-01,1.491591572761535645e+00,3.080000000000000000e+02
-1.702278022870853874e+03,-1.600593435314634917e+03,-7.450616717000046947e+02,-8.426228448162271434e+02,-1.776716314367844461e+03,-1.624968480858642124e+03,-7.038987461162729460e+02,-1.068219775047750773e+03,9.293763160705566406e+00,2.294756323099136353e-01,1.491591572761535645e+00,3.090000000000000000e+02
-1.686358756248373311e+03,-1.596700886329749665e+03,-7.431089812854129377e+02,-8.400789400260816819e+02,-1.768525392773020030e+03,-1.620553667627275900e+03,-7.037006573411895261e+02,-1.065941761278665354e+03,9.293763160705566406e+00,2.294756323099136353e-01,1.491591572761535645e+00,3.100000000000000000e+02
-1.672284009426510011e+03,-1.591628542704256233e+03,-7.403621580763451675e+02,-8.366957979304279434e+02,-1.761030396981553395e+03,-1.616187469490845160e+03,-7.019291292037601124e+02,-1.062736841096371336e+03,9.293763160705566406e+00,2.294756323099136353e-01,1.491591572761535645e+00,3.110000000000000000e+02
-1.659300545567563404e+03,-1.585864230967829826e+03,-7.371212966117353744e+02,-8.330270190469935869e+02,-1.754452181901912354e+03,-1.611360787465090880e+03,-6.987609493977549846e+02,-1.058518248342091738e+03,9.293763160705566406e+00,1.912296712398529053e-01,1.529837369918823242e+00,3.120000000000000000e+02
-1.647501698119953517e+03,-1.579555768577471099e+03,-7.339692783875020723e+02,-8.291945381397490564e+02,-1.748714893508935347e+03,-1.605589167141364442e+03,-6.950138658239900451e+02,-1.053857293042172842e+03,9.293763160705566406e+00,1.912296712398529053e-01,1.529837369918823242e+00,3.130000000000000000e+02
-1.637281549931733480e+03,-1.572083335659926661e+03,-7.311435620432220048e+02,-8.246646310780836302e+02,-1.743415718129894231e+03,-1.598422670050925262e+03,-6.913974228111937919e+02,-1.049152676143915869e+03,9.293763160705566406e+00,1.912296712398529053e-01,1.529837369918823242e+00,3.140000000000000000e+02
-1.628610770656844124e+03,-1.562625587910793911e+03,-7.282066716932491772e+02,-8.187093792395990022e+02,-1.737843804765471987e+03,-1.589627684917101760e+03,-6.879221929093198469e+02,-1.044200432581467339e+03,9.293763160705566406e+00,1.912296712398529053e-01,1.529837369918823242e+00,3.150000000000000000e+02
-1.621012643626744193e+03,-1.551212950788532453e+03,-7.244448555227359066e+02,-8.112020023721174766e+02,-1.731189922706728794e+03,-1.579496432985409228e+03,-6.840299906972973076e+02,-1.038554536439324238e+03,9.293763160705566406e+00,1.912296712398529053e-01,1.529837369918823242e+00,3.160000000000000000e+02
-1.614191207393866989e+03,-1.539125832030906849e+03,-7.196534433162227060e+02,-8.030107188765477986e+02,-1.722954087381307545e+03,-1.568952110321522014e+03,-6.793111177666802405e+02,-1.032162046158450721e+03,9.293763160705566406e+00,1.912296712398529053e-01,1.529837369918823242e+00,3.170000000000000000e+02
-1.608461384401812893e+03,-1.528102664831097627e+03,-7.145147814674496658e+02,-7.955551046025847199e+02,-1.713284791872704318e+03,-1.559168162634988448e+03,-6.740911499053270290e+02,-1.025508050280217276e+03,9.293763160705566406e+00,1.912296712398529053e-01,1.529837369918823242e+00,3.180000000000000000e+02
-1.604348625011938339e+03,-1.519052512966880158e+03,-7.101442064864058921e+02,-7.898406674571881467e+02,-1.702907248483865260e+03,-1.550835575478914507e+03,-6.692730392979919998e+02,-1.019146992185106910e+03,9.293763160705566406e+00,1.912296712398529053e-01,1.529837369918823242e+00,3.190000000000000000e+02
-1.601665619266306749e+03,-1.511473487718565593e+03,-7.072123332343485345e+02,-7.857779410690338864e+02,-1.692626463834314563e+03,-1.543656307778604059e+03,-6.655720819870114155e+02,-1.013199518702788055e+03,9.293763160705566406e+00,1.912296712398529053e-01,1.529837369918823242e+00,3.200000000000000000e+02
-1.599016035400735518e+03,-1.504040891568568441e+03,-7.054590202190993296e+02,-7.823533236762521028e+02,-1.682843961943150589e+03,-1.536595147848865281e+03,-6.628962154709849983e+02,-1.007374554826543999e+03,9.293763160705566406e+00,1.912296712398529053e-01,1.529837369918823242e+00,3.210000000000000000e+02
-1.594356207043661925e+03,-1.495706909613074913e+03,-7.040050304808307828e+02,-7.784537904414903551e+02,-1.673523044758212109e+03,-1.528776118886766426e+03,-6.604564894930548462e+02,-1.001447881787532992e+03,9.293763160705566406e+00,1.912296712398529053e-01,1.529837369918823242e+00,3.220000000000000000e+02
-1.586265449645991339e+03,-1.486317349361217111e+03,-7.020866643728970757e+02,-7.736219801145050496e+02,-1.664561365898468921e+03,-1.520259686408349808e+03,-6.574536582635455488e+02,-9.956273924394438382e+02,9.293763160705566406e+00,1.912296712398529053e-01,1.529837369918823242e+00,3.230000000000000000e+02
-1.574921750040875850e+03,-1.476425783409865289e+03,-6.995021021466939146e+02,-7.681895817847819217e+02,-1.656064612529838314e+03,-1.511950853410833133e+03,-6.536420004393401086e+02,-9.903814762103213525e+02,9.293763160705566406e+00,1.912296712398529053e-01,1.529837369918823242e+00,3.240000000000000000e+02
-1.562004333623668572e+03,-1.466782619265393350e+03,-6.964546372554955269e+02,-7.628431687801208909e+02,-1.648160708691539639e+03,-1.504685551888734608e+03,-6.492977320999943913e+02,-9.858967419275118118e+02,9.293763160705566406e+00,1.912296712398529053e-01,1.529837369918823242e+00,3.250000000000000000e+02
-1.549616615584509418e+03,-1.458022918928205399e+03,-6.931005307277174552e+02,-7.580929729212341499e+02,-1.640583786453161338e+03,-1.498347100263329139e+03,-6.447867851712874199e+02,-9.817111671988279795e+02,9.293763160705566406e+00,1.912296712398529053e-01,1.529837369918823242e+00,3.260000000000000000e+02
-1.539056665698148663e+03,-1.450593331489491447e+03,-6.893316862838494217e+02,-7.540290834147249370e+02,-1.632578193259525506e+03,-1.491842665447753234e+03,-6.402688333334860999e+02,-9.768825956482982065e+02,9.293763160705566406e+00,1.912296712398529053e-01,1.529837369918823242e+00,3.270000000000000000e+02
-1.530318330252160649e+03,-1.444617268066116822e+03,-6.849757871364893163e+02,-7.503832129502477528e+02,-1.623349289891224998e+03,-1.483963050098123858e+03,-6.357844145841943373e+02,-9.705679057181932876e+02,9.293763160705566406e+00,1.912296712398529053e-01,1.529837369918823242e+00,3.280000000000000000e+02
-1.522549984397585831e+03,-1.439631560270648833e+03,-6.801332889908618426e+02,-7.467076894932939695e+02,-1.612675558453133362e+03,-1.474323663112727445e+03,-6.314813360571313297e+02,-9.625846787253665298e+02,9.293763160705566406e+00,1.912296712398529053e-01,1.529837369918823242e+00,3.290000000000000000e+02
-1.514939831755145178e+03,-1.434540526907507001e+03,-6.752787058983496991e+02,-7.425814646982320255e+02,-1.601113408245358869e+03,-1.463582975796060055e+03,-6.276500567175758079e+02,-9.535895690194472536e+02,9.293763160705566406e+00,1.912296712398529053e-01,1.529837369918823242e+00,3.300000000000000000e+02
-1.507244628259737055e+03,-1.428083513707757902e+03,-6.710324628261856788e+02,-7.378295569005586003e+02,-1.589646116451924172e+03,-1.452896551346318574e+03,-6.245763505155088069e+02,-9.447861634037099066e+02,9.293763160705566406e+00,1.912296712398529053e-01,1.529837369918823242e+00,3.310000000000000000e+02
-1.499608059139259467e+03,-1.419581060665815585e+03,-6.678000657239333577e+02,-7.326720769942739935e+02,-1.579097779186136904e+03,-1.443202763801789843e+03,-6.224341510386399250e+02,-9.373270785756218402e+02,9.293763160705566406e+00,1.912296712398529053e-01,1.529837369918823242e+00,3.320000000000000000e+02
-1.491986334334883395e+03,-1.409346112735043334e+03,-6.655098041729681881e+02,-7.276311187036985757e+02,-1.569726827027528316e+03,-1.434885716035201540e+03,-6.212952343867327727e+02,-9.317093727623050654e+02,9.293763160705566406e+00,1.912296712398529053e-01,1.491591572761535645e+00,3.330000000000000000e+02
-1.483809698893571294e+03,-1.398359004678894280e+03,-6.635489161921184404e+02,-7.231370428188613459e+02,-1.561135950956892430e+03,-1.427828641956560659e+03,-6.210657063446813027e+02,-9.274790624805204970e+02,9.293763160705566406e+00,1.912296712398529053e-01,1.491591572761535645e+00,3.340000000000000000e+02
-1.474243721648605742e+03,-1.387486698198834574e+03,-6.609394307790516905e+02,-7.190864948365109512e+02,-1.552436413843115588e+03,-1.421551680800049780e+03,-6.212540076370802353e+02,-9.234479410761756526e+02,9.293763160705566406e+00,1.912296712398529053e-01,1.491591572761535645e+00,3.350000000000000000e+02
-1.462842890463050935e+03,-1.376956527505524491e+03,-6.567715642627515535e+02,-7.147781121566645197e+02,-1.542646364039171658e+03,-1.415305964228752600e+03,-6.208510154205109757e+02,-9.183505609514658090e+02,9.293763160705566406e+00,1.912296712398529053e-01,1.491591572761535645e+00,3.360000000000000000e+02
-1.450040177187318704e+03,-1.366495323730327527e+03,-6.507639008047643756e+02,-7.093732473821338544e+02,-1.531246038054911878e+03,-1.408256037253504473e+03,-6.186815713917119410e+02,-9.115443064823866735e+02,9.293763160705566406e+00,1.912296712398529053e-01,1.491591572761535645e+00,3.370000000000000000e+02
-1.437035165695270734e+03,-1.355870924529718195e+03,-6.435685124885637833e+02,-7.025180141226103387e+02,-1.518580360006493720e+03,-1.399823272929167388e+03,-6.141412061245841869e+02,-9.032680133842219448e+02,9.293763160705566406e+00,1.912296712398529053e-01,1.491591572761535645e+00,3.380000000000000000e+02
-1.425116279336459684e+03,-1.345218310483249979e+03,-6.364430073129965422e+02,-6.945608837174302153e+02,-1.505689881911209795e+03,-1.389948829546799971e+03,-6.076911777612849619e+02,-8.942870427501958375e+02,9.293763160705566406e+00,1.912296712398529053e-01,1.491591572761535645e+00,3.390000000000000000e+02
-1.414906654773868695e+03,-1.334821346192885812e+03,-6.303816033554284104e+02,-6.861809943701053953e+02,-1.493539365797933442e+03,-1.378990912919367474e+03,-6.005749710195473199e+02,-8.852655493794319455e+02,9.293763160705566406e+00,1.912296712398529053e-01,1.491591572761535645e+00,3.400000000000000000e+02
-1.406085629944068387e+03,-1.324662363797656326e+03,-6.253744500026889455e+02,-6.778385246848102952e+02,-1.482260912636440025e+03,-1.367345221699865306e+03,-5.939497944885613379e+02,-8.764401145329059091e+02,9.293763160705566406e+00,1.912296712398529053e-01,1.491591572761535645e+00,3.410000000000000000e+02
-1.397806298453634554e+03,-1.314334608442227818e+03,-6.205216776238264629e+02,-6.696364303708568286e+02,-1.471152584569646933e+03,-1.355213696550263194e+03,-5.882319833955912145e+02,-8.678665249414024174e+02,9.293763160705566406e+00,1.912296712398529053e-01,1.491591572761535645e+00,3.420000000000000000e+02
-1.389506424627086972e+03,-1.303511593619785344e+03,-6.150135331629857092e+02,-6.617331656327249902e+02,-1.459512975591867416e+03,-1.342791922092831328e+03,-5.832384435373614906e+02,-8.599258386867865056e+02,9.293763160705566406e+00,1.912296712398529053e-01,1.491591572761535645e+00,3.430000000000000000e+02
-1.381479110018816527e+03,-1.292523598996219789e+03,-6.091060503145962457e+02,-6.548001353413260404e+02,-1.447511830167143444e+03,-1.330606979330220611e+03,-5.788486605703944861e+02,-8.534818233364926527e+02,9.293763160705566406e+00,1.912296712398529053e-01,1.491591572761535645e+00,3.440000000000000000e+02
-1.374694312690526431e+03,-1.282372759956829896e+03,-6.041115130946712952e+02,-6.498918915513590946e+02,-1.436193158463939653e+03,-1.319476570479806924e+03,-5.753843280904150106e+02,-8.493922402378580045e+02,9.293763160705566406e+00,1.912296712398529053e-01,1.491591572761535645e+00,3.450000000000000000e+02
-1.369935437801600983e+03,-1.274045988906416824e+03,-6.012786435010243622e+02,-6.476864452359581037e+02,-1.426560631630062971e+03,-1.309963926451440102e+03,-5.732626985246697586e+02,-8.477260095932628019e+02,9.293763160705566406e+00,1.912296712398529053e-01,1.491591572761535645e+00,3.460000000000000000e+02
-1.366946401056642117e+03,-1.267747900540699902e+03,-6.005631193053607149e+02,-6.477793556005726714e+02,-1.418616899191803441e+03,-1.301833263202442367e+03,-5.723260662962920833e+02,-8.474307545075098460e+02,9.293763160705566406e+00,1.912296712398529053e-01,1.491591572761535645e+00,3.470000000000000000e+02
-1.364397948546587941e+03,-1.262776846715134070e+03,-6.004876073554171398e+02,-6.487788551500436824e+02,-1.411278770998471373e+03,-1.294139475359967491e+03,-5.716597571822858299e+02,-8.468638711732417050e+02,9.293763160705566406e+00,1.912296712398529053e-01,1.491591572761535645e+00,3.480000000000000000e+02
-1.360802435503864899e+03,-1.258128354181600344e+03,-5.992895017438345349e+02,-6.492008756078693068e+02,-1.403227010080608579e+03,-1.285977518196273650e+03,-5.702094965410610712e+02,-8.448242600548396695e+02,9.293763160705566406e+00,1.912296712398529053e-01,1.491591572761535645e+00,3.490000000000000000e+02
-1.355592511920270681e+03,-1.253183198074397296e+03,-5.963451706133350854e+02,-6.483836213736835816e+02,-1.393912241662340193e+03,-1.277214852750631508e+03,-5.676657983530553793e+02,-8.412605662925025172e+02,9.293763160705566406e+00,1.912296712398529053e-01,1.491591572761535645e+00,3.500000000000000000e+02
-1.349374118073202453e+03,-1.247798967726379487e+03,-5.925660931972363414e+02,-6.466066876502123932e+02,-1.383873588237033800e+03,-1.268499141463243177e+03,-5.647675540549807920e+02,-8.370778608203181648e+02,9.293763160705566406e+00,1.912296712398529053e-01,1.491591572761535645e+00,3.510000000000000000e+02
-1.343108080838494061e+03,-1.241863551153413937e+03,-5.894075035444177502e+02,-6.443861401651480492e+02,-1.374184061916948849e+03,-1.260508657640654974e+03,-5.626673415655952795e+02,-8.332335531761600578e+02,9.293763160705566406e+00,1.912296712398529053e-01,1.491591572761535645e+00,3.520000000000000000e+02
-1.337038423258653211e+03,-1.234988379643096778e+03,-5.874385041804835055e+02,-6.417365776312392427e+02,-1.365537526360115407e+03,-1.253174159808798549e+03,-5.618671495616758875e+02,-8.299069381348103889e+02,9.293763160705566406e+00,1.912296712398529053e-01,1.491591572761535645e+00,3.530000000000000000e+02
-1.330446314935412829e+03,-1.226817734760624262e+03,-5.857998570726042544e+02,-6.381832702710387366e+02,-1.357668567618496127e+03,-1.245638427994376116e+03,-5.616582583625333882e+02,-8.264257583144280943e+02,9.293763160705566406e+00,1.912296712398529053e-01,1.491591572761535645e+00,3.540000000000000000e+02
-1.322453009384720190e+03,-1.217584678775320072e+03,-5.830162552300930656e+02,-6.334754514011485753e+02,-1.349499696192784995e+03,-1.237025356227800330e+03,-5.605909513024930675e+02,-8.219605429880011798e+02,9.293763160705566406e+00,1.912296712398529053e-01,1.491591572761535645e+00,3.550000000000000000e+02
-1.312986002487006999e+03,-1.208111659510799882e+03,-5.783590013687658029e+02,-6.281535467776990345e+02,-1.339902429283988567e+03,-1.227315512778971424e+03,-5.576174738310708108e+02,-8.163161690032991373e+02,9.293763160705566406e+00,1.912296712398529053e-01,1.491591572761535645e+00,3.560000000000000000e+02
-1.302847347678050028e+03,-1.199036413778237602e+03,-5.724507130250340197e+02,-6.232281685955788362e+02,-1.328513332502065850e+03,-1.217480768837551523e+03,-5.529294438463427923e+02,-8.100868300715383157e+02,9.293763160705566406e+00,1.912296712398529053e-01,1.491591572761535645e+00,3.570000000000000000e+02
-1.292790760781641438e+03,-1.190025350558800483e+03,-5.665673127721954643e+02,-6.191845396852914973e+02,-1.315982165071191048e+03,-1.208689804957903561e+03,-5.477387855783413215e+02,-8.040379626979211025e+02,9.255517005920410156e+00,1.529837548732757568e-01,1.491591572761535645e+00,3.580000000000000000e+02
-1.282592172068001901e+03,-1.179921105884060125e+03,-5.613449600475819352e+02,-6.153227304911420106e+02,-1.303406889199690795e+03,-1.201233699234228652e+03,-5.431550180048598122e+02,-7.982740421927790067e+02,9.255517005920410156e+00,1.529837548732757568e-01,1.491591572761535645e+00,3.590000000000000000e+02
-1.271121694633171046e+03,-1.167822688259658207e+03,-5.561494826776975060e+02,-6.102149824218896583e+02,-1.291389894787227604e+03,-1.194124490952408223e+03,-5.391544199655158991e+02,-7.919506892054532727e+02,9.255517005920410156e+00,1.529837548732757568e-01,1.491591572761535645e+00,3.600000000000000000e+02
-1.257384634525536967e+03,-1.154029966390541176e+03,-5.497201878963733179e+02,-6.029759608476922494e+02,-1.279573888973486419e+03,-1.185784520754499226e+03,-5.346129246672080626e+02,-7.838460526135547752e+02,9.255517005920410156e+00,1.529837548732757568e-01,1.491591572761535645e+00,3.610000000000000000e+02
-1.241524701497686237e+03,-1.139851706301148170e+03,-5.414906336454437223e+02,-5.941686243388464845e+02,-1.267124109546027285e+03,-1.175278077931048529e+03,-5.283993291632455112e+02,-7.733707382914774371e+02,9.255517005920410156e+00,1.529837548732757568e-01,1.491591572761535645e+00,3.620000000000000000e+02
-1.224841009078148318e+03,-1.126472062762867836e+03,-5.323403378564089508e+02,-5.854572998788826226e+02,-1.253723634367581099e+03,-1.163046506555169117e+03,-5.205233247979551834e+02,-7.612051693386417810e+02,9.255517005920410156e+00,1.529837548732757568e-01,1.491591572761535645e+00,3.630000000000000000e+02
-1.208905942526654599e+03,-1.114077982107537991e+03,-5.240710422670249500e+02,-5.782819140462609084e+02,-1.240085962321867555e+03,-1.150520268811595543e+03,-5.122478986543960673e+02,-7.490303849104207075e+02,9.255517005920410156e+00,1.529837548732757568e-01,1.491591572761535645e+00,3.640000000000000000e+02
-1.194682283696914055e+03,-1.102117402021283169e+03,-5.180862645430329394e+02,-5.727523231288191710e+02,-1.227438527657799114e+03,-1.138976664719024939e+03,-5.050624501803754356e+02,-7.385346788027968614e+02,9.255517005920410156e+00,1.529837548732757568e-01,1.491591572761535645e+00,3.650000000000000000e+02
-1.182356841489300223e+03,-1.090295994586900633e+03,-5.144570129463897956e+02,-5.677533505963884863e+02,-1.216484972878361077e+03,-1.128679600230783080e+03,-4.995236102733499592e+02,-7.304713559799829454e+02,9.255517005920410156e+00,1.529837548732757568e-01,1.491591572761535645e+00,3.660000000000000000e+02
-1.171773980058366078e+03,-1.079132644540246247e+03,-5.121373643789218022e+02,-5.621181825897624549e+02,-1.206885537588452962e+03,-1.119012283253350915e+03,-4.950521729618294557e+02,-7.244817846045027636e+02,9.255517005920410156e+00,1.529837548732757568e-01,1.491591572761535645e+00,3.670000000000000000e+02
-1.162795065459942634e+03,-1.069458575629974575e+03,-5.099971289296324812e+02,-5.557604140226474101e+02,-1.197724247387840251e+03,-1.109347283604884979e+03,-4.907799683491255109e+02,-7.197114387766391701e+02,9.255517005920410156e+00,1.529837548732757568e-01,1.491591572761535645e+00,3.680000000000000000e+02
-1.155219874009602563e+03,-1.061496043173314320e+03,-5.076639716864617640e+02,-5.497556121833135876e+02,-1.188400881575699714e+03,-1.099729417000796047e+03,-4.864952033766462591e+02,-7.155882851834144276e+02,9.255517005920410156e+00,1.529837548732757568e-01,1.491591572761535645e+00,3.690000000000000000e+02
-1.148548619116250393e+03,-1.054602275552272431e+03,-5.054842496026024037e+02,-5.453668193719686315e+02,-1.179029401306166847e+03,-1.090735258214218902e+03,-4.827325051621151033e+02,-7.120614079671395302e+02,9.255517005920410156e+00,1.529837548732757568e-01,1.491591572761535645e+00,3.700000000000000000e+02
-1.142034741597257835e+03,-1.047947282741266463e+03,-5.038103759507375798e+02,-5.429499923714945453e+02,-1.170059184946054984e+03,-1.082780363995851303e+03,-4.800220590186397658e+02,-7.091722355635408803e+02,9.255517005920410156e+00,1.529837548732757568e-01,1.491591572761535645e+00,3.710000000000000000e+02
-1.135065222101641666e+03,-1.041297554592759752e+03,-5.024282987392912219e+02,-5.416952126201501869e+02,-1.161671571163056342e+03,-1.075672415702259968e+03,-4.781589038438728494e+02,-7.065379294226102047e+02,9.255517005920410156e+00,1.529837548732757568e-01,1.491591572761535645e+00,3.720000000000000000e+02
-1.127445224545108204e+03,-1.034984646497339781e+03,-5.006661970504549117e+02,-5.403427733629675913e+02,-1.153633408414553060e+03,-1.068864207189793888e+03,-4.762484686843454256e+02,-7.034015212554852496e+02,9.255517005920410156e+00,1.529837548732757568e-01,1.491591572761535645e+00,3.730000000000000000e+02
-1.119236153292857352e+03,-1.029122824479170276e+03,-4.979743096776292077e+02,-5.381475776983463675e+02,-1.145649573761725378e+03,-1.062047092998475591e+03,-4.734153099864377054e+02,-6.992568683869640154e+02,9.255517005920410156e+00,1.529837548732757568e-01,1.491591572761535645e+00,3.740000000000000000e+02
-1.110344454727405946e+03,-1.023019992907675714e+03,-4.943509422193615137e+02,-5.352368925116279570e+02,-1.137686376512779816e+03,-1.055373143792728115e+03,-4.694302739424636002e+02,-6.943725106390945712e+02,9.255517005920410156e+00,1.529837548732757568e-01,1.491591572761535645e+00,3.750000000000000000e+02
-1.100401323362133098e+03,-1.015531786032131549e+03,-4.902510769994821658e+02,-5.321573626735098514e+02,-1.129877319222435972e+03,-1.049062276959157316e+03,-4.647308363630643271e+02,-6.895673112698332261e+02,9.255517005920410156e+00,1.529837548732757568e-01,1.491591572761535645e+00,3.760000000000000000e+02
-1.089184830674846808e+03,-1.006062811606127525e+03,-4.861709941566216457e+02,-5.291521846408008969e+02,-1.122173560798204790e+03,-1.042861987453439724e+03,-4.599498923051455677e+02,-6.853433682205140940e+02,9.255517005920410156e+00,1.529837548732757568e-01,1.491591572761535645e+00,3.770000000000000000e+02
-1.077180894034771427e+03,-9.951730457729950103e+02,-4.823542271802675714e+02,-5.258893573274551727e+02,-1.114194945298904713e+03,-1.036018686389646518e+03,-4.554615765489966179e+02,-6.812242710708358118e+02,9.255517005920410156e+00,1.529837548732757568e-01,1.491591572761535645e+00,3.780000000000000000e+02
-1.065604477432643080e+03,-9.841286351055337036e+02,-4.788116727527713010e+02,-5.218554260284176962e+02,-1.105471309887568623e+03,-1.027876603469227121e+03,-4.512714215169130512e+02,-6.760414563913218444e+02,9.255517005920410156e+00,1.529837548732757568e-01,1.491591572761535645e+00,3.790000000000000000e+02
-1.055681740503683159e+03,-9.738057600482543421e+02,-4.754709983997506697e+02,-5.169457042109438589e+02,-1.095824245649379009e+03,-1.018524996525168262e+03,-4.471667694636989836e+02,-6.689856723851271454e+02,9.255517005920410156e+00,1.529837548732757568e-01,1.491591572761535645e+00,3.800000000000000000e+02
-1.047778029404746121e+03,-9.639728568856617130e+02,-4.722160302722404595e+02,-5.116067515155941692e+02,-1.085535530922314365e+03,-1.008824138993008091e+03,-4.428999157939178986e+02,-6.604284829869766327e+02,9.255517005920410156e+00,1.529837548732757568e-01,1.491591572761535645e+00,3.810000000000000000e+02
-1.041200190968635980e+03,-9.536143248251062232e+02,-4.688219088916503097e+02,-5.063676996408139530e+02,-1.075188027683004293e+03,-9.997145475418265050e+02,-4.382996891676552877e+02,-6.516926111106552071e+02,9.255517005920410156e+00,1.529837548732757568e-01,1.491591572761535645e+00,3.820000000000000000e+02
-1.034894435094186065e+03,-9.419990680549510671e+02,-4.649909392311080865e+02,-5.012566028696051035e+02,-1.065333784592401116e+03,-9.914042581790567965e+02,-4.333434356527950513e+02,-6.439741967123313771e+02,9.255517005920410156e+00,1.529837548732757568e-01,1.491591572761535645e+00,3.830000000000000000e+02
-1.028368389375064908e+03,-9.295418990936443606e+02,-4.605656137765543008e+02,-4.957581153418798294e+02,-1.056210140034797405e+03,-9.831691069727362446e+02,-4.281911370254611029e+02,-6.374479837249448337e+02,9.255517005920410156e+00,1.529837548732757568e-01,1.491591572761535645e+00,3.840000000000000000e+02
-1.021895642030450063e+03,-9.176951644109515200e+02,-4.557159927728789626e+02,-4.894274360927106500e+02,-1.047661378826501277e+03,-9.739873668920699856e+02,-4.231183149571074864e+02,-6.313800271444774808e+02,9.255517005920410156e+00,1.529837548732757568e-01,1.491591572761535645e+00,3.850000000000000000e+02
-1.015798670924659518e+03,-9.079305590750345800e+02,-4.508410763670431152e+02,-4.825645292751339639e+02,-1.039299017322407963e+03,-9.635011998064878753e+02,-4.183458416151956953e+02,-6.250372283656006402e+02,9.255517005920410156e+00,1.529837548732757568e-01,1.491591572761535645e+00,3.860000000000000000e+02
-1.009627539049851293e+03,-9.006261730987896499e+02,-4.462143226169800982e+02,-4.762292267421923952e+02,-1.030787934191502245e+03,-9.524594218661636660e+02,-4.138834792132829534e+02,-6.184221463659964684e+02,9.255517005920410156e+00,1.529837548732757568e-01,1.491591572761535645e+00,3.870000000000000000e+02
-1.002226060403402016e+03,-8.947476518665844196e+02,-4.417197169792436853e+02,-4.714971268775909721e+02,-1.022045911661037735e+03,-9.422031302444893299e+02,-4.095253138283469525e+02,-6.121093131562879535e+02,9.255517005920410156e+00,1.529837548732757568e-01,1.491591572761535645e+00,3.880000000000000000e+02
-9.927791182575761013e+02,-8.885837496525862207e+02,-4.369740966722226858e+02,-4.685938021028014191e+02,-1.013163508964273660e+03,-9.335683505275983407e+02,-4.050187544193922804e+02,-6.064395320681032899e+02,9.255517005920410156e+00,1.529837548732757568e-01,1.491591572761535645e+00,3.890000000000000000e+02
-9.818266123003504617e+02,-8.809487309405967608e+02,-4.317598470352054392e+02,-4.666870651617027761e+02,-1.004119464667915508e+03,-9.261416810057658040e+02,-4.002881508539353490e+02,-6.009773717772122836e+02,9.255517005920410156e+00,1.529837548732757568e-01,1.491591572761535645e+00,3.900000000000000000e+02
-9.711048414552253689e+02,-8.719059428378568555e+02,-4.263484544326379364e+02,-4.644995799097910094e+02,-9.946361396121783400e+02,-9.185724567945831041e+02,-3.955600748255546932e+02,-5.948157307649148606e+02,9.255517005920410156e+00,1.529837548732757568e-01,1.491591572761535645e+00,3.910000000000000000e+02
-9.621924602385461185e+02,-8.624465434226785874e+02,-4.213334090795021893e+02,-4.611256303564500740e+02,-9.843848112444643448e+02,-9.097066381622253175e+02,-3.912725542803341341e+02,-5.873889732166067006e+02,9.255517005920410156e+00,1.529837548732757568e-01,1.491591572761535645e+00,3.920000000000000000e+02
-9.551523093917478491e+02,-8.534395290997108532e+02,-4.170460828061170560e+02,-4.563391712106074465e+02,-9.733466833789971133e+02,-8.995420607432138240e+02,-3.877607220691998009e+02,-5.789503280647550127e+02,9.255517005920410156e+00,1.529837548732757568e-01,1.491591572761535645e+00,3.930000000000000000e+02
-9.484425641667173750e+02,-8.447775145143202735e+02,-4.130894222147435357e+02,-4.502961463963072219e+02,-9.619082098130502345e+02,-8.891413410139084590e+02,-3.848949507233155600e+02,-5.702831729842630466e+02,9.255517005920410156e+00,1.529837548732757568e-01,1.491591572761535645e+00,3.940000000000000000e+02
-9.401750060932922679e+02,-8.354663787123568000e+02,-4.085014135061219349e+02,-4.431497415393628216e+02,-9.505346190825716803e+02,-8.796116624438645886e+02,-3.819792449890796888e+02,-5.620123758157046723e+02,9.255517005920410156e+00,1.529837548732757568e-01,1.491591572761535645e+00,3.950000000000000000e+02
-9.295156359633690499e+02,-8.245779410935581382e+02,-4.025188808551686179e+02,-4.350651033072413156e+02,-9.393711878704125411e+02,-8.711455428043714164e+02,-3.781064764646280310e+02,-5.542269749120025608e+02,9.255517005920410156e+00,1.529837548732757568e-01,1.491591572761535645e+00,3.960000000000000000e+02
-9.169609427079840316e+02,-8.122199567243442289e+02,-3.953169125949586942e+02,-4.265380796992790238e+02,-9.282225194726111113e+02,-8.630117665986322208e+02,-3.727888376681389673e+02,-5.467147045258616345e+02,9.255517005920410156e+00,1.529837548732757568e-01,1.491591572761535645e+00,3.970000000000000000e+02
-9.034074078936473597e+02,-7.996568536071338258e+02,-3.880223361290863977e+02,-4.184739625374365914e+02,-9.169183137138138591e+02,-8.544123450458137086e+02,-3.663428804784566637e+02,-5.394163201918534014e+02,9.255517005920410156e+00,1.529837548732757568e-01,1.491591572761535645e+00,3.980000000000000000e+02
-8.891181413253186747e+02,-7.884589571890396655e+02,-3.819081755800802966e+02,-4.117299342435385370e+02,-9.056058110984631639e+02,-8.452782789811276416e+02,-3.596362602816316212e+02,-5.325479648018688295e+02,9.255517005920410156e+00,1.529837548732757568e-01,1.491591572761535645e+00,3.990000000000000000e+02
-8.736924822361847873e+02,-7.793746174814662027e+02,-3.774393633624627000e+02,-4.064887278257556318e+02,-8.946076404021009694e+02,-8.362372751367111050e+02,-3.534078705424408327e+02,-5.263163174460180471e+02,9.255517005920410156e+00,1.529837548732757568e-01,1.491591572761535645e+00,4.000000000000000000e+02
-8.570206782145830857e+02,-7.718325022962885669e+02,-3.740050081434114873e+02,-4.021117901566919954e+02,-8.840547973149887184e+02,-8.279018727597722318e+02,-3.478391192911708458e+02,-5.206311404962641518e+02,9.255517005920410156e+00,1.529837548732757568e-01,1.491591572761535645e+00,4.010000000000000000e+02
-8.401201564599170979e+02,-7.644608087719511786e+02,-3.705662345027189986e+02,-3.976886636670919870e+02,-8.737873211562687175e+02,-8.202848307661279250e+02,-3.428037644032178832e+02,-5.152052046442540814e+02,9.255517005920410156e+00,1.529837548732757568e-01,1.491591572761535645e+00,4.020000000000000000e+02
-8.248439758442773382e+02,-7.561913806503412161e+02,-3.665994435033048831e+02,-3.927721130127783908e+02,-8.636743136655222770e+02,-8.128991908437355960e+02,-3.384613369768935627e+02,-5.099330987767766601e+02,9.255517005920410156e+00,1.529837548732757568e-01,1.491591572761535645e+00,4.030000000000000000e+02
-8.125891467029402975e+02,-7.470694025105731271e+02,-3.624458070527862219e+02,-3.875812927143197157e+02,-8.539420282830551514e+02,-8.052931217934838060e+02,-3.354083304476012017e+02,-5.050511671930285047e+02,9.255517005920410156e+00,1.529837548732757568e-01,1.491591572761535645e+00,4.040000000000000000e+02
-8.031560124017100861e+02,-7.381418066765554613e+02,-3.587518607032466207e+02,-3.825152051441727963e+02,-8.450349194534032904e+02,-7.973676843332805220e+02,-3.340427485236668872e+02,-5.007929454505201647e+02,9.255517005920410156e+00,1.529837548732757568e-01,1.491591572761535645e+00,4.050000000000000000e+02
-7.948353469087830945e+02,-7.305411830254970482e+02,-3.556073782654079878e+02,-3.775502697893637105e+02,-8.371055090891386499e+02,-7.892112219522018677e+02,-3.337577249653500076e+02,-4.968774116388822222e+02,9.255517005920410156e+00,1.529837548732757568e-01,1.491591572761535645e+00,4.060000000000000000e+02
-7.857095545509087060e+02,-7.245252195545456289e+02,-3.522941521638722406e+02,-3.722359263107505285e+02,-8.297027212001303269e+02,-7.807958174158425209e+02,-3.329346970443357350e+02,-4.924643737998471806e+02,9.255517005920410156e+00,1.529837548732757568e-01,1.491591572761535645e+00,4.070000000000000000e+02
-7.750826699516683220e+02,-7.192659483885890950e+02,-3.479421139646269694e+02,-3.663395374245915264e+02,-8.220557039508730668e+02,-7.720114620565168480e+02,-3.299923793281991493e+02,-4.867906575398719724e+02,9.255517005920410156e+00,1.529837548732757568e-01,1.491591572761535645e+00,4.080000000000000000e+02
-7.638676422173850824e+02,-7.135536519751958622e+02,-3.424697804726170034e+02,-3.604375360052913493e+02,-8.137066434050830139e+02,-7.630242319489125293e+02,-3.246258372423003493e+02,-4.799597759689677332e+02,9.255517005920410156e+00,1.529837548732757568e-01,1.491591572761535645e+00,4.090000000000000000e+02
-7.536833254745188242e+02,-7.067957887864679378e+02,-3.368829038042549655e+02,-3.557268593267169763e+02,-8.048840154511135552e+02,-7.544744351646249925e+02,-3.180689133616697291e+02,-4.730802149189476040e+02,9.255517005920410156e+00,1.529837548732757568e-01,1.491591572761535645e+00,4.100000000000000000e+02
-7.454916026626165149e+02,-6.994315848403371092e+02,-3.325991345429520152e+02,-3.530884794059945762e+02,-7.963097307104289939e+02,-7.471563358404073369e+02,-3.121006545112622916e+02,-4.674897173513531925e+02,9.255517005920410156e+00,1.529837548732757568e-01,1.491591572761535645e+00,4.110000000000000000e+02
-7.389378111228054422e+02,-6.924090735986007985e+02,-3.303822659957645556e+02,-3.522526893161591488e+02,-7.886663004193160305e+02,-7.413857009282019135e+02,-3.076975328252733561e+02,-4.636893182284425166e+02,9.255517005920410156e+00,1.529837548732757568e-01,1.491591572761535645e+00,4.120000000000000000e+02
-7.328437156960235370e+02,-6.862228609697904176e+02,-3.298069543452756989e+02,-3.519087503837388340e+02,-7.821825088214400239e+02,-7.366304706999731025e+02,-3.045235484264794650e+02,-4.609534825641098905e+02,9.255517005920410156e+00,1.529837548732757568e-01,1.491591572761535645e+00,4.130000000000000000e+02
-7.262658092353347001e+02,-6.804221558312485740e+02,-3.296459546291744118e+02,-3.507219952826587814e+02,-7.765581676347005669e+02,-7.317700599805702950e+02,-3.015864707830128282e+02,-4.579963289667216486e+02,9.255517005920410156e+00,1.529837548732757568e-01,1.491591572761535645e+00,4.140000000000000000e+02
-7.190975812605952342e+02,-6.740569597819117007e+02,-3.287510323094929845e+02,-3.483326737345121273e+02,-7.711458257837280144e+02,-7.258031444293465029e+02,-2.982915306987065378e+02,-4.540892743299136782e+02,9.255517005920410156e+00,1.529837548732757568e-01,1.491591572761535645e+00,4.150000000000000000e+02
-7.117664855997838913e+02,-6.666745952532476167e+02,-3.266629650532122469e+02,-3.454189213399833989e+02,-7.652545119048959350e+02,-7.184677024194706974e+02,-2.948717972423492029e+02,-4.496291939756874854e+02,9.217270851135253906e+00,1.912296712398529053e-01,1.453345537185668945e+00,4.160000000000000000e+02
-7.045244694832078949e+02,-6.589418542082701151e+02,-3.235769928491231440e+02,-3.428290463625548909e+02,-7.584914384460698784e+02,-7.103433987651815187e+02,-2.919157488794548954e+02,-4.457225638534669088e+02,9.217270851135253906e+00,1.912296712398529053e-01,1.453345537185668945e+00,4.170000000000000000e+02
-6.971764612998092616e+02,-6.522696499003977806e+02,-3.199227115548110305e+02,-3.407086821325910933e+02,-7.510241364213843553e+02,-7.024339430073982840e+02,-2.896115914372417137e+02,-4.432730770710672914e+02,9.217270851135253906e+00,1.912296712398529053e-01,1.453345537185668945e+00,4.180000000000000000e+02
-6.895186489686420828e+02,-6.477142567126568338e+02,-3.160575844449581382e+02,-3.385186462229548852e+02,-7.435646996182276780e+02,-6.955684518317198126e+02,-2.875147654518732452e+02,-4.424302725899979123e+02,9.217270851135253906e+00,1.912296712398529053e-01,1.453345537185668945e+00,4.190000000000000000e+02
-6.818938173985502544e+02,-6.450650189565010351e+02,-3.122788253629937572e+02,-3.358706406987930677e+02,-7.369988507592688620e+02,-6.899990875402263555e+02,-2.850296784192355517e+02,-4.427593929910158295e+02,9.217270851135253906e+00,1.912296712398529053e-01,1.453345537185668945e+00,4.200000000000000000e+02
-6.751055778919962904e+02,-6.429060788144638536e+02,-3.089384116942087530e+02,-3.332009581322670329e+02,-7.318597735079310951e+02,-6.853761300621272312e+02,-2.820566294545378696e+02,-4.437092039358622060e+02,9.217270851135253906e+00,1.912296712398529053e-01,1.453345537185668945e+00,4.210000000000000000e+02
-6.696596753054209330e+02,-6.396478765090646448e+02,-3.063644420832247306e+02,-3.314534048582274863e+02,-7.279929091169988169e+02,-6.810096845920506894e+02,-2.791106099909948171e+02,-4.447503519870633681e+02,9.217270851135253906e+00,1.912296712398529053e-01,1.453345537185668945e+00,4.220000000000000000e+02
-6.651218994244425176e+02,-6.346796657966933708e+02,-3.045919243878825000e+02,-3.310219218871493467e+02,-7.246148847419399317e+02,-6.761847179486035202e+02,-2.767662310951191103e+02,-4.451230323991389923e+02,9.217270851135253906e+00,1.912296712398529053e-01,1.453345537185668945e+00,4.230000000000000000e+02
-6.603803195999328182e+02,-6.286622816187887111e+02,-3.032015339468775892e+02,-3.310628191168859757e+02,-7.206736837927169290e+02,-6.703603997442460241e+02,-2.749782773033580270e+02,-4.437534099394815712e+02,9.217270851135253906e+00,1.912296712398529053e-01,1.453345537185668945e+00,4.240000000000000000e+02
-6.546609966099590565e+02,-6.227284657859090657e+02,-3.015270869350129033e+02,-3.300119149357544757e+02,-7.152981162148871590e+02,-6.632642462992953369e+02,-2.729932977122680313e+02,-4.397946068867759095e+02,9.217270851135253906e+00,1.912296712398529053e-01,1.453345537185668945e+00,4.250000000000000000e+02
-6.483127266678113756e+02,-6.173312604956649920e+02,-2.991355818966062543e+02,-3.269273193246451683e+02,-7.081932919988112189e+02,-6.549761691857597725e+02,-2.700127893434000725e+02,-4.334918585236050603e+02,9.217270851135253906e+00,1.912296712398529053e-01,1.453345537185668945e+00,4.260000000000000000e+02
-6.425643223327381293e+02,-6.118363388593493255e+02,-2.961665995040325470e+02,-3.223911050873161912e+02,-6.998539538576674204e+02,-6.459977573009482512e+02,-2.660021316433444554e+02,-4.264859212776814275e+02,9.217270851135253906e+00,1.912296712398529053e-01,1.453345537185668945e+00,4.270000000000000000e+02
-6.384799150125761571e+02,-6.052756308843977422e+02,-2.932216133862261813e+02,-3.180802796189514083e+02,-6.914247647162142130e+02,-6.371798868742580453e+02,-2.618389821003852376e+02,-4.210010862338008337e+02,9.217270851135253906e+00,1.912296712398529053e-01,1.453345537185668945e+00,4.280000000000000000e+02
-6.361047981338651880e+02,-5.975323381872403843e+02,-2.908915013146674937e+02,-3.153922620333962641e+02,-6.841285687654271896e+02,-6.294041654106758870e+02,-2.585966614655312696e+02,-4.183923469364926859e+02,9.217270851135253906e+00,1.912296712398529053e-01,1.453345537185668945e+00,4.290000000000000000e+02
-6.345218014932297592e+02,-5.897337849744492360e+02,-2.893262481912443036e+02,-3.143957810762221925e+02,-6.785397738073002074e+02,-6.231414036260812281e+02,-2.566173418099560877e+02,-4.182346274709389036e+02,9.217270851135253906e+00,1.912296712398529053e-01,1.453345537185668945e+00,4.300000000000000000e+02
-6.326139727037557350e+02,-5.833749988323882008e+02,-2.882156528827672446e+02,-3.140050508372366949e+02,-6.742658292643841378e+02,-6.182044999026620644e+02,-2.552783276965310506e+02,-4.187624600883527819e+02,9.217270851135253906e+00,1.912296712398529053e-01,1.453345537185668945e+00,4.310000000000000000e+02
-6.297454759456136344e+02,-5.789929685619351858e+02,-2.871349879477370450e+02,-3.130671342451310011e+02,-6.703368917232678541e+02,-6.138905851517492920e+02,-2.536610396367309477e+02,-4.182749521739237935e+02,9.217270851135253906e+00,1.912296712398529053e-01,1.453345537185668945e+00,4.320000000000000000e+02
-6.258264980939663928e+02,-5.757356776478345637e+02,-2.858847170421613555e+02,-3.112669699145744744e+02,-6.659721995943855291e+02,-6.093939734342129668e+02,-2.514234617365236772e+02,-4.162856689198106324e+02,9.217270851135253906e+00,1.912296712398529053e-01,1.453345537185668945e+00,4.330000000000000000e+02
-6.209729167492673696e+02,-5.722980681264889427e+02,-2.845163297881163089e+02,-3.090992551700342119e+02,-6.610178353584005890e+02,-6.041636843037240396e+02,-2.489825666034803362e+02,-4.134977432311006851e+02,9.217270851135253906e+00,1.912296712398529053e-01,1.453345537185668945e+00,4.340000000000000000e+02
-6.153313359560752360e+02,-5.682381740892276412e+02,-2.830799089258534877e+02,-3.071520080773811969e+02,-6.557244385909252742e+02,-5.980091058670363964e+02,-2.468727494631875743e+02,-4.108109638991736574e+02,9.217270851135253906e+00,1.912296712398529053e-01,1.453345537185668945e+00,4.350000000000000000e+02
-6.092661756898150998e+02,-5.642531930383702274e+02,-2.814190308146539792e+02,-3.055335186752849950e+02,-6.502712764488105677e+02,-5.910515998049677364e+02,-2.450475954258231468e+02,-4.084424372394505554e+02,9.217270851135253906e+00,1.912296712398529053e-01,1.453345537185668945e+00,4.360000000000000000e+02
-6.035627485976133357e+02,-5.611365060929426818e+02,-2.792498570740513060e+02,-3.039475821648243254e+02,-6.446400837509263511e+02,-5.836935755660642826e+02,-2.429181573440710054e+02,-4.059912803797105880e+02,9.293763160705566406e+00,1.912296712398529053e-01,1.453345537185668945e+00,4.370000000000000000e+02
-5.992187506320249213e+02,-5.586174817726173387e+02,-2.764182638000197585e+02,-3.021600176318224840e+02,-6.389106815938739601e+02,-5.765853327326030922e+02,-2.400610979486637007e+02,-4.032268038223915028e+02,9.293763160705566406e+00,1.912296712398529053e-01,1.453345537185668945e+00,4.380000000000000000e+02
-5.968395519557211628e+02,-5.554521252146344068e+02,-2.730537442569143423e+02,-3.002644456046048163e+02,-6.334516076444028840e+02,-5.704193220890128941e+02,-2.367580454219378225e+02,-4.006423538039784944e+02,9.293763160705566406e+00,1.912296712398529053e-01,1.453345537185668945e+00,4.390000000000000000e+02
-5.961106210940040455e+02,-5.507220623568155133e+02,-2.694681690193629038e+02,-2.985084311111440911e+02,-6.286025499785455395e+02,-5.655468495837262708e+02,-2.337308426976046576e+02,-3.991047085928030356e+02,9.293763160705566406e+00,1.912296712398529053e-01,1.453345537185668945e+00,4.400000000000000000e+02
-5.958298489594112652e+02,-5.448697686671598603e+02,-2.659256467880923083e+02,-2.969550290137901811e+02,-6.241562955881190646e+02,-5.617011586501703277e+02,-2.313600921265265242e+02,-3.989173566648078122e+02,9.293763160705566406e+00,1.912296712398529053e-01,1.453345537185668945e+00,4.410000000000000000e+02
-5.945634692745838947e+02,-5.392155996582500848e+02,-2.625196484404209514e+02,-2.953765095589249086e+02,-6.193159124934477404e+02,-5.581143056562650600e+02,-2.292579327873449984e+02,-3.992817464379122612e+02,9.293763160705566406e+00,1.912296712398529053e-01,1.453345537185668945e+00,4.420000000000000000e+02
-5.915057881894558705e+02,-5.344014444528281729e+02,-2.592206816341081321e+02,-2.934482828094576234e+02,-6.133054334631469828e+02,-5.539810849112391224e+02,-2.266705152868244113e+02,-3.987493145298590207e+02,9.293763160705566406e+00,1.912296712398529053e-01,1.453345537185668945e+00,4.430000000000000000e+02
-5.869470931067367019e+02,-5.294776772985492244e+02,-2.559473327996861372e+02,-2.909927985238232395e+02,-6.060204595690015594e+02,-5.488758414027997787e+02,-2.232633446049285340e+02,-3.962636934037229821e+02,9.293763160705566406e+00,1.912296712398529053e-01,1.453345537185668945e+00,4.440000000000000000e+02
-5.820158760988579161e+02,-5.227530161385927840e+02,-2.525502955238093818e+02,-2.880413371117610950e+02,-5.980212297466737255e+02,-5.428057794422970801e+02,-2.194438539726711497e+02,-3.918318116681195988e+02,9.293763160705566406e+00,1.912296712398529053e-01,1.453345537185668945e+00,4.450000000000000000e+02
-5.778454347354863785e+02,-5.136039934354894285e+02,-2.487941626068975438e+02,-2.847343941064489172e+02,-5.899139529252770444e+02,-5.359816367282373903e+02,-2.158994045045828898e+02,-3.862655324282677611e+02,9.293763160705566406e+00,1.912296712398529053e-01,1.453345537185668945e+00,4.460000000000000000e+02
-5.747273392586780574e+02,-5.033151595459178225e+02,-2.444802474347782208e+02,-2.812211788328866078e+02,-5.818491805307185132e+02,-5.286312563091951233e+02,-2.128553435652615917e+02,-3.803641756202341639e+02,9.293763160705566406e+00,1.912296712398529053e-01,1.453345537185668945e+00,4.470000000000000000e+02
-5.719142446852329158e+02,-4.939816785351410999e+02,-2.396743455516975700e+02,-2.776278067896128050e+02,-5.736827740269145579e+02,-5.210189840805878703e+02,-2.098106265769056336e+02,-3.743930097368356655e+02,9.293763160705566406e+00,1.912296712398529053e-01,1.453345537185668945e+00,4.480000000000000000e+02
-5.682669576251244052e+02,-4.865450791970470164e+02,-2.347992126768212984e+02,-2.740181611756022448e+02,-5.655134859587815299e+02,-5.135062933674657870e+02,-2.059919111137846812e+02,-3.682913600274418968e+02,9.293763160705566406e+00,1.912296712398529053e-01,1.453345537185668945e+00,4.490000000000000000e+02
-5.632664547530710024e+02,-4.799798059669369650e+02,-2.304077422766440577e+02,-2.703099071004767211e+02,-5.578686210862615553e+02,-5.064384842407107499e+02,-2.010688200572785718e+02,-3.622225886200824334e+02,9.293763160705566406e+00,1.912296712398529053e-01,1.453345537185668945e+00,4.500000000000000000e+02
-5.575464795844354740e+02,-4.724603095956726975e+02,-2.267697194166257759e+02,-2.662581016447186357e+02,-5.512652654652138153e+02,-4.999205284499730624e+02,-1.955010688080756154e+02,-3.567379488597709951e+02,9.293763160705566406e+00,1.912296712398529053e-01,1.453345537185668945e+00,4.510000000000000000e+02
-5.524645991230390791e+02,-4.633165722902735979e+02,-2.236594554161479209e+02,-2.616336486949512619e+02,-5.456332211625567652e+02,-4.937568086360242887e+02,-1.902719552601338364e+02,-3.523358183612758694e+02,9.293763160705566406e+00,1.912296712398529053e-01,1.453345537185668945e+00,4.520000000000000000e+02
-5.490502014304133809e+02,-4.538211758769280095e+02,-2.205976409815791612e+02,-2.565181482240657260e+02,-5.402849306897683164e+02,-4.876883761897852310e+02,-1.862560579884548133e+02,-3.489271872965305192e+02,9.293763160705566406e+00,1.912296712398529053e-01,1.453345537185668945e+00,4.530000000000000000e+02
-5.472410322594037098e+02,-4.460594388653762508e+02,-2.173485930210126753e+02,-2.514180040927126356e+02,-5.344993601192518327e+02,-4.816942428813267725e+02,-1.836770170171535028e+02,-3.458358024649705840e+02,9.293763160705566406e+00,1.912296712398529053e-01,1.453345537185668945e+00,4.540000000000000000e+02
-5.460405176828887761e+02,-4.410441783887972633e+02,-2.141911270090686230e+02,-2.469965273746461207e+02,-5.281302544010814017e+02,-4.760222760144570202e+02,-1.819922228240370714e+02,-3.423936649543188651e+02,9.293763160705566406e+00,1.912296712398529053e-01,1.453345537185668945e+00,4.550000000000000000e+02
-5.444028155411924672e+02,-4.378959024680646053e+02,-2.116988491505342154e+02,-2.435863310997438020e+02,-5.216809279704796154e+02,-4.709249062824969769e+02,-1.802544681470062642e+02,-3.385512802430303054e+02,9.293763160705566406e+00,1.912296712398529053e-01,1.453345537185668945e+00,4.560000000000000000e+02
-5.420221925002169883e+02,-4.348074951897438041e+02,-2.102299286855559330e+02,-2.409343100034698182e+02,-5.158494615334989248e+02,-4.664054477738177411e+02,-1.777081987174133246e+02,-3.348941734244006057e+02,9.293763160705566406e+00,1.912296712398529053e-01,1.453345537185668945e+00,4.570000000000000000e+02
-5.393562085670284887e+02,-4.307866291657123838e+02,-2.096081816631883612e+02,-2.384707975220651406e+02,-5.110210429832964110e+02,-4.622561977459117770e+02,-1.742378055454021251e+02,-3.320510879382386520e+02,9.293763160705566406e+00,1.912296712398529053e-01,1.453345537185668945e+00,4.580000000000000000e+02
-5.369640278566198504e+02,-4.265090144148348372e+02,-2.092659000517608092e+02,-2.358997320100836532e+02,-5.071049006548132638e+02,-4.583352578236394947e+02,-1.703713906488096654e+02,-3.300708272172887519e+02,9.293763160705566406e+00,1.912296712398529053e-01,1.453345537185668945e+00,4.590000000000000000e+02
-5.348210603113047910e+02,-4.235525347185930514e+02,-2.086708091111502199e+02,-2.335531174772327176e+02,-5.037132759796770642e+02,-4.547618899296307973e+02,-1.668721753279266977e+02,-3.283303227695721489e+02,9.293763160705566406e+00,1.912296712398529053e-01,1.453345537185668945e+00,4.600000000000000000e+02
-5.322092953331373337e+02,-4.228062969934815101e+02,-2.076205506553903888e+02,-2.321033515932244882e+02,-5.004279828279168214e+02,-4.518064070737741531e+02,-1.642471698599481442e+02,-3.259940366210007596e+02,9.293763160705566406e+00,1.912296712398529053e-01,1.453345537185668945e+00,4.610000000000000000e+02
-5.282247779527112925e+02,-4.235359187779533841e+02,-2.061732474638513395e+02,-2.318546874118619598e+02,-4.969433304253086590e+02,-4.495743004185871996e+02,-1.625297907442491123e+02,-3.225843076035698687e+02,9.217270851135253906e+00,2.294756323099136353e-01,1.491591572761535645e+00,4.620000000000000000e+02
-5.224411395498200363e+02,-4.239099645305791455e+02,-2.043719667311643207e+02,-2.323005338602465599e+02,-4.930697680780995142e+02,-4.477820073929992759e+02,-1.614090511204381073e+02,-3.182277264589631613e+02,9.217270851135253906e+00,2.294756323099136353e-01,1.491591572761535645e+00,4.630000000000000000e+02
-5.152128788297673054e+02,-4.224618424719087670e+02,-2.021242949378272442e+02,-2.324249110164972763e+02,-4.886988195357353106e+02,-4.458204063286098062e+02,-1.604913517213406067e+02,-3.135083009497325293e+02,9.217270851135253906e+00,2.294756323099136353e-01,1.491591572761535645e+00,4.640000000000000000e+02
-5.074365884698913760e+02,-4.191764600979615807e+02,-1.993968841199528015e+02,-2.315279994992507682e+02,-4.838418137702442436e+02,-4.430847802795508414e+02,-1.594724696740115633e+02,-3.091611729913640829e+02,9.217270851135253906e+00,2.294756323099136353e-01,1.491591572761535645e+00,4.650000000000000000e+02
-5.000121122635166557e+02,-4.153176130517992988e+02,-1.965155806428274445e+02,-2.298125210129652487e+02,-4.787714843298008418e+02,-4.393774414808026449e+02,-1.581991254592826408e+02,-3.058332593929862924e+02,9.217270851135253906e+00,2.294756323099136353e-01,1.491591572761535645e+00,4.660000000000000000e+02
-4.934380485034092771e+02,-4.122703806208207880e+02,-1.942037619780653586e+02,-2.281563880078022066e+02,-4.741229849591097718e+02,-4.351115531743762403e+02,-1.567170450744008576e+02,-3.039489887273134627e+02,9.217270851135253906e+00,2.294756323099136353e-01,1.491591572761535645e+00,4.670000000000000000e+02
-4.877978920077418934e+02,-4.104666677391353460e+02,-1.932105863562596824e+02,-2.272617733127776773e+02,-4.707426190391299770e+02,-4.311286465519929152e+02,-1.553046196077634704e+02,-3.036150944795592750e+02,9.217270851135253906e+00,2.294756323099136353e-01,1.491591572761535645e+00,4.680000000000000000e+02
-4.830464328977523110e+02,-4.092576864512570864e+02,-1.937969612392425915e+02,-2.269867424252815908e+02,-4.692201866829789196e+02,-4.281694286161362015e+02,-1.543751279996397443e+02,-3.045797077537881705e+02,9.217270851135253906e+00,2.294756323099136353e-01,1.491591572761535645e+00,4.690000000000000000e+02
-4.792530610080400493e+02,-4.076737396238661404e+02,-1.955134985039662752e+02,-2.265012676540034136e+02,-4.693769539138206710e+02,-4.263302985021778113e+02,-1.542160160164241915e+02,-3.063108776333247079e+02,9.217270851135253906e+00,2.294756323099136353e-01,1.491591572761535645e+00,4.700000000000000000e+02
-4.765047745699542929e+02,-4.052843331553419830e+02,-1.974762294791241857e+02,-2.251215261546170723e+02,-4.701899139549959727e+02,-4.249578208413304310e+02,-1.547630359055654026e+02,-3.082026206914948716e+02,9.217270851135253906e+00,2.294756323099136353e-01,1.491591572761535645e+00,4.710000000000000000e+02
-4.745286223095156402e+02,-4.024502300567721704e+02,-1.989082196835638570e+02,-2.230341439028375135e+02,-4.703500991089827039e+02,-4.231518384259391041e+02,-1.556477543261612482e+02,-3.098137338606491085e+02,9.217270851135253906e+00,2.294756323099136353e-01,1.491591572761535645e+00,4.720000000000000000e+02
-4.724469803058168509e+02,-3.999188423185646570e+02,-1.994835869218605922e+02,-2.212324975161805014e+02,-4.690693070921042818e+02,-4.205184035909801423e+02,-1.565075857358947360e+02,-3.109959645072410694e+02,9.217270851135253906e+00,2.294756323099136353e-01,1.491591572761535645e+00,4.730000000000000000e+02
-4.690565309661916444e+02,-3.982628180473520842e+02,-1.992417585373877955e+02,-2.207224591970013989e+02,-4.664572533698678853e+02,-4.175135241504975738e+02,-1.572451601568441220e+02,-3.118343409577262264e+02,9.217270851135253906e+00,2.294756323099136353e-01,1.491591572761535645e+00,4.740000000000000000e+02
-4.635868093557367047e+02,-3.976023304115702786e+02,-1.982713860155271277e+02,-2.216958794278481264e+02,-4.631678924409663978e+02,-4.150216140238798062e+02,-1.579704663601033872e+02,-3.124402747979452215e+02,9.217270851135253906e+00,2.294756323099136353e-01,1.491591572761535645e+00,4.750000000000000000e+02
-4.563954875118126893e+02,-3.976323676066086819e+02,-1.965406661122809737e+02,-2.233204243048696185e+02,-4.596964790849178826e+02,-4.134981135124552338e+02,-1.586864768327194497e+02,-3.126988986672265582e+02,9.217270851135253906e+00,2.294756323099136353e-01,1.491591572761535645e+00,4.760000000000000000e+02
-4.489901316459489635e+02,-3.977731117552614251e+02,-1.940450473867792880e+02,-2.242429766929890889e+02,-4.559853933899204321e+02,-4.124301887243713054e+02,-1.590486791511925730e+02,-3.121301372544041897e+02,9.217270851135253906e+00,2.294756323099136353e-01,1.491591572761535645e+00,4.770000000000000000e+02
-4.432298820848458831e+02,-3.973443743979479450e+02,-1.910532712434553559e+02,-2.233825986913265638e+02,-4.516249636976976944e+02,-4.106181241561995421e+02,-1.584704940861279283e+02,-3.100165263878956239e+02,9.217270851135253906e+00,2.294756323099136353e-01,1.491591572761535645e+00,4.780000000000000000e+02
-4.402251694676113516e+02,-3.958184017799920866e+02,-1.880878531352942673e+02,-2.204918303680940994e+02,-4.463272151317613066e+02,-4.070552273135695032e+02,-1.565150406868151549e+02,-3.058303714206668360e+02,9.217270851135253906e+00,2.294756323099136353e-01,1.491591572761535645e+00,4.790000000000000000e+02
-4.396716522491688579e+02,-3.931183166592456928e+02,-1.855946421966744992e+02,-2.162489317846239487e+02,-4.402150881773995934e+02,-4.017104260353960399e+02,-1.532821890260096325e+02,-2.997808104310703925e+02,9.217270851135253906e+00,2.294756323099136353e-01,1.491591572761535645e+00,4.800000000000000000e+02
-4.400409371961509919e+02,-3.897115189788229372e+02,-1.836120701455263315e+02,-2.118994824709407965e+02,-4.337863978165455592e+02,-3.956231795639017719e+02,-1.494989402253910953e+02,-2.930485440499103902e+02,9.217270851135253906e+00,2.294756323099136353e-01,1.491591572761535645e+00,4.810000000000000000e+02
-4.394983868209441198e+02,-3.863190607892761363e+02,-1.817958746913105870e+02,-2.086086146883015999e+02,-4.277221513291911492e+02,-3.902656239057798757e+02,-1.462066004068974223e+02,-2.873655580243657823e+02,9.217270851135253906e+00,2.294756323099136353e-01,1.491591572761535645e+00,4.820000000000000000e+02
-4.369361991417670197e+02,-3.834284263182822770e+02,-1.798009065614836572e+02,-2.068066481229701594e+02,-4.226791304960807452e+02,-3.866476834827992661e+02,-1.441822557022745741e+02,-2.840574008794135352e+02,9.217270851135253906e+00,2.294756323099136353e-01,1.491591572761535645e+00,4.830000000000000000e+02
-4.324589261045449575e+02,-3.810260035117520374e+02,-1.776299363491162921e+02,-2.059026860778337777e+02,-4.190148985384007574e+02,-3.847408591886977547e+02,-1.434126725916619023e+02,-2.831606091217836934e+02,9.217270851135253906e+00,2.294756323099136353e-01,1.491591572761535645e+00,4.840000000000000000e+02
-4.270195360872764923e+02,-3.787751433459695818e+02,-1.755829394888173738e+02,-2.046425688539309249e+02,-4.164841987202196378e+02,-3.835520262738381234e+02,-1.430023267510413234e+02,-2.833081571637931120e+02,9.217270851135253906e+00,2.294756323099136353e-01,1.491591572761535645e+00,4.850000000000000000e+02
-4.214811426558644598e+02,-3.764094283842070467e+02,-1.738438699730810413e+02,-2.019687050202962268e+02,-4.141804155336716349e+02,-3.817796683262926081e+02,-1.416831679865090337e+02,-2.825689098546021683e+02,9.217270851135253906e+00,2.294756323099136353e-01,1.491591572761535645e+00,4.860000000000000000e+02
-4.158667453334167021e+02,-3.739112339052409766e+02,-1.721228088936268250e+02,-1.977679087188620315e+02,-4.109603829788618441e+02,-3.786217534798845463e+02,-1.386437530380756584e+02,-2.796774062797104534e+02,9.217270851135253906e+00,2.294756323099136353e-01,1.491591572761535645e+00,4.870000000000000000e+02
-4.094631138705839248e+02,-3.713417507512575071e+02,-1.697311451229572299e+02,-1.928716354907555797e+02,-4.061647164271271322e+02,-3.741999459023475083e+02,-1.340676165808641827e+02,-2.747607027039672403e+02,9.217270851135253906e+00,2.294756323099136353e-01,1.491591572761535645e+00,4.880000000000000000e+02
-4.017592210807359834e+02,-3.686133772260690193e+02,-1.660708780437259975e+02,-1.882742825003041958e+02,-4.000421694727195927e+02,-3.693108817096331222e+02,-1.289291556586135812e+02,-2.690589973970494384e+02,9.217270851135253906e+00,1.529837548732757568e-01,1.529837369918823242e+00,4.890000000000000000e+02
-3.933908582749920697e+02,-3.655187942416171154e+02,-1.611390220527338215e+02,-1.842598360698889906e+02,-3.934902686050273815e+02,-3.647182070443866451e+02,-1.242242701685677275e+02,-2.639370203797013801e+02,9.217270851135253906e+00,1.529837548732757568e-01,1.529837369918823242e+00,4.900000000000000000e+02
-3.860876233575066863e+02,-3.619792650985712612e+02,-1.556237008531863921e+02,-1.802554442810535420e+02,-3.873635281963281614e+02,-3.605828104194590651e+02,-1.203300844587288339e+02,-2.599844539919283761e+02,9.217270851135253906e+00,1.529837548732757568e-01,1.529837369918823242e+00,4.910000000000000000e+02
-3.814664060726830712e+02,-3.582042716216365079e+02,-1.505090706180258167e+02,-1.755522810461095560e+02,-3.819720037952229177e+02,-3.564923360454656631e+02,-1.170294777323002791e+02,-2.568417906330613505e+02,9.217270851135253906e+00,1.529837548732757568e-01,1.529837369918823242e+00,4.920000000000000000e+02
-3.796806264524875587e+02,-3.545692761431872668e+02,-1.464918088707258903e+02,-1.701908339083128112e+02,-3.771229138739736300e+02,-3.519914628705448649e+02,-1.140410794279389393e+02,-2.537374245942634161e+02,9.217270851135253906e+00,1.529837548732757568e-01,1.529837369918823242e+00,4.930000000000000000e+02
-3.792416535662039223e+02,-3.513683998279815341e+02,-1.436337168000626434e+02,-1.651179367942578438e+02,-3.724725969846692806e+02,-3.470522807286365605e+02,-1.114096199251944199e+02,-2.501832892458633069e+02,9.217270851135253906e+00,1.529837548732757568e-01,1.529837369918823242e+00,4.940000000000000000e+02
-3.783340204370756510e+02,-3.486992708352730688e+02,-1.414732067790148449e+02,-1.614159603803656182e+02,-3.677662410862762954e+02,-3.420317137293757241e+02,-1.093580189901726953e+02,-2.462550211992786444e+02,9.217270851135253906e+00,1.529837548732757568e-01,1.529837369918823242e+00,4.950000000000000000e+02
-3.764777471529512241e+02,-3.465140028211968684e+02,-1.394620511167440782e+02,-1.593091099181409618e+02,-3.628525059351504751e+02,-3.372302572481767129e+02,-1.078741174219169352e+02,-2.423236944969194155e+02,9.217270851135253906e+00,1.529837548732757568e-01,1.529837369918823242e+00,4.960000000000000000e+02
-3.749419734921223153e+02,-3.446248143590034942e+02,-1.373845134955170124e+02,-1.578685072969162775e+02,-3.576815559057827159e+02,-3.325617151248757182e+02,-1.065824729165215103e+02,-2.385980746783711766e+02,9.217270851135253906e+00,1.529837548732757568e-01,1.529837369918823242e+00,4.970000000000000000e+02
-3.754428881476155766e+02,-3.425786966812054288e+02,-1.354733162644524782e+02,-1.556931834650513338e+02,-3.524185636569472990e+02,-3.276904437824603065e+02,-1.050680697316201986e+02,-2.349345764119234445e+02,9.217270851135253906e+00,1.529837548732757568e-01,1.529837369918823242e+00,4.980000000000000000e+02
-3.783430931358984708e+02,-3.396368561717722514e+02,-1.341867055001234803e+02,-1.519655906263717497e+02,-3.474979923643918482e+02,-3.224508244723608641e+02,-1.032399296964695168e+02,-2.310551916294900821e+02,9.217270851135253906e+00,1.529837548732757568e-01,1.529837369918823242e+00,4.990000000000000000e+02
-3.820999193855923295e+02,-3.351317328357829410e+02,-1.338467480344138494e+02,-1.469838653918618547e+02,-3.434159524227916336e+02,-3.170818999264561171e+02,-1.012913464713797111e+02,-2.269181758821200674e+02,9.217270851135253906e+00,1.529837548732757568e-01,1.529837369918823242e+00,5.000000000000000000e+02
-3.845205730442125969e+02,-3.290689651139082343e+02,-1.343987130779860308e+02,-1.417961601184053961e+02,-3.403856519272167134e+02,-3.120350157779771507e+02,-9.933923941793955237e+01,-2.228455880502833679e+02,9.217270851135253906e+00,1.529837548732757568e-01,1.529837369918823242e+00,5.010000000000000000e+02
-3.846194087253240923e+02,-3.224383182741698874e+02,-1.353994757335428858e+02,-1.373533968126662330e+02,-3.381818014166256035e+02,-3.075630897855435251e+02,-9.721325150355187361e+01,-2.192524429548652734e+02,9.217270851135253906e+00,1.529837548732757568e-01,1.529837369918823242e+00,5.020000000000000000e+02
-3.833066767256902949e+02,-3.167925643759126615e+02,-1.361670903250028459e+02,-1.339424711726535406e+02,-3.363116176591447584e+02,-3.035131119907632637e+02,-9.468632735782966847e+01,-2.162302671589459351e+02,9.217270851135253906e+00,1.529837548732757568e-01,1.529837369918823242e+00,5.030000000000000000e+02
-3.823025579069458217e+02,-3.132602617735924468e+02,-1.359802405244354304e+02,-1.312789132466159572e+02,-3.342833489784970880e+02,-2.995075272780845808e+02,-9.187285634384898003e+01,-2.134000557464173653e+02,9.217270851135253906e+00,1.529837548732757568e-01,1.529837369918823242e+00,5.040000000000000000e+02
-3.823783132581093014e+02,-3.117309650061288266e+02,-1.342885071214896016e+02,-1.290048812529335009e+02,-3.317014439380145632e+02,-2.953300533193682895e+02,-8.929029095067926391e+01,-2.102032188186635722e+02,9.217270851135253906e+00,1.529837548732757568e-01,1.529837369918823242e+00,5.050000000000000000e+02
-3.826016681265127772e+02,-3.108864023909168282e+02,-1.309346616523998819e+02,-1.270420324484837238e+02,-3.282285954893541202e+02,-2.911743275707513021e+02,-8.744640333296547396e+01,-2.063689766251231958e+02,9.217270851135253906e+00,1.529837548732757568e-01,1.529837369918823242e+00,5.060000000000000000e+02
-3.812169349209748361e+02,-3.090761294507558432e+02,-1.263060436425998887e+02,-1.254902716961742044e+02,-3.236420878198205173e+02,-2.875239695674408722e+02,-8.632885625664584950e+01,-2.021068286773706859e+02,9.217270851135253906e+00,1.529837548732757568e-01,1.529837369918823242e+00,5.070000000000000000e+02
-3.772210611936620808e+02,-3.053980312238695660e+02,-1.212578760951214463e+02,-1.242719041567738714e+02,-3.180279088083170791e+02,-2.847491226627048491e+02,-8.531491991970733579e+01,-1.978457696653249513e+02,9.217270851135253906e+00,1.529837548732757568e-01,1.529837369918823242e+00,5.080000000000000000e+02
-3.711541593217039008e+02,-3.002183251401902453e+02,-1.167644918930486710e+02,-1.229718204442392562e+02,-3.118464013401298871e+02,-2.827259171700457046e+02,-8.360795330418886806e+01,-1.938066487613218669e+02,9.217270851135253906e+00,1.529837548732757568e-01,1.529837369918823242e+00,5.090000000000000000e+02
-3.645237401168978977e+02,-2.948262785968972821e+02,-1.134838026285960950e+02,-1.210873011206435876e+02,-3.056831191229703109e+02,-2.807985159289810326e+02,-8.084301596150999103e+01,-1.898769514016594258e+02,9.217270851135253906e+00,1.529837548732757568e-01,1.529837369918823242e+00,5.100000000000000000e+02
-3.585999519709207561e+02,-2.905466551477957182e+02,-1.115433037244583829e+02,-1.184730632439864166e+02,-2.999048019377551100e+02,-2.781867399969942198e+02,-7.739935072554999351e+01,-1.859388143559935997e+02,9.217270851135253906e+00,1.529837548732757568e-01,1.529837369918823242e+00,5.110000000000000000e+02
-3.537405729654437891e+02,-2.879493931983188304e+02,-1.106909712571437012e+02,-1.155551885591303289e+02,-2.946123563314768035e+02,-2.745662594145869662e+02,-7.420298227221064735e+01,-1.822725759448730969e+02,9.217270851135253906e+00,1.529837548732757568e-01,1.529837369918823242e+00,5.120000000000000000e+02
-3.496568101622906397e+02,-2.866280085605176282e+02,-1.105967631237349451e+02,-1.130818589890982366e+02,-2.899261516622082127e+02,-2.703380301047473040e+02,-7.215300928853503137e+01,-1.794926384154150583e+02,9.217270851135253906e+00,1.529837548732757568e-01,1.529837369918823242e+00,5.130000000000000000e+02
-3.460378845425425425e+02,-2.855694697942903986e+02,-1.109736006849293517e+02,-1.115908301978579402e+02,-2.861787382602424259e+02,-2.662935065498504628e+02,-7.152948041805029789e+01,-1.779387499099416345e+02,9.217270851135253906e+00,1.529837548732757568e-01,1.529837369918823242e+00,5.140000000000000000e+02
-3.427513954327769170e+02,-2.837901734541810583e+02,-1.114426471931697051e+02,-1.110277950821150625e+02,-2.836572549142701973e+02,-2.629181337694171816e+02,-7.177475501380104106e+01,-1.770912389407722003e+02,9.217270851135253906e+00,1.529837548732757568e-01,1.529837369918823242e+00,5.150000000000000000e+02
-3.395036902942274537e+02,-2.808339464743985445e+02,-1.114219776836289384e+02,-1.108295879086854256e+02,-2.821247524633345165e+02,-2.599741969073074870e+02,-7.185056791011902533e+01,-1.757192615879721416e+02,9.217270851135253906e+00,1.529837548732757568e-01,1.529837369918823242e+00,5.160000000000000000e+02
-3.355523143080226873e+02,-2.769153873665804895e+02,-1.103413915403334613e+02,-1.103981447053129159e+02,-2.807318861506328176e+02,-2.567885165935622354e+02,-7.097753238145196519e+01,-1.728268337853960475e+02,9.217270851135253906e+00,1.529837548732757568e-01,1.529837369918823242e+00,5.170000000000000000e+02
-3.300163107001199023e+02,-2.727437776046663203e+02,-1.081050534785999844e+02,-1.095942328758719668e+02,-2.785838891312523629e+02,-2.529968240089701794e+02,-6.922012908622400573e+01,-1.686103609402771326e+02,9.217270851135253906e+00,1.529837548732757568e-01,1.529837369918823242e+00,5.180000000000000000e+02
-3.226217706815937163e+02,-2.691794341865734168e+02,-1.053420412530640533e+02,-1.088810804005042883e+02,-2.754786440068373849e+02,-2.490143034394377537e+02,-6.742381602206114621e+01,-1.644730665355855308e+02,9.217270851135253906e+00,1.529837548732757568e-01,1.529837369918823242e+00,5.190000000000000000e+02
-3.141653994834014156e+02,-2.668632865098534239e+02,-1.030745992836345977e+02,-1.090055912926718520e+02,-2.720674883996562130e+02,-2.457499594044757032e+02,-6.652284089762270014e+01,-1.619203590925317258e+02,9.293763160705566406e+00,1.529837548732757568e-01,1.491591572761535645e+00,5.200000000000000000e+02
-3.062010750080430626e+02,-2.659305500840268905e+02,-1.019749200185715381e+02,-1.104228107815938529e+02,-2.692452364343071167e+02,-2.438345290388351714e+02,-6.680052524867005559e+01,-1.612312792134889605e+02,9.293763160705566406e+00,1.529837548732757568e-01,1.491591572761535645e+00,5.210000000000000000e+02
-3.001765789846976986e+02,-2.659279050858394839e+02,-1.018326309634585414e+02,-1.128416748866552552e+02,-2.673375993915133222e+02,-2.430944084345183001e+02,-6.772999312734100386e+01,-1.611095876763874912e+02,9.293763160705566406e+00,1.529837548732757568e-01,1.491591572761535645e+00,5.220000000000000000e+02
-2.966880157119358046e+02,-2.660056649231628398e+02,-1.017324085859454499e+02,-1.152098740182345864e+02,-2.658464170156121327e+02,-2.427399050650519712e+02,-6.847391009568218578e+01,-1.596920861560274716e+02,9.293763160705566406e+00,1.529837548732757568e-01,1.491591572761535645e+00,5.230000000000000000e+02
-2.953038191571968127e+02,-2.653316162468026960e+02,-1.008122313817093527e+02,-1.161994371331256843e+02,-2.639437555733184126e+02,-2.420227286317640392e+02,-6.851826120896112116e+01,-1.560585509157308479e+02,9.293763160705566406e+00,1.529837548732757568e-01,1.491591572761535645e+00,5.240000000000000000e+02
-2.948890303984708225e+02,-2.634982596460731656e+02,-9.895058552419686748e+01,-1.149404537867039835e+02,-2.612234035343590222e+02,-2.407301934507195256e+02,-6.787918451523000840e+01,-1.509318042167224121e+02,9.293763160705566406e+00,1.529837548732757568e-01,1.491591572761535645e+00,5.250000000000000000e+02
-2.941098122072580736e+02,-2.606740248950482055e+02,-9.681229175687985844e+01,-1.115689575385031276e+02,-2.580742511528442265e+02,-2.391476816730846622e+02,-6.684414505715358246e+01,-1.460061838531055400e+02,9.293763160705566406e+00,1.529837548732757568e-01,1.491591572761535645e+00,5.260000000000000000e+02
-2.919360823768156479e+02,-2.574286749692764715e+02,-9.524796933945435740e+01,-1.072152133426407090e+02,-2.553995248495502892e+02,-2.376447896995077826e+02,-6.563878622467564128e+01,-1.425711703691085859e+02,9.293763160705566406e+00,1.529837548732757568e-01,1.491591572761535645e+00,5.270000000000000000e+02
-2.880774097423809508e+02,-2.543759101615287364e+02,-9.457737540305333823e+01,-1.034105621305116074e+02,-2.539294008854449203e+02,-2.363228714571350793e+02,-6.435952897628158098e+01,-1.406624337413195462e+02,9.293763160705566406e+00,1.529837548732757568e-01,1.491591572761535645e+00,5.280000000000000000e+02
-2.831662211108196061e+02,-2.518734882380504132e+02,-9.434661911822877300e+01,-1.013025715273761307e+02,-2.536315596181366345e+02,-2.349721619222455047e+02,-6.310935918926134036e+01,-1.393814918643774945e+02,9.293763160705566406e+00,1.529837548732757568e-01,1.491591572761535645e+00,5.290000000000000000e+02
-2.783913256649902905e+02,-2.498904745457075478e+02,-9.370641968423296930e+01,-1.011831500758526090e+02,-2.536284759963618853e+02,-2.332608680898174498e+02,-6.204319912066421239e+01,-1.378912674681314456e+02,9.293763160705566406e+00,1.529837548732757568e-01,1.491591572761535645e+00,5.300000000000000000e+02
-2.746217792011020720e+02,-2.480256669415930446e+02,-9.205162672133155866e+01,-1.025624475260201507e+02,-2.527149196800037316e+02,-2.309616885042578360e+02,-6.121917725785533548e+01,-1.360579180217746398e+02,9.293763160705566406e+00,1.529837548732757568e-01,1.491591572761535645e+00,5.310000000000000000e+02
-2.716525669533857581e+02,-2.456645773796572030e+02,-8.941672206719795213e+01,-1.046008014047101824e+02,-2.501419590443929337e+02,-2.280903084652582038e+02,-6.043804216495482251e+01,-1.342289871719331131e+02,9.293763160705566406e+00,1.529837548732757568e-01,1.491591572761535645e+00,5.320000000000000000e+02
-2.683252028322549450e+02,-2.422784510899282395e+02,-8.636502032024964137e+01,-1.064867124937045446e+02,-2.460886821144904388e+02,-2.249168637006914651e+02,-5.928067477339936886e+01,-1.325508523754433554e+02,9.293763160705566406e+00,1.529837548732757568e-01,1.491591572761535645e+00,5.330000000000000000e+02
-2.635828294868224475e+02,-2.377793365131892642e+02,-8.351936144317369326e+01,-1.075453327931090826e+02,-2.414330966855013685e+02,-2.218272659594058496e+02,-5.731372626820848382e+01,-1.306186247247678693e+02,9.293763160705566406e+00,1.529837548732757568e-01,1.491591572761535645e+00,5.340000000000000000e+02
-2.575383964064931206e+02,-2.326949727467863340e+02,-8.113449633514210291e+01,-1.072269649988884339e+02,-2.370119498900985491e+02,-2.190790337305588764e+02,-5.430046541689625883e+01,-1.278171784038122496e+02,9.293763160705566406e+00,1.529837548732757568e-01,1.491591572761535645e+00,5.350000000000000000e+02
-2.514680183253585710e+02,-2.279278625405295315e+02,-7.903143760724560707e+01,-1.052352516982546149e+02,-2.330431173187007516e+02,-2.166204453966583969e+02,-5.032320723290104070e+01,-1.239605989076053447e+02,9.293763160705566406e+00,1.529837548732757568e-01,1.491591572761535645e+00,5.360000000000000000e+02
-2.466370079597418226e+02,-2.241907945218581517e+02,-7.690030082745943218e+01,-1.018014593842381146e+02,-2.292189133375650272e+02,-2.141388005572825932e+02,-4.581960365306076710e+01,-1.195619624619266688e+02,9.293763160705566406e+00,1.529837548732757568e-01,1.491591572761535645e+00,5.370000000000000000e+02
-2.430720943347159846e+02,-2.215191955837644855e+02,-7.464834598995730630e+01,-9.776565292383565975e+01,-2.252780451398684818e+02,-2.113211523527261306e+02,-4.151449035980840563e+01,-1.154548174167121033e+02,9.293763160705566406e+00,1.529837548732757568e-01,1.491591572761535645e+00,5.380000000000000000e+02
-2.395129173537934548e+02,-2.192481956440406066e+02,-7.245567429925176839e+01,-9.415572279358275409e+01,-2.213689163779217779e+02,-2.080958989967602975e+02,-3.816731370950765267e+01,-1.121216954468400218e+02,9.293763160705566406e+00,1.529837548732757568e-01,1.491591572761535645e+00,5.390000000000000000e+02
-2.346253431905570324e+02,-2.164741176605139117e+02,-7.049784590821036545e+01,-9.144493742462327646e+01,-2.177973778766881878e+02,-2.046424439492348029e+02,-3.617395007634877402e+01,-1.093302468013589532e+02,9.293763160705566406e+00,1.529837548732757568e-01,1.491591572761535645e+00,5.400000000000000000e+02
-2.283170382090111161e+02,-2.126378967874506998e+02,-6.863769908791255148e+01,-8.911957147096836707e+01,-2.145128567754054529e+02,-2.012067732381437963e+02,-3.529933984017407056e+01,-1.063694745146585774e+02,9.255517005920410156e+00,1.912296712398529053e-01,1.491591572761535645e+00,5.410000000000000000e+02
-2.219348553092795555e+02,-2.078581221616723269e+02,-6.644806796002194460e+01,-8.606282162713523576e+01,-2.110243409698505275e+02,-1.979439595038675179e+02,-3.483901636170776328e+01,-1.026575784010801726e+02,9.255517005920410156e+00,1.912296712398529053e-01,1.491591572761535645e+00,5.420000000000000000e+02
-2.172184146322288143e+02,-2.029132884880618803e+02,-6.361792103892730665e+01,-8.157491108614885889e+01,-2.069453428836095554e+02,-1.949331728212528105e+02,-3.416848229790775804e+01,-9.822009262570827559e+01,9.255517005920410156e+00,1.912296712398529053e-01,1.491591572761535645e+00,5.430000000000000000e+02
-2.150133085528250376e+02,-1.989779670185625946e+02,-6.040733349202673708e+01,-7.618343516164895846e+01,-2.025809178821709793e+02,-1.922623431453594094e+02,-3.322928019088249130e+01,-9.368471404920455825e+01,9.255517005920410156e+00,1.912296712398529053e-01,1.491591572761535645e+00,5.440000000000000000e+02
-2.147977318315897719e+02,-1.971882468963713109e+02,-5.769848121545146569e+01,-7.146525299041059043e+01,-1.988636174950606801e+02,-1.900131786064885091e+02,-3.250199349573267682e+01,-8.982129018504747364e+01,9.255517005920410156e+00,1.912296712398529053e-01,1.491591572761535645e+00,5.450000000000000000e+02
-2.151824103595226916e+02,-1.980773660722588829e+02,-5.648526404419135361e+01,-6.893229783033257263e+01,-1.966320817959149281e+02,-1.881479429930968763e+02,-3.249456622765865177e+01,-8.698551185722317314e+01,9.255517005920410156e+00,1.912296712398529053e-01,1.491591572761535645e+00,5.460000000000000000e+02
-2.147980775042869936e+02,-2.011080365419875307e+02,-5.713143552032306616e+01,-6.888455856294149271e+01,-1.959371156894376327e+02,-1.864613175862286880e+02,-3.322098994588304777e+01,-8.487612269542114518e+01,9.255517005920410156e+00,1.912296712398529053e-01,1.491591572761535645e+00,5.470000000000000000e+02
-2.129655519132102199e+02,-2.047181579401176350e+02,-5.897532451456754643e+01,-7.019053475967848499e+01,-1.960385734191640950e+02,-1.847073123119062075e+02,-3.414492742111906409e+01,-8.278379814953768800e+01,9.255517005920410156e+00,1.912296712398529053e-01,1.491591572761535645e+00,5.480000000000000000e+02
-2.099616158220178477e+02,-2.070864241774042966e+02,-6.064286842905858066e+01,-7.115713967063220480e+01,-1.960449059811362531e+02,-1.827858259198128508e+02,-3.459450117026062799e+01,-8.014614202960910916e+01,9.255517005920410156e+00,1.912296712398529053e-01,1.491591572761535645e+00,5.490000000000000000e+02
-2.069482198707282805e+02,-2.072222863305705687e+02,-6.090483194652370003e+01,-7.071194918165019772e+01,-1.955627668947036000e+02,-1.807798672024200641e+02,-3.424186771911627147e+01,-7.697403876712451165e+01,9.255517005920410156e+00,1.912296712398529053e-01,1.491591572761535645e+00,5.500000000000000000e+02
-2.055219248105531733e+02,-2.055493110813567910e+02,-5.948851647261471953e+01,-6.893288714319169230e+01,-1.948256118727349531e+02,-1.788139835286801826e+02,-3.325957901310721354e+01,-7.380514247083374357e+01,9.255517005920410156e+00,1.912296712398529053e-01,1.491591572761535645e+00,5.510000000000000000e+02
-2.068853570492083236e+02,-2.034632917100261693e+02,-5.724630511377108633e+01,-6.665545450352692569e+01,-1.943032921313824772e+02,-1.769123708899915073e+02,-3.209847503367018362e+01,-7.123527766564438934e+01,9.255517005920410156e+00,1.912296712398529053e-01,1.491591572761535645e+00,5.520000000000000000e+02
-2.110321648324388661e+02,-2.022195523111131479e+02,-5.553404473035698174e+01,-6.471407101109252835e+01,-1.942080115723711060e+02,-1.750298472537124326e+02,-3.114802493135175609e+01,-6.944520779584308912e+01,9.255517005920410156e+00,1.912296712398529053e-01,1.491591572761535645e+00,5.530000000000000000e+02
-2.166104027830224368e+02,-2.020879701463727542e+02,-5.522610438964329660e+01,-6.354163973227332463e+01,-1.942657656994160789e+02,-1.731991858289093216e+02,-3.053811030467477394e+01,-6.812306771505609504e+01,9.255517005920410156e+00,1.912296712398529053e-01,1.491591572761535645e+00,5.540000000000000000e+02
-2.217470895705118892e+02,-2.023907771871636214e+02,-5.609923361178334744e+01,-6.328665490881212463e+01,-1.938740769334581273e+02,-1.716013898297496780e+02,-3.017831011019552534e+01,-6.680702412198115780e+01,9.255517005920410156e+00,1.912296712398529053e-01,1.491591572761535645e+00,5.550000000000000000e+02
-2.252762825389490899e+02,-2.021774333345147170e+02,-5.706367834553748253e+01,-6.401895156176215096e+01,-1.925485356555436738e+02,-1.704720867856522091e+02,-2.995373236580417142e+01,-6.534510896836945903e+01,9.255517005920410156e+00,1.912296712398529053e-01,1.491591572761535645e+00,5.560000000000000000e+02
-2.273817980892981723e+02,-2.008306377660901489e+02,-5.705495426009110815e+01,-6.562290221436160209e+01,-1.903688353730995004e+02,-1.699338940855450346e+02,-2.988689130512648262e+01,-6.407047288672038121e+01,9.255517005920410156e+00,1.912296712398529053e-01,1.491591572761535645e+00,5.570000000000000000e+02
-2.291395546019793983e+02,-1.981981743167725654e+02,-5.585413597480146564e+01,-6.751299281700266874e+01,-1.880686814944783691e+02,-1.699123160220478894e+02,-3.010073650247795740e+01,-6.352756088449859817e+01,9.255517005920410156e+00,1.912296712398529053e-01,1.491591572761535645e+00,5.580000000000000000e+02
-2.314414263931066671e+02,-1.944463028754853440e+02,-5.416032124396770087e+01,-6.867463295244306209e+01,-1.865672584890089638e+02,-1.701738950918697810e+02,-3.057651875886949711e+01,-6.396633304706847412e+01,9.255517005920410156e+00,1.912296712398529053e-01,1.491591572761535645e+00,5.590000000000000000e+02
-2.342919268089317484e+02,-1.900149442043439194e+02,-5.288548682827968150e+01,-6.825078315786777239e+01,-1.861869028329674620e+02,-1.704193204765906557e+02,-3.091390701631826232e+01,-6.498814200137167063e+01,9.255517005920410156e+00,1.912296712398529053e-01,1.491591572761535645e+00,5.600000000000000000e+02
-2.369948983820395370e+02,-1.856764314832889795e+02,-5.232874080539477291e+01,-6.624925757052551489e+01,-1.862138482228874636e+02,-1.703698733661913138e+02,-3.039502786498997011e+01,-6.560895330112361989e+01,9.255517005920410156e+00,1.912296712398529053e-01,1.491591572761535645e+00,5.610000000000000000e+02
-2.388751375476549583e+02,-1.823639711440991960e+02,-5.195418764059468231e+01,-6.366170264706306625e+01,-1.852903578192890564e+02,-1.698363354360299127e+02,-2.843614983745646896e+01,-6.474386296286866127e+01,9.255517005920410156e+00,1.912296712398529053e-01,1.491591572761535645e+00,5.620000000000000000e+02
-2.398016488647190272e+02,-1.806710187500866596e+02,-5.090854434818538721e+01,-6.177277817031790619e+01,-1.824103283832846500e+02,-1.687704650229570689e+02,-2.513284535635830252e+01,-6.185585347261439892e+01,9.255517005920410156e+00,1.912296712398529053e-01,1.491591572761535645e+00,5.630000000000000000e+02
-2.401083002059858700e+02,-1.804162824491359061e+02,-4.875076331158925314e+01,-6.121172452715472900e+01,-1.776792728274449473e+02,-1.672623493115061137e+02,-2.142909069121014909e+01,-5.737391516369279998e+01,9.255517005920410156e+00,1.912296712398529053e-01,1.491591572761535645e+00,5.640000000000000000e+02
-2.401608996557934006e+02,-1.807633717058415641e+02,-4.572041971823091444e+01,-6.156358920155071246e+01,-1.721725043460428424e+02,-1.654681612768144987e+02,-1.867643120353750419e+01,-5.254368993685966416e+01,9.255517005920410156e+00,1.912296712398529053e-01,1.491591572761535645e+00,5.650000000000000000e+02
-2.400526031369026896e+02,-1.808731308013066155e+02,-4.241306974123654072e+01,-6.187126444419482141e+01,-1.670950751946802484e+02,-1.635386630244283879e+02,-1.785137985725305043e+01,-4.873936728294756904e+01,9.293763160705566406e+00,1.529837548732757568e-01,1.529837369918823242e+00,5.660000000000000000e+02
-2.395955691636117990e+02,-1.805028271175124246e+02,-3.929887445466010831e+01,-6.156307377512894163e+01,-1.630500565989968891e+02,-1.616197179054761364e+02,-1.897289751857533702e+01,-4.668063592210455681e+01,9.293763160705566406e+00,1.529837548732757568e-01,1.529837369918823242e+00,5.670000000000000000e+02
-2.384735532477316156e+02,-1.799868536796420813e+02,-3.658015039157908177e+01,-6.098795717865687038e+01,-1.600036059050653421e+02,-1.599055343144100334e+02,-2.110928040203361888e+01,-4.611923879696769291e+01,9.293763160705566406e+00,1.529837548732757568e-01,1.529837369918823242e+00,5.680000000000000000e+02
-2.363838339625599474e+02,-1.796541392549697775e+02,-3.442883674189943122e+01,-6.111220864840834111e+01,-1.577694785585554200e+02,-1.586242230174357246e+02,-2.292571086751195253e+01,-4.621531465165753616e+01,9.293763160705566406e+00,1.529837548732757568e-01,1.529837369918823242e+00,5.690000000000000000e+02
-2.331549695832036377e+02,-1.793056143013855035e+02,-3.319307371358445380e+01,-6.264098630465741735e+01,-1.563697524087219790e+02,-1.578958868767222157e+02,-2.339371537541956059e+01,-4.622492300335579785e+01,9.293763160705566406e+00,1.529837548732757568e-01,1.529837369918823242e+00,5.700000000000000000e+02
-2.288903292171471548e+02,-1.782887971655763977e+02,-3.321905054259332246e+01,-6.527258972348863608e+01,-1.559198660330621351e+02,-1.575802306491459603e+02,-2.226969184963672888e+01,-4.587206809275448904e+01,9.293763160705566406e+00,1.529837548732757568e-01,1.529837369918823242e+00,5.710000000000000000e+02
-2.240579164955997840e+02,-1.760960646154981077e+02,-3.441165721779179876e+01,-6.767398482035787310e+01,-1.562666851562535157e+02,-1.572788731153050321e+02,-2.011884658828057582e+01,-4.515273779173003277e+01,9.293763160705566406e+00,1.529837548732757568e-01,1.529837369918823242e+00,5.720000000000000000e+02
-2.193700604690184264e+02,-1.729019574500816816e+02,-3.600736122152011376e+01,-6.824681501009399653e+01,-1.568503675934371131e+02,-1.565253218728939828e+02,-1.790214711258886382e+01,-4.394649950120219728e+01,9.293763160705566406e+00,1.529837548732757568e-01,1.529837369918823242e+00,5.730000000000000000e+02
-2.154428896102144790e+02,-1.695228237869450822e+02,-3.688895688235788839e+01,-6.619510658451508789e+01,-1.569626716622296954e+02,-1.550106154771747242e+02,-1.637254837833097554e+01,-4.200100710365586565e+01,9.293763160705566406e+00,1.529837548732757568e-01,1.529837369918823242e+00,5.740000000000000000e+02
-2.124564399119735754e+02,-1.668081710079131881e+02,-3.627397199674669537e+01,-6.215256653970391199e+01,-1.561623246361341444e+02,-1.526979584235014045e+02,-1.567097941842803266e+01,-3.934636574146861676e+01,9.293763160705566406e+00,1.529837548732757568e-01,1.529837369918823242e+00,5.750000000000000000e+02
-2.101105805873175996e+02,-1.649721269964593375e+02,-3.424722043600195320e+01,-5.787050970885320567e+01,-1.545164454238438339e+02,-1.498145095700128877e+02,-1.541410497526885592e+01,-3.659881413985567633e+01,9.293763160705566406e+00,1.529837548732757568e-01,1.529837369918823242e+00,5.760000000000000000e+02
-2.079227266375855834e+02,-1.634255739378531871e+02,-3.171707292143400991e+01,-5.510475970483821584e+01,-1.525196131903503556e+02,-1.467698997708830575e+02,-1.518186549389793072e+01,-3.464346713410122902e+01,9.293763160705566406e+00,1.529837548732757568e-01,1.529837369918823242e+00,5.770000000000000000e+02
-2.056100542590756959e+02,-1.612600121524192218e+02,-2.983139852670137770e+01,-5.446720405524501984e+01,-1.507728216019640968e+02,-1.440190939514504862e+02,-1.494616320052955416e+01,-3.388695051836839411e+01,9.293763160705566406e+00,1.529837548732757568e-01,1.529837369918823242e+00,5.780000000000000000e+02
-2.032455214749643346e+02,-1.580230915635511337e+02,-2.928758677669975441e+01,-5.514185923304285097e+01,-1.496166890866188623e+02,-1.418492512786251609e+02,-1.501209872849358362e+01,-3.386329257911711466e+01,9.293763160705566406e+00,1.529837548732757568e-01,1.529837369918823242e+00,5.790000000000000000e+02
-2.011036401169039891e+02,-1.541744369165553508e+02,-2.999326848215787322e+01,-5.573425770051653672e+01,-1.489464981152195833e+02,-1.401889998658189143e+02,-1.554547361830918817e+01,-3.369590883100681822e+01,9.293763160705566406e+00,1.529837548732757568e-01,1.529837369918823242e+00,5.800000000000000000e+02
-1.993917512198640907e+02,-1.508434723763002694e+02,-3.124790210210994701e+01,-5.555519995354188723e+01,-1.483714555096048571e+02,-1.386582247982914851e+02,-1.621243475707524340e+01,-3.299841556592582492e+01,9.293763160705566406e+00,1.529837548732757568e-01,1.529837369918823242e+00,5.810000000000000000e+02
-1.981251172373740701e+02,-1.490594828248958947e+02,-3.225816967175705940e+01,-5.520801652712179930e+01,-1.476243875021027634e+02,-1.369280912576141418e+02,-1.636400548578967573e+01,-3.226538609516865108e+01,9.293763160705566406e+00,1.529837548732757568e-01,1.529837369918823242e+00,5.820000000000000000e+02
-1.972086964669251756e+02,-1.490590605685156333e+02,-3.262860499753151089e+01,-5.594505262181155558e+01,-1.468773301077198994e+02,-1.351221812272815441e+02,-1.561875154534573085e+01,-3.230972889668555581e+01,9.293763160705566406e+00,1.529837548732757568e-01,1.529837369918823242e+00,5.830000000000000000e+02
-1.965652284057796351e+02,-1.502248026576362463e+02,-3.253886184260773007e+01,-5.838129781059978995e+01,-1.466170461893525498e+02,-1.338256926445465069e+02,-1.424877866086899303e+01,-3.332363278149568941e+01,9.293763160705566406e+00,1.529837548732757568e-01,1.529837369918823242e+00,5.840000000000000000e+02
-1.961341752707121486e+02,-1.516539022277574986e+02,-3.253343266118827160e+01,-6.177865577956254128e+01,-1.471424010989539966e+02,-1.335839584662899142e+02,-1.297561310599485296e+01,-3.457082051418910851e+01,9.293763160705566406e+00,1.529837548732757568e-01,1.529837369918823242e+00,5.850000000000000000e+02
-1.957750488428137032e+02,-1.528357787710265256e+02,-3.309008419410747592e+01,-6.462402848342389916e+01,-1.481806684107577894e+02,-1.343342869292646355e+02,-1.240448431934419204e+01,-3.505816106790734921e+01,9.293763160705566406e+00,1.529837548732757568e-01,1.529837369918823242e+00,5.860000000000000000e+02
-1.952705564278003294e+02,-1.538817834791552741e+02,-3.426564200143911876e+01,-6.601062520800041966e+01,-1.490544759505755792e+02,-1.353663498500609421e+02,-1.266340858409967041e+01,-3.450088587189748068e+01,9.293763160705566406e+00,1.529837548732757568e-01,1.529837369918823242e+00,5.870000000000000000e+02
-1.944959678144659847e+02,-1.551815880971516890e+02,-3.564655014717573067e+01,-6.653415892596240155e+01,-1.492652305216761306e+02,-1.359247290359344333e+02,-1.352434403715233202e+01,-3.359989148629028932e+01,9.293763160705566406e+00,1.529837548732757568e-01,1.529837369918823242e+00,5.880000000000000000e+02
