F3,F4,C3,C4,P3,P4,Cz,Pz,Accel_x,Accel_y,Accel_z,Sample
-3.274180926382541656e-11,-3.819877747446298599e-11,-2.910383045673370361e-11,-4.092726157978177071e-11,-6.275513442233204842e-11,-7.457856554538011551e-11,-2.728484105318784714e-11,-3.274180926382541656e-11,9.599730491638183594e+00,-3.442134261131286621e-01,0.000000000000000000e+00,2.260000000000000000e+02
-9.083681598563998705e+00,-1.312554073562751000e+01,-3.629240750286044204e+00,-8.121917236465378664e+00,-1.177277812652482680e+01,-4.711712191823608009e+00,-7.152513668509527633e+00,-1.325353324462230376e+01,9.599730491638183594e+00,-3.442134261131286621e-01,0.000000000000000000e+00,2.270000000000000000e+02
-1.832953902913232014e+01,-2.535624140391155379e+01,-7.692628753725330171e+00,-1.533475539825121814e+01,-2.476908293035103270e+01,-1.336989210991669097e+01,-1.421296225343303377e+01,-2.541308649331040215e+01,9.599730491638183594e+00,-3.442134261131286621e-01,0.000000000000000000e+00,2.280000000000000000e+02
-2.825663979996534181e+01,-3.621060709935863997e+01,-1.246498153179891233e+01,-2.108428136310521950e+01,-3.876220041162650887e+01,-2.614765461905699340e+01,-2.078233691978493880e+01,-3.535210749126963492e+01,9.446745872497558594e+00,-4.207052886486053467e-01,-7.649187743663787842e-02,2.290000000000000000e+02
-3.960136058748776122e+01,-4.569121469854871975e+01,-1.799340977177598688e+01,-2.517885751314861409e+01,-5.212678191204304312e+01,-3.927490584318911715e+01,-2.612646406236217445e+01,-4.197500394184953620e+01,9.446745872497558594e+00,-4.207052886486053467e-01,-7.649187743663787842e-02,2.300000000000000000e+02
-5.268339547642153775e+01,-5.401642787903347198e+01,-2.410378673243758385e+01,-2.753212869083290570e+01,-6.330543733773356507e+01,-4.848643595480643853e+01,-2.952759395476459758e+01,-4.457061607517334778e+01,9.446745872497558594e+00,-4.207052886486053467e-01,-7.649187743663787842e-02,2.310000000000000000e+02
-6.682983116364903253e+01,-6.134259032865520567e+01,-3.041299388765037293e+01,-2.806593263098329771e+01,-7.215773802389958291e+01,-5.264679296333815728e+01,-3.083985727666004095e+01,-4.347028333060188743e+01,9.446745872497558594e+00,-4.207052886486053467e-01,-7.649187743663787842e-02,2.320000000000000000e+02
-8.047453151019180950e+01,-6.776926805066977977e+01,-3.635863959237849485e+01,-2.701665372634670348e+01,-7.989670305913932680e+01,-5.426332231341439183e+01,-3.083656147535566561e+01,-4.051323203029187425e+01,9.446745872497558594e+00,-4.207052886486053467e-01,-7.649187743663787842e-02,2.330000000000000000e+02
-9.201706123249186930e+01,-7.357093011865799781e+01,-4.134439524601202720e+01,-2.533545865297946875e+01,-8.786677854031495372e+01,-5.688000580204243306e+01,-3.100099177490119473e+01,-3.858612531745347951e+01,9.446745872497558594e+00,-4.207052886486053467e-01,-7.649187743663787842e-02,2.340000000000000000e+02
-1.008520965234129108e+02,-7.933721621099812182e+01,-4.500976251731390221e+01,-2.458360099392757547e+01,-9.651737913047963957e+01,-6.217997133050266712e+01,-3.277133267857425380e+01,-4.010556397824439046e+01,9.446745872497558594e+00,-4.207052886486053467e-01,-7.649187743663787842e-02,2.350000000000000000e+02
-1.077495367191813784e+02,-8.580330903722187941e+01,-4.743134294372794102e+01,-2.611897175769627211e+01,-1.054799604854779318e+02,-6.933683681754155259e+01,-3.668948529976842110e+01,-4.540376173602726340e+01,9.446745872497558594e+00,-4.207052886486053467e-01,-7.649187743663787842e-02,2.360000000000000000e+02
-1.142593145193159216e+02,-9.347575501047958824e+01,-4.905897475150777609e+01,-3.011339598246831883e+01,-1.143633782458891801e+02,-7.656513965528392873e+01,-4.207166599535685236e+01,-5.244696834952901554e+01,9.446745872497558594e+00,-4.207052886486053467e-01,-7.649187743663787842e-02,2.370000000000000000e+02
-1.216139016711149452e+02,-1.023440623209780824e+02,-5.042121115982172341e+01,-3.526228062063910329e+01,-1.232228958140030954e+02,-8.287574762060285138e+01,-4.743807693226153788e+01,-5.834008162499230821e+01,9.446745872497558594e+00,-4.207052886486053467e-01,-7.649187743663787842e-02,2.380000000000000000e+02
-1.300039334801313089e+02,-1.118695114205975187e+02,-5.187257819358455890e+01,-3.954547398055456142e+01,-1.322538394077218982e+02,-8.846217509761936526e+01,-5.135511199851225683e+01,-6.143913445677935670e+01,9.446745872497558594e+00,-4.207052886486053467e-01,-7.649187743663787842e-02,2.390000000000000000e+02
-1.387596560741912981e+02,-1.212244217543275226e+02,-5.361376004250178084e+01,-4.150466903979213384e+01,-1.412609590181482417e+02,-9.391493279646510928e+01,-5.310382655872945179e+01,-6.225983947649729089e+01,9.446745872497558594e+00,-4.207052886486053467e-01,-7.649187743663787842e-02,2.400000000000000000e+02
-1.471620202848762347e+02,-1.296126856187202065e+02,-5.588773122313796193e+01,-4.105242399995677260e+01,-1.496669923000845301e+02,-9.945292566143507429e+01,-5.282197649461340916e+01,-6.248600180665744119e+01,9.446745872497558594e+00,-4.207052886486053467e-01,-7.649187743663787842e-02,2.410000000000000000e+02
-1.550817566286923466e+02,-1.365392906443148604e+02,-5.901513250791776954e+01,-3.925681207844263554e+01,-1.570894496134415022e+02,-1.048471132244221735e+02,-5.122868325162380643e+01,-6.319977933641348500e+01,9.446745872497558594e+00,-4.207052886486053467e-01,-7.649187743663787842e-02,2.420000000000000000e+02
-1.629026727829495940e+02,-1.419973293271350485e+02,-6.315068951173270762e+01,-3.745889925074243365e+01,-1.638321998983319645e+02,-1.097815106427706269e+02,-4.932078998131237313e+01,-6.414390403957168019e+01,9.446745872497558594e+00,-4.207052886486053467e-01,-7.649187743663787842e-02,2.430000000000000000e+02
-1.709229682293325823e+02,-1.465530405118461204e+02,-6.803690407355315983e+01,-3.656169469506949099e+01,-1.707432512724044500e+02,-1.141459926524566981e+02,-4.825111706333427719e+01,-6.464804798068962555e+01,9.446745872497558594e+00,-4.207052886486053467e-01,-7.649187743663787842e-02,2.440000000000000000e+02
-1.789306239299630761e+02,-1.512613572994923743e+02,-7.311127868795847462e+01,-3.697829705107869813e+01,-1.785788931479337407e+02,-1.181430523456037918e+02,-4.923244449794674438e+01,-6.504695121809891134e+01,9.446745872497558594e+00,-4.207052886486053467e-01,-7.649187743663787842e-02,2.450000000000000000e+02
-1.864191703806636724e+02,-1.573344585796585307e+02,-7.792872877657191566e+01,-3.898131712810572935e+01,-1.874758963861513621e+02,-1.223235351027296929e+02,-5.320036710596832563e+01,-6.689220304261834826e+01,9.446745872497558594e+00,-4.207052886486053467e-01,-7.649187743663787842e-02,2.460000000000000000e+02
-1.932046477312669595e+02,-1.656089152326758267e+02,-8.242343393754163117e+01,-4.284296045481096371e+01,-1.969185801645926404e+02,-1.274787713608875492e+02,-6.026406793502064829e+01,-7.157436244674318004e+01,9.446745872497558594e+00,-4.207052886486053467e-01,-7.649187743663787842e-02,2.470000000000000000e+02
-1.997526713067318269e+02,-1.760467652698389429e+02,-8.666267202071048814e+01,-4.851584905177060136e+01,-2.060841340499564467e+02,-1.342139309942285763e+02,-6.935284990420586837e+01,-7.873452693367107713e+01,9.446745872497558594e+00,-4.207052886486053467e-01,-7.649187743663787842e-02,2.480000000000000000e+02
-2.068042669070164266e+02,-1.875846214236717060e+02,-9.036280700834231538e+01,-5.522764387933148100e+01,-2.142212994776518826e+02,-1.423726646707173131e+02,-7.848588647659289563e+01,-8.615596406223448867e+01,9.446745872497558594e+00,-4.207052886486053467e-01,-7.649187743663787842e-02,2.490000000000000000e+02
-2.146264057451699045e+02,-1.985066255700558031e+02,-9.284917371901065053e+01,-6.155718446359151130e+01,-2.209075127656233235e+02,-1.508938833806278126e+02,-8.565500530247663846e+01,-9.139168506646910828e+01,9.446745872497558594e+00,-4.207052886486053467e-01,-7.649187743663787842e-02,2.500000000000000000e+02
-2.226524277337057356e+02,-2.072171960807654614e+02,-9.374495845629462565e+01,-6.611124285260666511e+01,-2.262313504277371976e+02,-1.584573412590161752e+02,-8.978556126539660909e+01,-9.365545939951789478e+01,9.446745872497558594e+00,-4.207052886486053467e-01,-7.649187743663787842e-02,2.510000000000000000e+02
-2.299231860506042722e+02,-2.129931323382970731e+02,-9.378087316296841891e+01,-6.829960031795872055e+01,-2.308637557199363073e+02,-1.644645418810150659e+02,-9.110696275998543570e+01,-9.422780382499877305e+01,9.446745872497558594e+00,-4.207052886486053467e-01,-7.649187743663787842e-02,2.520000000000000000e+02
-2.359448381733436690e+02,-2.162597298145601599e+02,-9.471966863689340244e+01,-6.857796497439903760e+01,-2.358313112684618318e+02,-1.694231612786707046e+02,-9.069797516291691863e+01,-9.507557577080569899e+01,9.446745872497558594e+00,-4.207052886486053467e-01,-7.649187743663787842e-02,2.530000000000000000e+02
-2.411369673847211743e+02,-2.182206029516928538e+02,-9.810753377655237273e+01,-6.798759555179458403e+01,-2.419429035595785535e+02,-1.743175056806203429e+02,-8.963105768915829685e+01,-9.707251141260894656e+01,9.484992027282714844e+00,-3.824593424797058105e-01,-3.824593871831893921e-02,2.540000000000000000e+02
-2.464249228450526061e+02,-2.201132299667833649e+02,-1.038247867026993845e+02,-6.743978093442092359e+01,-2.492120392394554074e+02,-1.795888064777273030e+02,-8.843304648045068461e+01,-9.948584332377231476e+01,9.484992027282714844e+00,-3.824593424797058105e-01,-3.824593871831893921e-02,2.550000000000000000e+02
-2.523629448539395526e+02,-2.226450294435262549e+02,-1.098527185605598788e+02,-6.735534977508723387e+01,-2.567920671566926103e+02,-1.847749148191005588e+02,-8.724052771331298572e+01,-1.010592555558114327e+02,9.484992027282714844e+00,-3.824593424797058105e-01,-3.824593871831893921e-02,2.560000000000000000e+02
-2.586313103623342613e+02,-2.259635555668337474e+02,-1.137105293894055649e+02,-6.786017850010921393e+01,-2.635934086803863465e+02,-1.891676676164925084e+02,-8.636361685598240001e+01,-1.014797851088505922e+02,9.484992027282714844e+00,-3.824593424797058105e-01,-3.824593871831893921e-02,2.570000000000000000e+02
-2.643872424559640422e+02,-2.300127427114121019e+02,-1.144620366137332894e+02,-6.917811854114916059e+01,-2.691466661157046474e+02,-1.927704428769002334e+02,-8.658028056855437171e+01,-1.017575373409490567e+02,9.484992027282714844e+00,-3.824593424797058105e-01,-3.824593871831893921e-02,2.580000000000000000e+02
-2.691316751937829395e+02,-2.348002741492296082e+02,-1.135388261388943647e+02,-7.168179502588463947e+01,-2.739869130696461070e+02,-1.964968813049017626e+02,-8.874598966762096097e+01,-1.032269455427267530e+02,9.484992027282714844e+00,-3.824593424797058105e-01,-3.824593871831893921e-02,2.590000000000000000e+02
-2.732559280819195919e+02,-2.402644142368058056e+02,-1.135980620636250933e+02,-7.546236711250912776e+01,-2.791902373763250580e+02,-2.013315984311393549e+02,-9.299107262553661712e+01,-1.062350027342954490e+02,9.484992027282714844e+00,-3.824593424797058105e-01,-3.824593871831893921e-02,2.600000000000000000e+02
-2.777362132001835562e+02,-2.459432816466087388e+02,-1.163838492700765528e+02,-7.986163192383628484e+01,-2.854343115507281254e+02,-2.072631983478322582e+02,-9.826688424033090996e+01,-1.098203466596805811e+02,9.484992027282714844e+00,-3.824593424797058105e-01,-3.824593871831893921e-02,2.610000000000000000e+02
-2.832679712750168619e+02,-2.509533031502373888e+02,-1.214083336620415139e+02,-8.356751040275685227e+01,-2.923805465122977694e+02,-2.130628952898823627e+02,-1.027849806504318622e+02,-1.126394502602206558e+02,9.484992027282714844e+00,-3.824593424797058105e-01,-3.824593871831893921e-02,2.620000000000000000e+02
-2.896458011288277703e+02,-2.545010928022252301e+02,-1.264873923845188983e+02,-8.540513186489806685e+01,-2.988905310811796880e+02,-2.171861625393312352e+02,-1.051273838999886721e+02,-1.141646863235669116e+02,9.484992027282714844e+00,-3.824593424797058105e-01,-3.824593871831893921e-02,2.630000000000000000e+02
-2.959302897732868587e+02,-2.565656675418349550e+02,-1.295272031539329873e+02,-8.527095042376276979e+01,-3.038659018127254967e+02,-2.190145803665382118e+02,-1.052115415709467925e+02,-1.149986244472011094e+02,9.484992027282714844e+00,-3.824593424797058105e-01,-3.824593871831893921e-02,2.640000000000000000e+02
-3.012152442609681202e+02,-2.580640753735074213e+02,-1.300124588556659546e+02,-8.437548342480477004e+01,-3.070169621560817177e+02,-2.193453336009379200e+02,-1.043694186420389087e+02,-1.161205266944798495e+02,9.484992027282714844e+00,-3.824593424797058105e-01,-3.824593871831893921e-02,2.650000000000000000e+02
-3.052895523899692307e+02,-2.602188727851871590e+02,-1.291121224614053062e+02,-8.445403250483377633e+01,-3.090006013318838995e+02,-2.197428219697958411e+02,-1.044833696243376835e+02,-1.179273299331716771e+02,9.484992027282714844e+00,-3.824593424797058105e-01,-3.824593871831893921e-02,2.660000000000000000e+02
-3.086536536891658216e+02,-2.636045142086140913e+02,-1.286018525031149693e+02,-8.649788847529816849e+01,-3.109458414227051435e+02,-2.213729681266459011e+02,-1.068338036083273437e+02,-1.200404069974520098e+02,9.484992027282714844e+00,-3.824593424797058105e-01,-3.824593871831893921e-02,2.670000000000000000e+02
-3.119822126330113861e+02,-2.677112362160869452e+02,-1.296490536493038235e+02,-9.003280031066242373e+01,-3.138279253996097395e+02,-2.243195189436564760e+02,-1.114300667974930548e+02,-1.219475486081882991e+02,9.484992027282714844e+00,-3.824593424797058105e-01,-3.824593871831893921e-02,2.680000000000000000e+02
-3.155866791126245516e+02,-2.714362008590123878e+02,-1.323187014278569222e+02,-9.353928787510449183e+01,-3.181046054549265136e+02,-2.278323644157753733e+02,-1.171393204150713245e+02,-1.236602133650321775e+02,9.484992027282714844e+00,-3.824593424797058105e-01,-3.824593871831893921e-02,2.690000000000000000e+02
-3.193375875509932484e+02,-2.740719205658547253e+02,-1.358768718982846622e+02,-9.564427425862413656e+01,-3.236749518346373407e+02,-2.311011752043104934e+02,-1.223821258681646214e+02,-1.256077695307280919e+02,9.484992027282714844e+00,-3.824593424797058105e-01,-3.824593871831893921e-02,2.700000000000000000e+02
-3.230006035156134203e+02,-2.759031088012693544e+02,-1.394056973208139425e+02,-9.606231391859546420e+01,-3.299803776929661581e+02,-2.337958092708322511e+02,-1.259131744085157152e+02,-1.278886740063421712e+02,9.484992027282714844e+00,-3.824593424797058105e-01,-3.824593871831893921e-02,2.710000000000000000e+02
-3.265676506481854631e+02,-2.778998527842718431e+02,-1.422629454840680410e+02,-9.556055859753450932e+01,-3.361624313508514206e+02,-2.360006886813416713e+02,-1.273524444689855954e+02,-1.297836221482862129e+02,9.484992027282714844e+00,-3.824593424797058105e-01,-3.824593871831893921e-02,2.720000000000000000e+02
-3.302353805768539132e+02,-2.808172367697125082e+02,-1.442390113942683456e+02,-9.513045332528736253e+01,-3.413474670381751821e+02,-2.378234549200742549e+02,-1.273183417009117875e+02,-1.302010728312402534e+02,9.484992027282714844e+00,-3.824593424797058105e-01,-3.824593871831893921e-02,2.730000000000000000e+02
-3.340869021883318055e+02,-2.845342241223020210e+02,-1.454835723930027598e+02,-9.519503217654937544e+01,-3.450570989786297105e+02,-2.392147792529440267e+02,-1.270943550532683730e+02,-1.287088924374620547e+02,9.484992027282714844e+00,-3.824593424797058105e-01,-3.824593871831893921e-02,2.740000000000000000e+02
-3.378525525414506774e+02,-2.882078143918083697e+02,-1.462923194297559348e+02,-9.550424943272810197e+01,-3.474943487536716020e+02,-2.401640768221768667e+02,-1.278867127901944514e+02,-1.261056484358946363e+02,9.484992027282714844e+00,-3.824593424797058105e-01,-3.824593871831893921e-02,2.750000000000000000e+02
-3.410231345555866938e+02,-2.910533236172932448e+02,-1.468315014502086342e+02,-9.561004284280534193e+01,-3.493654769525201118e+02,-2.409233670388630344e+02,-1.300013956113425593e+02,-1.238671326077319463e+02,9.484992027282714844e+00,-3.824593424797058105e-01,-3.824593871831893921e-02,2.760000000000000000e+02
-3.432453376725115959e+02,-2.930139400752213987e+02,-1.469632574185584417e+02,-9.530225261356417832e+01,-3.512580128268646149e+02,-2.418655639060625617e+02,-1.325013209620296948e+02,-1.229206723713564315e+02,9.484992027282714844e+00,-3.824593424797058105e-01,-3.824593871831893921e-02,2.770000000000000000e+02
-3.446425150565487456e+02,-2.947592662431598001e+02,-1.463456557598806285e+02,-9.461490360597554172e+01,-3.530941876119541121e+02,-2.430693994811381344e+02,-1.337430597039651730e+02,-1.229081940365203991e+02,9.484992027282714844e+00,-3.824593424797058105e-01,-3.824593871831893921e-02,2.780000000000000000e+02
-3.457654218675320408e+02,-2.970951023042171073e+02,-1.447898709111814242e+02,-9.358746838612705687e+01,-3.542233406187724540e+02,-2.441329402782193938e+02,-1.325481438266538134e+02,-1.226406236053267094e+02,9.484992027282714844e+00,-3.824593424797058105e-01,-3.824593871831893921e-02,2.790000000000000000e+02
-3.472141222668847149e+02,-3.003471073506379980e+02,-1.425786857919429167e+02,-9.221137677670549238e+01,-3.541476868129029754e+02,-2.445254698057833593e+02,-1.291539206895818097e+02,-1.212844368597066023e+02,9.484992027282714844e+00,-3.824593424797058105e-01,-3.824593871831893921e-02,2.800000000000000000e+02
-3.492411228632099665e+02,-3.042200328102926505e+02,-1.404322725858219201e+02,-9.067042849524796111e+01,-3.532208911839352368e+02,-2.441935972629748903e+02,-1.251573639630655634e+02,-1.191370456964050391e+02,9.523238182067871094e+00,-3.824593424797058105e-01,-3.824593871831893921e-02,2.810000000000000000e+02
-3.516487092324168771e+02,-3.081331024398468799e+02,-1.391229942703203051e+02,-8.951515040361528008e+01,-3.526059426714105030e+02,-2.437810680794286782e+02,-1.224546534989476640e+02,-1.173046246250814875e+02,9.523238182067871094e+00,-3.824593424797058105e-01,-3.824593871831893921e-02,2.820000000000000000e+02
-3.540376325214801909e+02,-3.116163911502057999e+02,-1.390722228528697997e+02,-8.939657853617700312e+01,-3.534805082489801862e+02,-2.441546628911396510e+02,-1.220322642616356461e+02,-1.166910892440678253e+02,9.523238182067871094e+00,-3.824593424797058105e-01,-3.824593871831893921e-02,2.830000000000000000e+02
-3.561652959910170466e+02,-3.144167794950121788e+02,-1.402786527440503050e+02,-9.048593833552786236e+01,-3.562300594810076291e+02,-2.456551704733242332e+02,-1.235656045826262925e+02,-1.173367614345265793e+02,9.523238182067871094e+00,-3.824593424797058105e-01,-3.824593871831893921e-02,2.840000000000000000e+02
-3.581280963910726314e+02,-3.163551753824917796e+02,-1.425628226733283554e+02,-9.216386967692278631e+01,-3.603570174352880713e+02,-2.478065677875074471e+02,-1.260263392970136920e+02,-1.186861360422858525e+02,9.523238182067871094e+00,-3.824593424797058105e-01,-3.824593871831893921e-02,2.850000000000000000e+02
-3.602563563309236088e+02,-3.172645192315749227e+02,-1.457795484710686651e+02,-9.340906852866282861e+01,-3.650983599847004371e+02,-2.497801330556517314e+02,-1.286019899986849850e+02,-1.203683367249186631e+02,9.523238182067871094e+00,-3.824593424797058105e-01,-3.824593871831893921e-02,2.860000000000000000e+02
-3.628382721170878540e+02,-3.171769008877217857e+02,-1.497299500709982567e+02,-9.363909560002775834e+01,-3.700603326228219885e+02,-2.511744125365394211e+02,-1.310749949666924294e+02,-1.226030278024536528e+02,9.523238182067871094e+00,-3.824593424797058105e-01,-3.824593871831893921e-02,2.870000000000000000e+02
-3.658990488196313891e+02,-3.165530602918261138e+02,-1.539062097444038955e+02,-9.325967668317889547e+01,-3.752364861994533385e+02,-2.523747998223807372e+02,-1.334863013145250079e+02,-1.258236479701217831e+02,9.523238182067871094e+00,-3.824593424797058105e-01,-3.824593871831893921e-02,2.880000000000000000e+02
-3.691744708767571410e+02,-3.162042724611205813e+02,-1.574576627962755992e+02,-9.335710652945908805e+01,-3.804803399626205191e+02,-2.541473847110999031e+02,-1.356320796296015487e+02,-1.299426538078714657e+02,9.523238182067871094e+00,-3.824593424797058105e-01,-3.824593871831893921e-02,2.890000000000000000e+02
-3.722523190122271899e+02,-3.168283230505522852e+02,-1.595655440560669831e+02,-9.472983169415738303e+01,-3.850932454770178310e+02,-2.568455708946798950e+02,-1.370116948463376048e+02,-1.340417922531271415e+02,9.523238182067871094e+00,-3.824593424797058105e-01,-3.824593871831893921e-02,2.900000000000000000e+02
-3.747654752999294487e+02,-3.185163882872341219e+02,-1.599714579431749826e+02,-9.710608563274081462e+01,-3.880478268385622869e+02,-2.599570274766115290e+02,-1.372755346992062186e+02,-1.368344612204905388e+02,9.523238182067871094e+00,-3.824593424797058105e-01,-3.824593871831893921e-02,2.910000000000000000e+02
-3.765462168964177181e+02,-3.206928914699363986e+02,-1.591920753360352592e+02,-9.928471422703751159e+01,-3.886932066157426107e+02,-2.623987086868373808e+02,-1.366659469483618068e+02,-1.375084057061108069e+02,9.523238182067871094e+00,-3.824593424797058105e-01,-3.824593871831893921e-02,2.920000000000000000e+02
-3.776990864647557373e+02,-3.225849548413397088e+02,-1.582015670618761760e+02,-1.001278333241045857e+02,-3.872969405445047641e+02,-2.633262677556608651e+02,-1.359651064870063237e+02,-1.362416936897520827e+02,9.523238182067871094e+00,-3.824593424797058105e-01,-3.824593871831893921e-02,2.930000000000000000e+02
-3.785651945708297035e+02,-3.238239842451275763e+02,-1.578325214342305571e+02,-9.954464395599643467e+01,-3.849431490253417678e+02,-2.627878727339029865e+02,-1.359841458254581994e+02,-1.340482177374117327e+02,9.523238182067871094e+00,-3.824593424797058105e-01,-3.824593871831893921e-02,2.940000000000000000e+02
-3.795650268103574945e+02,-3.246550259780199212e+02,-1.583763911758455833e+02,-9.858109783138570492e+01,-3.829050256720166772e+02,-2.616970141141885051e+02,-1.370585205873530867e+02,-1.321889441594380514e+02,9.523238182067871094e+00,-3.824593424797058105e-01,-3.824593871831893921e-02,2.950000000000000000e+02
-3.809526843792210684e+02,-3.256231128173408251e+02,-1.596071522104580254e+02,-9.851993882592205409e+01,-3.820077435786304250e+02,-2.611566782805066396e+02,-1.389249996867770278e+02,-1.316141491904998020e+02,9.523238182067871094e+00,-3.824593424797058105e-01,-3.824593871831893921e-02,2.960000000000000000e+02
-3.826081991361450036e+02,-3.270888362505025952e+02,-1.610524292648985920e+02,-9.979570055015665275e+01,-3.823900274381926465e+02,-2.616859412324861296e+02,-1.409378181729123298e+02,-1.326943694811304795e+02,9.523238182067871094e+00,-3.824593424797058105e-01,-3.824593871831893921e-02,2.970000000000000000e+02
-3.840313620279735005e+02,-3.290163213842512278e+02,-1.622068690607272856e+02,-1.017007623795934705e+02,-3.836824795400826815e+02,-2.629796420605703133e+02,-1.423654309331611785e+02,-1.351993267470505771e+02,9.523238182067871094e+00,-3.824593424797058105e-01,-3.824593871831893921e-02,2.980000000000000000e+02
-3.846009878525003387e+02,-3.311330313194866335e+02,-1.626181104598474576e+02,-1.031304710969477583e+02,-3.853372731726309439e+02,-2.643616083758122386e+02,-1.426289982452830145e+02,-1.384110726786946088e+02,9.523238182067871094e+00,-3.824593424797058105e-01,-3.824593871831893921e-02,2.990000000000000000e+02
-3.839827906105369948e+02,-3.331801095795834726e+02,-1.620189101863267069e+02,-1.036540820256077495e+02,-3.868823985119952340e+02,-2.654902954265066910e+02,-1.415372645278966957e+02,-1.413867251765864239e+02,9.523238182067871094e+00,-3.824593424797058105e-01,-3.824593871831893921e-02,3.000000000000000000e+02
-3.824269377203286240e+02,-3.349623353643158907e+02,-1.605770556190258276e+02,-1.038859300635081127e+02,-3.880500340013177265e+02,-2.666446165363977343e+02,-1.395050392612108681e+02,-1.433722716525905980e+02,9.523238182067871094e+00,-3.824593424797058105e-01,-3.824593871831893921e-02,3.010000000000000000e+02
-3.807389853918303970e+02,-3.362412008886411741e+02,-1.590624358198211894e+02,-1.048272807753423876e+02,-3.888293428045535620e+02,-2.683380126115484927e+02,-1.375531996748784422e+02,-1.441858796282191406e+02,9.523238182067871094e+00,-3.824593424797058105e-01,-3.824593871831893921e-02,3.020000000000000000e+02
-3.799014901208983019e+02,-3.367403896139764470e+02,-1.586045532902628565e+02,-1.068401309882483474e+02,-3.894421797505542600e+02,-2.706772845810778563e+02,-1.368606210821496916e+02,-1.442616221516893802e+02,9.523238182067871094e+00,-3.824593424797058105e-01,-3.824593871831893921e-02,3.030000000000000000e+02
-3.805609564405707488e+02,-3.363798485857952869e+02,-1.600074688145620030e+02,-1.092396373696728915e+02,-3.901906918864276577e+02,-2.731350476804796017e+02,-1.379851905310475786e+02,-1.442273524410996970e+02,9.523238182067871094e+00,-3.824593424797058105e-01,-3.824593871831893921e-02,3.040000000000000000e+02
-3.827014803698045853e+02,-3.355117212264516979e+02,-1.630893198040226935e+02,-1.108589880521403757e+02,-3.912178456379697309e+02,-2.749760528702499869e+02,-1.403267251940776532e+02,-1.443181368906422222e+02,9.523238182067871094e+00,-3.824593424797058105e-01,-3.824593871831893921e-02,3.050000000000000000e+02
-3.856906642249277866e+02,-3.348021995940983970e+02,-1.666335588157187431e+02,-1.109871267458424882e+02,-3.923435921975508336e+02,-2.758856198878988835e+02,-1.423789450431204386e+02,-1.441457530260489648e+02,9.523238182067871094e+00,-3.824593424797058105e-01,-3.824593871831893921e-02,3.060000000000000000e+02
-3.886448853378196873e+02,-3.347290127401607833e+02,-1.691003345377955611e+02,-1.097711530513799971e+02,-3.931401946765198545e+02,-2.761244177159028368e+02,-1.427174779717286128e+02,-1.430703891438014352e+02,9.523238182067871094e+00,-3.824593424797058105e-01,-3.824593871831893921e-02,3.070000000000000000e+02
-3.908694734254187324e+02,-3.351243002062057599e+02,-1.696150962996260887e+02,-1.078082790169382861e+02,-3.932673310521406620e+02,-2.760748673204609531e+02,-1.410223828684494265e+02,-1.408871723940468428e+02,9.523238182067871094e+00,-3.824593424797058105e-01,-3.824593871831893921e-02,3.080000000000000000e+02
-3.921069683263450543e+02,-3.352621292392610144e+02,-1.684832729586958067e+02,-1.055133524545940418e+02,-3.928305736081020996e+02,-2.757282800571667849e+02,-1.383283599793450094e+02,-1.382140676435118394e+02,9.523238182067871094e+00,-3.824593424797058105e-01,-3.824593871831893921e-02,3.090000000000000000e+02
-3.924813553395262034e+02,-3.345220342002496068e+02,-1.668535439468975028e+02,-1.029972593011286790e+02,-3.924306961155468798e+02,-2.747298979330696511e+02,-1.362795528539132874e+02,-1.362052606513091177e+02,9.523238182067871094e+00,-3.824593424797058105e-01,-3.824593871831893921e-02,3.100000000000000000e+02
-3.922537182523974479e+02,-3.330749934444675091e+02,-1.658363214049991257e+02,-1.005277692305760411e+02,-3.927798758470519260e+02,-2.729735657502949380e+02,-1.359633240630261071e+02,-1.358012716859275315e+02,9.523238182067871094e+00,-3.824593424797058105e-01,-3.824593871831893921e-02,3.110000000000000000e+02
-3.916157909191205135e+02,-3.319449705105447492e+02,-1.657809828145611846e+02,-9.892920652551174499e+01,-3.941397897916184547e+02,-2.710823664118958050e+02,-1.372088470555195272e+02,-1.371201914644739190e+02,9.484992027282714844e+00,-3.059675097465515137e-01,-7.649187743663787842e-02,3.120000000000000000e+02
-3.906614938072927998e+02,-3.323263540516958301e+02,-1.662328258059920927e+02,-9.931525682260166832e+01,-3.960666231589623294e+02,-2.701894085140622792e+02,-1.388599483700070323e+02,-1.394641399452510768e+02,9.484992027282714844e+00,-3.059675097465515137e-01,-7.649187743663787842e-02,3.130000000000000000e+02
-3.894977380010793695e+02,-3.347039364996131212e+02,-1.665296243500356468e+02,-1.022838805547942229e+02,-3.977541027708209640e+02,-2.711505362958621390e+02,-1.397824033906571231e+02,-1.418943818568379811e+02,9.484992027282714844e+00,-3.059675097465515137e-01,-7.649187743663787842e-02,3.140000000000000000e+02
-3.883554130770666575e+02,-3.384962570090324903e+02,-1.665091481773405349e+02,-1.073318893303712684e+02,-3.987327233065786913e+02,-2.739094415057735432e+02,-1.398325551713336381e+02,-1.438700483260354304e+02,9.484992027282714844e+00,-3.059675097465515137e-01,-7.649187743663787842e-02,3.150000000000000000e+02
-3.876005859456878397e+02,-3.424683552831784255e+02,-1.667668884497873023e+02,-1.130807545259083327e+02,-3.993199835965602915e+02,-2.775860849865304090e+02,-1.400635134202666450e+02,-1.454689219505597748e+02,9.484992027282714844e+00,-3.059675097465515137e-01,-7.649187743663787842e-02,3.160000000000000000e+02
-3.876648176104228583e+02,-3.455263976347677044e+02,-1.682935133632912539e+02,-1.181438834323496394e+02,-4.003994244344261233e+02,-2.811606394776761135e+02,-1.420063357546858924e+02,-1.471213220075626396e+02,9.484992027282714844e+00,-3.059675097465515137e-01,-7.649187743663787842e-02,3.170000000000000000e+02
-3.889628615982321094e+02,-3.472808942958693024e+02,-1.718109109524091309e+02,-1.219192757296090122e+02,-4.027238569979369913e+02,-2.841382343622374265e+02,-1.465388264287515767e+02,-1.492097734760297953e+02,9.484992027282714844e+00,-3.059675097465515137e-01,-7.649187743663787842e-02,3.180000000000000000e+02
-3.917965777064009671e+02,-3.480708964021226848e+02,-1.773169571405161378e+02,-1.247397140430189211e+02,-4.063872145037793189e+02,-2.867099515706065631e+02,-1.531649777110783361e+02,-1.519306381581923233e+02,9.484992027282714844e+00,-3.059675097465515137e-01,-7.649187743663787842e-02,3.190000000000000000e+02
-3.962035249534156947e+02,-3.486435741521473801e+02,-1.841651771795386594e+02,-1.274550175501523199e+02,-4.109698878270575051e+02,-2.894488848162743579e+02,-1.602928609215509823e+02,-1.555076743573067688e+02,9.484992027282714844e+00,-3.059675097465515137e-01,-7.649187743663787842e-02,3.200000000000000000e+02
-4.018067454618027341e+02,-3.498550550286093994e+02,-1.916086630577067353e+02,-1.309511749800124107e+02,-4.162235652009778732e+02,-2.929343659842712668e+02,-1.664206534340339658e+02,-1.604935386805788085e+02,9.484992027282714844e+00,-3.059675097465515137e-01,-7.649187743663787842e-02,3.210000000000000000e+02
-4.078308588975205566e+02,-3.525228947602277572e+02,-1.993702084921710593e+02,-1.359555278589489262e+02,-4.226179970913852912e+02,-2.975834661078768022e+02,-1.714021127301053866e+02,-1.677649114790041267e+02,9.484992027282714844e+00,-3.059675097465515137e-01,-7.649187743663787842e-02,3.220000000000000000e+02
-4.134134599859673358e+02,-3.573076643140161650e+02,-2.077894472012307006e+02,-1.430381039094370408e+02,-4.311693619537552422e+02,-3.036620664551392110e+02,-1.767880872199629039e+02,-1.780735633211364757e+02,9.484992027282714844e+00,-3.059675097465515137e-01,-7.649187743663787842e-02,3.230000000000000000e+02
-4.180939400426255474e+02,-3.645013177483152162e+02,-2.174607107908000216e+02,-1.525489331160359825e+02,-4.426242169889410434e+02,-3.113166404233600133e+02,-1.848674162231131959e+02,-1.914462173838222725e+02,9.484992027282714844e+00,-3.059675097465515137e-01,-7.649187743663787842e-02,3.240000000000000000e+02
-4.221088998628548552e+02,-3.738156156754873791e+02,-2.286700872150396435e+02,-1.644300407631949383e+02,-4.566771704247286152e+02,-3.205544569483820396e+02,-1.970245531093155478e+02,-2.069327661687004820e+02,9.484992027282714844e+00,-3.059675097465515137e-01,-7.649187743663787842e-02,3.250000000000000000e+02
-4.261984630539167256e+02,-3.843941273754480221e+02,-2.410635557203281678e+02,-1.780799874432854040e+02,-4.718847211582414047e+02,-3.311972879009804274e+02,-2.126125719665736824e+02,-2.229534272027739235e+02,9.484992027282714844e+00,-3.059675097465515137e-01,-7.649187743663787842e-02,3.260000000000000000e+02
-4.310404553037416804e+02,-3.951287834536072410e+02,-2.537696414295438672e+02,-1.924502012120663039e+02,-4.863608375161410322e+02,-3.428541157043537169e+02,-2.291886760296534931e+02,-2.380111024372755537e+02,9.484992027282714844e+00,-3.059675097465515137e-01,-7.649187743663787842e-02,3.270000000000000000e+02
-4.367538446506797527e+02,-4.050722509242669389e+02,-2.658028891599740291e+02,-2.063163637282708578e+02,-4.987065041477376326e+02,-3.549148588064959995e+02,-2.439004453850158143e+02,-2.511993680431454550e+02,9.484992027282714844e+00,-3.059675097465515137e-01,-7.649187743663787842e-02,3.280000000000000000e+02
-4.428522402792783055e+02,-4.136513095512631821e+02,-2.763868886191240790e+02,-2.185330664937199572e+02,-5.084751720056061686e+02,-3.665700095290765148e+02,-2.549489432353852862e+02,-2.621278347318240094e+02,9.484992027282714844e+00,-3.059675097465515137e-01,-7.649187743663787842e-02,3.290000000000000000e+02
-4.486112665612450883e+02,-4.205731294575007269e+02,-2.849943937077910050e+02,-2.281768742193039543e+02,-5.159229425693747544e+02,-3.769064189604489457e+02,-2.621084836284732091e+02,-2.704574916060233818e+02,9.484992027282714844e+00,-3.059675097465515137e-01,-7.649187743663787842e-02,3.300000000000000000e+02
-4.534541623577547966e+02,-4.256020613280564930e+02,-2.912367784262926307e+02,-2.346625407018394753e+02,-5.214161759329695087e+02,-3.851213815791755906e+02,-2.661840192014346940e+02,-2.756552609045786539e+02,9.484992027282714844e+00,-3.059675097465515137e-01,-7.649187743663787842e-02,3.310000000000000000e+02
-4.570393985429653299e+02,-4.284731200281249812e+02,-2.948760529161565955e+02,-2.379056973167128035e+02,-5.250881631410063619e+02,-3.907917492633529264e+02,-2.681453343327918901e+02,-2.773574206012152672e+02,9.484992027282714844e+00,-3.059675097465515137e-01,-7.649187743663787842e-02,3.320000000000000000e+02
-4.591287577619616513e+02,-4.290259356694894564e+02,-2.960241412440208251e+02,-2.384101686991828046e+02,-5.269938392735407433e+02,-3.940319664381906932e+02,-2.686946745900941096e+02,-2.760221480814968800e+02,9.523238182067871094e+00,-3.824593424797058105e-01,-3.824593871831893921e-02,3.330000000000000000e+02
-4.595470350485749123e+02,-4.274290923847465820e+02,-2.953020656861847328e+02,-2.370865386740861140e+02,-5.274485281955078335e+02,-3.954129357627272157e+02,-2.683613706496300892e+02,-2.730953363705302763e+02,9.523238182067871094e+00,-3.824593424797058105e-01,-3.824593871831893921e-02,3.340000000000000000e+02
-4.583704151004261007e+02,-4.242978674630117553e+02,-2.936569107482315530e+02,-2.348096152203745532e+02,-5.270221630940079649e+02,-3.956454627488121787e+02,-2.676309074876323848e+02,-2.702414586632294231e+02,9.523238182067871094e+00,-3.824593424797058105e-01,-3.824593871831893921e-02,3.350000000000000000e+02
-4.560959882201645996e+02,-4.205884550319539130e+02,-2.918256427357396205e+02,-2.320361517899185628e+02,-5.260481131998149067e+02,-3.951838865106386720e+02,-2.667312978819038563e+02,-2.681214403254604122e+02,9.523238182067871094e+00,-3.824593424797058105e-01,-3.824593871831893921e-02,3.360000000000000000e+02
-4.534551381103049152e+02,-4.173001745349693579e+02,-2.898186512352369846e+02,-2.288225813750622137e+02,-5.241222452653751134e+02,-3.939786608716141245e+02,-2.653027217798455695e+02,-2.658205172526745628e+02,9.523238182067871094e+00,-3.824593424797058105e-01,-3.824593871831893921e-02,3.370000000000000000e+02
-4.508960376598707853e+02,-4.151038236924466105e+02,-2.868989853608158000e+02,-2.252228662293516663e+02,-5.202556792172285896e+02,-3.915757938867258190e+02,-2.624954641582011163e+02,-2.616221545323448936e+02,9.523238182067871094e+00,-3.824593424797058105e-01,-3.824593871831893921e-02,3.380000000000000000e+02
-4.482018069518375114e+02,-4.140509945268942147e+02,-2.821794941627621256e+02,-2.216473351170926662e+02,-5.137662585168927762e+02,-3.875657611648938428e+02,-2.576609110938621825e+02,-2.546195134934114321e+02,9.523238182067871094e+00,-3.824593424797058105e-01,-3.824593871831893921e-02,3.390000000000000000e+02
-4.446842366267746911e+02,-4.135342041935512043e+02,-2.754346299621755634e+02,-2.187566702639140885e+02,-5.051846996586523346e+02,-3.821163265319047468e+02,-2.511116095943543769e+02,-2.458017353239894192e+02,9.523238182067871094e+00,-3.824593424797058105e-01,-3.824593871831893921e-02,3.400000000000000000e+02
-4.398736074696271316e+02,-4.125805152553180051e+02,-2.674993453448537366e+02,-2.169238632915861444e+02,-4.962556789580253280e+02,-3.761641829052448429e+02,-2.441999936985296245e+02,-2.375945165889040709e+02,9.523238182067871094e+00,-3.824593424797058105e-01,-3.824593871831893921e-02,3.410000000000000000e+02
-4.341076887844745897e+02,-4.103596117114535673e+02,-2.599107250864107073e+02,-2.157597385186998054e+02,-4.888601375037655998e+02,-3.710006037309418616e+02,-2.385212914840606118e+02,-2.321585323927114359e+02,9.523238182067871094e+00,-3.824593424797058105e-01,-3.824593871831893921e-02,3.420000000000000000e+02
-4.284522761642217574e+02,-4.066121520460003467e+02,-2.540174919192734251e+02,-2.141810187435506805e+02,-4.837133135736544318e+02,-3.674600609980968784e+02,-2.348334466944558017e+02,-2.298343798031424967e+02,9.523238182067871094e+00,-3.824593424797058105e-01,-3.824593871831893921e-02,3.430000000000000000e+02
-4.239644430083128555e+02,-4.017066911885189029e+02,-2.502029923285198265e+02,-2.110155892260040673e+02,-4.799718790608264953e+02,-3.653001265326416842e+02,-2.325434443144851002e+02,-2.289690196534990037e+02,9.523238182067871094e+00,-3.824593424797058105e-01,-3.824593871831893921e-02,3.440000000000000000e+02
-4.209062641842158428e+02,-3.963007959752114857e+02,-2.477647312468504879e+02,-2.056680608223905438e+02,-4.760739057277816073e+02,-3.632874127112485212e+02,-2.301183150282100769e+02,-2.271604525417261584e+02,9.523238182067871094e+00,-3.824593424797058105e-01,-3.824593871831893921e-02,3.450000000000000000e+02
-4.185706157699846699e+02,-3.908850396940244991e+02,-2.454568665920857029e+02,-1.983435143455840262e+02,-4.709798974285588429e+02,-3.599578566238211579e+02,-2.260301873053459758e+02,-2.227925251918376262e+02,9.523238182067871094e+00,-3.824593424797058105e-01,-3.824593871831893921e-02,3.460000000000000000e+02
-4.158522706430168228e+02,-3.855854761153893833e+02,-2.422406923783023558e+02,-1.897804026118125194e+02,-4.646971502162944034e+02,-3.544846542939817482e+02,-2.195637321361932663e+02,-2.156945039565365505e+02,9.523238182067871094e+00,-3.824593424797058105e-01,-3.824593871831893921e-02,3.470000000000000000e+02
-4.120854858264675613e+02,-3.803634767891451247e+02,-2.377304473363982424e+02,-1.808643841905283125e+02,-4.578018741180758298e+02,-3.470457754221182540e+02,-2.111065800393220115e+02,-2.067208267844732745e+02,9.523238182067871094e+00,-3.824593424797058105e-01,-3.824593871831893921e-02,3.480000000000000000e+02
-4.074647824729573813e+02,-3.753511166017769938e+02,-2.321754503578697495e+02,-1.724447605461828061e+02,-4.506837645583667609e+02,-3.385388774162472600e+02,-2.019445624100219447e+02,-1.969635599274147353e+02,9.523238182067871094e+00,-3.824593424797058105e-01,-3.824593871831893921e-02,3.490000000000000000e+02
-4.027534675650614417e+02,-3.709502914797742505e+02,-2.261707960208416353e+02,-1.653076901175699049e+02,-4.433697955630310616e+02,-3.300022756518480946e+02,-1.937521050018700635e+02,-1.873603499636567449e+02,9.523238182067871094e+00,-3.824593424797058105e-01,-3.824593871831893921e-02,3.500000000000000000e+02
-3.985773501866297011e+02,-3.675392526807231661e+02,-2.203664129085913146e+02,-1.600472293609685721e+02,-4.359766913394757921e+02,-3.222054591325845649e+02,-1.879230858427188195e+02,-1.787846190205948460e+02,9.523238182067871094e+00,-3.824593424797058105e-01,-3.824593871831893921e-02,3.510000000000000000e+02
-3.948891702915275346e+02,-3.650432389163140670e+02,-2.152548720497172781e+02,-1.567626593523639258e+02,-4.290416223970728424e+02,-3.155673506103513546e+02,-1.849055476259571833e+02,-1.721128193074011961e+02,9.523238182067871094e+00,-3.824593424797058105e-01,-3.824593871831893921e-02,3.520000000000000000e+02
-3.910199528802593250e+02,-3.627957063879516681e+02,-2.109947312427976840e+02,-1.548480356549850967e+02,-4.231628005174241025e+02,-3.102316804663188350e+02,-1.838765513465666572e+02,-1.678997499306657346e+02,9.523238182067871094e+00,-3.824593424797058105e-01,-3.824593871831893921e-02,3.530000000000000000e+02
-3.862576319946560943e+02,-3.598941536130812437e+02,-2.073175523584266102e+02,-1.532029383739504738e+02,-4.182974986642589101e+02,-3.060973038949800866e+02,-1.831016309565997062e+02,-1.659003426453526799e+02,9.523238182067871094e+00,-3.824593424797058105e-01,-3.824593871831893921e-02,3.540000000000000000e+02
-3.804885167978826530e+02,-3.558300269281389774e+02,-2.036695177308608891e+02,-1.508290708259186204e+02,-4.136021650845875683e+02,-3.027870458411124446e+02,-1.809100534655979118e+02,-1.649989264199672334e+02,9.523238182067871094e+00,-3.824593424797058105e-01,-3.824593871831893921e-02,3.550000000000000000e+02
-3.743924996745349745e+02,-3.508950516464399243e+02,-1.996187637099690164e+02,-1.473690880741935416e+02,-4.081805218488620994e+02,-2.996872313450253387e+02,-1.766772109405957281e+02,-1.637622099893799259e+02,9.523238182067871094e+00,-3.824593424797058105e-01,-3.824593871831893921e-02,3.560000000000000000e+02
-3.690244115845883925e+02,-3.459889640531479245e+02,-1.952513166951337098e+02,-1.431397312883927952e+02,-4.020394742025789583e+02,-2.961307322921121568e+02,-1.710635086672406260e+02,-1.611881241974177783e+02,9.523238182067871094e+00,-3.824593424797058105e-01,-3.824593871831893921e-02,3.570000000000000000e+02
-3.650888881568754414e+02,-3.419466301585739529e+02,-1.911548941619571451e+02,-1.386748017061289602e+02,-3.961922765821169605e+02,-2.916465763595388125e+02,-1.653239785851291117e+02,-1.570276476904148240e+02,9.484992027282714844e+00,-3.824593424797058105e-01,-3.824593871831893921e-02,3.580000000000000000e+02
-3.624451794080091531e+02,-3.389117512545060436e+02,-1.878850108749535366e+02,-1.342318365368795412e+02,-3.916538785173910355e+02,-2.861242935429634144e+02,-1.602897254816138002e+02,-1.515089104745892428e+02,9.484992027282714844e+00,-3.824593424797058105e-01,-3.824593871831893921e-02,3.590000000000000000e+02
-3.601956869198104414e+02,-3.362699277648740690e+02,-1.853354889833439074e+02,-1.297067856076639600e+02,-3.882555706002103761e+02,-2.798152451611820197e+02,-1.558867814817618864e+02,-1.448993250490947275e+02,9.484992027282714844e+00,-3.824593424797058105e-01,-3.824593871831893921e-02,3.600000000000000000e+02
-3.572811552449235251e+02,-3.332107739324135309e+02,-1.826333924156018611e+02,-1.249710624970074377e+02,-3.845125549477066897e+02,-2.731987875521058413e+02,-1.515160446142031105e+02,-1.374361660279145099e+02,9.484992027282714844e+00,-3.824593424797058105e-01,-3.824593871831893921e-02,3.610000000000000000e+02
-3.531449756045751656e+02,-3.294586177185590259e+02,-1.787593494072506246e+02,-1.202496165907416525e+02,-3.787978566714539284e+02,-2.668062130557518685e+02,-1.468254194085342306e+02,-1.296612828243933109e+02,9.484992027282714844e+00,-3.824593424797058105e-01,-3.824593871831893921e-02,3.620000000000000000e+02
-3.480098872076208636e+02,-3.255402228503764945e+02,-1.733998878598287092e+02,-1.161581685904486676e+02,-3.708000388255156849e+02,-2.610908548976415204e+02,-1.421143520629344721e+02,-1.226662951923620994e+02,9.484992027282714844e+00,-3.824593424797058105e-01,-3.824593871831893921e-02,3.630000000000000000e+02
-3.426314738306028858e+02,-3.223434136120497442e+02,-1.672682569133687593e+02,-1.133620842131874724e+02,-3.619267997149598841e+02,-2.563809963118292217e+02,-1.380518521323816685e+02,-1.177693545675989526e+02,9.484992027282714844e+00,-3.824593424797058105e-01,-3.824593871831893921e-02,3.640000000000000000e+02
-3.377814048758074250e+02,-3.203438519566639116e+02,-1.616173788249029712e+02,-1.121476503995545499e+02,-3.542935165966511022e+02,-2.528958362935675268e+02,-1.350845970850618869e+02,-1.157418957806472690e+02,9.484992027282714844e+00,-3.824593424797058105e-01,-3.824593871831893921e-02,3.650000000000000000e+02
-3.338496991648203220e+02,-3.191663605710068623e+02,-1.573989089550016161e+02,-1.122094750492717594e+02,-3.492028289356891264e+02,-2.507339771667625428e+02,-1.331086068643377303e+02,-1.162152143748027129e+02,9.484992027282714844e+00,-3.824593424797058105e-01,-3.824593871831893921e-02,3.660000000000000000e+02
-3.307897853562660657e+02,-3.178508777749859746e+02,-1.547833735677714913e+02,-1.127475616339236240e+02,-3.463957761393020292e+02,-2.497657338544049708e+02,-1.315949975076026703e+02,-1.178056845208789127e+02,9.484992027282714844e+00,-3.824593424797058105e-01,-3.824593871831893921e-02,3.670000000000000000e+02
-3.283482511520730895e+02,-3.155817307809506929e+02,-1.533367281207893029e+02,-1.127850776172433598e+02,-3.445530364098700602e+02,-2.494936879590738954e+02,-1.299196077550153632e+02,-1.188878352491767600e+02,9.484992027282714844e+00,-3.824593424797058105e-01,-3.824593871831893921e-02,3.680000000000000000e+02
-3.263366847739605419e+02,-3.122489447739479829e+02,-1.525053727413366005e+02,-1.115539588170702245e+02,-3.424063493024793843e+02,-2.490483018356005687e+02,-1.275987616710003749e+02,-1.184142968899844846e+02,9.484992027282714844e+00,-3.824593424797058105e-01,-3.824593871831893921e-02,3.690000000000000000e+02
-3.247211521249816997e+02,-3.084079821780940165e+02,-1.518734578612796895e+02,-1.088135410571712782e+02,-3.394611727061706006e+02,-2.474581283591826377e+02,-1.244197713014169722e+02,-1.162349217521870059e+02,9.484992027282714844e+00,-3.824593424797058105e-01,-3.824593871831893921e-02,3.700000000000000000e+02
-3.234887234226387136e+02,-3.047520399957700192e+02,-1.510699539526393664e+02,-1.049867607838045842e+02,-3.359134229325891283e+02,-2.441307608711213106e+02,-1.206092404802719784e+02,-1.128747992243796716e+02,9.484992027282714844e+00,-3.824593424797058105e-01,-3.824593871831893921e-02,3.710000000000000000e+02
-3.224358469863061600e+02,-3.015979174566494976e+02,-1.496653602256426439e+02,-1.010275228232505924e+02,-3.321515227993209010e+02,-2.392472468827888861e+02,-1.169709043241184645e+02,-1.091390152558482214e+02,9.484992027282714844e+00,-3.824593424797058105e-01,-3.824593871831893921e-02,3.720000000000000000e+02
-3.210936730453959171e+02,-2.987808710647810813e+02,-1.473533512202387783e+02,-9.801118186126541332e+01,-3.284564103167808753e+02,-2.337474528799425570e+02,-1.146610706928454420e+02,-1.058346228910087348e+02,9.484992027282714844e+00,-3.824593424797058105e-01,-3.824593871831893921e-02,3.730000000000000000e+02
-3.189106090271907306e+02,-2.959321235426050407e+02,-1.442789834056318341e+02,-9.660232391418685438e+01,-3.250620471276411081e+02,-2.288347999673410413e+02,-1.144468755836362561e+02,-1.035937465031618103e+02,9.484992027282714844e+00,-3.824593424797058105e-01,-3.824593871831893921e-02,3.740000000000000000e+02
-3.156235555433031550e+02,-2.928181686477987569e+02,-1.411055595511548972e+02,-9.667716235672787661e+01,-3.222514900996320648e+02,-2.252796699065199846e+02,-1.158953376470742569e+02,-1.026670910628922684e+02,9.484992027282714844e+00,-3.824593424797058105e-01,-3.824593871831893921e-02,3.750000000000000000e+02
-3.115597500392955226e+02,-2.894746310124501179e+02,-1.386280309357970282e+02,-9.732807590041466028e+01,-3.202055365795163198e+02,-2.229877757547656074e+02,-1.172919726855288900e+02,-1.027253754530593142e+02,9.484992027282714844e+00,-3.824593424797058105e-01,-3.824593871831893921e-02,3.760000000000000000e+02
-3.075661602155710170e+02,-2.861249643913142791e+02,-1.372052008604605362e+02,-9.726920961058340254e+01,-3.187283279078428677e+02,-2.211221528262444735e+02,-1.166076083764819487e+02,-1.028987185517839862e+02,9.484992027282714844e+00,-3.824593424797058105e-01,-3.824593871831893921e-02,3.770000000000000000e+02
-3.045101431200228035e+02,-2.830502835299100752e+02,-1.365043294716101627e+02,-9.544309276016042531e+01,-3.172224952164201568e+02,-2.186816383648078954e+02,-1.128947196209280719e+02,-1.021804221236127432e+02,9.484992027282714844e+00,-3.824593424797058105e-01,-3.824593871831893921e-02,3.780000000000000000e+02
-3.026511863811924741e+02,-2.805102723279387646e+02,-1.357688880286664244e+02,-9.152694069620747541e+01,-3.150308096659396142e+02,-2.151188015648383498e+02,-1.069832777026294934e+02,-9.997888485551311533e+01,9.484992027282714844e+00,-3.824593424797058105e-01,-3.824593871831893921e-02,3.790000000000000000e+02
-3.013602168251516105e+02,-2.786669438851877203e+02,-1.343297306808567555e+02,-8.608292974047799362e+01,-3.118227025249334474e+02,-2.105651987009514414e+02,-1.008568064838273131e+02,-9.640704560338508600e+01,9.484992027282714844e+00,-3.824593424797058105e-01,-3.824593871831893921e-02,3.800000000000000000e+02
-2.994822355982923909e+02,-2.774473158994576352e+02,-1.319344420899606121e+02,-8.027921041575450545e+01,-3.076480048364444428e+02,-2.055623581253532848e+02,-9.622645678002845671e+01,-9.210655217615749280e+01,9.484992027282714844e+00,-3.824593424797058105e-01,-3.824593871831893921e-02,3.810000000000000000e+02
-2.961546586516910793e+02,-2.764214724326700434e+02,-1.287460692459890197e+02,-7.531804807199750940e+01,-3.026895340802566352e+02,-2.005982623292402423e+02,-9.351147602581659157e+01,-8.781929596571171714e+01,9.484992027282714844e+00,-3.824593424797058105e-01,-3.824593871831893921e-02,3.820000000000000000e+02
-2.914857718796486097e+02,-2.748988248469515838e+02,-1.251778624500161641e+02,-7.188688626972862039e+01,-2.971027552687551179e+02,-1.958769353403858986e+02,-9.198341298066725358e+01,-8.409284037660700051e+01,9.484992027282714844e+00,-3.824593424797058105e-01,-3.824593871831893921e-02,3.830000000000000000e+02
-2.865336200306619503e+02,-2.723105623299743456e+02,-1.217529707819271607e+02,-6.993884869090834400e+01,-2.911858233103121165e+02,-1.914800212914731219e+02,-9.071715151555463308e+01,-8.127542979794816347e+01,9.484992027282714844e+00,-3.824593424797058105e-01,-3.824593871831893921e-02,3.840000000000000000e+02
-2.825510015737786489e+02,-2.686510208023269115e+02,-1.189783579685977202e+02,-6.891061699261763351e+01,-2.856249254650451803e+02,-1.876594249624827171e+02,-8.934696221443027753e+01,-7.959953985705806190e+01,9.561484336853027344e+00,-3.442134261131286621e-01,-3.824593871831893921e-02,3.850000000000000000e+02
-2.800599006516185909e+02,-2.645827596344165613e+02,-1.171385222625513052e+02,-6.820979873255782877e+01,-2.813419046012324998e+02,-1.848590159174773362e+02,-8.803514240495428567e+01,-7.912324002534342071e+01,9.561484336853027344e+00,-3.442134261131286621e-01,-3.824593871831893921e-02,3.860000000000000000e+02
-2.784840621964149250e+02,-2.609936506519852628e+02,-1.160749836009545106e+02,-6.762353684011600308e+01,-2.788742565841769192e+02,-1.833697255646861777e+02,-8.696173824188872459e+01,-7.958272125928442620e+01,9.561484336853027344e+00,-3.442134261131286621e-01,-3.824593871831893921e-02,3.870000000000000000e+02
-2.766497578933851855e+02,-2.582658170776137467e+02,-1.152049962216631229e+02,-6.737255188158587771e+01,-2.778525253623506615e+02,-1.829726857330556413e+02,-8.606037716584978625e+01,-8.042102302852072171e+01,9.561484336853027344e+00,-3.442134261131286621e-01,-3.824593871831893921e-02,3.880000000000000000e+02
-2.737685537509860296e+02,-2.558767014631075654e+02,-1.139275756771835404e+02,-6.779934500545505216e+01,-2.771996711649776444e+02,-1.829864637447972200e+02,-8.527020634445261749e+01,-8.111200499616234083e+01,9.561484336853027344e+00,-3.442134261131286621e-01,-3.824593871831893921e-02,3.890000000000000000e+02
-2.701107866856709734e+02,-2.527709916314674956e+02,-1.121651350128781814e+02,-6.895210756152687281e+01,-2.759878501605157908e+02,-1.827313313157678749e+02,-8.486805374268442392e+01,-8.153215080991094510e+01,9.561484336853027344e+00,-3.442134261131286621e-01,-3.824593871831893921e-02,3.900000000000000000e+02
-2.668274989859248763e+02,-2.482922326602613339e+02,-1.105421541668515601e+02,-7.038134402651667187e+01,-2.741675162250346602e+02,-1.819614656692799599e+02,-8.531514000509582729e+01,-8.196966363783849374e+01,9.561484336853027344e+00,-3.442134261131286621e-01,-3.824593871831893921e-02,3.910000000000000000e+02
-2.650583027441084596e+02,-2.429043646080640428e+02,-1.099356048299605391e+02,-7.130950807957378856e+01,-2.724359743441068531e+02,-1.808356462525405277e+02,-8.665873141528527412e+01,-8.269213656746887864e+01,9.561484336853027344e+00,-3.442134261131286621e-01,-3.824593871831893921e-02,3.920000000000000000e+02
-2.650090227299767776e+02,-2.379996296933895792e+02,-1.106840198862364559e+02,-7.107419359692994476e+01,-2.713556265198787969e+02,-1.795034332560503572e+02,-8.812944391762653140e+01,-8.347060416123986215e+01,9.561484336853027344e+00,-3.442134261131286621e-01,-3.824593871831893921e-02,3.930000000000000000e+02
-2.656923947126765597e+02,-2.348525405620341644e+02,-1.121241121378895969e+02,-6.954464283108518430e+01,-2.706100916420994054e+02,-1.778163318563354096e+02,-8.845711861254312680e+01,-8.356422664900810560e+01,9.561484336853027344e+00,-3.442134261131286621e-01,-3.824593871831893921e-02,3.940000000000000000e+02
-2.655217183560200738e+02,-2.335783868034109219e+02,-1.129045890731454165e+02,-6.722436732251208014e+01,-2.691595315646120525e+02,-1.755305257485611037e+02,-8.672641000245812393e+01,-8.225668425946605566e+01,9.561484336853027344e+00,-3.442134261131286621e-01,-3.824593871831893921e-02,3.950000000000000000e+02
-2.633110068509813573e+02,-2.330207966818402383e+02,-1.118783219692845705e+02,-6.495637658512441703e+01,-2.661584444256968709e+02,-1.727715934458567517e+02,-8.304980044897683911e+01,-7.949016499877643582e+01,9.561484336853027344e+00,-3.442134261131286621e-01,-3.824593871831893921e-02,3.960000000000000000e+02
-2.589907077531224786e+02,-2.317075689937851166e+02,-1.088891258989542621e+02,-6.341339083953948830e+01,-2.617575931542021408e+02,-1.701732153485431809e+02,-7.852868422822143657e+01,-7.602054746996623180e+01,9.561484336853027344e+00,-3.442134261131286621e-01,-3.824593871831893921e-02,3.970000000000000000e+02
-2.535957277926113420e+02,-2.290322446845366358e+02,-1.048528877216863293e+02,-6.271274552884869991e+01,-2.570546225725777276e+02,-1.684069493299539317e+02,-7.461227033137083708e+01,-7.293602266634661646e+01,9.561484336853027344e+00,-3.442134261131286621e-01,-3.824593871831893921e-02,3.980000000000000000e+02
-2.485956822133614423e+02,-2.256175602200462436e+02,-1.011219508292031151e+02,-6.241871800398439518e+01,-2.532778804811343889e+02,-1.675108591945736407e+02,-7.239446068788311095e+01,-7.095606768273819398e+01,9.561484336853027344e+00,-3.442134261131286621e-01,-3.824593871831893921e-02,3.990000000000000000e+02
-2.450530503767695336e+02,-2.225903068839552361e+02,-9.866421182793328626e+01,-6.191955368572553198e+01,-2.509509391389713073e+02,-1.667140888355061179e+02,-7.223749079256276673e+01,-7.007428015038271951e+01,9.561484336853027344e+00,-3.442134261131286621e-01,-3.824593871831893921e-02,4.000000000000000000e+02
-2.431516292064734444e+02,-2.205256255541662540e+02,-9.765690546408995942e+01,-6.089664304165762587e+01,-2.496904486277703654e+02,-1.650103677969364071e+02,-7.372009818570995776e+01,-6.974952730108498145e+01,9.561484336853027344e+00,-3.442134261131286621e-01,-3.824593871831893921e-02,4.010000000000000000e+02
-2.423204622790117355e+02,-2.190721333872616015e+02,-9.767234407735736568e+01,-5.953715010066684954e+01,-2.486583270711228124e+02,-1.619971343627912574e+02,-7.576750353815350536e+01,-6.938045747318801659e+01,9.561484336853027344e+00,-3.442134261131286621e-01,-3.824593871831893921e-02,4.020000000000000000e+02
-2.417314897331839347e+02,-2.175218493084489637e+02,-9.813109156425343826e+01,-5.833339386097077295e+01,-2.471857874975266895e+02,-1.582189707467555309e+02,-7.696583511765015828e+01,-6.863562623611778690e+01,9.561484336853027344e+00,-3.442134261131286621e-01,-3.824593871831893921e-02,4.030000000000000000e+02
-2.407599448570206278e+02,-2.156519858736028254e+02,-9.860013586857894552e+01,-5.765180746388205080e+01,-2.451174868413436343e+02,-1.547367363840353391e+02,-7.615449368508757289e+01,-6.749088558964876938e+01,9.561484336853027344e+00,-3.442134261131286621e-01,-3.824593871831893921e-02,4.040000000000000000e+02
-2.391363925115895199e+02,-2.139407398081002611e+02,-9.878119593388441899e+01,-5.742797763935777766e+01,-2.427628659050485567e+02,-1.523484102689453721e+02,-7.311293520683511815e+01,-6.611975933026906205e+01,9.561484336853027344e+00,-3.442134261131286621e-01,-3.824593871831893921e-02,4.050000000000000000e+02
-2.368443532687294919e+02,-2.129851495754928692e+02,-9.837787987878982676e+01,-5.722800426528920070e+01,-2.406070729694622514e+02,-1.511346951798518603e+02,-6.883239597530814535e+01,-6.481378212744948542e+01,9.561484336853027344e+00,-3.442134261131286621e-01,-3.824593871831893921e-02,4.060000000000000000e+02
-2.340207117239326635e+02,-2.127900359386399032e+02,-9.712774401010892689e+01,-5.661642015592838106e+01,-2.389856215848251395e+02,-1.506226523127857035e+02,-6.500708651359582291e+01,-6.393804382919347518e+01,9.561484336853027344e+00,-3.442134261131286621e-01,-3.824593871831893921e-02,4.070000000000000000e+02
-2.309958052065292122e+02,-2.126769240466528572e+02,-9.504190384984303819e+01,-5.554428281474838514e+01,-2.378810562184094124e+02,-1.503014990769770520e+02,-6.301631660299358373e+01,-6.381534940237816045e+01,9.561484336853027344e+00,-3.442134261131286621e-01,-3.824593871831893921e-02,4.080000000000000000e+02
-2.283086464005154994e+02,-2.118864023707669730e+02,-9.258992727020881830e+01,-5.444998862624174762e+01,-2.369212121406117149e+02,-1.499941091871810386e+02,-6.318358863425555683e+01,-6.453465144381493701e+01,9.561484336853027344e+00,-3.442134261131286621e-01,-3.824593871831893921e-02,4.090000000000000000e+02
-2.264637539170262244e+02,-2.102437419134985248e+02,-9.055717208524720263e+01,-5.398822783843365869e+01,-2.355843975570999191e+02,-1.498195183833377087e+02,-6.488946178364653861e+01,-6.583669262339458328e+01,9.561484336853027344e+00,-3.442134261131286621e-01,-3.824593871831893921e-02,4.100000000000000000e+02
-2.255017605001073662e+02,-2.082499911843226528e+02,-8.959482749471089846e+01,-5.457735556583133985e+01,-2.335005757405722306e+02,-1.498839541638103583e+02,-6.731807026466685784e+01,-6.722162713619945862e+01,9.561484336853027344e+00,-3.442134261131286621e-01,-3.824593871831893921e-02,4.110000000000000000e+02
-2.247948908180035232e+02,-2.065993103690025237e+02,-8.981554202107872698e+01,-5.608345205400451050e+01,-2.306635584815066977e+02,-1.500347983044175635e+02,-7.005363572708665743e+01,-6.822926738624391874e+01,9.561484336853027344e+00,-3.442134261131286621e-01,-3.824593871831893921e-02,4.120000000000000000e+02
-2.234181049152648484e+02,-2.056739586479691297e+02,-9.078704065269766943e+01,-5.787521458133778651e+01,-2.274329613898771640e+02,-1.499019917472242014e+02,-7.298641523958576727e+01,-6.867709827275712087e+01,9.561484336853027344e+00,-3.442134261131286621e-01,-3.824593871831893921e-02,4.130000000000000000e+02
-2.209125250629606398e+02,-2.054755489147673870e+02,-9.191652577704098803e+01,-5.919970122056793116e+01,-2.243528326391226528e+02,-1.491792875998253294e+02,-7.575648725662540528e+01,-6.868166098054325630e+01,9.561484336853027344e+00,-3.442134261131286621e-01,-3.824593871831893921e-02,4.140000000000000000e+02
-2.177479327002060927e+02,-2.058951875625546108e+02,-9.285666113356955975e+01,-5.960362753936169611e+01,-2.219164781920887890e+02,-1.478927758989193535e+02,-7.746601918615738214e+01,-6.850540069381054309e+01,9.561484336853027344e+00,-3.442134261131286621e-01,-3.824593871831893921e-02,4.150000000000000000e+02
-2.149609788139835018e+02,-2.068830565753476094e+02,-9.356275232245297957e+01,-5.908848875919693455e+01,-2.203817589658069664e+02,-1.464097040877086329e+02,-7.708781467486141992e+01,-6.840623728720220242e+01,9.408499717712402344e+00,-3.824593424797058105e-01,-7.649187743663787842e-02,4.160000000000000000e+02
-2.132231843626761929e+02,-2.082915225479860055e+02,-9.401854566087536114e+01,-5.790528802027120037e+01,-2.196645912146143473e+02,-1.451350518965368792e+02,-7.423451363812046111e+01,-6.857935184339316947e+01,9.408499717712402344e+00,-3.824593424797058105e-01,-7.649187743663787842e-02,4.170000000000000000e+02
-2.122406010212580441e+02,-2.096397535070896083e+02,-9.400485842654893531e+01,-5.618001351551720290e+01,-2.193100172474255487e+02,-1.440978683637381437e+02,-6.953478777733744209e+01,-6.909044442146068832e+01,9.408499717712402344e+00,-3.824593424797058105e-01,-7.649187743663787842e-02,4.180000000000000000e+02
-2.111316941152615527e+02,-2.101943709946956460e+02,-9.323109834195042822e+01,-5.369269344113763509e+01,-2.185763112193276356e+02,-1.427481206322427170e+02,-6.422389812826077105e+01,-6.969618014899469927e+01,9.408499717712402344e+00,-3.824593424797058105e-01,-7.649187743663787842e-02,4.190000000000000000e+02
-2.094349214458977713e+02,-2.094204372604715445e+02,-9.173600619162334624e+01,-5.003367485659873637e+01,-2.166726503939371469e+02,-1.401818009240605534e+02,-5.933259732424517097e+01,-6.969528660733840297e+01,9.408499717712402344e+00,-3.824593424797058105e-01,-7.649187743663787842e-02,4.200000000000000000e+02
-2.076868232541235102e+02,-2.074300896104045933e+02,-9.009991929860007076e+01,-4.504976643992449681e+01,-2.130972591575705337e+02,-1.357082444748853050e+02,-5.519310808272280156e+01,-6.811140228885346914e+01,9.408499717712402344e+00,-3.824593424797058105e-01,-7.649187743663787842e-02,4.210000000000000000e+02
-2.068910608376600067e+02,-2.050142449828529152e+02,-8.913979253680986403e+01,-3.925223167239892064e+01,-2.079148817714744837e+02,-1.294086135202483092e+02,-5.161813824709452092e+01,-6.430626020147587951e+01,9.408499717712402344e+00,-3.824593424797058105e-01,-7.649187743663787842e-02,4.220000000000000000e+02
-2.073519121386993902e+02,-2.032067528369891534e+02,-8.926437393553123911e+01,-3.384755126610434672e+01,-2.018021930212039479e+02,-1.223012180532823550e+02,-4.844194503323956269e+01,-5.865937407318915575e+01,9.408499717712402344e+00,-3.824593424797058105e-01,-7.649187743663787842e-02,4.230000000000000000e+02
-2.080897146901324959e+02,-2.027216246194302585e+02,-9.007124282730819687e+01,-3.027494278461881549e+01,-1.958178061048770360e+02,-1.159613432302576257e+02,-4.583861012769420995e+01,-5.270671434122618848e+01,9.408499717712402344e+00,-3.824593424797058105e-01,-7.649187743663787842e-02,4.240000000000000000e+02
-2.075360439285145731e+02,-2.036228852685660513e+02,-9.058840482970663288e+01,-2.946555638027030000e+01,-1.909911372966380441e+02,-1.117689004298526925e+02,-4.415011254609817115e+01,-4.842482993829048610e+01,9.408499717712402344e+00,-3.824593424797058105e-01,-7.649187743663787842e-02,4.250000000000000000e+02
-2.048941906192776514e+02,-2.053174500406375955e+02,-8.996334275462231744e+01,-3.126216956561029292e+01,-1.878918095025510411e+02,-1.101953270504836837e+02,-4.347326674586747686e+01,-4.705485364661103631e+01,9.408499717712402344e+00,-3.824593424797058105e-01,-7.649187743663787842e-02,4.260000000000000000e+02
-2.008416679788383590e+02,-2.067655210835507660e+02,-8.800077757814005963e+01,-3.439462337065651809e+01,-1.863716057944106979e+02,-1.105628278874460193e+02,-4.345431913592437922e+01,-4.835614684737652169e+01,9.408499717712402344e+00,-3.824593424797058105e-01,-7.649187743663787842e-02,4.270000000000000000e+02
-1.968856797003522843e+02,-2.068235940049059991e+02,-8.514729980963556955e+01,-3.709737693902434330e+01,-1.856541671347627016e+02,-1.114670688132196119e+02,-4.349164269911807423e+01,-5.092526543770986791e+01,9.408499717712402344e+00,-3.824593424797058105e-01,-7.649187743663787842e-02,4.280000000000000000e+02
-1.940218188416183693e+02,-2.047135564653974598e+02,-8.207055581684562640e+01,-3.803428853962986977e+01,-1.847898606954090610e+02,-1.116330548310293125e+02,-4.315470239350111115e+01,-5.334029227353380520e+01,9.408499717712402344e+00,-3.824593424797058105e-01,-7.649187743663787842e-02,4.290000000000000000e+02
-1.920164978471684663e+02,-2.004856272553897725e+02,-7.930140589172287946e+01,-3.695092411939913291e+01,-1.832366564224194008e+02,-1.106280172238330124e+02,-4.245205797660764802e+01,-5.514810331298826895e+01,9.408499717712402344e+00,-3.824593424797058105e-01,-7.649187743663787842e-02,4.300000000000000000e+02
-1.899572278059449673e+02,-1.951424486097757836e+02,-7.721140401895581817e+01,-3.463583962411394168e+01,-1.811702404193147231e+02,-1.089204566023977350e+02,-4.174956096641699332e+01,-5.684943170809833646e+01,9.408499717712402344e+00,-3.824593424797058105e-01,-7.649187743663787842e-02,4.310000000000000000e+02
-1.874021444640225127e+02,-1.901379872118307048e+02,-7.612296715686602511e+01,-3.224372363985457923e+01,-1.792388927444553701e+02,-1.072492568871821277e+02,-4.142005797446836368e+01,-5.894124910203299805e+01,9.408499717712402344e+00,-3.824593424797058105e-01,-7.649187743663787842e-02,4.320000000000000000e+02
-1.849021506670919734e+02,-1.864408476919759323e+02,-7.622948885700657229e+01,-3.049890594759426676e+01,-1.779334896981222300e+02,-1.058732202584160405e+02,-4.150005350676337912e+01,-6.099300713754109893e+01,9.408499717712402344e+00,-3.824593424797058105e-01,-7.649187743663787842e-02,4.330000000000000000e+02
-1.834021893602357522e+02,-1.838734414008233671e+02,-7.733577565076120663e+01,-2.936512073861240424e+01,-1.771262906760862279e+02,-1.043991783850347019e+02,-4.160959413767886872e+01,-6.175500515051044204e+01,9.408499717712402344e+00,-3.824593424797058105e-01,-7.649187743663787842e-02,4.340000000000000000e+02
-1.832018633566149219e+02,-1.813635689883533360e+02,-7.878514631707412263e+01,-2.836771086415228638e+01,-1.762308995880421207e+02,-1.023558146758264229e+02,-4.121330124737960432e+01,-6.032732426143138582e+01,9.408499717712402344e+00,-3.824593424797058105e-01,-7.649187743663787842e-02,4.350000000000000000e+02
-1.835478380788254071e+02,-1.779956687109665836e+02,-7.981754394328572744e+01,-2.720364309084698107e+01,-1.748444112777888222e+02,-9.993409281600588656e+01,-4.005714580557469162e+01,-5.732220488718121487e+01,9.408499717712402344e+00,-3.824593424797058105e-01,-7.649187743663787842e-02,4.360000000000000000e+02
-1.832253845930431453e+02,-1.739430855061314105e+02,-8.010386649609472443e+01,-2.607744100510944918e+01,-1.732372867088924977e+02,-9.809356236499388615e+01,-3.845734844454909762e+01,-5.481439341014038291e+01,9.561484336853027344e+00,-3.824593424797058105e-01,-3.824593871831893921e-02,4.370000000000000000e+02
-1.815130005853220609e+02,-1.703762146164776823e+02,-7.990397816859172053e+01,-2.551134646207810874e+01,-1.721645635789400330e+02,-9.783675860404582636e+01,-3.717037707527742896e+01,-5.491170979678008734e+01,9.561484336853027344e+00,-3.824593424797058105e-01,-3.824593871831893921e-02,4.380000000000000000e+02
-1.785933576292145517e+02,-1.683891962226557553e+02,-7.961600211987069997e+01,-2.586769197286048438e+01,-1.721241259101047945e+02,-9.929274150892524631e+01,-3.686680701002160276e+01,-5.806726159342679239e+01,9.561484336853027344e+00,-3.824593424797058105e-01,-3.824593871831893921e-02,4.390000000000000000e+02
-1.751764069313353502e+02,-1.679698275211326290e+02,-7.916391539466258109e+01,-2.706089446307851176e+01,-1.727758133922461639e+02,-1.014946998331352006e+02,-3.760322527700327555e+01,-6.260611072232995866e+01,9.561484336853027344e+00,-3.824593424797058105e-01,-3.824593871831893921e-02,4.400000000000000000e+02
-1.718762852887730332e+02,-1.680375309699102218e+02,-7.791341970895700797e+01,-2.869228460635758893e+01,-1.731134694184938780e+02,-1.030851916520678060e+02,-3.874673822469549123e+01,-6.592627906221605372e+01,9.561484336853027344e+00,-3.824593424797058105e-01,-3.824593871831893921e-02,4.410000000000000000e+02
-1.689816334426345747e+02,-1.675202296163961364e+02,-7.530934755147063697e+01,-3.039954182872997990e+01,-1.722711209672424957e+02,-1.032971823475459132e+02,-3.944816134799020801e+01,-6.637719190306415840e+01,9.561484336853027344e+00,-3.824593424797058105e-01,-3.824593871831893921e-02,4.420000000000000000e+02
-1.666859932427191779e+02,-1.663577723405433062e+02,-7.163648243714851560e+01,-3.201772122331567516e+01,-1.702236826903063047e+02,-1.023276581278864796e+02,-3.926957695751934807e+01,-6.425012887445700471e+01,9.561484336853027344e+00,-3.824593424797058105e-01,-3.824593871831893921e-02,4.430000000000000000e+02
-1.653028513271219708e+02,-1.653685315171169350e+02,-6.808826396364929678e+01,-3.337947154213088652e+01,-1.677266449120743346e+02,-1.008465701234467815e+02,-3.840083700888408202e+01,-6.115538545911476831e+01,9.561484336853027344e+00,-3.824593424797058105e-01,-3.824593871831893921e-02,4.440000000000000000e+02
-1.650961642140055119e+02,-1.651002514648057513e+02,-6.595737438936657782e+01,-3.399891151444217030e+01,-1.655635571654574960e+02,-9.921542145339935814e+01,-3.728858149192001292e+01,-5.850520618020846086e+01,9.561484336853027344e+00,-3.824593424797058105e-01,-3.824593871831893921e-02,4.450000000000000000e+02
-1.659050315271078944e+02,-1.648950092524378306e+02,-6.563929357840743251e+01,-3.306643089030876581e+01,-1.638240077592936359e+02,-9.719057214757685870e+01,-3.609485507516819780e+01,-5.650778425531098037e+01,9.561484336853027344e+00,-3.824593424797058105e-01,-3.824593871831893921e-02,4.460000000000000000e+02
-1.670349796361228982e+02,-1.632573588546429164e+02,-6.634930053510151993e+01,-2.992813146353591947e+01,-1.618833529623939285e+02,-9.431232231223111739e+01,-3.457170796537820934e+01,-5.442801955606319098e+01,9.561484336853027344e+00,-3.824593424797058105e-01,-3.824593871831893921e-02,4.470000000000000000e+02
-1.676166181728158335e+02,-1.592813121177177891e+02,-6.680909640392565052e+01,-2.474221865244680885e+01,-1.590822827790498195e+02,-9.049731692606974320e+01,-3.249178797415743247e+01,-5.162670776865252265e+01,9.561484336853027344e+00,-3.824593424797058105e-01,-3.824593871831893921e-02,4.480000000000000000e+02
-1.671236048390801443e+02,-1.537624260130646690e+02,-6.628221116652593992e+01,-1.873929240604957158e+01,-1.554651067549821164e+02,-8.623020397192340170e+01,-3.016039231008016941e+01,-4.829484518638719237e+01,9.561484336853027344e+00,-3.824593424797058105e-01,-3.824593871831893921e-02,4.490000000000000000e+02
-1.655585571680003341e+02,-1.488452813691410483e+02,-6.505083353220561548e+01,-1.373906384468045871e+01,-1.518982696470588962e+02,-8.221869574270385783e+01,-2.837842580146752880e+01,-4.527984781099439715e+01,9.561484336853027344e+00,-3.824593424797058105e-01,-3.824593871831893921e-02,4.500000000000000000e+02
-1.631846271364406675e+02,-1.464525412210782633e+02,-6.399873653129316153e+01,-1.118667122211127207e+01,-1.494786577946001671e+02,-7.894441154674632344e+01,-2.779205661916103054e+01,-4.337810276060918113e+01,9.561484336853027344e+00,-3.824593424797058105e-01,-3.824593871831893921e-02,4.510000000000000000e+02
-1.601761486242662613e+02,-1.468983550775151343e+02,-6.378335036854605278e+01,-1.139811067960999935e+01,-1.487755808994097606e+02,-7.656998746024828506e+01,-2.825653509369476524e+01,-4.287643164749351854e+01,9.561484336853027344e+00,-3.824593424797058105e-01,-3.824593871831893921e-02,4.520000000000000000e+02
-1.565969581395161185e+02,-1.488548525230639825e+02,-6.435322812992035324e+01,-1.356869049876422650e+01,-1.495482838689904384e+02,-7.521207879760959258e+01,-2.891250507277527504e+01,-4.367140374169730421e+01,9.561484336853027344e+00,-3.824593424797058105e-01,-3.824593871831893921e-02,4.530000000000000000e+02
-1.526918110138999509e+02,-1.505380271732919937e+02,-6.514233624597545713e+01,-1.648071455419039921e+01,-1.510816494615596639e+02,-7.517719690681269640e+01,-2.900042405215299368e+01,-4.560163284902819214e+01,9.561484336853027344e+00,-3.824593424797058105e-01,-3.824593871831893921e-02,4.540000000000000000e+02
-1.490633523315382263e+02,-1.509376483284777350e+02,-6.563114251351680650e+01,-1.929263496401881639e+01,-1.527236967323196950e+02,-7.680771903472759732e+01,-2.865303482109356992e+01,-4.850172468264599956e+01,9.561484336853027344e+00,-3.824593424797058105e-01,-3.824593871831893921e-02,4.550000000000000000e+02
-1.464074755576325515e+02,-1.501034632791488548e+02,-6.570163933257481403e+01,-2.179464587211987237e+01,-1.541232830079106861e+02,-8.002749176090446781e+01,-2.884265414030915053e+01,-5.193768327475208935e+01,9.561484336853027344e+00,-3.824593424797058105e-01,-3.824593871831893921e-02,4.560000000000000000e+02
-1.449806200982084192e+02,-1.485734450926156569e+02,-6.550436312862620980e+01,-2.405108405963846963e+01,-1.550507030820722321e+02,-8.403885127724697668e+01,-3.042286040812177816e+01,-5.502576555410450965e+01,9.561484336853027344e+00,-3.824593424797058105e-01,-3.824593871831893921e-02,4.570000000000000000e+02
-1.443376334966455943e+02,-1.467728515023964064e+02,-6.506100770795637800e+01,-2.590948353959402084e+01,-1.551286124898924754e+02,-8.753667432175325303e+01,-3.309322119663966077e+01,-5.666057257675674919e+01,9.561484336853027344e+00,-3.824593424797058105e-01,-3.824593871831893921e-02,4.580000000000000000e+02
-1.436621039577021293e+02,-1.449473352740528753e+02,-6.405258527936848623e+01,-2.689399037653174673e+01,-1.538476680129724627e+02,-8.935337463415316961e+01,-3.527298790180293508e+01,-5.602167111711742109e+01,9.561484336853027344e+00,-3.824593424797058105e-01,-3.824593871831893921e-02,4.590000000000000000e+02
-1.424102501880579439e+02,-1.433691355010469124e+02,-6.202914918909937114e+01,-2.653478639784862025e+01,-1.508968456425091063e+02,-8.905780665504789795e+01,-3.510717539032384593e+01,-5.295263054528231805e+01,9.561484336853027344e+00,-3.824593424797058105e-01,-3.824593871831893921e-02,4.600000000000000000e+02
-1.406470617011373179e+02,-1.422325989249006852e+02,-5.886449261468351324e+01,-2.473471850353007540e+01,-1.464976641292673776e+02,-8.706131967916007852e+01,-3.183073756940621024e+01,-4.798245453593017373e+01,9.561484336853027344e+00,-3.824593424797058105e-01,-3.824593871831893921e-02,4.610000000000000000e+02
-1.387764981026166424e+02,-1.412201584543108766e+02,-5.505666837053331619e+01,-2.181744081968736282e+01,-1.414347518956437852e+02,-8.422059373521824455e+01,-2.640863373223373856e+01,-4.211261674885372486e+01,9.446745872497558594e+00,-3.824593424797058105e-01,-7.649187743663787842e-02,4.620000000000000000e+02
-1.370049537608670107e+02,-1.393524623977396004e+02,-5.157372894934269425e+01,-1.829312955519617390e+01,-1.367516840468820192e+02,-8.130849139924521296e+01,-2.095071158125165312e+01,-3.656022347402677042e+01,9.446745872497558594e+00,-3.824593424797058105e-01,-7.649187743663787842e-02,4.630000000000000000e+02
-1.351538479163650663e+02,-1.356149869773330465e+02,-4.930030126587485029e+01,-1.463913610414374489e+01,-1.333154653529427378e+02,-7.872176095857412292e+01,-1.735645072728766536e+01,-3.244655948396075473e+01,9.446745872497558594e+00,-3.824593424797058105e-01,-7.649187743663787842e-02,4.640000000000000000e+02
-1.330437489386436027e+02,-1.299682774789152973e+02,-4.847330415766828082e+01,-1.126737386504782990e+01,-1.314628943490538404e+02,-7.648631294043980233e+01,-1.618750578619028602e+01,-3.033762556661440613e+01,9.446745872497558594e+00,-3.824593424797058105e-01,-7.649187743663787842e-02,4.650000000000000000e+02
-1.310052425967664931e+02,-1.237257513749837017e+02,-4.853231280103250356e+01,-8.533114209067207412e+00,-1.308365140478485955e+02,-7.437883628012150439e+01,-1.652737106895392571e+01,-2.979580950719901011e+01,9.446745872497558594e+00,-3.824593424797058105e-01,-7.649187743663787842e-02,4.660000000000000000e+02
-1.298432945988547544e+02,-1.187482190144314700e+02,-4.850709102990754218e+01,-6.600585302152012446e+00,-1.304615076127929569e+02,-7.204165709917333515e+01,-1.682014164981046633e+01,-2.940432346039142431e+01,9.446745872497558594e+00,-3.824593424797058105e-01,-7.649187743663787842e-02,4.670000000000000000e+02
-1.301332678581043183e+02,-1.160544766785390038e+02,-4.767560307255985208e+01,-5.276428786467477039e+00,-1.291256721920581185e+02,-6.916415792608358970e+01,-1.601859693036612953e+01,-2.755423660286805898e+01,9.446745872497558594e+00,-3.824593424797058105e-01,-7.649187743663787842e-02,4.680000000000000000e+02
-1.314731093584964583e+02,-1.151308376017107094e+02,-4.600945535252412810e+01,-4.128073369279263716e+00,-1.260159965138141160e+02,-6.578840933174251404e+01,-1.424866666147408978e+01,-2.363018345193131609e+01,9.446745872497558594e+00,-3.824593424797058105e-01,-7.649187743663787842e-02,4.690000000000000000e+02
-1.324774585862610365e+02,-1.146012147543012816e+02,-4.408639956301158236e+01,-2.946955170633373200e+00,-1.212973209529286578e+02,-6.253273911400719953e+01,-1.259967248160387499e+01,-1.869679452722948554e+01,9.446745872497558594e+00,-3.824593424797058105e-01,-7.649187743663787842e-02,4.700000000000000000e+02
-1.316620714420459990e+02,-1.135731840202226977e+02,-4.257339524380040530e+01,-2.148298001933653723e+00,-1.161999935984331387e+02,-6.040597296863961674e+01,-1.226518886013650445e+01,-1.500599492799824475e+01,9.446745872497558594e+00,-3.824593424797058105e-01,-7.649187743663787842e-02,4.710000000000000000e+02
-1.285253199822950592e+02,-1.123309676265225789e+02,-4.171574751898424438e+01,-2.590555727680111886e+00,-1.124306062165042022e+02,-6.016226834290637271e+01,-1.365520641588227591e+01,-1.454036841063225438e+01,9.446745872497558594e+00,-3.824593424797058105e-01,-7.649187743663787842e-02,4.720000000000000000e+02
-1.239228916757224397e+02,-1.117539540807483718e+02,-4.123178366772185655e+01,-4.818924028269520932e+00,-1.112177532727023390e+02,-6.165811932836777487e+01,-1.607247848371503096e+01,-1.763117252290840042e+01,9.446745872497558594e+00,-3.824593424797058105e-01,-7.649187743663787842e-02,4.730000000000000000e+02
-1.194545169925656865e+02,-1.121714111796657107e+02,-4.066234737372928976e+01,-8.387539057940557541e+00,-1.126254493502942751e+02,-6.382018230151970783e+01,-1.814125524217547536e+01,-2.267518447450470376e+01,9.446745872497558594e+00,-3.824593424797058105e-01,-7.649187743663787842e-02,4.740000000000000000e+02
-1.164387858851678175e+02,-1.129060893755445250e+02,-3.983574472067402894e+01,-1.194662405326471344e+01,-1.155775098881990743e+02,-6.532339489761125151e+01,-1.866296477457240144e+01,-2.711079356919913153e+01,9.446745872497558594e+00,-3.824593424797058105e-01,-7.649187743663787842e-02,4.750000000000000000e+02
-1.152958175943083461e+02,-1.129508014062425900e+02,-3.903043528385751415e+01,-1.409543865316572919e+01,-1.185046592928119935e+02,-6.539091846678002184e+01,-1.731314390629222544e+01,-2.889601657147341029e+01,9.446745872497558594e+00,-3.824593424797058105e-01,-7.649187743663787842e-02,4.760000000000000000e+02
-1.156498442474387502e+02,-1.119577185420614569e+02,-3.870882949936049044e+01,-1.425510745886367658e+01,-1.201394936122951549e+02,-6.400850015709011132e+01,-1.474452301817132138e+01,-2.748001215410317855e+01,9.446745872497558594e+00,-3.824593424797058105e-01,-7.649187743663787842e-02,4.770000000000000000e+02
-1.168069841632282078e+02,-1.104066604728263883e+02,-3.907313453974688855e+01,-1.281011726422548236e+01,-1.199995054826515570e+02,-6.148769676785650518e+01,-1.210236489009116667e+01,-2.378196798456292527e+01,9.446745872497558594e+00,-3.824593424797058105e-01,-7.649187743663787842e-02,4.780000000000000000e+02
-1.180915789250411763e+02,-1.088054425541956789e+02,-3.984644151818883984e+01,-1.052624079845691085e+01,-1.183991731730100128e+02,-5.801273853527482061e+01,-1.034526794908924785e+01,-1.943516641253245325e+01,9.446745872497558594e+00,-3.824593424797058105e-01,-7.649187743663787842e-02,4.790000000000000000e+02
-1.189217601856180409e+02,-1.069334519123442533e+02,-4.047735470098723454e+01,-7.943258503715924235e+00,-1.161149216115147738e+02,-5.376179473988395330e+01,-9.855908919565081305e+00,-1.592789105844235564e+01,9.446745872497558594e+00,-3.824593424797058105e-01,-7.649187743663787842e-02,4.800000000000000000e+02
-1.188714799713357024e+02,-1.041113407044431369e+02,-4.057113125154637601e+01,-5.323195747986574133e+00,-1.139015655406669794e+02,-4.940278952150219993e+01,-1.050729864094864752e+01,-1.407870952062876313e+01,9.446745872497558594e+00,-3.824593424797058105e-01,-7.649187743663787842e-02,4.810000000000000000e+02
-1.178835999373941377e+02,-1.002896737623839272e+02,-4.014702201808086102e+01,-3.008940710684328224e+00,-1.120693655519255572e+02,-4.617193370304448763e+01,-1.193859490074260066e+01,-1.390750187254002412e+01,9.446745872497558594e+00,-3.824593424797058105e-01,-7.649187743663787842e-02,4.820000000000000000e+02
-1.164206223692933690e+02,-9.670220885015373824e+01,-3.948980761355142022e+01,-1.565477041832082250e+00,-1.103457678932968520e+02,-4.511756477086737505e+01,-1.368290359118554989e+01,-1.477605844923346012e+01,9.446745872497558594e+00,-3.824593424797058105e-01,-7.649187743663787842e-02,4.830000000000000000e+02
-1.152089050380131994e+02,-9.512712503650573126e+01,-3.873715177835242685e+01,-1.359805031933774444e+00,-1.081364733829882425e+02,-4.606980705187197600e+01,-1.503942003820930040e+01,-1.566537238210935357e+01,9.446745872497558594e+00,-3.824593424797058105e-01,-7.649187743663787842e-02,4.840000000000000000e+02
-1.146241758987550838e+02,-9.625922938559006070e+01,-3.760378084479634708e+01,-1.985624171590416154e+00,-1.050294374177162808e+02,-4.741825055906429043e+01,-1.496640089204561264e+01,-1.554142853712755823e+01,9.446745872497558594e+00,-3.824593424797058105e-01,-7.649187743663787842e-02,4.850000000000000000e+02
-1.142388613783680285e+02,-9.875903256097740268e+01,-3.554325090093334438e+01,-2.261379081018048964e+00,-1.011621678980900469e+02,-4.714889889024743752e+01,-1.237815977231116449e+01,-1.375724161173479843e+01,9.446745872497558594e+00,-3.824593424797058105e-01,-7.649187743663787842e-02,4.860000000000000000e+02
-1.130492599514586800e+02,-1.000433079538033780e+02,-3.228351988121062277e+01,-1.016975774485217698e+00,-9.716665465388996381e+01,-4.437160333087149411e+01,-6.905763107842631143e+00,-1.037324493757932942e+01,9.446745872497558594e+00,-3.824593424797058105e-01,-7.649187743663787842e-02,4.870000000000000000e+02
-1.103117462434483969e+02,-9.822184447341874147e+01,-2.829958781095274389e+01,1.939475950404812465e+00,-9.378538524991631675e+01,-4.001471563523773511e+01,3.767845422019036050e-01,-6.230608186947620197e+00,9.446745872497558594e+00,-3.824593424797058105e-01,-7.649187743663787842e-02,4.880000000000000000e+02
-1.062725066099985725e+02,-9.349626742751161146e+01,-2.476173994148439306e+01,5.544408023229834725e+00,-9.152108911758455179e+01,-3.607941555928118760e+01,7.013287799027921210e+00,-2.667199942918614397e+00,9.523238182067871094e+00,-3.824593424797058105e-01,-7.649187743663787842e-02,4.890000000000000000e+02
-1.020941680968271612e+02,-8.785949216148605956e+01,-2.289670221916571791e+01,8.163094268064469361e+00,-9.056752576936628429e+01,-3.413764654179112767e+01,1.030315781181684542e+01,-9.353034313010084588e-01,9.523238182067871094e+00,-3.824593424797058105e-01,-7.649187743663787842e-02,4.900000000000000000e+02
-9.900207131314846265e+01,-8.347953412569268039e+01,-2.318048194832886111e+01,8.667394231879370636e+00,-9.090433142673236944e+01,-3.435876878578233118e+01,8.928783615720703892e+00,-1.566420911052091469e+00,9.523238182067871094e+00,-3.824593424797058105e-01,-7.649187743663787842e-02,4.910000000000000000e+02
-9.740032492765635652e+01,-8.123900570013188371e+01,-2.496758002240949281e+01,7.057745084746557040e+00,-9.227204207214913367e+01,-3.574243735156051116e+01,3.921573164536312106e+00,-4.032396776113273518e+00,9.523238182067871094e+00,-3.824593424797058105e-01,-7.649187743663787842e-02,4.920000000000000000e+02
-9.672335779886748242e+01,-8.054333800660651832e+01,-2.686885261895463373e+01,4.258418140729645529e+00,-9.401982276597618693e+01,-3.711917431889150976e+01,-1.856211275036912411e+00,-6.963159017603175016e+00,9.523238182067871094e+00,-3.824593424797058105e-01,-7.649187743663787842e-02,4.930000000000000000e+02
-9.608962466123921331e+01,-8.022037759305089821e+01,-2.761716513698229392e+01,1.430192006063862209e+00,-9.514360613559392732e+01,-3.793053329072859015e+01,-5.422463999199180762e+00,-8.849148871472607425e+00,9.523238182067871094e+00,-3.824593424797058105e-01,-7.649187743663787842e-02,4.940000000000000000e+02
-9.510035857580351148e+01,-7.947742797073397014e+01,-2.678866047362384961e+01,-5.799281178374258161e-01,-9.473941576512720530e+01,-3.823116302907533282e+01,-5.332063028361972101e+00,-8.808320995482972648e+00,9.523238182067871094e+00,-3.824593424797058105e-01,-7.649187743663787842e-02,4.950000000000000000e+02
-9.405074639315512286e+01,-7.816168176189739825e+01,-2.490873720825698001e+01,-1.366450696668835008e+00,-9.263657442910152895e+01,-3.819237994551599513e+01,-2.127512718056550511e+00,-6.941703355789059060e+00,9.523238182067871094e+00,-3.824593424797058105e-01,-7.649187743663787842e-02,4.960000000000000000e+02
-9.343745779758933168e+01,-7.644369994039925587e+01,-2.295227652363951165e+01,-8.301753210807873984e-01,-8.962640084271015439e+01,-3.774754729113828944e+01,2.531920749624873679e+00,-4.091401701296831561e+00,9.523238182067871094e+00,-3.824593424797058105e-01,-7.649187743663787842e-02,4.970000000000000000e+02
-9.331467961127975741e+01,-7.453048699483292694e+01,-2.166870082904233641e+01,9.237979555541642185e-01,-8.695446281073157024e+01,-3.668857889435139441e+01,7.125202001926709272e+00,-1.246484696111110679e+00,9.523238182067871094e+00,-3.824593424797058105e-01,-7.649187743663787842e-02,4.980000000000000000e+02
-9.313738904365311555e+01,-7.272029475242402441e+01,-2.121018317070104331e+01,3.555737686432166811e+00,-8.543047565262418175e+01,-3.497695667824791599e+01,1.083631652031851900e+01,9.275936806457139028e-01,9.523238182067871094e+00,-3.824593424797058105e-01,-7.649187743663787842e-02,4.990000000000000000e+02
-9.220600319251411747e+01,-7.153962766435029152e+01,-2.120749158464934681e+01,6.474304656234949107e+00,-8.491924160291989665e+01,-3.287511091963210674e+01,1.322978075085677574e+01,2.169266747663073147e+00,9.523238182067871094e+00,-3.824593424797058105e-01,-7.649187743663787842e-02,5.000000000000000000e+02
-9.025717640829202537e+01,-7.156069791738809727e+01,-2.109726765897619316e+01,8.966341128020303586e+00,-8.463775022385209468e+01,-3.078737864545075809e+01,1.377397151064974423e+01,2.450122361888134037e+00,9.523238182067871094e+00,-3.824593424797058105e-01,-7.649187743663787842e-02,5.010000000000000000e+02
-8.765147456367992618e+01,-7.290376817539834065e+01,-2.041829839118338441e+01,1.045303404232686262e+01,-8.392977322811270824e+01,-2.902257523010359819e+01,1.200103636511232708e+01,1.889383844344251884e+00,9.523238182067871094e+00,-3.824593424797058105e-01,-7.649187743663787842e-02,5.020000000000000000e+02
-8.504042627226374407e+01,-7.487366880760498589e+01,-1.898718186001156027e+01,1.071347558695197222e+01,-8.279882012808764102e+01,-2.772224192221165140e+01,8.219318170595215634e+00,8.517827263104891244e-01,9.523238182067871094e+00,-3.824593424797058105e-01,-7.649187743663787842e-02,5.030000000000000000e+02
-8.288669189311860919e+01,-7.615590012214408944e+01,-1.701889497726511991e+01,9.961300956038940058e+00,-8.178257998609853985e+01,-2.694191319298033704e+01,3.913397410245124775e+00,-2.194082266578334384e-02,9.523238182067871094e+00,-3.824593424797058105e-01,-7.649187743663787842e-02,5.040000000000000000e+02
-8.128046772666789366e+01,-7.553750992102209239e+01,-1.517198542327423638e+01,8.765863283783176030e+00,-8.140130019215314405e+01,-2.668667019313613764e+01,1.145758932186367929e+00,-9.455642076244430427e-02,9.523238182067871094e+00,-3.824593424797058105e-01,-7.649187743663787842e-02,5.050000000000000000e+02
-8.013706304148502113e+01,-7.266554047733779953e+01,-1.437584031864884082e+01,7.854597238052008379e+00,-8.173557960114834486e+01,-2.681444053462564625e+01,1.277316598857964891e+00,8.135648764231291352e-01,9.523238182067871094e+00,-3.824593424797058105e-01,-7.649187743663787842e-02,5.060000000000000000e+02
-7.946571380754903657e+01,-6.828934614902516387e+01,-1.533500261880999460e+01,7.829147327395958200e+00,-8.243761320087924105e+01,-2.695644350192742422e+01,4.111537687292354804e+00,2.258309186205678998e+00,9.523238182067871094e+00,-3.824593424797058105e-01,-7.649187743663787842e-02,5.070000000000000000e+02
-7.937737465800864811e+01,-6.382111414349873257e+01,-1.793963515175926204e+01,8.872494622610929582e+00,-8.303292476865397020e+01,-2.666188010170884581e+01,8.229154680728498761e+00,3.574471634670288722e+00,9.523238182067871094e+00,-3.824593424797058105e-01,-7.649187743663787842e-02,5.080000000000000000e+02
-7.981623886027695391e+01,-6.051404077167242690e+01,-2.107283339362237484e+01,1.061948185538253142e+01,-8.318258081035261853e+01,-2.572176086254754068e+01,1.216661610389574832e+01,4.540314318106027258e+00,9.523238182067871094e+00,-3.824593424797058105e-01,-7.649187743663787842e-02,5.090000000000000000e+02
-8.033778433342081371e+01,-5.879510130991043582e+01,-2.314440453888887816e+01,1.233255582428868991e+01,-8.277137572650735819e+01,-2.437425257903345255e+01,1.530058908790694971e+01,5.617435879062107063e+00,9.523238182067871094e+00,-3.824593424797058105e-01,-7.649187743663787842e-02,5.100000000000000000e+02
-8.024948515178655839e+01,-5.817997308294020797e+01,-2.309359102365405647e+01,1.333038477087994522e+01,-8.190596912505253613e+01,-2.314962068455520239e+01,1.766773307614965915e+01,7.419249233073855976e+00,9.523238182067871094e+00,-3.824593424797058105e-01,-7.649187743663787842e-02,5.110000000000000000e+02
-7.908025935717336097e+01,-5.782110848983353435e+01,-2.110558732315824670e+01,1.337952294255211427e+01,-8.089294302882288434e+01,-2.245505110481104794e+01,1.909872968326754972e+01,9.871272432199305058e+00,9.523238182067871094e+00,-3.824593424797058105e-01,-7.649187743663787842e-02,5.120000000000000000e+02
-7.698845974065363862e+01,-5.728634846669973513e+01,-1.841157090185959078e+01,1.273715263427826017e+01,-8.013046870328025761e+01,-2.227887818949432130e+01,1.876396419645649871e+01,1.197037618004631554e+01,9.523238182067871094e+00,-3.824593424797058105e-01,-7.649187743663787842e-02,5.130000000000000000e+02
-7.470752096356636685e+01,-5.696233806874840866e+01,-1.630233222098036094e+01,1.182256491136485010e+01,-7.983693673548270908e+01,-2.228292983882113276e+01,1.578013173352883314e+01,1.254876241417980509e+01,9.523238182067871094e+00,-3.824593424797058105e-01,-7.649187743663787842e-02,5.140000000000000000e+02
-7.302909275290176083e+01,-5.771410585415736705e+01,-1.518130345643277224e+01,1.084722954581684462e+01,-7.974821714232962222e+01,-2.214662252084895044e+01,1.036672515448054810e+01,1.143981908915958456e+01,9.523238182067871094e+00,-3.824593424797058105e-01,-7.649187743663787842e-02,5.150000000000000000e+02
-7.224174006284442839e+01,-6.000242487540106140e+01,-1.444610931566882073e+01,9.780103076644763860e+00,-7.909243886547778857e+01,-2.177490649301876147e+01,4.357160501479143022e+00,9.930724487818679336e+00,9.523238182067871094e+00,-3.824593424797058105e-01,-7.649187743663787842e-02,5.160000000000000000e+02
-7.198820560880312769e+01,-6.316500688545033881e+01,-1.322644972210537162e+01,8.680406593162956597e+00,-7.700396184223745877e+01,-2.117461765423342968e+01,3.855458320240359171e-01,9.964253280950629232e+00,9.523238182067871094e+00,-3.824593424797058105e-01,-7.649187743663787842e-02,5.170000000000000000e+02
-7.162753333213004225e+01,-6.554208355488583493e+01,-1.122695528556732825e+01,8.010364182012381207e+00,-7.314692075139578264e+01,-2.021314256846915214e+01,2.939274133727849403e-01,1.271411922564413999e+01,9.523238182067871094e+00,-3.824593424797058105e-01,-7.649187743663787842e-02,5.180000000000000000e+02
-7.073387831470881792e+01,-6.548760727377691637e+01,-8.896009921977565682e+00,8.494647199134760740e+00,-6.804884873578316729e+01,-1.863032331257863916e+01,4.028510316758456611e+00,1.774623642252367972e+01,9.523238182067871094e+00,-3.824593424797058105e-01,-7.649187743663787842e-02,5.190000000000000000e+02
-6.928441332221291304e+01,-6.255181689283301694e+01,-6.863540126818179488e+00,1.050817805306064656e+01,-6.283062494273644916e+01,-1.637544570096360985e+01,9.848424952586242398e+00,2.342849485868907777e+01,9.523238182067871094e+00,-3.824593424797058105e-01,-3.824593871831893921e-02,5.200000000000000000e+02
-6.745641075503340289e+01,-5.789389801890160925e+01,-5.321091788117882970e+00,1.349343692919273963e+01,-5.854951627196032860e+01,-1.391173585567821647e+01,1.553133927334920372e+01,2.810525708390036925e+01,9.523238182067871094e+00,-3.824593424797058105e-01,-3.824593871831893921e-02,5.210000000000000000e+02
-6.535397969280393227e+01,-5.353570988983096868e+01,-4.011794256766961553e+00,1.602525105236918535e+01,-5.571333587813705890e+01,-1.209109472983664091e+01,1.954131090170358220e+01,3.097330691984939222e+01,9.523238182067871094e+00,-3.824593424797058105e-01,-3.824593871831893921e-02,5.220000000000000000e+02
-6.300373765851827557e+01,-5.099863951856877975e+01,-2.788464380133063969e+00,1.665099331690771578e+01,-5.432093375103158905e+01,-1.159899325125820724e+01,2.139092561185907471e+01,3.209519323949143654e+01,9.523238182067871094e+00,-3.824593424797058105e-01,-3.824593871831893921e-02,5.230000000000000000e+02
-6.059370028477087544e+01,-5.038540868130212402e+01,-2.071489508036393090e+00,1.495503390412000044e+01,-5.423616136797591025e+01,-1.241073426828961601e+01,2.128836322960751204e+01,3.188770962667626918e+01,9.523238182067871094e+00,-3.824593424797058105e-01,-3.824593871831893921e-02,5.240000000000000000e+02
-5.860197237442389451e+01,-5.058889766624520234e+01,-2.614966745616584376e+00,1.200861692179000784e+01,-5.538364324830149599e+01,-1.373170804044002580e+01,1.972119136254605110e+01,3.079571811578216511e+01,9.523238182067871094e+00,-3.824593424797058105e-01,-3.824593871831893921e-02,5.250000000000000000e+02
-5.756101770739633139e+01,-5.036432427830550296e+01,-4.725264647067433543e+00,9.771632650238871065e+00,-5.751663703169924702e+01,-1.447073579647167207e+01,1.741123715778439873e+01,2.939844633474081093e+01,9.523238182067871094e+00,-3.824593424797058105e-01,-3.824593871831893921e-02,5.260000000000000000e+02
-5.761014403787044103e+01,-4.930396191516615545e+01,-7.681212996127214865e+00,9.832284339165653364e+00,-5.987110887724338681e+01,-1.385029576689794339e+01,1.544370002087043758e+01,2.855227700982732131e+01,9.523238182067871094e+00,-3.824593424797058105e-01,-3.824593871831893921e-02,5.270000000000000000e+02
-5.827525668871953712e+01,-4.792514052044089112e+01,-9.962369708146070479e+00,1.240021590137666863e+01,-6.126116415047044939e+01,-1.174105503717782994e+01,1.507389764629124329e+01,2.911509307064329732e+01,9.523238182067871094e+00,-3.824593424797058105e-01,-3.824593871831893921e-02,5.280000000000000000e+02
-5.873748295744053394e+01,-4.693011854746464451e+01,-1.015535968567860436e+01,1.628977097648794370e+01,-6.074662338452753829e+01,-8.600911620802435209e+00,1.707780717829996320e+01,3.136786878665429867e+01,9.523238182067871094e+00,-3.824593424797058105e-01,-3.824593871831893921e-02,5.290000000000000000e+02
-5.838343929548364031e+01,-4.642242124716904073e+01,-7.824946190162791027e+00,1.984750923914771192e+01,-5.833817879060779887e+01,-5.183604420511983335e+00,2.110263864692342395e+01,3.472461244977921524e+01,9.523238182067871094e+00,-3.824593424797058105e-01,-3.824593871831893921e-02,5.300000000000000000e+02
-5.714949479662936938e+01,-4.581964501306811144e+01,-3.718914269712513487e+00,2.203890731360252175e+01,-5.504289329623861704e+01,-2.227640735518889414e+00,2.564053684013060774e+01,3.809321639473728283e+01,9.523238182067871094e+00,-3.824593424797058105e-01,-3.824593871831893921e-02,5.310000000000000000e+02
-5.540238979595960700e+01,-4.447362468414212344e+01,7.304721403429539350e-01,2.287362375832299222e+01,-5.212910242053294496e+01,-2.303728764504739956e-01,2.880535111600647724e+01,4.059136791727451055e+01,9.523238182067871094e+00,-3.824593424797058105e-01,-3.824593871831893921e-02,5.320000000000000000e+02
-5.356521444110649099e+01,-4.232605574062381493e+01,4.148146602694851026e+00,2.299780422389267187e+01,-5.024981552908366211e+01,6.745769297467631986e-01,2.943445706242255255e+01,4.198905122698670311e+01,9.523238182067871094e+00,-3.824593424797058105e-01,-3.824593871831893921e-02,5.330000000000000000e+02
-5.187252768990765617e+01,-3.996115998502318689e+01,5.744985440872824256e+00,2.299488344859582867e+01,-4.919056034735513094e+01,7.296994000425911509e-01,2.775017759830052455e+01,4.258110561930698168e+01,9.523238182067871094e+00,-3.824593424797058105e-01,-3.824593871831893921e-02,5.340000000000000000e+02
-5.041180309798073722e+01,-3.806880438853204396e+01,5.490777981625342363e+00,2.305745249867595703e+01,-4.838403433037092327e+01,4.213358312772470526e-01,2.513450148763331526e+01,4.277277194147882255e+01,9.523238182067871094e+00,-3.824593424797058105e-01,-3.824593871831893921e-02,5.350000000000000000e+02
-4.925503170792580931e+01,-3.689215673285025332e+01,4.031659591555580846e+00,2.319803017465983430e+01,-4.758824525556201479e+01,2.529071020526316715e-01,2.322094379747068160e+01,4.285083569864582387e+01,9.523238182067871094e+00,-3.824593424797058105e-01,-3.824593871831893921e-02,5.360000000000000000e+02
-4.843077562317512275e+01,-3.619401069106697832e+01,2.418797286545213865e+00,2.356605973730802361e+01,-4.704906651607188905e+01,5.425517081066573155e-01,2.294718407032451069e+01,4.303115397652663887e+01,9.523238182067871094e+00,-3.824593424797058105e-01,-3.824593871831893921e-02,5.370000000000000000e+02
-4.777092568123771343e+01,-3.569310640976937066e+01,1.640497108143790683e+00,2.439227569374907034e+01,-4.709402091069205198e+01,1.326250887435890036e+00,2.415729512503867227e+01,4.348336574601353277e+01,9.523238182067871094e+00,-3.824593424797058105e-01,-3.824593871831893921e-02,5.380000000000000000e+02
-4.690539272182741115e+01,-3.545224415156826581e+01,2.075225276628771098e+00,2.559611423900378213e+01,-4.769133413599183768e+01,2.380009560682992742e+00,2.592161615052191337e+01,4.412867939045099774e+01,9.523238182067871094e+00,-3.824593424797058105e-01,-3.824593871831893921e-02,5.390000000000000000e+02
-4.555246911042559077e+01,-3.579799812491728517e+01,3.218001052357067238e+00,2.658781311014081439e+01,-4.846709259882845799e+01,3.333402886606563698e+00,2.726579122273915345e+01,4.445952088604144592e+01,9.523238182067871094e+00,-3.824593424797058105e-01,-3.824593871831893921e-02,5.400000000000000000e+02
-4.387068280973744550e+01,-3.686989327859237164e+01,4.002072203166790132e+00,2.665170093718734279e+01,-4.908788778965572419e+01,3.852987749754902325e+00,2.778335025897331434e+01,4.378269505047273924e+01,9.484992027282714844e+00,-4.207052886486053467e-01,-7.649187743663787842e-02,5.410000000000000000e+02
-4.247536840964221483e+01,-3.828767832689436545e+01,3.602920148839984904e+00,2.562697263461814146e+01,-4.951084447983703285e+01,3.836738265770691214e+00,2.775165557475065725e+01,4.185321008618711858e+01,9.484992027282714844e+00,-4.207052886486053467e-01,-7.649187743663787842e-02,5.420000000000000000e+02
-4.200432907891627110e+01,-3.928730695767808356e+01,2.135914542775026348e+00,2.416522874536258314e+01,-4.982842435805832793e+01,3.487257527351175668e+00,2.774622808203275781e+01,3.931532898681871302e+01,9.484992027282714844e+00,-4.207052886486053467e-01,-7.649187743663787842e-02,5.430000000000000000e+02
-4.257879779146787769e+01,-3.921130731709217798e+01,6.367600093835790176e-01,2.320359304304747639e+01,-4.995150872605699988e+01,3.172601012284758326e+00,2.811338396119936078e+01,3.740797321669833764e+01,9.484992027282714844e+00,-4.207052886486053467e-01,-7.649187743663787842e-02,5.440000000000000000e+02
-4.365954929051349609e+01,-3.794282547432339925e+01,2.846360244939205586e-01,2.310752046660309134e+01,-4.955669172693160363e+01,3.158052734021111974e+00,2.873398834147792513e+01,3.708665130671033694e+01,9.484992027282714844e+00,-4.207052886486053467e-01,-7.649187743663787842e-02,5.450000000000000000e+02
-4.444211701089079725e+01,-3.597602179565274128e+01,1.491433227093693858e+00,2.335401995271422493e+01,-4.839239546346470888e+01,3.442850356359485886e+00,2.923046574438285461e+01,3.833273424628259818e+01,9.484992027282714844e+00,-4.207052886486053467e-01,-7.649187743663787842e-02,5.460000000000000000e+02
-4.443499487870940357e+01,-3.412766777370052296e+01,3.618745184148792760e+00,2.312889834227553365e+01,-4.660392743883494404e+01,3.864515322797160479e+00,2.938177023105436092e+01,4.028943283210901427e+01,9.484992027282714844e+00,-4.207052886486053467e-01,-7.649187743663787842e-02,5.470000000000000000e+02
-4.370510390717208793e+01,-3.312043120198359247e+01,5.526062060732328973e+00,2.225106774526102527e+01,-4.471159975167029188e+01,4.357587252012308454e+00,2.933847631906246534e+01,4.205750993040055619e+01,9.484992027282714844e+00,-4.207052886486053467e-01,-7.649187743663787842e-02,5.480000000000000000e+02
-4.262020101981943299e+01,-3.325191141099094239e+01,6.427703341103551793e+00,2.145098520203009684e+01,-4.326756556317377544e+01,5.071501022491247568e+00,2.943997803585443762e+01,4.334173594717776723e+01,9.484992027282714844e+00,-4.207052886486053467e-01,-7.649187743663787842e-02,5.490000000000000000e+02
-4.141204534290318406e+01,-3.427156497275973379e+01,6.337964315947829164e+00,2.165372112368095259e+01,-4.253700029994161014e+01,6.188810366968937160e+00,2.982453537524816056e+01,4.436466255158120475e+01,9.484992027282714844e+00,-4.207052886486053467e-01,-7.649187743663787842e-02,5.500000000000000000e+02
-4.002139166090091749e+01,-3.551809021491135354e+01,5.832429678338485246e+00,2.294353432258776593e+01,-4.245442825131704012e+01,7.628678396336908918e+00,3.023061348525425274e+01,4.528483107976353494e+01,9.484992027282714844e+00,-4.207052886486053467e-01,-7.649187743663787842e-02,5.510000000000000000e+02
-3.835620570519222383e+01,-3.629995578776288312e+01,5.471276786500311573e+00,2.425371255686695804e+01,-4.277643016993442870e+01,8.970181668537406949e+00,3.019285757986199314e+01,4.586583385274570901e+01,9.484992027282714844e+00,-4.207052886486053467e-01,-7.649187743663787842e-02,5.520000000000000000e+02
-3.663510455924188136e+01,-3.633065600002100837e+01,5.446113260234596964e+00,2.414710040760201082e+01,-4.320397826846874523e+01,9.700012123943452025e+00,2.944978013420950447e+01,4.578144155482186761e+01,9.484992027282714844e+00,-4.207052886486053467e-01,-7.649187743663787842e-02,5.530000000000000000e+02
-3.537570842992499820e+01,-3.588853124764227687e+01,5.678114251334591245e+00,2.203309869482836802e+01,-4.338544225638543139e+01,9.563600040053643170e+00,2.819943693757159053e+01,4.518545642196841072e+01,9.484992027282714844e+00,-4.207052886486053467e-01,-7.649187743663787842e-02,5.540000000000000000e+02
-3.498198095450243272e+01,-3.550235532255464932e+01,6.105300055752195476e+00,1.874788077871744463e+01,-4.295167910181953630e+01,8.717191764262679499e+00,2.699441455905434850e+01,4.483820211336296779e+01,9.484992027282714844e+00,-4.207052886486053467e-01,-7.649187743663787842e-02,5.550000000000000000e+02
-3.532730177185294451e+01,-3.537931855269016523e+01,6.774604687469945929e+00,1.600527206858714635e+01,-4.171064879937512160e+01,7.607915794387736241e+00,2.638477659560248867e+01,4.555250972209159954e+01,9.484992027282714844e+00,-4.207052886486053467e-01,-7.649187743663787842e-02,5.560000000000000000e+02
-3.577497433450389508e+01,-3.511769260727669462e+01,7.660450278805910784e+00,1.520574700806628243e+01,-3.987560896740524186e+01,6.754837765964111895e+00,2.660352519063690124e+01,4.747176665832557774e+01,9.484992027282714844e+00,-4.207052886486053467e-01,-7.649187743663787842e-02,5.570000000000000000e+02
-3.568549065355455241e+01,-3.408189494802445552e+01,8.479137713575255475e+00,1.655280193427643098e+01,-3.806267122570807260e+01,6.587772729937569238e+00,2.748753904277418769e+01,4.989406011615483294e+01,9.484992027282714844e+00,-4.207052886486053467e-01,-7.649187743663787842e-02,5.580000000000000000e+02
-3.497162443877368787e+01,-3.217871333282164414e+01,8.787470145887709805e+00,1.908366042362104054e+01,-3.695373534261216264e+01,7.330901434072075062e+00,2.862125683129943354e+01,5.181110112450460292e+01,9.484992027282714844e+00,-4.207052886486053467e-01,-7.649187743663787842e-02,5.590000000000000000e+02
-3.417407455148168083e+01,-3.026141417853523308e+01,8.348338609113852726e+00,2.147415425804319966e+01,-3.683856333447511133e+01,8.887151745466326247e+00,2.957196592825584958e+01,5.265125138298117236e+01,9.484992027282714844e+00,-4.207052886486053467e-01,-7.649187743663787842e-02,5.600000000000000000e+02
-3.395990774678830348e+01,-2.957898055772056978e+01,7.450754511025479587e+00,2.298323469208480674e+01,-3.739754885200272838e+01,1.082591803819013876e+01,3.010659968963773281e+01,5.260387295295004151e+01,9.484992027282714844e+00,-4.207052886486053467e-01,-7.649187743663787842e-02,5.610000000000000000e+02
-3.448201040372805437e+01,-3.057777059432100941e+01,6.862336815390335687e+00,2.391289944802701939e+01,-3.790332068025963963e+01,1.262699182457618008e+01,3.032341945094867697e+01,5.237097487714163435e+01,9.484992027282714844e+00,-4.207052886486053467e-01,-7.649187743663787842e-02,5.620000000000000000e+02
-3.517499935279192869e+01,-3.213680831920009950e+01,7.381073975768231321e+00,2.532543021504898206e+01,-3.769740261627885047e+01,1.409687910280263168e+01,3.061765498818749620e+01,5.267497140534760547e+01,9.484992027282714844e+00,-4.207052886486053467e-01,-7.649187743663787842e-02,5.630000000000000000e+02
-3.516489507231199241e+01,-3.213350839843315043e+01,9.298444841535456362e+00,2.821434208463506366e+01,-3.659228740436810767e+01,1.557882514144512243e+01,3.143541198034472473e+01,5.389667256655047822e+01,9.484992027282714844e+00,-4.207052886486053467e-01,-7.649187743663787842e-02,5.640000000000000000e+02
-3.391184445431099448e+01,-2.910495987903595960e+01,1.217285304330380313e+01,3.263586592931278574e+01,-3.493050355374543869e+01,1.764486364762706216e+01,3.291618967782778782e+01,5.593517484400035755e+01,9.484992027282714844e+00,-4.207052886486053467e-01,-7.649187743663787842e-02,5.650000000000000000e+02
-3.155743841371258895e+01,-2.369901455229228304e+01,1.507242784888694587e+01,3.736791392941995582e+01,-3.331171922127941798e+01,2.042968194736386067e+01,3.467932006280898349e+01,5.819122743270963838e+01,9.446745872497558594e+00,-4.207052886486053467e-01,-7.649187743663787842e-02,5.660000000000000000e+02
-2.875311788436192728e+01,-1.858442755191572360e+01,1.711420063991499774e+01,4.041888438447313092e+01,-3.223516133678276674e+01,2.321687420549642411e+01,3.597693011975570698e+01,5.969183804860949749e+01,9.446745872497558594e+00,-4.207052886486053467e-01,-7.649187743663787842e-02,5.670000000000000000e+02
-2.622259960234259779e+01,-1.669842002854056773e+01,1.792165319137529877e+01,4.017336803815669555e+01,-3.190713749641872710e+01,2.475913792423125415e+01,3.615419620472312090e+01,5.949109532937836775e+01,9.446745872497558594e+00,-4.207052886486053467e-01,-7.649187743663787842e-02,5.680000000000000000e+02
-2.445789492348376371e+01,-1.912836160275583097e+01,1.771753923041615053e+01,3.646372100010012218e+01,-3.226106718606024515e+01,2.416013748720251897e+01,3.508581154544663150e+01,5.729491778615738440e+01,9.446745872497558594e+00,-4.207052886486053467e-01,-7.649187743663787842e-02,5.690000000000000000e+02
-2.369496537432314653e+01,-2.430319055379368365e+01,1.704784587518224725e+01,3.079664143261652498e+01,-3.306368976320663933e+01,2.157759601214274880e+01,3.324073606689307780e+01,5.387905604658953962e+01,9.446745872497558594e+00,-4.207052886486053467e-01,-7.649187743663787842e-02,5.700000000000000000e+02
-2.400412249447799695e+01,-2.910817737683464657e+01,1.638264400416119315e+01,2.552351948590876418e+01,-3.397124242820427753e+01,1.814801045758576947e+01,3.134021506395947654e+01,5.082656313243205659e+01,9.446745872497558594e+00,-4.207052886486053467e-01,-7.649187743663787842e-02,5.710000000000000000e+02
-2.527474079850617272e+01,-3.098838624760537641e+01,1.590212561120097234e+01,2.251419840314702014e+01,-3.454269470574945444e+01,1.521416907393722795e+01,2.993324970658068196e+01,4.960791690512087371e+01,9.446745872497558594e+00,-4.207052886486053467e-01,-7.649187743663787842e-02,5.720000000000000000e+02
-2.710783692445147608e+01,-2.942276821608174942e+01,1.556749550099266344e+01,2.224456853009542101e+01,-3.435525899607455358e+01,1.351297815211546549e+01,2.923556449380339473e+01,5.063101225913669623e+01,9.446745872497558594e+00,-4.207052886486053467e-01,-7.649187743663787842e-02,5.730000000000000000e+02
-2.883019641358077934e+01,-2.581527344112873834e+01,1.532421512702785549e+01,2.386700019795898697e+01,-3.326943940442288294e+01,1.294199868910800433e+01,2.926824704171849589e+01,5.300942034854233498e+01,9.446745872497558594e+00,-4.207052886486053467e-01,-7.649187743663787842e-02,5.740000000000000000e+02
-2.975151254765660269e+01,-2.218412603710567055e+01,1.521349491198998294e+01,2.605364895445927687e+01,-3.165439742064154416e+01,1.295119278939273499e+01,3.003474886559524748e+01,5.522660354321669729e+01,9.446745872497558594e+00,-4.207052886486053467e-01,-7.649187743663787842e-02,5.750000000000000000e+02
-2.951805554745442350e+01,-1.985024360403258470e+01,1.530554827361447678e+01,2.785814426353681483e+01,-3.029591511068247200e+01,1.310481780201371294e+01,3.148530097572256636e+01,5.612841411288900417e+01,9.446745872497558594e+00,-4.207052886486053467e-01,-7.649187743663787842e-02,5.760000000000000000e+02
-2.828622827421895636e+01,-1.902947248617965670e+01,1.557373698270384921e+01,2.897401169426302658e+01,-2.993524911509484809e+01,1.331814202124587609e+01,3.331647731618249964e+01,5.546476885556694469e+01,9.446745872497558594e+00,-4.207052886486053467e-01,-7.649187743663787842e-02,5.770000000000000000e+02
-2.660295933581437566e+01,-1.927775401771759789e+01,1.587768753250202280e+01,2.940768030052640825e+01,-3.074910580851610575e+01,1.366310940592666157e+01,3.490359448010713095e+01,5.370644662152881210e+01,9.446745872497558594e+00,-4.207052886486053467e-01,-7.649187743663787842e-02,5.780000000000000000e+02
-2.513111538420344004e+01,-2.010288519660025486e+01,1.607717396335465310e+01,2.909800924901719554e+01,-3.220965312723819807e+01,1.403488832574657863e+01,3.556754243768591550e+01,5.150851028666511411e+01,9.446745872497558594e+00,-4.207052886486053467e-01,-7.649187743663787842e-02,5.790000000000000000e+02
-2.441742490168326185e+01,-2.119384397054818692e+01,1.613770996314451622e+01,2.794779701759762247e+01,-3.346391390361532103e+01,1.405815795422677184e+01,3.503716432856526808e+01,4.938340647656514193e+01,9.446745872497558594e+00,-4.207052886486053467e-01,-7.649187743663787842e-02,5.800000000000000000e+02
-2.476624247856125294e+01,-2.228207643952737271e+01,1.610693084174272371e+01,2.621716338652367995e+01,-3.390644232372142142e+01,1.336710104947997024e+01,3.371965026413636224e+01,4.776993216805385600e+01,9.446745872497558594e+00,-4.207052886486053467e-01,-7.649187743663787842e-02,5.810000000000000000e+02
-2.616265440285314980e+01,-2.300746982938289875e+01,1.599544561300353962e+01,2.476296623787675344e+01,-3.347308599499046977e+01,1.203877831606223481e+01,3.249754359303187812e+01,4.720988251498783939e+01,9.446745872497558594e+00,-4.207052886486053467e-01,-7.649187743663787842e-02,5.820000000000000000e+02
-2.822452837922719482e+01,-2.302959766491221671e+01,1.572149221793915785e+01,2.470002059439684672e+01,-3.248313397528181667e+01,1.078007898127907538e+01,3.215990858069926617e+01,4.827586622676972183e+01,9.446745872497558594e+00,-4.207052886486053467e-01,-7.649187743663787842e-02,5.830000000000000000e+02
-3.028373476653359830e+01,-2.226872200799516577e+01,1.519549919872588362e+01,2.662642139604758995e+01,-3.129734201263090654e+01,1.060913531815458555e+01,3.287685678577690851e+01,5.121400943776279746e+01,9.446745872497558594e+00,-4.207052886486053467e-01,-7.649187743663787842e-02,5.840000000000000000e+02
-3.165918969383528747e+01,-2.101611392691302171e+01,1.445913024746005249e+01,3.005249908658697677e+01,-3.015025285720184911e+01,1.216886502462875796e+01,3.409229346600477584e+01,5.559961848964849196e+01,9.446745872497558594e+00,-4.207052886486053467e-01,-7.649187743663787842e-02,5.850000000000000000e+02
-3.198187976182271086e+01,-1.979923708444766817e+01,1.371781223734797095e+01,3.358225383781427809e+01,-2.922504592125915224e+01,1.516820779530098662e+01,3.489561629319177882e+01,6.033086723877386248e+01,9.446745872497558594e+00,-4.207052886486053467e-01,-7.649187743663787842e-02,5.860000000000000000e+02
-3.133545867538305174e+01,-1.910595590676166466e+01,1.321337480100373796e+01,3.575892618978832616e+01,-2.874136681394156767e+01,1.843610186134174000e+01,3.459981248189433245e+01,6.401743942273242283e+01,9.446745872497558594e+00,-4.207052886486053467e-01,-7.649187743663787842e-02,5.870000000000000000e+02
-3.009407795095648908e+01,-1.913712140363168146e+01,1.308593813934021455e+01,3.592319767039589351e+01,-2.884008513965818565e+01,2.064470967353190645e+01,3.316338696671118669e+01,6.556677434260927839e+01,9.446745872497558594e+00,-4.207052886486053467e-01,-7.649187743663787842e-02,5.880000000000000000e+02
-2.861662311324653274e+01,-1.969033166732151585e+01,1.337464647504930326e+01,3.445595239153772127e+01,-2.936421487902407534e+01,2.119625235800049268e+01,3.122943088944703049e+01,6.466619334646929929e+01,9.446745872497558594e+00,-4.207052886486053467e-01,-7.649187743663787842e-02,5.890000000000000000e+02
-2.708294654170094873e+01,-2.021355500719982956e+01,1.412602765942210681e+01,3.233610946760745719e+01,-2.982881484230892966e+01,2.057170993217732757e+01,2.978360615945894097e+01,6.192669766494691430e+01,9.446745872497558594e+00,-4.207052886486053467e-01,-7.649187743663787842e-02,5.900000000000000000e+02
-2.557144329934453708e+01,-2.005073759453262028e+01,1.544885940323365503e+01,3.049567942518842756e+01,-2.968427217485077563e+01,1.985257266429471201e+01,2.964414223394305736e+01,5.861936080064697308e+01,9.446745872497558594e+00,-4.207052886486053467e-01,-7.649187743663787842e-02,5.910000000000000000e+02
-2.419956206043571001e+01,-1.881032966746897728e+01,1.739898794800683390e+01,2.949246381216653390e+01,-2.864801928377346485e+01,1.982298334001461626e+01,3.106945869797891646e+01,5.611533609153048019e+01,9.446745872497558594e+00,-4.207052886486053467e-01,-7.649187743663787842e-02,5.920000000000000000e+02
-2.311966550113356789e+01,-1.664030357685442141e+01,1.977145593702152837e+01,2.955559309107411536e+01,-2.680708150515420130e+01,2.041612327723123599e+01,3.366948314184992341e+01,5.528511622563746641e+01,9.446745872497558594e+00,-3.824593424797058105e-01,-7.649187743663787842e-02,5.930000000000000000e+02
-2.236383997228040243e+01,-1.418770932698680554e+01,2.203829527294510626e+01,3.068371610557005624e+01,-2.442080773466295796e+01,2.096136399205352063e+01,3.664493937654697220e+01,5.617280420566748944e+01,9.446745872497558594e+00,-3.824593424797058105e-01,-7.649187743663787842e-02,5.940000000000000000e+02
-2.176179466870235046e+01,-1.222340453033029917e+01,2.356801645256746269e+01,3.256545582283433760e+01,-2.166951505054748850e+01,2.095279515522634028e+01,3.920543583035032498e+01,5.810450385879812529e+01,9.446745872497558594e+00,-3.824593424797058105e-01,-7.649187743663787842e-02,5.950000000000000000e+02
-2.110033900217240443e+01,-1.120295060833450407e+01,2.400396777896094136e+01,3.450035211218346376e+01,-1.861780122963682516e+01,2.061125975166214630e+01,4.092729645358122070e+01,6.013364324332360411e+01,9.446745872497558594e+00,-3.824593424797058105e-01,-7.649187743663787842e-02,5.960000000000000000e+02
-2.038686895389764686e+01,-1.110663549023229280e+01,2.350544167935368023e+01,3.567071350811238517e+01,-1.538067007122299401e+01,2.073232210608330206e+01,4.187127519246132579e+01,6.154198791940143565e+01,9.446745872497558594e+00,-3.824593424797058105e-01,-7.649187743663787842e-02,5.970000000000000000e+02
-1.990746844754539779e+01,-1.166091468996091862e+01,2.264815397609709180e+01,3.575630407861899585e+01,-1.224687726386036957e+01,2.200080451942267246e+01,4.243476352998186485e+01,6.211773596363491379e+01,9.446745872497558594e+00,-3.824593424797058105e-01,-7.649187743663787842e-02,5.980000000000000000e+02
-1.995725617686184705e+01,-1.269437930241110735e+01,2.205948664870811626e+01,3.537496813348116120e+01,-9.578831236060068477e+00,2.443817161261176807e+01,4.306446486824643216e+01,6.211858976120856823e+01,9.446745872497558594e+00,-3.824593424797058105e-01,-7.649187743663787842e-02,5.990000000000000000e+02
-2.048833305227526580e+01,-1.427603795420145616e+01,2.205561797650079825e+01,3.578397469170886325e+01,-7.577278523389395559e+00,2.747217620264927973e+01,4.399153215563637787e+01,6.200894269215496024e+01,9.446745872497558594e+00,-3.824593424797058105e-01,-7.649187743663787842e-02,6.000000000000000000e+02
-2.106288806417069281e+01,-1.654388412441039691e+01,2.252359006642291206e+01,3.789247324984535226e+01,-6.156550655701721553e+00,3.049864793864981038e+01,4.510207487646766822e+01,6.213519078797980910e+01,9.446745872497558594e+00,-3.824593424797058105e-01,-7.649187743663787842e-02,6.010000000000000000e+02
-2.121005778161634225e+01,-1.944854372874397086e+01,2.308810904691563337e+01,4.135296338719490450e+01,-5.065340430352080148e+00,3.333137240748328622e+01,4.599986752475524554e+01,6.249735530954421847e+01,9.446745872497558594e+00,-3.824593424797058105e-01,-7.649187743663787842e-02,6.020000000000000000e+02
-2.086364106200926472e+01,-2.268873882194020553e+01,2.338967493795644259e+01,4.457753056264482439e+01,-4.133049442811170593e+00,3.609834205485094571e+01,4.624937743572445470e+01,6.273530037310410989e+01,9.446745872497558594e+00,-3.824593424797058105e-01,-7.649187743663787842e-02,6.030000000000000000e+02
-2.043884284765226766e+01,-2.588403748381460900e+01,2.325854910168345668e+01,4.579389256883223425e+01,-3.404632654292072402e+00,3.876008508454469847e+01,4.568524553909446695e+01,6.235119881258651731e+01,9.446745872497558594e+00,-3.824593424797058105e-01,-7.649187743663787842e-02,6.040000000000000000e+02
-2.044563128210938885e+01,-2.877770992725709220e+01,2.270032161449125852e+01,4.433030999338734546e+01,-3.066245980233361479e+00,4.082751156888843980e+01,4.458712985974852927e+01,6.104501520776102552e+01,9.446745872497558594e+00,-3.824593424797058105e-01,-7.649187743663787842e-02,6.050000000000000000e+02
-2.098717974697501631e+01,-3.126463153253644123e+01,2.178269823444497888e+01,4.108838572602689965e+01,-3.267160346451419173e+00,4.164299621938334894e+01,4.356524898969291826e+01,5.893478723451335100e+01,9.446745872497558594e+00,-3.824593424797058105e-01,-7.649187743663787842e-02,6.060000000000000000e+02
-2.162195151032574358e+01,-3.327041365944751306e+01,2.054911228156561265e+01,3.784254705571584054e+01,-4.024729326760279946e+00,4.096879691918729804e+01,4.317235744270510622e+01,5.647181172297132434e+01,9.446745872497558594e+00,-3.824593424797058105e-01,-7.649187743663787842e-02,6.070000000000000000e+02
-2.173619925133243669e+01,-3.466880431578829302e+01,1.900923657563544111e+01,3.598187712723665754e+01,-5.284902160874480614e+00,3.925831747937263572e+01,4.349068452112987870e+01,5.408052085999952396e+01,9.446745872497558594e+00,-3.824593424797058105e-01,-7.649187743663787842e-02,6.080000000000000000e+02
-2.110407053091330454e+01,-3.535364860876507009e+01,1.718114441947909654e+01,3.571252086340973619e+01,-7.024869685403245967e+00,3.730075517340446822e+01,4.402054994323771098e+01,5.181881606243769056e+01,9.446745872497558594e+00,-3.824593424797058105e-01,-7.649187743663787842e-02,6.090000000000000000e+02
-2.013696317517678835e+01,-3.538847043620626209e+01,1.514104835301623098e+01,3.625202355862711556e+01,-9.250838957766973181e+00,3.559977619587152731e+01,4.399996156565248384e+01,4.937083734135012492e+01,9.446745872497558594e+00,-3.824593424797058105e-01,-7.649187743663787842e-02,6.100000000000000000e+02
-1.958341756871232064e+01,-3.507724639993466553e+01,1.307283987354458077e+01,3.667981465704360744e+01,-1.184951391026697820e+01,3.413471948912410880e+01,4.295498993317596614e+01,4.641225063784804661e+01,9.446745872497558594e+00,-3.824593424797058105e-01,-7.649187743663787842e-02,6.110000000000000000e+02
-1.992024072016647551e+01,-3.487723410318358219e+01,1.130487898951832904e+01,3.663633378446320421e+01,-1.443186336118378676e+01,3.271943132554224576e+01,4.107365589974870090e+01,4.303643534893126343e+01,9.446745872497558594e+00,-3.824593424797058105e-01,-7.649187743663787842e-02,6.120000000000000000e+02
-2.093555778144946089e+01,-3.520164594108791789e+01,1.027540395559481112e+01,3.637044366496411385e+01,-1.635456162471382413e+01,3.151511413753542001e+01,3.913050906800344819e+01,3.986507050444924971e+01,9.446745872497558594e+00,-3.824593424797058105e-01,-7.649187743663787842e-02,6.130000000000000000e+02
