F3,F4,C3,C4,P3,P4,Cz,Pz,Accel_x,Accel_y,Accel_z,Sample
-6.275513442233204842e-11,-4.365574568510055542e-11,-3.092281986027956009e-11,-5.275069270282983780e-11,-3.819877747446298599e-11,-6.002665031701326370e-11,-3.456079866737127304e-11,-2.455635694786906242e-11,9.484992027282714844e+00,-4.971971809864044189e-01,-7.649187743663787842e-02,2.270000000000000000e+02
-1.394389805164973950e+01,-4.808033549189531186e+00,-2.591306910152525234e+00,-1.109583846084206016e+01,-2.300751267858413485e+01,-1.751304776607867097e+01,-6.942037244378298055e+00,-8.166188548538229952e+00,9.484992027282714844e+00,-4.971971809864044189e-01,-7.649187743663787842e-02,2.280000000000000000e+02
-2.623929537468848139e+01,-1.305353224259215494e+01,-6.111298855183122214e+00,-1.835389871400275297e+01,-3.957871047597654979e+01,-3.051251354027408524e+01,-1.300660956187766715e+01,-1.493002797667486448e+01,9.484992027282714844e+00,-4.971971809864044189e-01,-7.649187743663787842e-02,2.290000000000000000e+02
-3.675834262892658444e+01,-2.558942070378907374e+01,-1.105922539568291540e+01,-2.106086682032218960e+01,-4.841161571848897438e+01,-3.817651101968294824e+01,-1.807585685742833448e+01,-1.959983512681174034e+01,9.484992027282714844e+00,-4.971971809864044189e-01,-7.649187743663787842e-02,2.300000000000000000e+02
-4.689019450698469882e+01,-4.038533893780640938e+01,-1.725509108205369557e+01,-2.179286162023799989e+01,-5.374688870930094708e+01,-4.344250693015783327e+01,-2.274256884433088999e+01,-2.248100230546970124e+01,9.484992027282714844e+00,-4.971971809864044189e-01,-7.649187743663787842e-02,2.310000000000000000e+02
-5.803984195341945451e+01,-5.454274926669586421e+01,-2.390383153339917044e+01,-2.367254673463503423e+01,-6.101604724318804074e+01,-4.967760274245665642e+01,-2.754444313270505518e+01,-2.461106923485021980e+01,9.484992027282714844e+00,-4.971971809864044189e-01,-7.649187743663787842e-02,2.320000000000000000e+02
-7.014782084598937217e+01,-6.652822451619158528e+01,-2.998703648718674231e+01,-2.760876563048987009e+01,-7.219579260403043008e+01,-5.762325349160164478e+01,-3.236330327201812906e+01,-2.715339137429509719e+01,9.484992027282714844e+00,-4.971971809864044189e-01,-7.649187743663787842e-02,2.330000000000000000e+02
-8.171352774684783071e+01,-7.666870019855923601e+01,-3.484058039447336341e+01,-3.214885978436814185e+01,-8.511439918286396278e+01,-6.562150116008160694e+01,-3.667411942843955330e+01,-3.085228943036418059e+01,9.484992027282714844e+00,-4.971971809864044189e-01,-7.649187743663787842e-02,2.340000000000000000e+02
-9.127874477688328625e+01,-8.593867301961654448e+01,-3.859518803023547662e+01,-3.567274051112326561e+01,-9.662480936282918265e+01,-7.232576268307457212e+01,-4.034143012501954217e+01,-3.580844849404365959e+01,9.484992027282714844e+00,-4.971971809864044189e-01,-7.649187743663787842e-02,2.350000000000000000e+02
-9.889958664193000004e+01,-9.469144040923401917e+01,-4.215822121377004805e+01,-3.831341890298426733e+01,-1.058829060431053222e+02,-7.850593365540225932e+01,-4.400863961796494550e+01,-4.155975267162466480e+01,9.523238182067871094e+00,-5.354431271553039551e-01,-3.824593871831893921e-02,2.360000000000000000e+02
-1.061982420057011041e+02,-1.026277145441326866e+02,-4.665148499857514253e+01,-4.158887850929386332e+01,-1.145576933959664530e+02,-8.593989883854555956e+01,-4.854341715811642644e+01,-4.732068517040079314e+01,9.523238182067871094e+00,-5.354431271553039551e-01,-3.824593871831893921e-02,2.370000000000000000e+02
-1.149906990408398997e+02,-1.096698164487488611e+02,-5.263830753307229315e+01,-4.639810823515927041e+01,-1.244539946826926098e+02,-9.492288080746038759e+01,-5.405602484254541196e+01,-5.226888803314795950e+01,9.523238182067871094e+00,-5.354431271553039551e-01,-3.824593871831893921e-02,2.380000000000000000e+02
-1.257961192863804172e+02,-1.164657616079639411e+02,-5.970814307666842069e+01,-5.172766050003338023e+01,-1.355425605434666068e+02,-1.034607940229834639e+02,-5.954062613868973131e+01,-5.585040009041495068e+01,9.523238182067871094e+00,-5.354431271553039551e-01,-3.824593871831893921e-02,2.390000000000000000e+02
-1.375529099084333211e+02,-1.238959682592212630e+02,-6.676310669514805340e+01,-5.545944063374463440e+01,-1.463701828188113723e+02,-1.091584525402795407e+02,-6.361043773995061201e+01,-5.804992162152211677e+01,9.523238182067871094e+00,-5.354431271553039551e-01,-3.824593871831893921e-02,2.400000000000000000e+02
-1.486596323846715677e+02,-1.322233202563038503e+02,-7.278290244003528642e+01,-5.634440221807381022e+01,-1.559122760308273428e+02,-1.116961689134850531e+02,-6.568440771885434515e+01,-5.944759690428054455e+01,9.523238182067871094e+00,-5.354431271553039551e-01,-3.824593871831893921e-02,2.410000000000000000e+02
-1.582716958158216585e+02,-1.408833162460387030e+02,-7.740751772506609996e+01,-5.506653366713180731e+01,-1.645390407583909109e+02,-1.131707305554064078e+02,-6.648504510986822424e+01,-6.089205975937784387e+01,9.523238182067871094e+00,-5.354431271553039551e-01,-3.824593871831893921e-02,2.420000000000000000e+02
-1.666935242328208915e+02,-1.490947276853330550e+02,-8.089381076293557271e+01,-5.348994426368335553e+01,-1.731999832403025721e+02,-1.160475981787258206e+02,-6.740679307641948981e+01,-6.295806518617428083e+01,9.523238182067871094e+00,-5.354431271553039551e-01,-3.824593871831893921e-02,2.430000000000000000e+02
-1.746576087992170869e+02,-1.565593585823589819e+02,-8.362725182098893129e+01,-5.310084765234205406e+01,-1.820883737855865547e+02,-1.210358809801073221e+02,-6.942095000159497431e+01,-6.564918726652467740e+01,9.523238182067871094e+00,-5.354431271553039551e-01,-3.824593871831893921e-02,2.440000000000000000e+02
-1.823381433492240831e+02,-1.635432951893353675e+02,-8.577979537022383738e+01,-5.425266789504439657e+01,-1.904482410025557328e+02,-1.270556227091065011e+02,-7.255868495381128014e+01,-6.864266481036884215e+01,9.523238182067871094e+00,-5.354431271553039551e-01,-3.824593871831893921e-02,2.450000000000000000e+02
-1.891303087042551851e+02,-1.704071951382939005e+02,-8.747019766108587646e+01,-5.667364502355849254e+01,-1.976478703882039554e+02,-1.329895558938442264e+02,-7.634090925309283193e+01,-7.184515519297656283e+01,9.523238182067871094e+00,-5.354431271553039551e-01,-3.824593871831893921e-02,2.460000000000000000e+02
-1.944354416132073311e+02,-1.772117690663490066e+02,-8.915123329315883893e+01,-6.027221328617997642e+01,-2.041239534761944014e+02,-1.390245756388276277e+02,-8.052227264676184859e+01,-7.561932196263842343e+01,9.523238182067871094e+00,-5.354431271553039551e-01,-3.824593871831893921e-02,2.470000000000000000e+02
-1.986709028835375648e+02,-1.837755588208383415e+02,-9.162081929112082435e+01,-6.515246534325160610e+01,-2.110372406956130362e+02,-1.461348419137812016e+02,-8.524414800605973142e+01,-8.029974244770619407e+01,9.523238182067871094e+00,-5.354431271553039551e-01,-3.824593871831893921e-02,2.480000000000000000e+02
-2.034156913605374939e+02,-1.899785353334264073e+02,-9.543281332616788859e+01,-7.087956730318637710e+01,-2.190071506705662614e+02,-1.544896273132062561e+02,-9.043068588129153795e+01,-8.539752840170422132e+01,9.523238182067871094e+00,-5.354431271553039551e-01,-3.824593871831893921e-02,2.490000000000000000e+02
-2.103499928615465251e+02,-1.959216770086741235e+02,-1.002270142868301264e+02,-7.605751131155648181e+01,-2.273340172424459524e+02,-1.627540921251584223e+02,-9.520483300002706528e+01,-8.943516357375574444e+01,9.523238182067871094e+00,-5.354431271553039551e-01,-3.824593871831893921e-02,2.500000000000000000e+02
-2.197898442067089491e+02,-2.018518512216351155e+02,-1.047485791385561242e+02,-7.901691265407134779e+01,-2.345642062136366803e+02,-1.691222246516172163e+02,-9.819375371073601855e+01,-9.089740843466734077e+01,9.523238182067871094e+00,-5.354431271553039551e-01,-3.824593871831893921e-02,2.510000000000000000e+02
-2.301306722907038420e+02,-2.080465221366357582e+02,-1.077310864270903039e+02,-7.917127847121082596e+01,-2.398537154122259381e+02,-1.729444175600674498e+02,-9.868149127972719725e+01,-8.963763504135567928e+01,9.523238182067871094e+00,-5.354431271553039551e-01,-3.824593871831893921e-02,2.520000000000000000e+02
-2.388499955624020004e+02,-2.147693544872572602e+02,-1.089576165869084434e+02,-7.776258570370555390e+01,-2.438470083126430836e+02,-1.752551900379085055e+02,-9.756551237798430520e+01,-8.741532601680228254e+01,9.523238182067871094e+00,-5.354431271553039551e-01,-3.824593871831893921e-02,2.530000000000000000e+02
-2.443758338249745066e+02,-2.221740780952031855e+02,-1.095318466521330265e+02,-7.715723680048267852e+01,-2.482982311729065259e+02,-1.777483104334723976e+02,-9.707194553628141875e+01,-8.685784180945211119e+01,9.523238182067871094e+00,-5.354431271553039551e-01,-3.824593871831893921e-02,2.540000000000000000e+02
-2.472950477944505110e+02,-2.300851846923496851e+02,-1.110306638026841028e+02,-7.916353957135652308e+01,-2.547925620299483853e+02,-1.813500071973739978e+02,-9.926178763698680996e+01,-8.957321690794105962e+01,9.523238182067871094e+00,-5.354431271553039551e-01,-3.824593871831893921e-02,2.550000000000000000e+02
-2.498607820241686568e+02,-2.378648449318470739e+02,-1.142122917548595069e+02,-8.374911334981425171e+01,-2.636007623104796949e+02,-1.857654555253875515e+02,-1.045144685793966346e+02,-9.501078256871551275e+01,9.523238182067871094e+00,-5.354431271553039551e-01,-3.824593871831893921e-02,2.560000000000000000e+02
-2.541967910604371355e+02,-2.446727494263104745e+02,-1.183721088800502912e+02,-8.919563397090496437e+01,-2.734770680971196271e+02,-1.901988773332877827e+02,-1.112728754237650719e+02,-1.010593367476358253e+02,9.523238182067871094e+00,-5.354431271553039551e-01,-3.824593871831893921e-02,2.570000000000000000e+02
-2.607239505625175298e+02,-2.500723836749903057e+02,-1.219065452536833618e+02,-9.351125326030251017e+01,-2.824763821180549712e+02,-1.943135681855974326e+02,-1.172483620952561978e+02,-1.058116668852890143e+02,9.523238182067871094e+00,-5.354431271553039551e-01,-3.824593871831893921e-02,2.580000000000000000e+02
-2.681076429587083112e+02,-2.544792260706840352e+02,-1.236323689290693437e+02,-9.588684896930863033e+01,-2.891827436018329536e+02,-1.984650493352410194e+02,-1.210202816782275477e+02,-1.089187049939000644e+02,9.523238182067871094e+00,-5.354431271553039551e-01,-3.824593871831893921e-02,2.590000000000000000e+02
-2.746522504405047584e+02,-2.589561576593805512e+02,-1.237843511188602861e+02,-9.702627348493751924e+01,-2.935293091457442642e+02,-2.031652518263854290e+02,-1.227176702940132600e+02,-1.114376399084321747e+02,9.523238182067871094e+00,-5.354431271553039551e-01,-3.824593871831893921e-02,2.600000000000000000e+02
-2.798130528707106350e+02,-2.644263267922265186e+02,-1.238902070667368207e+02,-9.820664309283347393e+01,-2.967080565587730234e+02,-2.084636569544372833e+02,-1.234113384311103800e+02,-1.145349497572942710e+02,9.523238182067871094e+00,-5.354431271553039551e-01,-3.824593871831893921e-02,2.610000000000000000e+02
-2.845058901544734908e+02,-2.709570266957775857e+02,-1.256377588763348285e+02,-1.000114316553263052e+02,-3.002777507076607435e+02,-2.138355747553796391e+02,-1.240120998721949945e+02,-1.183838375656537210e+02,9.523238182067871094e+00,-5.354431271553039551e-01,-3.824593871831893921e-02,2.620000000000000000e+02
-2.900803978529479537e+02,-2.777273675357937464e+02,-1.296439564659817734e+02,-1.018800453112226023e+02,-3.051469283242904567e+02,-2.185757573054934255e+02,-1.247527104999389849e+02,-1.222035076010615740e+02,9.523238182067871094e+00,-5.354431271553039551e-01,-3.824593871831893921e-02,2.630000000000000000e+02
-2.970229980461540435e+02,-2.836743881542724921e+02,-1.350918560878712924e+02,-1.027962052352031606e+02,-3.111799156357301399e+02,-2.222559578224554571e+02,-1.255534837886516470e+02,-1.251741753677401903e+02,9.523238182067871094e+00,-5.354431271553039551e-01,-3.824593871831893921e-02,2.640000000000000000e+02
-3.045823809636881379e+02,-2.882393332321089474e+02,-1.404765621241808731e+02,-1.024060018712016245e+02,-3.176480194992700490e+02,-2.249100084269712170e+02,-1.266370518477579026e+02,-1.271853581381110416e+02,9.523238182067871094e+00,-5.354431271553039551e-01,-3.824593871831893921e-02,2.650000000000000000e+02
-3.115295553771065897e+02,-2.916254083856510988e+02,-1.447960121459423135e+02,-1.014972505613131943e+02,-3.240165446063128911e+02,-2.269242401594965486e+02,-1.286018430440440170e+02,-1.287286558156952196e+02,9.523238182067871094e+00,-5.354431271553039551e-01,-3.824593871831893921e-02,2.660000000000000000e+02
-3.172196969172950958e+02,-2.944955484567080930e+02,-1.481904929606707810e+02,-1.014148045136935252e+02,-3.303024609059862087e+02,-2.287825878181092776e+02,-1.318688188827354679e+02,-1.302253212061291379e+02,9.484992027282714844e+00,-4.589512646198272705e-01,-3.824593871831893921e-02,2.670000000000000000e+02
-3.219721967021278033e+02,-2.974927473220495813e+02,-1.515433187609378365e+02,-1.029852088055386048e+02,-3.367330891597398477e+02,-2.308315608455513939e+02,-1.361366373758123700e+02,-1.315980479401050616e+02,9.484992027282714844e+00,-4.589512646198272705e-01,-3.824593871831893921e-02,2.680000000000000000e+02
-3.265314727007184956e+02,-3.009618031090012664e+02,-1.554761737456456103e+02,-1.059216840617045818e+02,-3.431614042408850764e+02,-2.331697238637088958e+02,-1.404742860512051266e+02,-1.325171938862713432e+02,9.484992027282714844e+00,-4.589512646198272705e-01,-3.824593871831893921e-02,2.690000000000000000e+02
-3.312380974731959213e+02,-3.049309878147214476e+02,-1.596731239886503317e+02,-1.091757964679554789e+02,-3.489549540534317202e+02,-2.357329950464500143e+02,-1.439887420638842741e+02,-1.329738651265170120e+02,9.484992027282714844e+00,-4.589512646198272705e-01,-3.824593871831893921e-02,2.700000000000000000e+02
-3.357188162692818878e+02,-3.091914009090228319e+02,-1.631225530296942452e+02,-1.118250610138857155e+02,-3.535545139388086682e+02,-2.385163475591452880e+02,-1.464261198101098671e+02,-1.335294447990340814e+02,9.484992027282714844e+00,-4.589512646198272705e-01,-3.824593871831893921e-02,2.710000000000000000e+02
-3.393187919882220740e+02,-3.133872881252750631e+02,-1.650031936557852532e+02,-1.136723191953310561e+02,-3.571276567496661301e+02,-2.417240930694888448e+02,-1.481652213289689826e+02,-1.349826982178028629e+02,9.484992027282714844e+00,-4.589512646198272705e-01,-3.824593871831893921e-02,2.720000000000000000e+02
-3.418253505442035021e+02,-3.171764187574867719e+02,-1.653640917100010483e+02,-1.151467177786726097e+02,-3.605941120392817538e+02,-2.456858095222742122e+02,-1.497144258385351350e+02,-1.377824049788737284e+02,9.484992027282714844e+00,-4.589512646198272705e-01,-3.824593871831893921e-02,2.730000000000000000e+02
-3.438311627721004697e+02,-3.204713185416021588e+02,-1.649876490247384027e+02,-1.167732891731761811e+02,-3.648898289174667298e+02,-2.505548763914721349e+02,-1.512480724752722381e+02,-1.416618860392118222e+02,9.484992027282714844e+00,-4.589512646198272705e-01,-3.824593871831893921e-02,2.740000000000000000e+02
-3.464245071240902689e+02,-3.235992725992559826e+02,-1.646578344701310925e+02,-1.187574723147272380e+02,-3.700967850265537891e+02,-2.560246618430592207e+02,-1.525696298473085335e+02,-1.457104373726974700e+02,9.484992027282714844e+00,-4.589512646198272705e-01,-3.824593871831893921e-02,2.750000000000000000e+02
-3.504527565611733735e+02,-3.271555921821704942e+02,-1.646213750085912579e+02,-1.209728802718241241e+02,-3.752607321397304077e+02,-2.613401161686488194e+02,-1.534337921324381568e+02,-1.487961778897392833e+02,9.484992027282714844e+00,-4.589512646198272705e-01,-3.824593871831893921e-02,2.760000000000000000e+02
-3.558996703364255154e+02,-3.315567082328839206e+02,-1.647379134757020438e+02,-1.232023589538730448e+02,-3.791219850330057852e+02,-2.656676822239778630e+02,-1.538574036290074218e+02,-1.501123502813311461e+02,9.484992027282714844e+00,-4.589512646198272705e-01,-3.824593871831893921e-02,2.770000000000000000e+02
-3.618024503643055141e+02,-3.366220436153007540e+02,-1.650519818547627438e+02,-1.253453049317022305e+02,-3.811962590990215176e+02,-2.686155968513694461e+02,-1.541799412358086556e+02,-1.496507396101342238e+02,9.484992027282714844e+00,-4.589512646198272705e-01,-3.824593871831893921e-02,2.780000000000000000e+02
-3.667726237923243389e+02,-3.415894756800057621e+02,-1.660711767607704132e+02,-1.274799269162858764e+02,-3.823214528674980102e+02,-2.705539417785139449e+02,-1.549096855092388978e+02,-1.483863450672629369e+02,9.484992027282714844e+00,-4.589512646198272705e-01,-3.824593871831893921e-02,2.790000000000000000e+02
-3.697993764565176207e+02,-3.456347401639654890e+02,-1.683691053369138899e+02,-1.298323651124628668e+02,-3.841806840433546313e+02,-2.724811598577116456e+02,-1.564901619791689882e+02,-1.479299167850890626e+02,9.484992027282714844e+00,-4.589512646198272705e-01,-3.824593871831893921e-02,2.800000000000000000e+02
-3.708480004515963628e+02,-3.484755357384110539e+02,-1.718814675937865104e+02,-1.326647876343276948e+02,-3.881049055292182857e+02,-2.754494068627855086e+02,-1.590472080743102197e+02,-1.496189500964269428e+02,9.484992027282714844e+00,-4.589512646198272705e-01,-3.824593871831893921e-02,2.810000000000000000e+02
-3.708907794566066514e+02,-3.505247036664441111e+02,-1.756626050099494023e+02,-1.360369190458909543e+02,-3.940254771802265168e+02,-2.798580664567807617e+02,-1.621889732780341546e+02,-1.535196407491780519e+02,9.484992027282714844e+00,-4.589512646198272705e-01,-3.824593871831893921e-02,2.820000000000000000e+02
-3.713428162650257036e+02,-3.524495663347838672e+02,-1.784569408319398462e+02,-1.395410171709813767e+02,-4.003728772080580711e+02,-2.850781814266438232e+02,-1.650381791759523367e+02,-1.581388110445782331e+02,9.484992027282714844e+00,-4.589512646198272705e-01,-3.824593871831893921e-02,2.830000000000000000e+02
-3.732636740512443794e+02,-3.545570069426248665e+02,-1.796458705988043221e+02,-1.423058910877639391e+02,-4.050477984418957931e+02,-2.897338404949532560e+02,-1.666518794025073475e+02,-1.612954514446278154e+02,9.484992027282714844e+00,-4.589512646198272705e-01,-3.824593871831893921e-02,2.840000000000000000e+02
-3.768347439767590004e+02,-3.565909159345765147e+02,-1.797292148115971031e+02,-1.434702422121349628e+02,-4.068140003430271463e+02,-2.925415753093780040e+02,-1.666610743076344079e+02,-1.616719965728148054e+02,9.484992027282714844e+00,-4.589512646198272705e-01,-3.824593871831893921e-02,2.850000000000000000e+02
-3.814192847397653168e+02,-3.581301171992022319e+02,-1.799035954668465820e+02,-1.428771205179605204e+02,-4.061399370830777116e+02,-2.931561501235250944e+02,-1.656197581724654810e+02,-1.598389874064914693e+02,9.484992027282714844e+00,-4.589512646198272705e-01,-3.824593871831893921e-02,2.860000000000000000e+02
-3.860914010749552290e+02,-3.591705336266973063e+02,-1.810909442392180608e+02,-1.413646247663564282e+02,-4.048858046451082373e+02,-2.923910490742568982e+02,-1.646452342730804048e+02,-1.578191745254825946e+02,9.484992027282714844e+00,-4.589512646198272705e-01,-3.824593871831893921e-02,2.870000000000000000e+02
-3.902052525960739331e+02,-3.602641364287933357e+02,-1.832383960647707681e+02,-1.402432299101128592e+02,-4.050594617378806106e+02,-2.916167165168062638e+02,-1.645181695649630456e+02,-1.574546177961688045e+02,9.523238182067871094e+00,-4.589512646198272705e-01,-3.824593871831893921e-02,2.880000000000000000e+02
-3.936061955656550708e+02,-3.620478470486586957e+02,-1.854405648713277515e+02,-1.402982975366362552e+02,-4.075235898790765532e+02,-2.917971230868010935e+02,-1.650049818672673609e+02,-1.589349711597074020e+02,9.523238182067871094e+00,-4.589512646198272705e-01,-3.824593871831893921e-02,2.890000000000000000e+02
-3.964172282525228184e+02,-3.646422884053032476e+02,-1.867008543336544335e+02,-1.412060196826078027e+02,-4.115340217446266706e+02,-2.929246895250023499e+02,-1.650813867606868826e+02,-1.607619172032618735e+02,9.523238182067871094e+00,-4.589512646198272705e-01,-3.824593871831893921e-02,2.900000000000000000e+02
-3.986897037075684693e+02,-3.675491694703659959e+02,-1.866539212558586769e+02,-1.419542777963949902e+02,-4.153600282177802683e+02,-2.942702416153304057e+02,-1.639471427662774659e+02,-1.611728531863211629e+02,9.523238182067871094e+00,-4.589512646198272705e-01,-3.824593871831893921e-02,2.910000000000000000e+02
-4.002867266962575741e+02,-3.701692522352919923e+02,-1.856961414429651995e+02,-1.419025207334261722e+02,-4.174569714126997724e+02,-2.951450907530083896e+02,-1.619365596840659691e+02,-1.597290885676147809e+02,9.523238182067871094e+00,-4.589512646198272705e-01,-3.824593871831893921e-02,2.920000000000000000e+02
-4.011077472750232573e+02,-3.723853347786193808e+02,-1.845324069538305594e+02,-1.414315744372499921e+02,-4.173626038988583105e+02,-2.954485548981342617e+02,-1.604461299395516107e+02,-1.576364674114963691e+02,9.523238182067871094e+00,-4.589512646198272705e-01,-3.824593871831893921e-02,2.930000000000000000e+02
-4.013981464312133767e+02,-3.745560237402003168e+02,-1.836308520106749711e+02,-1.414833050496731630e+02,-4.158017510261212237e+02,-2.955521124906972545e+02,-1.608764248551860874e+02,-1.565605803103826474e+02,9.523238182067871094e+00,-4.589512646198272705e-01,-3.824593871831893921e-02,2.940000000000000000e+02
-4.017751108365307573e+02,-3.768999579388421353e+02,-1.830667123186055960e+02,-1.424163954807543178e+02,-4.141122624293343506e+02,-2.957353337563095010e+02,-1.635051830820398209e+02,-1.571044876932902525e+02,9.523238182067871094e+00,-4.589512646198272705e-01,-3.824593871831893921e-02,2.950000000000000000e+02
-4.028552068739236347e+02,-3.789568155169228021e+02,-1.828119009953802561e+02,-1.433824656447463894e+02,-4.135128812536161149e+02,-2.957980995359876033e+02,-1.672720592930227212e+02,-1.583925402828925826e+02,9.523238182067871094e+00,-4.589512646198272705e-01,-3.824593871831893921e-02,2.960000000000000000e+02
-4.047766063702449628e+02,-3.798098660197812251e+02,-1.831009464938783822e+02,-1.430035959082417776e+02,-4.146819503529458188e+02,-2.952568963237758908e+02,-1.706286206226113791e+02,-1.591184345885264975e+02,9.523238182067871094e+00,-4.589512646198272705e-01,-3.824593871831893921e-02,2.970000000000000000e+02
-4.070689747533938316e+02,-3.789770205605635738e+02,-1.844428484080629005e+02,-1.408211947430224882e+02,-4.177496884569467284e+02,-2.939216568422225464e+02,-1.726687608856612997e+02,-1.589930372157512011e+02,9.523238182067871094e+00,-4.589512646198272705e-01,-3.824593871831893921e-02,2.980000000000000000e+02
-4.090433154530512638e+02,-3.770921951236446148e+02,-1.872128857452119064e+02,-1.380984546942572706e+02,-4.224620459740541492e+02,-2.922618129441730161e+02,-1.735732925417061097e+02,-1.591432252374776226e+02,9.523238182067871094e+00,-4.589512646198272705e-01,-3.824593871831893921e-02,2.990000000000000000e+02
-4.104013773037886494e+02,-3.755865370247990427e+02,-1.911877804168578905e+02,-1.370450138348724067e+02,-4.282507791238867867e+02,-2.911577828215681620e+02,-1.741316447328335926e+02,-1.610599607142133891e+02,9.523238182067871094e+00,-4.589512646198272705e-01,-3.824593871831893921e-02,3.000000000000000000e+02
-4.115175967053381783e+02,-3.755172008530653898e+02,-1.954717424638081411e+02,-1.390080595390161307e+02,-4.341944580943154506e+02,-2.912230398882572899e+02,-1.749424638955650835e+02,-1.651054837194894844e+02,9.523238182067871094e+00,-4.589512646198272705e-01,-3.824593871831893921e-02,3.010000000000000000e+02
-4.131188601129019844e+02,-3.765928257858569168e+02,-1.989332233280816808e+02,-1.432255653235561113e+02,-4.390940044184702629e+02,-2.922976474150680133e+02,-1.760471790381969868e+02,-1.699981591321480892e+02,9.523238182067871094e+00,-4.589512646198272705e-01,-3.824593871831893921e-02,3.020000000000000000e+02
-4.156243991552754551e+02,-3.773600723468865112e+02,-2.008361631762705883e+02,-1.473036748845302100e+02,-4.418638636061039051e+02,-2.935797465941902828e+02,-1.771907257410060765e+02,-1.737542325343717948e+02,9.523238182067871094e+00,-4.589512646198272705e-01,-3.824593871831893921e-02,3.030000000000000000e+02
-4.187288359012691217e+02,-3.764825110044409371e+02,-2.011997709602312625e+02,-1.490445617482801026e+02,-4.421147901620026914e+02,-2.942889813078643328e+02,-1.782703965062870566e+02,-1.752178672191299711e+02,9.523238182067871094e+00,-4.589512646198272705e-01,-3.824593871831893921e-02,3.040000000000000000e+02
-4.215878224836429808e+02,-3.740035163708946584e+02,-2.006323891237032058e+02,-1.480435919910860321e+02,-4.404694423114184474e+02,-2.942713985187142498e+02,-1.794354570190416780e+02,-1.747983106501303610e+02,9.523238182067871094e+00,-4.589512646198272705e-01,-3.824593871831893921e-02,3.050000000000000000e+02
-4.234047111142285758e+02,-3.714634785995905872e+02,-1.998077032886419602e+02,-1.457308602916141353e+02,-4.382163943629321921e+02,-2.940144644041115498e+02,-1.807709041595132931e+02,-1.738257423543453797e+02,9.523238182067871094e+00,-4.589512646198272705e-01,-3.824593871831893921e-02,3.060000000000000000e+02
-4.238828695937121438e+02,-3.707408045361680138e+02,-1.989931319513824519e+02,-1.439654904196113421e+02,-4.364338946060345279e+02,-2.940796736403785872e+02,-1.819783706354093056e+02,-1.732284029163801051e+02,9.523238182067871094e+00,-4.589512646198272705e-01,-3.824593871831893921e-02,3.070000000000000000e+02
-4.231895899709015794e+02,-3.726017763073431297e+02,-1.979515089799368752e+02,-1.435512185768448035e+02,-4.352671686471956036e+02,-2.945068672684369631e+02,-1.824619342279822831e+02,-1.727775420245195619e+02,9.523238182067871094e+00,-4.589512646198272705e-01,-3.824593871831893921e-02,3.080000000000000000e+02
-4.215905959889787482e+02,-3.761644000592356747e+02,-1.962493519198085323e+02,-1.439350576102506238e+02,-4.340208690903843944e+02,-2.947618359143305042e+02,-1.817829543396112513e+02,-1.715224790998679509e+02,9.523238182067871094e+00,-4.589512646198272705e-01,-3.824593871831893921e-02,3.090000000000000000e+02
-4.192286250826934975e+02,-3.796280721738152124e+02,-1.937365730151069556e+02,-1.441216020462434244e+02,-4.320384368563952648e+02,-2.942693299128957278e+02,-1.800771620076884574e+02,-1.689222417994384386e+02,9.523238182067871094e+00,-4.589512646198272705e-01,-3.824593871831893921e-02,3.100000000000000000e+02
-4.162928603710654443e+02,-3.815383759390314822e+02,-1.908792533096820989e+02,-1.437238369723979758e+02,-4.295826746870887973e+02,-2.930017336970740871e+02,-1.780661018201250272e+02,-1.655925940720586595e+02,9.523238182067871094e+00,-4.589512646198272705e-01,-3.824593871831893921e-02,3.110000000000000000e+02
-4.133250070905264693e+02,-3.815133025487276655e+02,-1.887075477032008166e+02,-1.431340873453971199e+02,-4.278595668560157037e+02,-2.915419316062185544e+02,-1.766722532829893453e+02,-1.630108379577783353e+02,9.523238182067871094e+00,-4.589512646198272705e-01,-3.824593871831893921e-02,3.120000000000000000e+02
-4.112173773693826888e+02,-3.799963860529413751e+02,-1.883577796254584200e+02,-1.428405217727795389e+02,-4.281197879091453160e+02,-2.905848305743190849e+02,-1.765606710715960617e+02,-1.624844925384046519e+02,9.446745872497558594e+00,-4.971971809864044189e-01,-1.529837548732757568e-01,3.130000000000000000e+02
-4.107433276414297438e+02,-3.775288546347493366e+02,-1.904212118548357466e+02,-1.427671782819372766e+02,-4.306490299424226578e+02,-2.903918331208602694e+02,-1.778831077290260509e+02,-1.642705779903428720e+02,9.446745872497558594e+00,-4.971971809864044189e-01,-1.529837548732757568e-01,3.140000000000000000e+02
-4.119738734940909808e+02,-3.743613372784882358e+02,-1.944750483923825186e+02,-1.423631766639279022e+02,-4.345595207975909489e+02,-2.907233345855828475e+02,-1.802549525305535099e+02,-1.675120210788643362e+02,9.446745872497558594e+00,-4.971971809864044189e-01,-1.529837548732757568e-01,3.150000000000000000e+02
-4.141221787837713464e+02,-3.707119358431654064e+02,-1.991496981662712642e+02,-1.412682568389584503e+02,-4.385076125437774408e+02,-2.912466641113567221e+02,-1.828615527968726155e+02,-1.709172181819757270e+02,9.446745872497558594e+00,-4.971971809864044189e-01,-1.529837548732757568e-01,3.160000000000000000e+02
-4.160027024162628209e+02,-3.672285159880084393e+02,-2.027856491374395773e+02,-1.397746435502975828e+02,-4.415986509063009748e+02,-2.919144552645529984e+02,-1.846769875624338511e+02,-1.735489229616397324e+02,9.446745872497558594e+00,-4.971971809864044189e-01,-1.529837548732757568e-01,3.170000000000000000e+02
-4.167437228988466700e+02,-3.649743763831939987e+02,-2.043212773156097910e+02,-1.385830151681095685e+02,-4.436706341089986836e+02,-2.928874072658966270e+02,-1.848541044746818898e+02,-1.751368608353379841e+02,9.446745872497558594e+00,-4.971971809864044189e-01,-1.529837548732757568e-01,3.180000000000000000e+02
-4.161913547073123709e+02,-3.647739504757381610e+02,-2.038264009027722068e+02,-1.381413990897868871e+02,-4.448677584828234330e+02,-2.941227808876251402e+02,-1.832108192784852463e+02,-1.758296579082141307e+02,9.446745872497558594e+00,-4.971971809864044189e-01,-1.529837548732757568e-01,3.190000000000000000e+02
-4.147704955956949675e+02,-3.664882146501938678e+02,-2.023065774089418483e+02,-1.382732982767244039e+02,-4.451449898532221141e+02,-2.951526874921642047e+02,-1.804983010776438732e+02,-1.757743861067237958e+02,9.446745872497558594e+00,-4.971971809864044189e-01,-1.529837548732757568e-01,3.200000000000000000e+02
-4.130579969654128263e+02,-3.689441397847828625e+02,-2.009130937817913036e+02,-1.384238565062497628e+02,-4.442756980813370546e+02,-2.953720487709765621e+02,-1.780793668678786617e+02,-1.749420864385086816e+02,9.446745872497558594e+00,-4.971971809864044189e-01,-1.529837548732757568e-01,3.210000000000000000e+02
-4.114795504657649303e+02,-3.706636291753920887e+02,-2.001535061387646692e+02,-1.381755717668464740e+02,-4.422510699279557684e+02,-2.945723151929146297e+02,-1.770417135710039247e+02,-1.732804547982018448e+02,9.446745872497558594e+00,-4.971971809864044189e-01,-1.529837548732757568e-01,3.220000000000000000e+02
-4.102764774614973931e+02,-3.708006242724363233e+02,-1.996789337863020819e+02,-1.374531116182268988e+02,-4.394951667452181709e+02,-2.931539463219811523e+02,-1.773453061972530804e+02,-1.709444165759309726e+02,9.446745872497558594e+00,-4.971971809864044189e-01,-1.529837548732757568e-01,3.230000000000000000e+02
-4.095773384632624357e+02,-3.695285832830993513e+02,-1.987500058508376242e+02,-1.362914709654040735e+02,-4.365702215972933118e+02,-2.917553085977245928e+02,-1.777669762356855472e+02,-1.683313629008996486e+02,9.446745872497558594e+00,-4.971971809864044189e-01,-1.529837548732757568e-01,3.240000000000000000e+02
-4.093512326415981875e+02,-3.676690679888140494e+02,-1.969514145116060035e+02,-1.345856118804460948e+02,-4.337080859180331345e+02,-2.906471371545562761e+02,-1.768549329982221252e+02,-1.659043050132694361e+02,9.446745872497558594e+00,-4.971971809864044189e-01,-1.529837548732757568e-01,3.250000000000000000e+02
-4.092868718050387429e+02,-3.660181151605699483e+02,-1.945765329115137092e+02,-1.322356792777638930e+02,-4.307510626151447468e+02,-2.894974607436705583e+02,-1.742233113400659477e+02,-1.640149031817146579e+02,9.446745872497558594e+00,-4.971971809864044189e-01,-1.529837548732757568e-01,3.260000000000000000e+02
-4.088482100019302834e+02,-3.649638812300769359e+02,-1.924262995399355987e+02,-1.295718478445669462e+02,-4.276170588573562554e+02,-2.877562672039239260e+02,-1.710850405662871481e+02,-1.629007389820189928e+02,9.446745872497558594e+00,-4.971971809864044189e-01,-1.529837548732757568e-01,3.270000000000000000e+02
-4.076032227222088409e+02,-3.645462517610329769e+02,-1.912578233027149963e+02,-1.274890822672998638e+02,-4.247611701205350982e+02,-2.853118892305321879e+02,-1.694533616977307702e+02,-1.627869399708354194e+02,9.446745872497558594e+00,-4.971971809864044189e-01,-1.529837548732757568e-01,3.280000000000000000e+02
-4.055796128415860835e+02,-3.646491724496846700e+02,-1.913476661619494053e+02,-1.269526447462518490e+02,-4.230491601695333657e+02,-2.828078282354332487e+02,-1.705754016973843363e+02,-1.638845541073789036e+02,9.446745872497558594e+00,-4.971971809864044189e-01,-1.529837548732757568e-01,3.290000000000000000e+02
-4.032888957480984118e+02,-3.650341398361121037e+02,-1.924504202692627359e+02,-1.282324146392652437e+02,-4.230793140002415385e+02,-2.813212734720306116e+02,-1.738842778585035376e+02,-1.662003443122425779e+02,9.446745872497558594e+00,-4.971971809864044189e-01,-1.529837548732757568e-01,3.300000000000000000e+02
-4.013550793939364780e+02,-3.653120177882779558e+02,-1.940675466979370185e+02,-1.306156313152515622e+02,-4.246078467001690342e+02,-2.816669312940836107e+02,-1.773787724206292751e+02,-1.693263545345675993e+02,9.446745872497558594e+00,-4.971971809864044189e-01,-1.529837548732757568e-01,3.310000000000000000e+02
-4.000794581686567426e+02,-3.651098741384840309e+02,-1.957092747092199261e+02,-1.329288712422396657e+02,-4.266315601661501660e+02,-2.838472116962711880e+02,-1.791174360277697133e+02,-1.724460801840177737e+02,9.446745872497558594e+00,-4.971971809864044189e-01,-1.529837548732757568e-01,3.320000000000000000e+02
-3.993477700709574947e+02,-3.644153171243249290e+02,-1.969468173248072844e+02,-1.344104282648595472e+02,-4.280275416400089625e+02,-2.869999191837480339e+02,-1.785602374613239363e+02,-1.746150322881948114e+02,9.446745872497558594e+00,-4.971971809864044189e-01,-1.529837548732757568e-01,3.330000000000000000e+02
-3.989220109682268571e+02,-3.637290585273865418e+02,-1.973546679473328140e+02,-1.350964818464450445e+02,-4.281279365771436005e+02,-2.898006811668911951e+02,-1.766753738111797247e+02,-1.751368600396208421e+02,9.446745872497558594e+00,-4.971971809864044189e-01,-1.529837548732757568e-01,3.340000000000000000e+02
-3.987337507817297819e+02,-3.637027199059098166e+02,-1.965688162683561586e+02,-1.353655684487603139e+02,-4.267740908580290125e+02,-2.910095907484421787e+02,-1.748486733450050679e+02,-1.737925229230145305e+02,9.446745872497558594e+00,-4.971971809864044189e-01,-1.529837548732757568e-01,3.350000000000000000e+02
-3.988117494690116018e+02,-3.644665850140302155e+02,-1.945399449365936562e+02,-1.351694890691420596e+02,-4.240399092318757539e+02,-2.898922460817760793e+02,-1.736499546042460906e+02,-1.708437746458600941e+02,9.446745872497558594e+00,-4.971971809864044189e-01,-1.529837548732757568e-01,3.360000000000000000e+02
-3.989239787108468249e+02,-3.652886552539628156e+02,-1.917853934434917846e+02,-1.338159972971142224e+02,-4.201250871890404142e+02,-2.864258225141184084e+02,-1.725109685786784439e+02,-1.669173930975997564e+02,9.446745872497558594e+00,-4.971971809864044189e-01,-1.529837548732757568e-01,3.370000000000000000e+02
-3.984070896943827051e+02,-3.650036985079395322e+02,-1.893284927987044739e+02,-1.306175024265533011e+02,-4.155913592815358015e+02,-2.813019380692834375e+02,-1.704511330182930351e+02,-1.628887722242718610e+02,9.446745872497558594e+00,-4.971971809864044189e-01,-1.529837548732757568e-01,3.380000000000000000e+02
-3.965155786853234758e+02,-3.629473431528666083e+02,-1.882337699770015433e+02,-1.258074963706724247e+02,-4.115366950526820347e+02,-2.757336520780155524e+02,-1.670595996889788921e+02,-1.597347502085810902e+02,9.446745872497558594e+00,-4.971971809864044189e-01,-1.529837548732757568e-01,3.390000000000000000e+02
-3.930641053880319760e+02,-3.596133310401219205e+02,-1.889927849938665076e+02,-1.207767905993396198e+02,-4.092018151279760332e+02,-2.710469914599657386e+02,-1.628661524806948364e+02,-1.582634064936277127e+02,9.408499717712402344e+00,-4.589512646198272705e-01,-3.824593871831893921e-02,3.400000000000000000e+02
-3.887513023183023506e+02,-3.564407726935615415e+02,-1.911884385037344600e+02,-1.172866190684522962e+02,-4.091095038580226628e+02,-2.681441369899962410e+02,-1.589178315852814194e+02,-1.587658264567673996e+02,9.408499717712402344e+00,-4.589512646198272705e-01,-3.824593871831893921e-02,3.410000000000000000e+02
-3.847895330320847052e+02,-3.548982334740713327e+02,-1.936951335282698210e+02,-1.162908837616178062e+02,-4.104786448699019274e+02,-2.670977116229856847e+02,-1.560784519548435583e+02,-1.608150987932415319e+02,9.408499717712402344e+00,-4.589512646198272705e-01,-3.824593871831893921e-02,3.420000000000000000e+02
-3.821072826151892059e+02,-3.555971600366469829e+02,-1.952912034947822804e+02,-1.173703389926027967e+02,-4.115773363413958350e+02,-2.671761914187112552e+02,-1.546400092815749758e+02,-1.634223823727794525e+02,9.408499717712402344e+00,-4.589512646198272705e-01,-3.824593871831893921e-02,3.430000000000000000e+02
-3.807941148748823252e+02,-3.580455631036285240e+02,-1.952871978396509576e+02,-1.191998700947661973e+02,-4.108645914433552662e+02,-2.673481671617344091e+02,-1.543649084022499665e+02,-1.655093800699236226e+02,9.408499717712402344e+00,-4.589512646198272705e-01,-3.824593871831893921e-02,3.440000000000000000e+02
-3.802250989781216504e+02,-3.610667874126801280e+02,-1.938054746545217313e+02,-1.205518119756007991e+02,-4.080218226577305813e+02,-2.669454000603969916e+02,-1.547013020538745423e+02,-1.664302898002450775e+02,9.408499717712402344e+00,-4.589512646198272705e-01,-3.824593871831893921e-02,3.450000000000000000e+02
-3.796661332143372647e+02,-3.634530371472751540e+02,-1.916122374603021399e+02,-1.209605025714746489e+02,-4.040343371712704084e+02,-2.660090565844853927e+02,-1.549566281500817695e+02,-1.662343198313431003e+02,9.408499717712402344e+00,-4.589512646198272705e-01,-3.824593871831893921e-02,3.460000000000000000e+02
-3.787779006092007421e+02,-3.644382386148030264e+02,-1.896650277744945470e+02,-1.206298393429426596e+02,-4.003289708640834306e+02,-2.650737874927469875e+02,-1.544756113198804997e+02,-1.655402026747422042e+02,9.408499717712402344e+00,-4.589512646198272705e-01,-3.824593871831893921e-02,3.470000000000000000e+02
-3.776409950564697056e+02,-3.638742885985951716e+02,-1.886451492819199984e+02,-1.199117532832681263e+02,-3.977736798095719450e+02,-2.646095938869658539e+02,-1.529340398348731469e+02,-1.651346129949479291e+02,9.408499717712402344e+00,-4.589512646198272705e-01,-3.824593871831893921e-02,3.480000000000000000e+02
-3.764544375502177900e+02,-3.621909081230542142e+02,-1.887008019519132631e+02,-1.189619976850926832e+02,-3.963329727525294857e+02,-2.646092252061162071e+02,-1.506187194649539833e+02,-1.655324209045761563e+02,9.408499717712402344e+00,-4.589512646198272705e-01,-3.824593871831893921e-02,3.490000000000000000e+02
-3.753106608887735547e+02,-3.601950619191215992e+02,-1.894853828893437822e+02,-1.178132367453272309e+02,-3.954467995747725126e+02,-2.646244505031913832e+02,-1.483609078283807321e+02,-1.667083600450333734e+02,9.408499717712402344e+00,-4.589512646198272705e-01,-3.824593871831893921e-02,3.500000000000000000e+02
-3.742399932884493410e+02,-3.587248213176212630e+02,-1.904153095811667527e+02,-1.165993583665476763e+02,-3.945738872843176068e+02,-2.641362712068618066e+02,-1.469818624980667892e+02,-1.681140658232343412e+02,9.408499717712402344e+00,-4.589512646198272705e-01,-3.824593871831893921e-02,3.510000000000000000e+02
-3.733397625547331700e+02,-3.582627355559432090e+02,-1.909707085812381138e+02,-1.155826217580843149e+02,-3.933841401916646419e+02,-2.628894909754308173e+02,-1.466046077037141231e+02,-1.689794816714753551e+02,9.408499717712402344e+00,-4.589512646198272705e-01,-3.824593871831893921e-02,3.520000000000000000e+02
-3.727180782364021070e+02,-3.587206602567450773e+02,-1.908584394765425714e+02,-1.149554126055566030e+02,-3.916147797243570494e+02,-2.609417142514171246e+02,-1.464427358824772227e+02,-1.687596375887532076e+02,9.408499717712402344e+00,-4.589512646198272705e-01,-3.824593871831893921e-02,3.530000000000000000e+02
-3.722694532943851300e+02,-3.595732386314965652e+02,-1.900032096653823146e+02,-1.146912173615838810e+02,-3.889956150609514225e+02,-2.584955507050171946e+02,-1.453740025421425344e+02,-1.674913337936060316e+02,9.408499717712402344e+00,-4.589512646198272705e-01,-3.824593871831893921e-02,3.540000000000000000e+02
-3.715867794802502431e+02,-3.602487766111493102e+02,-1.884886190277651394e+02,-1.146334793412910358e+02,-3.854583362012006091e+02,-2.557409351644796516e+02,-1.429288696809325074e+02,-1.658404495339418645e+02,9.408499717712402344e+00,-4.589512646198272705e-01,-3.824593871831893921e-02,3.550000000000000000e+02
-3.702203083616893764e+02,-3.604634313480993342e+02,-1.865788478443104168e+02,-1.146968015296749854e+02,-3.814089161933363812e+02,-2.528444928867405679e+02,-1.398826240735622832e+02,-1.647995880484700137e+02,9.408499717712402344e+00,-4.589512646198272705e-01,-3.824593871831893921e-02,3.560000000000000000e+02
-3.681121401025443447e+02,-3.602582289387798937e+02,-1.847894108684855610e+02,-1.149325085995565132e+02,-3.776957427704270458e+02,-2.500326507746963216e+02,-1.378911305004609176e+02,-1.651990549447159538e+02,9.408499717712402344e+00,-4.589512646198272705e-01,-3.824593871831893921e-02,3.570000000000000000e+02
-3.657666078033569192e+02,-3.597733863800360723e+02,-1.837939154421615058e+02,-1.153934288123720080e+02,-3.751861808485761003e+02,-2.476072932670922455e+02,-1.383332217445616834e+02,-1.672750704358452367e+02,9.408499717712402344e+00,-4.589512646198272705e-01,-3.824593871831893921e-02,3.580000000000000000e+02
-3.639126720501340060e+02,-3.590412002942675826e+02,-1.840577769621689868e+02,-1.159911089476280495e+02,-3.742642513603423140e+02,-2.458359777919686167e+02,-1.412200675815107616e+02,-1.705186302912261453e+02,9.408499717712402344e+00,-4.589512646198272705e-01,-3.824593871831893921e-02,3.590000000000000000e+02
-3.629084565214269560e+02,-3.579964886016283572e+02,-1.854097317753324887e+02,-1.165294737864778654e+02,-3.746330870966160091e+02,-2.447774656636834152e+02,-1.450381113303058100e+02,-1.738781887544233768e+02,9.408499717712402344e+00,-4.589512646198272705e-01,-3.824593871831893921e-02,3.600000000000000000e+02
-3.624181668639791951e+02,-3.566258092021748780e+02,-1.869686252989575905e+02,-1.168497926668102309e+02,-3.755211091906171532e+02,-2.441568236316134062e+02,-1.477012966324969057e+02,-1.762194959861071766e+02,9.408499717712402344e+00,-4.589512646198272705e-01,-3.824593871831893921e-02,3.610000000000000000e+02
-3.616725856696809842e+02,-3.550277045241170981e+02,-1.876476322819695497e+02,-1.168815844009508282e+02,-3.760921782333271040e+02,-2.433971547693809043e+02,-1.479357129816850147e+02,-1.768377051467759884e+02,9.408499717712402344e+00,-4.589512646198272705e-01,-3.824593871831893921e-02,3.620000000000000000e+02
-3.600878024899545835e+02,-3.533090732194032171e+02,-1.869164234181746451e+02,-1.165476919181857056e+02,-3.757762047664380134e+02,-2.418548188496902185e+02,-1.460654919148498720e+02,-1.757681661634827606e+02,9.408499717712402344e+00,-4.589512646198272705e-01,-3.824593871831893921e-02,3.630000000000000000e+02
-3.576963694322264473e+02,-3.514607365774500067e+02,-1.851715478414378140e+02,-1.157027364863672574e+02,-3.743790453742547015e+02,-2.391838590997469964e+02,-1.436162398779252953e+02,-1.737014478782671176e+02,9.408499717712402344e+00,-4.589512646198272705e-01,-3.824593871831893921e-02,3.640000000000000000e+02
-3.550340255079689769e+02,-3.493821818148967395e+02,-1.833361082970924372e+02,-1.142557500243294726e+02,-3.719888752262630760e+02,-2.356031438998752492e+02,-1.420797489562385181e+02,-1.715194063092806118e+02,9.408499717712402344e+00,-4.589512646198272705e-01,-3.824593871831893921e-02,3.650000000000000000e+02
-3.526179567449465821e+02,-3.470536060723509308e+02,-1.820104000990902477e+02,-1.123727434174058999e+02,-3.687831313219285221e+02,-2.318326553005242658e+02,-1.418435099395402403e+02,-1.697613530307600058e+02,9.408499717712402344e+00,-4.589512646198272705e-01,-3.824593871831893921e-02,3.660000000000000000e+02
-3.504983898875236719e+02,-3.446531017630691167e+02,-1.809511951720800198e+02,-1.105118895523553419e+02,-3.648792506183556270e+02,-2.286807037376727294e+02,-1.421170873151181695e+02,-1.684147300413696939e+02,9.408499717712402344e+00,-4.589512646198272705e-01,-3.824593871831893921e-02,3.670000000000000000e+02
-3.482680254748904645e+02,-3.424569914453959427e+02,-1.793733231663039760e+02,-1.091825482358160571e+02,-3.603425599342319856e+02,-2.265674652625853014e+02,-1.417996670797853085e+02,-1.671600455333970103e+02,9.408499717712402344e+00,-4.589512646198272705e-01,-3.824593871831893921e-02,3.680000000000000000e+02
-3.454823859222168494e+02,-3.405985041866058509e+02,-1.767761993919043562e+02,-1.086159788403019775e+02,-3.553476251875526941e+02,-2.253495885007039305e+02,-1.404329140421931470e+02,-1.657937482490731327e+02,9.408499717712402344e+00,-4.589512646198272705e-01,-3.824593871831893921e-02,3.690000000000000000e+02
-3.420895077050141708e+02,-3.389209533071440319e+02,-1.734865531670180872e+02,-1.086444724582463550e+02,-3.503168369742293180e+02,-2.245444754082341206e+02,-1.383871682483235190e+02,-1.643859950623592567e+02,9.408499717712402344e+00,-4.589512646198272705e-01,-3.824593871831893921e-02,3.700000000000000000e+02
-3.385027910650592275e+02,-3.370649231494157902e+02,-1.703966648948334068e+02,-1.088586047718004011e+02,-3.458196551661612830e+02,-2.236883221282607792e+02,-1.362296001073731304e+02,-1.630296671048283770e+02,9.523238182067871094e+00,-3.442134261131286621e-01,-3.824593871831893921e-02,3.710000000000000000e+02
-3.352983606712205074e+02,-3.346902317610474711e+02,-1.681925267970684672e+02,-1.088331745570799285e+02,-3.422310837310378702e+02,-2.224816641989077652e+02,-1.340246830518891556e+02,-1.615092305615213490e+02,9.523238182067871094e+00,-3.442134261131286621e-01,-3.824593871831893921e-02,3.720000000000000000e+02
-3.328165078907031784e+02,-3.316370075370386985e+02,-1.668422807105126822e+02,-1.082282694243747301e+02,-3.394395458179847083e+02,-2.206828370835962687e+02,-1.313392938280894668e+02,-1.593485359000588915e+02,9.523238182067871094e+00,-3.442134261131286621e-01,-3.824593871831893921e-02,3.730000000000000000e+02
-3.309722006870888436e+02,-3.279580503566703555e+02,-1.657972898197608629e+02,-1.068079879838649049e+02,-3.369105566416162674e+02,-2.180316258406146517e+02,-1.279381541272064169e+02,-1.562824145987117390e+02,9.523238182067871094e+00,-3.442134261131286621e-01,-3.824593871831893921e-02,3.740000000000000000e+02
-3.293609310713031846e+02,-3.239110941338575458e+02,-1.646168347319986651e+02,-1.045414258342950689e+02,-3.340946520517038607e+02,-2.144206194172988944e+02,-1.243858962810550111e+02,-1.526752780768871389e+02,9.523238182067871094e+00,-3.442134261131286621e-01,-3.824593871831893921e-02,3.750000000000000000e+02
-3.275174407273491397e+02,-3.199825641661445843e+02,-1.633342474809327314e+02,-1.017860440822075816e+02,-3.308172199155028466e+02,-2.101697802385024261e+02,-1.218240612131132821e+02,-1.493858919371295997e+02,9.523238182067871094e+00,-3.442134261131286621e-01,-3.824593871831893921e-02,3.760000000000000000e+02
-3.251238799007983289e+02,-3.168512658965616993e+02,-1.622200322353950241e+02,-9.930087279857207250e+01,-3.273072292165079489e+02,-2.060347363359094288e+02,-1.210349919827140184e+02,-1.471292350821554464e+02,9.523238182067871094e+00,-3.442134261131286621e-01,-3.824593871831893921e-02,3.770000000000000000e+02
-3.220785584339109846e+02,-3.151225285970419918e+02,-1.613044366772223839e+02,-9.788668568116167990e+01,-3.239151279978357252e+02,-2.028100177618775888e+02,-1.216836654631933925e+02,-1.459511714155537447e+02,9.523238182067871094e+00,-3.442134261131286621e-01,-3.824593871831893921e-02,3.780000000000000000e+02
-3.184779824211536834e+02,-3.148953944036147732e+02,-1.602815057330267337e+02,-9.783830627433212612e+01,-3.208789800540112083e+02,-2.008337648087212983e+02,-1.225194195244164348e+02,-1.453657896724694183e+02,9.523238182067871094e+00,-3.442134261131286621e-01,-3.824593871831893921e-02,3.790000000000000000e+02
-3.145886417131184771e+02,-3.154948756730580044e+02,-1.589413390285872083e+02,-9.869254118625849515e+01,-3.183697188630039818e+02,-1.998480133117554942e+02,-1.224189295601686354e+02,-1.450116669828103113e+02,9.523238182067871094e+00,-3.442134261131286621e-01,-3.824593871831893921e-02,3.800000000000000000e+02
-3.108150287955754720e+02,-3.157054768924801920e+02,-1.576238640620904334e+02,-9.957741645659530150e+01,-3.166570378529272602e+02,-1.993353053547057243e+02,-1.213472062274488508e+02,-1.451160110452576646e+02,9.523238182067871094e+00,-3.442134261131286621e-01,-3.824593871831893921e-02,3.810000000000000000e+02
-3.076144672055729643e+02,-3.144839389624048636e+02,-1.570876094632949389e+02,-9.991585820279487962e+01,-3.160557656311239043e+02,-1.990032393285537182e+02,-1.203838901667847949e+02,-1.462296201374019802e+02,9.523238182067871094e+00,-3.442134261131286621e-01,-3.824593871831893921e-02,3.820000000000000000e+02
-3.053361980129036510e+02,-3.116644018779113594e+02,-1.578122211528148000e+02,-9.987023719167677882e+01,-3.166003720189269188e+02,-1.989869539773430915e+02,-1.208061760328680521e+02,-1.484763394192705164e+02,9.523238182067871094e+00,-3.442134261131286621e-01,-3.824593871831893921e-02,3.830000000000000000e+02
-3.040572292297276817e+02,-3.080957036941717888e+02,-1.594018043819251034e+02,-1.001155812050969871e+02,-3.177811703135221251e+02,-1.996276550853974641e+02,-1.230211991107275935e+02,-1.511082734237347722e+02,9.523238182067871094e+00,-3.442134261131286621e-01,-3.824593871831893921e-02,3.840000000000000000e+02
-3.035232598689690349e+02,-3.050614445826861356e+02,-1.607235364184080026e+02,-1.011518366875150150e+02,-3.186782210357628173e+02,-2.010536599896925054e+02,-1.261934594771241791e+02,-1.528764295379251053e+02,9.523238182067871094e+00,-3.442134261131286621e-01,-3.824593871831893921e-02,3.850000000000000000e+02
-3.032572876647222984e+02,-3.033980106856313341e+02,-1.607328524566296437e+02,-1.027867064245776874e+02,-3.184494510101744709e+02,-2.028970081321419912e+02,-1.287985809973288269e+02,-1.529194249455958925e+02,9.523238182067871094e+00,-3.442134261131286621e-01,-3.824593871831893921e-02,3.860000000000000000e+02
-3.027636631119535195e+02,-3.029529773126259897e+02,-1.592376379732822897e+02,-1.042377666202289674e+02,-3.167553454587659871e+02,-2.043226419213513054e+02,-1.296146349287162138e+02,-1.513477346883421433e+02,9.523238182067871094e+00,-3.442134261131286621e-01,-3.824593871831893921e-02,3.870000000000000000e+02
-3.016890341345638262e+02,-3.027378216387592147e+02,-1.569041305131488571e+02,-1.047309807254009684e+02,-3.137945254058533919e+02,-2.043641086681609522e+02,-1.284372794632527075e+02,-1.490227956623830323e+02,9.523238182067871094e+00,-3.442134261131286621e-01,-3.824593871831893921e-02,3.880000000000000000e+02
-2.998545197034118246e+02,-3.016055592926788904e+02,-1.545681852861773677e+02,-1.040517843191391876e+02,-3.100379660024227633e+02,-2.024347707443741911e+02,-1.261009356597951410e+02,-1.468080948731303579e+02,9.523238182067871094e+00,-3.442134261131286621e-01,-3.824593871831893921e-02,3.890000000000000000e+02
-2.972049232037347792e+02,-2.989520076675382825e+02,-1.525615269480686038e+02,-1.026003016361469236e+02,-3.059895651756683037e+02,-1.987541159840452565e+02,-1.238731361298446245e+02,-1.449918134953666140e+02,9.523238182067871094e+00,-3.442134261131286621e-01,-3.824593871831893921e-02,3.900000000000000000e+02
-2.937962017447084691e+02,-2.950003219414215891e+02,-1.506654237328471027e+02,-1.009841591581819102e+02,-3.021259945852334567e+02,-1.943580974187261745e+02,-1.226448695276817489e+02,-1.433001431913382930e+02,9.523238182067871094e+00,-3.442134261131286621e-01,-3.824593871831893921e-02,3.910000000000000000e+02
-2.898659087620681021e+02,-2.905638456417561883e+02,-1.486021030216700183e+02,-9.956666836087106276e+01,-2.988629153696285812e+02,-1.905432428538097156e+02,-1.224231164571237969e+02,-1.413168194386103096e+02,9.484992027282714844e+00,-5.354431271553039551e-01,-3.824593871831893921e-02,3.920000000000000000e+02
-2.858806389765354652e+02,-2.865042801424472145e+02,-1.464360121129898289e+02,-9.833210061952195247e+01,-2.963805951382184958e+02,-1.880207594243238418e+02,-1.224292780558421327e+02,-1.388388321289990017e+02,9.484992027282714844e+00,-5.354431271553039551e-01,-3.824593871831893921e-02,3.930000000000000000e+02
-2.823966199515291464e+02,-2.832481706307175955e+02,-1.444405276368429440e+02,-9.708312436048572636e+01,-2.944200580343685942e+02,-1.864238672371818666e+02,-1.217244464754048749e+02,-1.359434205770066910e+02,9.484992027282714844e+00,-5.354431271553039551e-01,-3.824593871831893921e-02,3.940000000000000000e+02
-2.797301710208080294e+02,-2.806319279782385365e+02,-1.426540785609727209e+02,-9.570475763759122856e+01,-2.923523005098145404e+02,-1.846557418328275162e+02,-1.199141274559337944e+02,-1.329132936229188999e+02,9.484992027282714844e+00,-5.354431271553039551e-01,-3.824593871831893921e-02,3.950000000000000000e+02
-2.776804039053840825e+02,-2.781330510335249073e+02,-1.407146064282446787e+02,-9.424912656092692487e+01,-2.896005632140258967e+02,-1.818633352606384506e+02,-1.174076768101717789e+02,-1.301961703230949752e+02,9.484992027282714844e+00,-5.354431271553039551e-01,-3.824593871831893921e-02,3.960000000000000000e+02
-2.756103280832048767e+02,-2.752953722231141001e+02,-1.382412109302247245e+02,-9.283046984728753159e+01,-2.861074718047566421e+02,-1.782191444778036384e+02,-1.150426999939395500e+02,-1.283317481282465451e+02,9.484992027282714844e+00,-5.354431271553039551e-01,-3.824593871831893921e-02,3.970000000000000000e+02
-2.729228684323350080e+02,-2.720313901770689426e+02,-1.353666331881308906e+02,-9.150261853259416966e+01,-2.824086839908238744e+02,-1.748134702519309940e+02,-1.134045131326618048e+02,-1.276817369423474702e+02,9.484992027282714844e+00,-5.354431271553039551e-01,-3.824593871831893921e-02,3.980000000000000000e+02
-2.695839796801653847e+02,-2.685877407399136700e+02,-1.327998721093672430e+02,-9.025188216389233276e+01,-2.792230534430273110e+02,-1.727515597925203110e+02,-1.124252239368631763e+02,-1.280559453159225995e+02,9.484992027282714844e+00,-5.354431271553039551e-01,-3.824593871831893921e-02,3.990000000000000000e+02
-2.662197531595202236e+02,-2.652387305653978729e+02,-1.312765391170396470e+02,-8.906833163414876253e+01,-2.769297026326166815e+02,-1.722686618636935236e+02,-1.115814372612303487e+02,-1.286272753012863177e+02,9.484992027282714844e+00,-5.354431271553039551e-01,-3.824593871831893921e-02,4.000000000000000000e+02
-2.636482725856762954e+02,-2.620068480664515391e+02,-1.309214871534575195e+02,-8.797666204394272427e+01,-2.753972547605019372e+02,-1.726170889844074736e+02,-1.104543303394232225e+02,-1.284044226401797459e+02,9.484992027282714844e+00,-5.354431271553039551e-01,-3.824593871831893921e-02,4.010000000000000000e+02
-2.622211328828673231e+02,-2.586694536571358185e+02,-1.311847216842934358e+02,-8.698760621374844959e+01,-2.742638909762081312e+02,-1.727317533535683651e+02,-1.091076777289999882e+02,-1.269955857391103109e+02,9.484992027282714844e+00,-5.354431271553039551e-01,-3.824593871831893921e-02,4.020000000000000000e+02
-2.615574754338281309e+02,-2.550438301032195341e+02,-1.314102266701802364e+02,-8.606151087395528521e+01,-2.733275967408299039e+02,-1.720120567302574273e+02,-1.079589821933375333e+02,-1.249901703213529345e+02,9.484992027282714844e+00,-5.354431271553039551e-01,-3.824593871831893921e-02,4.030000000000000000e+02
-2.609128534093508733e+02,-2.512754846488091971e+02,-1.314359368106922830e+02,-8.517775182182776916e+01,-2.726418259667170787e+02,-1.705949426767456316e+02,-1.073375656322673422e+02,-1.235195001692341066e+02,9.484992027282714844e+00,-5.354431271553039551e-01,-3.824593871831893921e-02,4.040000000000000000e+02
-2.598171801757387129e+02,-2.478418416369272563e+02,-1.315848968034974860e+02,-8.443907456745250784e+01,-2.722429418949163846e+02,-1.690454667434914882e+02,-1.071718457387985382e+02,-1.232896213748513219e+02,9.484992027282714844e+00,-5.354431271553039551e-01,-3.824593871831893921e-02,4.050000000000000000e+02
-2.583679773071576165e+02,-2.452579947821163842e+02,-1.320830418964437740e+02,-8.404533121056920209e+01,-2.718479567002375461e+02,-1.678699589535722225e+02,-1.070692958706508762e+02,-1.239176639610514030e+02,9.484992027282714844e+00,-5.354431271553039551e-01,-3.824593871831893921e-02,4.060000000000000000e+02
-2.569302916234782970e+02,-2.437367151630835451e+02,-1.325743523058868050e+02,-8.406687948067565230e+01,-2.708980958773768180e+02,-1.672443627760067102e+02,-1.066411215587759216e+02,-1.241795263572939803e+02,9.484992027282714844e+00,-5.354431271553039551e-01,-3.824593871831893921e-02,4.070000000000000000e+02
-2.556037997482239916e+02,-2.430524129403520419e+02,-1.323105633462560036e+02,-8.419215187866484484e+01,-2.689763742363372785e+02,-1.670171616493653346e+02,-1.057184452106289427e+02,-1.229721050220286998e+02,9.484992027282714844e+00,-5.354431271553039551e-01,-3.824593871831893921e-02,4.080000000000000000e+02
-2.540317087020523559e+02,-2.426778618011396702e+02,-1.308700420024742925e+02,-8.376110769060574057e+01,-2.662351317372174435e+02,-1.668359295980062598e+02,-1.042952738560416037e+02,-1.201759972276258850e+02,9.484992027282714844e+00,-5.354431271553039551e-01,-3.824593871831893921e-02,4.090000000000000000e+02
-2.517572563472408547e+02,-2.420597552040642313e+02,-1.286554436842884570e+02,-8.220727627631640644e+01,-2.633933578413175383e+02,-1.663014596510743104e+02,-1.023628257434406805e+02,-1.167197160359819463e+02,9.484992027282714844e+00,-5.354431271553039551e-01,-3.824593871831893921e-02,4.100000000000000000e+02
-2.487490934857237335e+02,-2.408492447866822204e+02,-1.266081341960098143e+02,-7.961104410515918062e+01,-2.612246670005863507e+02,-1.651560346818896505e+02,-9.987387148704715401e+01,-1.138659825822312541e+02,9.484992027282714844e+00,-5.354431271553039551e-01,-3.824593871831893921e-02,4.110000000000000000e+02
-2.455312285519135003e+02,-2.389976908148360053e+02,-1.253836083646526731e+02,-7.684929848687511367e+01,-2.599342063081639935e+02,-1.634583251326544087e+02,-9.689917674984167206e+01,-1.123600914287374053e+02,9.484992027282714844e+00,-5.354431271553039551e-01,-3.824593871831893921e-02,4.120000000000000000e+02
-2.427693463097407403e+02,-2.367259595156583600e+02,-1.248046043905251281e+02,-7.508432633905158582e+01,-2.589764046674572455e+02,-1.615849050094607264e+02,-9.381050672422793468e+01,-1.120846699524599899e+02,9.484992027282714844e+00,-5.354431271553039551e-01,-3.824593871831893921e-02,4.130000000000000000e+02
-2.407131006896051986e+02,-2.343992721913195965e+02,-1.241365410354815140e+02,-7.490428197625988105e+01,-2.575160700817905308e+02,-1.599686800695149032e+02,-9.125281065763920196e+01,-1.123438102799054832e+02,9.484992027282714844e+00,-5.354431271553039551e-01,-3.824593871831893921e-02,4.140000000000000000e+02
-2.390217785274207927e+02,-2.323363185608211552e+02,-1.228848163976572323e+02,-7.580903395499194630e+01,-2.551509409930499714e+02,-1.587428987350303942e+02,-8.984046427491239228e+01,-1.124100933312404322e+02,9.484992027282714844e+00,-5.354431271553039551e-01,-3.824593871831893921e-02,4.150000000000000000e+02
-2.371044109982267400e+02,-2.305982620300680992e+02,-1.212753898795504028e+02,-7.652268780649001201e+01,-2.522443975640990175e+02,-1.576178688303029958e+02,-8.974799475939335025e+01,-1.118918457478648634e+02,9.484992027282714844e+00,-5.354431271553039551e-01,-3.824593871831893921e-02,4.160000000000000000e+02
-2.346343969176436985e+02,-2.288981225195025218e+02,-1.199384387861739469e+02,-7.594928206846179819e+01,-2.495634908359884321e+02,-1.561454460090017164e+02,-9.048782520052554901e+01,-1.107737164677178043e+02,9.484992027282714844e+00,-4.971971809864044189e-01,-3.824593871831893921e-02,4.170000000000000000e+02
-2.317960712991198307e+02,-2.267530338441733875e+02,-1.191621866587217937e+02,-7.399654854996515496e+01,-2.475651441838194842e+02,-1.541319914557161610e+02,-9.107703028033506598e+01,-1.092617699879467636e+02,9.484992027282714844e+00,-4.971971809864044189e-01,-3.824593871831893921e-02,4.180000000000000000e+02
-2.291214581285796612e+02,-2.238482061616587089e+02,-1.185443356989981112e+02,-7.158128666528045869e+01,-2.460114958561216554e+02,-1.517914176943095299e+02,-9.054552530998762450e+01,-1.076167525382929853e+02,9.484992027282714844e+00,-4.971971809864044189e-01,-3.824593871831893921e-02,4.190000000000000000e+02
-2.271158369911095178e+02,-2.203706974375838854e+02,-1.174335641864311128e+02,-6.982621321011993132e+01,-2.442671613004922619e+02,-1.494819777805128069e+02,-8.849909205729841233e+01,-1.060240464213550240e+02,9.484992027282714844e+00,-4.971971809864044189e-01,-3.824593871831893921e-02,4.200000000000000000e+02
-2.259632431312643348e+02,-2.170140677782721923e+02,-1.156932943450074163e+02,-6.915727149251006267e+01,-2.419425524755406514e+02,-1.473014862696759337e+02,-8.535788932306650167e+01,-1.044887068167220150e+02,9.484992027282714844e+00,-4.971971809864044189e-01,-3.824593871831893921e-02,4.210000000000000000e+02
-2.254452261456474389e+02,-2.145663889733068572e+02,-1.139475142706562565e+02,-6.908412949001922243e+01,-2.392235586710162352e+02,-1.449782650304405252e+02,-8.207057727352594156e+01,-1.027980005821241321e+02,9.484992027282714844e+00,-4.971971809864044189e-01,-3.824593871831893921e-02,4.220000000000000000e+02
-2.250411085186299260e+02,-2.133341797990203759e+02,-1.129928544510130450e+02,-6.880495006605315211e+01,-2.365743925395149745e+02,-1.422056704148881181e+02,-7.946883166685461219e+01,-1.006258807296799205e+02,9.484992027282714844e+00,-4.971971809864044189e-01,-3.824593871831893921e-02,4.230000000000000000e+02
-2.241591022693426112e+02,-2.128479761450614660e+02,-1.129624836336172393e+02,-6.801656403810875418e+01,-2.341787168817427300e+02,-1.390938705978587677e+02,-7.775064609446781105e+01,-9.779203466406056577e+01,9.484992027282714844e+00,-4.971971809864044189e-01,-3.824593871831893921e-02,4.240000000000000000e+02
-2.224353314660306751e+02,-2.121296711658321783e+02,-1.131230397621011434e+02,-6.715856815712322714e+01,-2.317576595438699769e+02,-1.362614790790671577e+02,-7.651504073334717759e+01,-9.453272375839287633e+01,9.484992027282714844e+00,-4.971971809864044189e-01,-3.824593871831893921e-02,4.250000000000000000e+02
-2.199537669450342037e+02,-2.103889277502075856e+02,-1.125337956526318521e+02,-6.690653897586753374e+01,-2.289584673141016538e+02,-1.344147196448034265e+02,-7.529844406264965073e+01,-9.152774133860953043e+01,9.484992027282714844e+00,-4.971971809864044189e-01,-3.824593871831893921e-02,4.260000000000000000e+02
-2.171919617528719755e+02,-2.076439419918999647e+02,-1.109035144023243902e+02,-6.746187860237341738e+01,-2.258575802336945344e+02,-1.337651895965932454e+02,-7.408679163510532817e+01,-8.955717109863735459e+01,9.484992027282714844e+00,-4.971971809864044189e-01,-3.824593871831893921e-02,4.270000000000000000e+02
-2.146602758525232275e+02,-2.047752737610207987e+02,-1.087811632215671125e+02,-6.835733693819929613e+01,-2.229934104373642185e+02,-1.338215344684645061e+02,-7.329332039783912478e+01,-8.897588270854885195e+01,9.484992027282714844e+00,-4.971971809864044189e-01,-3.824593871831893921e-02,4.280000000000000000e+02
-2.124928948032402332e+02,-2.029413968580743131e+02,-1.069230120819283911e+02,-6.893155806205777480e+01,-2.208553489640289627e+02,-1.337617525810433108e+02,-7.320772809814616267e+01,-8.939683653099632465e+01,9.484992027282714844e+00,-4.971971809864044189e-01,-3.824593871831893921e-02,4.290000000000000000e+02
-2.103720880267092070e+02,-2.027821051927544431e+02,-1.055252963483681015e+02,-6.892537613539934682e+01,-2.193418197061523642e+02,-1.330593242326413019e+02,-7.347537104084722159e+01,-8.985187330505277714e+01,9.484992027282714844e+00,-4.971971809864044189e-01,-3.824593871831893921e-02,4.300000000000000000e+02
-2.079023723536929538e+02,-2.039838445003049401e+02,-1.041039954297639269e+02,-6.855233903952148466e+01,-2.177432551690799301e+02,-1.318102834333326427e+02,-7.317837056253574701e+01,-8.934237348374063004e+01,9.484992027282714844e+00,-4.971971809864044189e-01,-3.824593871831893921e-02,4.310000000000000000e+02
-2.050874622331311912e+02,-2.054736665931081916e+02,-1.020859277772829046e+02,-6.799251793970915969e+01,-2.152782781012879241e+02,-1.304992988142189461e+02,-7.151464904584281612e+01,-8.737681355961285590e+01,9.484992027282714844e+00,-4.971971809864044189e-01,-3.824593871831893921e-02,4.320000000000000000e+02
-2.024103732060902985e+02,-2.060429249374053597e+02,-9.942635547486725045e+01,-6.693272950251230213e+01,-2.116782360957513447e+02,-1.294570814709477418e+02,-6.847312928689325418e+01,-8.412497989467738080e+01,9.484992027282714844e+00,-4.971971809864044189e-01,-3.824593871831893921e-02,4.330000000000000000e+02
-2.003727883747101259e+02,-2.049553370934900158e+02,-9.660543868475201634e+01,-6.477112536473396176e+01,-2.073135064160642287e+02,-1.285295265381623722e+02,-6.487948961700203654e+01,-8.016449845372790151e+01,9.484992027282714844e+00,-4.971971809864044189e-01,-3.824593871831893921e-02,4.340000000000000000e+02
-1.989365315058803390e+02,-2.022245047284304746e+02,-9.410428469036810384e+01,-6.138018807177604685e+01,-2.028589071176747893e+02,-1.272637627262461137e+02,-6.178876048051961334e+01,-7.613742366957467311e+01,9.484992027282714844e+00,-4.971971809864044189e-01,-3.824593871831893921e-02,4.350000000000000000e+02
-1.974647448635614637e+02,-1.985146859683723051e+02,-9.202249869614911404e+01,-5.762653466294568716e+01,-1.988825583359830489e+02,-1.254103755985329371e+02,-5.980368355595328467e+01,-7.260258390843637244e+01,9.484992027282714844e+00,-4.971971809864044189e-01,-3.824593871831893921e-02,4.360000000000000000e+02
-1.953023363993102066e+02,-1.947788959257477472e+02,-9.026484775847734454e+01,-5.496073430575279417e+01,-1.956887218487804603e+02,-1.232591527087756731e+02,-5.888684341538964873e+01,-7.004766607906458376e+01,9.484992027282714844e+00,-4.971971809864044189e-01,-3.824593871831893921e-02,4.370000000000000000e+02
-1.924697560793247249e+02,-1.917893573149058284e+02,-8.899449118255915891e+01,-5.428816092799434045e+01,-1.933784392218854009e+02,-1.214774522738971427e+02,-5.868175627694290597e+01,-6.880600235165820777e+01,9.484992027282714844e+00,-4.971971809864044189e-01,-3.824593871831893921e-02,4.380000000000000000e+02
-1.897570891273244342e+02,-1.897242803017261394e+02,-8.867304789461354630e+01,-5.510523146418154283e+01,-1.918662439499703396e+02,-1.205467987088632071e+02,-5.886362348606280648e+01,-6.877040484449935320e+01,9.484992027282714844e+00,-4.971971809864044189e-01,-3.824593871831893921e-02,4.390000000000000000e+02
-1.880536196445700625e+02,-1.880383547280180210e+02,-8.948286134128466074e+01,-5.575872283031094412e+01,-1.907868458722673495e+02,-1.202542590530829330e+02,-5.915583568585634566e+01,-6.918160613613144960e+01,9.484992027282714844e+00,-4.971971809864044189e-01,-3.824593871831893921e-02,4.400000000000000000e+02
-1.874980145484073546e+02,-1.857958947880360938e+02,-9.073430866900162073e+01,-5.470155564314381991e+01,-1.895129883631216217e+02,-1.196863324736696086e+02,-5.916515096134116902e+01,-6.890195424103967525e+01,9.484992027282714844e+00,-4.971971809864044189e-01,-3.824593871831893921e-02,4.410000000000000000e+02
-1.872371197565967123e+02,-1.823616576304266346e+02,-9.103270920247268805e+01,-5.170530762385897106e+01,-1.874749899066723628e+02,-1.178029832765532774e+02,-5.844609038234193576e+01,-6.718707595641899388e+01,9.484992027282714844e+00,-4.971971809864044189e-01,-3.824593871831893921e-02,4.420000000000000000e+02
-1.860306983310197211e+02,-1.779943874332138876e+02,-8.927677520130646371e+01,-4.801086844706924239e+01,-1.846264658433647128e+02,-1.142240012049851430e+02,-5.689642633381799897e+01,-6.437374495402173125e+01,9.484992027282714844e+00,-4.971971809864044189e-01,-3.824593871831893921e-02,4.430000000000000000e+02
-1.831759350565025670e+02,-1.738312670519439962e+02,-8.565475840621047610e+01,-4.533729054386867574e+01,-1.816099960008300513e+02,-1.096388245820890006e+02,-5.506158395706279407e+01,-6.178750401500838052e+01,9.484992027282714844e+00,-7.649186849594116211e-01,-7.649187743663787842e-02,4.440000000000000000e+02
-1.789776906553488516e+02,-1.711745117729519734e+02,-8.165498366046631418e+01,-4.463183371753211759e+01,-1.793394501934512846e+02,-1.054654220711831840e+02,-5.387136202415422304e+01,-6.076878895265372194e+01,9.484992027282714844e+00,-7.649186849594116211e-01,-7.649187743663787842e-02,4.450000000000000000e+02
-1.744558983350293602e+02,-1.705791476687118120e+02,-7.896994495291710336e+01,-4.556018426272066790e+01,-1.782551440184420244e+02,-1.029290972256139867e+02,-5.388321944194331081e+01,-6.155388633211396154e+01,9.484992027282714844e+00,-7.649186849594116211e-01,-7.649187743663787842e-02,4.460000000000000000e+02
-1.706468562310833477e+02,-1.714537042769284199e+02,-7.820194927425063725e+01,-4.699840704897997057e+01,-1.778880122813188791e+02,-1.022120308627263512e+02,-5.471805848695021268e+01,-6.299606839545322146e+01,9.484992027282714844e+00,-7.649186849594116211e-01,-7.649187743663787842e-02,4.470000000000000000e+02
-1.681011143711693876e+02,-1.724835739569066391e+02,-7.848355085246294038e+01,-4.793418205125226450e+01,-1.771622263336485048e+02,-1.023259362759426949e+02,-5.530411924595773598e+01,-6.342048588834813927e+01,9.484992027282714844e+00,-7.649186849594116211e-01,-7.649187743663787842e-02,4.480000000000000000e+02
-1.668428278004830645e+02,-1.725176589655334283e+02,-7.830365661237055974e+01,-4.798007156725407185e+01,-1.752121856867588576e+02,-1.018269655475814943e+02,-5.477599928924564665e+01,-6.189884078515797228e+01,9.484992027282714844e+00,-7.649186849594116211e-01,-7.649187743663787842e-02,4.490000000000000000e+02
-1.665775835905101303e+02,-1.712118500746364589e+02,-7.676128633354346675e+01,-4.724337658634703985e+01,-1.720230378182532149e+02,-9.982788985043998764e+01,-5.319360684002276685e+01,-5.887712882068717590e+01,9.484992027282714844e+00,-7.649186849594116211e-01,-7.649187743663787842e-02,4.500000000000000000e+02
-1.668383199998143027e+02,-1.689978527994148862e+02,-7.417834863206689988e+01,-4.595371228176509248e+01,-1.683772312709743346e+02,-9.654254211735678837e+01,-5.139607491510832915e+01,-5.570800340685809715e+01,9.484992027282714844e+00,-7.649186849594116211e-01,-7.649187743663787842e-02,4.510000000000000000e+02
-1.670206930566941992e+02,-1.665473335970509652e+02,-7.166739225088849707e+01,-4.434164005857110169e+01,-1.652176025892790676e+02,-9.301564119557860977e+01,-5.015420583594141135e+01,-5.360765264962765286e+01,9.484992027282714844e+00,-7.649186849594116211e-01,-7.649187743663787842e-02,4.520000000000000000e+02
-1.665120597315240047e+02,-1.642620571473171367e+02,-7.018142890587841976e+01,-4.280956805995629111e+01,-1.630320707166320062e+02,-9.036181641109124030e+01,-4.948980736316843831e+01,-5.297334073657066256e+01,9.484992027282714844e+00,-7.649186849594116211e-01,-7.649187743663787842e-02,4.530000000000000000e+02
-1.650108781710760013e+02,-1.621669269369785980e+02,-6.991319936321269779e+01,-4.199403556578727148e+01,-1.617437348487665076e+02,-8.913924047423734009e+01,-4.882492662818731333e+01,-5.349528692900867100e+01,9.484992027282714844e+00,-7.649186849594116211e-01,-7.649187743663787842e-02,4.540000000000000000e+02
-1.628269257907804786e+02,-1.601450746197410808e+02,-7.042819210450079481e+01,-4.239413479622089653e+01,-1.610460163878437925e+02,-8.920441709679107589e+01,-4.773751657154934946e+01,-5.468737372052373757e+01,9.484992027282714844e+00,-7.649186849594116211e-01,-7.649187743663787842e-02,4.550000000000000000e+02
-1.608047734531683091e+02,-1.581741353168672504e+02,-7.118988148573225772e+01,-4.378454544846817953e+01,-1.607325393913838525e+02,-8.993406842883632635e+01,-4.647722978741512634e+01,-5.618843107838029027e+01,9.484992027282714844e+00,-7.649186849594116211e-01,-7.649187743663787842e-02,4.560000000000000000e+02
-1.597702850293853771e+02,-1.563190818013185890e+02,-7.186688650199403128e+01,-4.503749802396214363e+01,-1.606908259173806073e+02,-9.052314214137322779e+01,-4.568608010151365306e+01,-5.762504417085074238e+01,9.484992027282714844e+00,-7.649186849594116211e-01,-7.649187743663787842e-02,4.570000000000000000e+02
-1.598731730074841835e+02,-1.545557032882020394e+02,-7.220934938389200397e+01,-4.475287458890852577e+01,-1.606838181014309157e+02,-9.025564735337547972e+01,-4.565149253108484118e+01,-5.842027296558899252e+01,9.484992027282714844e+00,-7.649186849594116211e-01,-7.649187743663787842e-02,4.580000000000000000e+02
-1.603744806954255182e+02,-1.526796901590619200e+02,-7.183894690533361427e+01,-4.233923979367364154e+01,-1.602880616510333311e+02,-8.879572930603626446e+01,-4.592095945467281126e+01,-5.799644832909234538e+01,9.484992027282714844e+00,-7.649186849594116211e-01,-7.649187743663787842e-02,4.590000000000000000e+02
-1.601169361756760736e+02,-1.504401993789715561e+02,-7.038105077203090332e+01,-3.864309656685054506e+01,-1.591472377344553024e+02,-8.642592682344275090e+01,-4.571282076918168968e+01,-5.628618250121826350e+01,9.484992027282714844e+00,-7.649186849594116211e-01,-7.649187743663787842e-02,4.600000000000000000e+02
-1.583507896616201833e+02,-1.477919963167487367e+02,-6.792338030290557072e+01,-3.548375788080375060e+01,-1.573083635663979294e+02,-8.396738578348185911e+01,-4.470144160892687069e+01,-5.399294541793005919e+01,9.484992027282714844e+00,-7.649186849594116211e-01,-7.649187743663787842e-02,4.610000000000000000e+02
-1.552837158603269927e+02,-1.450204523853012688e+02,-6.530533038179873984e+01,-3.435906293523521526e+01,-1.552807267100511126e+02,-8.226203599843211123e+01,-4.335006262268416322e+01,-5.219346268154095014e+01,9.484992027282714844e+00,-7.649186849594116211e-01,-7.649187743663787842e-02,4.620000000000000000e+02
-1.519385848843235181e+02,-1.426102538107011242e+02,-6.376241660461892025e+01,-3.535456691631225112e+01,-1.537141405446823228e+02,-8.154327004448259686e+01,-4.245558786595529455e+01,-5.153847429880033815e+01,9.484992027282714844e+00,-7.649186849594116211e-01,-7.649187743663787842e-02,4.630000000000000000e+02
-1.494313708610679896e+02,-1.409486350891902475e+02,-6.403629931365844641e+01,-3.715661610645884139e+01,-1.529403458132428568e+02,-8.125946533133310368e+01,-4.237924208801996429e+01,-5.177400359558032505e+01,9.484992027282714844e+00,-7.649186849594116211e-01,-7.649187743663787842e-02,4.640000000000000000e+02
-1.482252963870400890e+02,-1.401017617303396037e+02,-6.566254995940562367e+01,-3.814688262430081522e+01,-1.527389333202031594e+02,-8.056941896137186632e+01,-4.274853439837761471e+01,-5.205159436189887856e+01,9.484992027282714844e+00,-7.649186849594116211e-01,-7.649187743663787842e-02,4.650000000000000000e+02
-1.479006971388557758e+02,-1.398218920115459696e+02,-6.713450522636230744e+01,-3.762733308368115104e+01,-1.524782391422522778e+02,-7.907289280057830183e+01,-4.288116159416449591e+01,-5.172456006524362238e+01,9.484992027282714844e+00,-7.649186849594116211e-01,-7.649187743663787842e-02,4.660000000000000000e+02
-1.475650665394186944e+02,-1.397316725899790981e+02,-6.694285441941974568e+01,-3.616062231296655227e+01,-1.514934157106486055e+02,-7.708805250518344110e+01,-4.242043810697487061e+01,-5.084471698224569991e+01,9.484992027282714844e+00,-7.649186849594116211e-01,-7.649187743663787842e-02,4.670000000000000000e+02
-1.465541071892807850e+02,-1.394950916967136436e+02,-6.470200630384238139e+01,-3.484053059053212564e+01,-1.494527472636200400e+02,-7.524546008147035536e+01,-4.151819985932343116e+01,-4.988902674705241225e+01,9.484992027282714844e+00,-7.649186849594116211e-01,-7.649187743663787842e-02,4.680000000000000000e+02
-1.448824107606355938e+02,-1.388531837314083077e+02,-6.143210931070575498e+01,-3.424087767394848925e+01,-1.465188693482191411e+02,-7.386138936359247964e+01,-4.045938719258219862e+01,-4.904256827364679339e+01,9.484992027282714844e+00,-7.649186849594116211e-01,-7.649187743663787842e-02,4.690000000000000000e+02
-1.431280216506506804e+02,-1.375921144360981998e+02,-5.874294378427384800e+01,-3.398774174907339329e+01,-1.432307451932756521e+02,-7.272042010195218609e+01,-3.924534347909093412e+01,-4.782910252119108918e+01,9.484992027282714844e+00,-7.649186849594116211e-01,-7.649187743663787842e-02,4.700000000000000000e+02
-1.418767316623980150e+02,-1.355864717529238987e+02,-5.757476902978714861e+01,-3.324265652396343285e+01,-1.401641382799421081e+02,-7.139912452825865330e+01,-3.765474523750481239e+01,-4.552309585152670479e+01,9.484992027282714844e+00,-7.649186849594116211e-01,-7.649187743663787842e-02,4.710000000000000000e+02
-1.411910119313365612e+02,-1.329358319481534636e+02,-5.752511967380701208e+01,-3.154450327737004045e+01,-1.375601866523543322e+02,-6.969282160609236598e+01,-3.569816224679675543e+01,-4.194685737704003259e+01,9.484992027282714844e+00,-7.649186849594116211e-01,-7.649187743663787842e-02,4.720000000000000000e+02
-1.405256009502859342e+02,-1.300342367920979996e+02,-5.729611399316377174e+01,-2.921876748936210788e+01,-1.351856503279173012e+02,-6.770111237078890554e+01,-3.388501334177590252e+01,-3.782291852902540086e+01,9.484992027282714844e+00,-7.649186849594116211e-01,-7.649187743663787842e-02,4.730000000000000000e+02
-1.391341991947565475e+02,-1.274102386439094516e+02,-5.584778024023216858e+01,-2.704112125480514806e+01,-1.325717656208103108e+02,-6.560214105219074554e+01,-3.288661105046230659e+01,-3.426494365207940973e+01,9.484992027282714844e+00,-7.649186849594116211e-01,-7.649187743663787842e-02,4.740000000000000000e+02
-1.366423146187803468e+02,-1.253987601190037822e+02,-5.327039045926790095e+01,-2.555800198657334477e+01,-1.294775607273436435e+02,-6.349781265844740119e+01,-3.285559673399143321e+01,-3.186521229843947367e+01,9.523238182067871094e+00,-6.501809358596801758e-01,-1.912296712398529053e-01,4.750000000000000000e+02
-1.333367774966029629e+02,-1.239263475729951551e+02,-5.065110282735508918e+01,-2.471828167800504161e+01,-1.261810839940085316e+02,-6.150193706260961335e+01,-3.309168112174234011e+01,-3.026250863656127876e+01,9.523238182067871094e+00,-6.501809358596801758e-01,-1.912296712398529053e-01,4.760000000000000000e+02
-1.299629786011842043e+02,-1.226298251070008973e+02,-4.908683239171887180e+01,-2.407973419753579947e+01,-1.232972195554384598e+02,-5.982868211001141390e+01,-3.246536249473365388e+01,-2.860270887650654004e+01,9.523238182067871094e+00,-6.501809358596801758e-01,-1.912296712398529053e-01,4.770000000000000000e+02
-1.272231612553446212e+02,-1.212155427370053076e+02,-4.873176063186429019e+01,-2.329872866954428900e+01,-1.212623364389301059e+02,-5.861664333943963356e+01,-3.029968220235400622e+01,-2.643868864414389463e+01,9.523238182067871094e+00,-6.501809358596801758e-01,-1.912296712398529053e-01,4.780000000000000000e+02
-1.253654826564579707e+02,-1.197083633967422429e+02,-4.872151167870060817e+01,-2.240042255953358108e+01,-1.199820835480627466e+02,-5.762838226806252351e+01,-2.696288719410131307e+01,-2.420886700104347256e+01,9.523238182067871094e+00,-6.501809358596801758e-01,-1.912296712398529053e-01,4.790000000000000000e+02
-1.241330508454684605e+02,-1.183408526771838751e+02,-4.802506315985692709e+01,-2.162262100570251278e+01,-1.190049530676772065e+02,-5.626194106361799641e+01,-2.368418124713502948e+01,-2.287573423981848464e+01,9.523238182067871094e+00,-6.501809358596801758e-01,-1.912296712398529053e-01,4.800000000000000000e+02
-1.230419401850133454e+02,-1.172052647180764779e+02,-4.645043492606600921e+01,-2.106869619659551063e+01,-1.180763297586352110e+02,-5.404816292969280767e+01,-2.177188582859298549e+01,-2.312541867194181577e+01,9.523238182067871094e+00,-6.501809358596801758e-01,-1.912296712398529053e-01,4.810000000000000000e+02
-1.217193827041414806e+02,-1.160593055190081486e+02,-4.487194839189078266e+01,-2.056087589585331443e+01,-1.175070259490682929e+02,-5.120596346547426947e+01,-2.184836685196842154e+01,-2.487089165909924304e+01,9.523238182067871094e+00,-6.501809358596801758e-01,-1.912296712398529053e-01,4.820000000000000000e+02
-1.200678876385975400e+02,-1.145292195321583222e+02,-4.445227767845995004e+01,-1.983104591309256648e+01,-1.179348603291307427e+02,-4.862851837000243904e+01,-2.358842038015632170e+01,-2.740731014436209989e+01,9.523238182067871094e+00,-6.501809358596801758e-01,-1.912296712398529053e-01,4.830000000000000000e+02
-1.182224676962100602e+02,-1.125288966324237663e+02,-4.554755767761912466e+01,-1.881701025267739169e+01,-1.196403602611010228e+02,-4.717933114516699789e+01,-2.598409489471214329e+01,-2.990516460049752823e+01,9.523238182067871094e+00,-6.501809358596801758e-01,-1.912296712398529053e-01,4.840000000000000000e+02
-1.164228706653354948e+02,-1.104473189632158210e+02,-4.729129422656842507e+01,-1.772542732223519124e+01,-1.220451644603683690e+02,-4.690529835501138223e+01,-2.783187079816798359e+01,-3.171017863258680336e+01,9.523238182067871094e+00,-6.501809358596801758e-01,-1.912296712398529053e-01,4.850000000000000000e+02
-1.149190909954002109e+02,-1.088647749538838525e+02,-4.825699600346638363e+01,-1.679055672053141279e+01,-1.239077918897437485e+02,-4.692949489565899057e+01,-2.817052597224255805e+01,-3.230359105739080405e+01,9.523238182067871094e+00,-6.501809358596801758e-01,-1.912296712398529053e-01,4.860000000000000000e+02
-1.139179146388419213e+02,-1.080394483223496991e+02,-4.761127010226664424e+01,-1.600339008378887229e+01,-1.241204781509445638e+02,-4.616585061552086700e+01,-2.659828287964523952e+01,-3.124644831359432828e+01,9.523238182067871094e+00,-6.501809358596801758e-01,-1.912296712398529053e-01,4.870000000000000000e+02
-1.135096088330790280e+02,-1.076512246002246229e+02,-4.573395031036989167e+01,-1.511918183189004594e+01,-1.224721073622033600e+02,-4.421449580580429028e+01,-2.347260180324724388e+01,-2.841408425810891458e+01,9.523238182067871094e+00,-6.501809358596801758e-01,-1.912296712398529053e-01,4.880000000000000000e+02
-1.135645668148258665e+02,-1.070548738753120688e+02,-4.377419478374099526e+01,-1.394171461288601677e+01,-1.197481225143626489e+02,-4.163231299454855616e+01,-1.989055495003094620e+01,-2.436178038795628709e+01,9.523238182067871094e+00,-6.501809358596801758e-01,-1.912296712398529053e-01,4.890000000000000000e+02
-1.136999383649490483e+02,-1.058174373618189748e+02,-4.259170662309020372e+01,-1.258195936284255367e+01,-1.170987481687161562e+02,-3.939092451492342661e+01,-1.731031745809923450e+01,-2.032542716257830762e+01,9.523238182067871094e+00,-6.501809358596801758e-01,-1.912296712398529053e-01,4.900000000000000000e+02
-1.134079272639014562e+02,-1.040316308504277458e+02,-4.206484786868668380e+01,-1.138033460754650150e+01,-1.151996723908655440e+02,-3.806094318075747651e+01,-1.683182802732153505e+01,-1.759413453418505924e+01,9.523238182067871094e+00,-6.501809358596801758e-01,-1.912296712398529053e-01,4.910000000000000000e+02
-1.123214067424451059e+02,-1.021288560208133731e+02,-4.135222507998628316e+01,-1.054403077645815756e+01,-1.138647428589281390e+02,-3.742528743008961101e+01,-1.848809719551672970e+01,-1.662650378960415765e+01,9.523238182067871094e+00,-6.501809358596801758e-01,-1.912296712398529053e-01,4.920000000000000000e+02
-1.104464201585258252e+02,-1.004189178054418790e+02,-3.978018353861830292e+01,-9.885105286582756889e+00,-1.123542300866406549e+02,-3.675215393264443264e+01,-2.106184632511099153e+01,-1.665074414158243599e+01,9.523238182067871094e+00,-6.501809358596801758e-01,-1.912296712398529053e-01,4.930000000000000000e+02
-1.081779354966495248e+02,-9.883837688021139911e+01,-3.749606917637356673e+01,-8.970937727677210205e+00,-1.100510368178399858e+02,-3.538217775249313490e+01,-2.270199949183802346e+01,-1.617626093419085009e+01,9.523238182067871094e+00,-6.501809358596801758e-01,-1.912296712398529053e-01,4.940000000000000000e+02
-1.060649715823381030e+02,-9.714284035392074657e+01,-3.531935576875980587e+01,-7.567502979795108331e+00,-1.069365871797235741e+02,-3.313218076541920709e+01,-2.205698712441676435e+01,-1.409455727411727821e+01,9.523238182067871094e+00,-6.501809358596801758e-01,-1.912296712398529053e-01,4.950000000000000000e+02
-1.044759746628078574e+02,-9.529274782907145891e+01,-3.400491550010156061e+01,-5.933619624526045300e+00,-1.035446090612922490e+02,-3.031529584118061393e+01,-1.918740055080820639e+01,-1.053020056453283360e+01,9.523238182067871094e+00,-6.501809358596801758e-01,-1.147378161549568176e-01,4.960000000000000000e+02
-1.033940306488395890e+02,-9.356913073218652244e+01,-3.363542470469235468e+01,-4.636845722360703803e+00,-1.005493610819078185e+02,-2.752269029453782423e+01,-1.556344689624802413e+01,-6.784309306613295121e+00,9.523238182067871094e+00,-6.501809358596801758e-01,-1.147378161549568176e-01,4.970000000000000000e+02
-1.024734866567321205e+02,-9.225695415549409972e+01,-3.365768307868279408e+01,-4.042609589225321542e+00,-9.839207559011970261e+01,-2.538264000078925164e+01,-1.306148068206198332e+01,-4.421053172201709458e+00,9.523238182067871094e+00,-6.501809358596801758e-01,-1.147378161549568176e-01,4.980000000000000000e+02
-1.013073787245764379e+02,-9.123177424921891543e+01,-3.345381974741371778e+01,-3.995491883173144743e+00,-9.719822176690831839e+01,-2.437401237852964186e+01,-1.266718377836343734e+01,-4.214137443210574929e+00,9.523238182067871094e+00,-6.501809358596801758e-01,-1.147378161549568176e-01,4.990000000000000000e+02
-9.971568650681297186e+01,-8.994907757202895482e+01,-3.289263694674968974e+01,-4.017644006670025192e+00,-9.689249657234563529e+01,-2.465092373904167289e+01,-1.387673859971653201e+01,-5.704990326058009487e+00,9.523238182067871094e+00,-6.501809358596801758e-01,-1.147378161549568176e-01,5.000000000000000000e+02
-9.786471399710376318e+01,-8.795751244330961072e+01,-3.239666939743926832e+01,-3.810234091774873377e+00,-9.725621561726075015e+01,-2.590866613066100399e+01,-1.526061335347367276e+01,-7.600726706989007653e+00,9.523238182067871094e+00,-6.501809358596801758e-01,-1.147378161549568176e-01,5.010000000000000000e+02
-9.614715562169908480e+01,-8.546576911167460366e+01,-3.250851691965044665e+01,-3.512383048718788814e+00,-9.784996740969825169e+01,-2.743176111267007400e+01,-1.567101251198880618e+01,-8.610063406068775294e+00,9.523238182067871094e+00,-6.501809358596801758e-01,-1.147378161549568176e-01,5.020000000000000000e+02
-9.490133031630705318e+01,-8.333095496914961586e+01,-3.334644710077873242e+01,-3.419230974149854774e+00,-9.799409322843598602e+01,-2.839700114272420706e+01,-1.501752652903428498e+01,-8.075965800615108492e+00,9.523238182067871094e+00,-6.501809358596801758e-01,-1.147378161549568176e-01,5.030000000000000000e+02
-9.414811745716008318e+01,-8.234830453101949388e+01,-3.439690191273712117e+01,-3.448431047298072372e+00,-9.701444630783316825e+01,-2.828179185899398362e+01,-1.398089098053151247e+01,-6.060486675900847331e+00,9.523238182067871094e+00,-6.501809358596801758e-01,-1.147378161549568176e-01,5.040000000000000000e+02
-9.353697410315555771e+01,-8.247237611641901367e+01,-3.480832786791449962e+01,-2.987205911196156194e+00,-9.466281824481393414e+01,-2.709662409120016946e+01,-1.307777012830251806e+01,-3.048112608310248106e+00,9.523238182067871094e+00,-6.501809358596801758e-01,-1.147378161549568176e-01,5.050000000000000000e+02
-9.256257319935093619e+01,-8.277036744815836755e+01,-3.397632904598310688e+01,-1.409173034195646323e+00,-9.135833949562237422e+01,-2.528369731579186919e+01,-1.211216096514425544e+01,3.403836901925956226e-01,9.523238182067871094e+00,-6.501809358596801758e-01,-1.147378161549568176e-01,5.060000000000000000e+02
-9.091872074497837275e+01,-8.224650522510171413e+01,-3.199784229852974704e+01,1.155266332690587205e+00,-8.799432242959608175e+01,-2.341369729647055919e+01,-1.059119615034654771e+01,3.411216224007716846e+00,9.523238182067871094e+00,-6.501809358596801758e-01,-1.147378161549568176e-01,5.070000000000000000e+02
-8.874526648463256606e+01,-8.079296359019946294e+01,-2.966481933681239980e+01,3.579497412027308201e+00,-8.545124035706840004e+01,-2.195154328522897913e+01,-8.606958079704213560e+00,5.370490744825019647e+00,9.523238182067871094e+00,-6.501809358596801758e-01,-1.147378161549568176e-01,5.080000000000000000e+02
-8.654736206718996527e+01,-7.929445589717448684e+01,-2.797616630977816499e+01,4.434374280196067275e+00,-8.420098292333875634e+01,-2.118890639920266494e+01,-7.087718299240947317e+00,5.500051228919147661e+00,9.523238182067871094e+00,-6.501809358596801758e-01,-1.147378161549568176e-01,5.090000000000000000e+02
-8.481452191688336484e+01,-7.870851715383788871e+01,-2.749840679943399380e+01,3.144736728380507884e+00,-8.424783840592147044e+01,-2.122219351016997280e+01,-6.967481952587263550e+00,3.599183958323180832e+00,9.523238182067871094e+00,-6.501809358596801758e-01,-1.147378161549568176e-01,5.100000000000000000e+02
-8.365307901552674252e+01,-7.899755868030439387e+01,-2.804928346555759333e+01,6.163285469306885034e-01,-8.530702928730363510e+01,-2.185400229140927308e+01,-8.082088880788703023e+00,3.508885764812745833e-01,9.523238182067871094e+00,-6.501809358596801758e-01,-1.147378161549568176e-01,5.110000000000000000e+02
-8.277217017822482603e+01,-7.902294733145353689e+01,-2.892996718673111900e+01,-1.300311355940074520e+00,-8.695336605444316547e+01,-2.251213623982216916e+01,-9.076510287264703436e+00,-2.829165351121744720e+00,9.523238182067871094e+00,-6.501809358596801758e-01,-1.147378161549568176e-01,5.120000000000000000e+02
-8.186074412879079887e+01,-7.761552673020449333e+01,-2.948531293160328914e+01,-1.159259039974472216e+00,-8.863658018365447333e+01,-2.242775582861020212e+01,-8.658320330155902411e+00,-4.522890030420455787e+00,9.523238182067871094e+00,-6.501809358596801758e-01,-1.147378161549568176e-01,5.130000000000000000e+02
-8.099611251281191926e+01,-7.483141630151470736e+01,-2.951656659097920965e+01,1.009282091849030394e+00,-8.971528678238553312e+01,-2.111218911776074947e+01,-7.049282362322543349e+00,-4.151990310728990607e+00,9.523238182067871094e+00,-6.501809358596801758e-01,-1.147378161549568176e-01,5.140000000000000000e+02
-8.064243998287633985e+01,-7.212055171634824546e+01,-2.923924914779445317e+01,3.776715704881326019e+00,-8.966635693088704784e+01,-1.877900053874282094e+01,-6.069283330758310058e+00,-2.280527945759672548e+00,9.523238182067871094e+00,-6.501809358596801758e-01,-1.147378161549568176e-01,5.150000000000000000e+02
-8.116490133437230270e+01,-7.113012177102802980e+01,-2.891159297882694545e+01,5.449614986260939986e+00,-8.837620975611957874e+01,-1.626439924236888146e+01,-7.525093165757425595e+00,-1.087391661619108163e-01,9.523238182067871094e+00,-6.501809358596801758e-01,-1.147378161549568176e-01,5.160000000000000000e+02
-8.229147997901350209e+01,-7.220523765397842908e+01,-2.853864793839079539e+01,5.293877938239575087e+00,-8.624568017531908026e+01,-1.442161976889974540e+01,-1.131921947297814768e+01,1.452021573233082563e+00,9.523238182067871094e+00,-6.501809358596801758e-01,-1.147378161549568176e-01,5.170000000000000000e+02
-8.309564674445027777e+01,-7.398905648472054963e+01,-2.793254416551963004e+01,3.873202638922862207e+00,-8.396969290308800282e+01,-1.350926118638653861e+01,-1.514425364697558507e+01,2.380439951314770042e+00,9.523238182067871094e+00,-6.501809358596801758e-01,-1.147378161549568176e-01,5.180000000000000000e+02
-8.263977391679054563e+01,-7.452690649329747430e+01,-2.701293098845883378e+01,2.377281478446548135e+00,-8.214302611199218518e+01,-1.314157691400077965e+01,-1.620571207603529729e+01,3.374643966871190059e+00,9.523238182067871094e+00,-6.501809358596801758e-01,-1.147378161549568176e-01,5.190000000000000000e+02
-8.075987725477853019e+01,-7.286793240262375093e+01,-2.597838857176952843e+01,1.668086225595402539e+00,-8.097209930202927808e+01,-1.281208936810071464e+01,-1.347737540938510392e+01,5.126226880175408951e+00,9.523238182067871094e+00,-6.501809358596801758e-01,-1.147378161549568176e-01,5.200000000000000000e+02
-7.827960412308345894e+01,-6.972010696058271151e+01,-2.514939108863177353e+01,1.872034114740699806e+00,-8.026471971767091418e+01,-1.242580066965911101e+01,-8.471499057275536870e+00,7.675721784199595277e+00,9.446745872497558594e+00,-7.649186849594116211e-01,-1.147378161549568176e-01,5.210000000000000000e+02
-7.640451553776892979e+01,-6.665213108425314203e+01,-2.464482683101084604e+01,2.692170548144986242e+00,-7.962143906888263700e+01,-1.227279988431496349e+01,-3.897663274496835584e+00,1.036122906078117012e+01,9.446745872497558594e+00,-7.649186849594116211e-01,-1.147378161549568176e-01,5.220000000000000000e+02
-7.578425217859785334e+01,-6.469686845824389820e+01,-2.422856855329291648e+01,3.911576867375515576e+00,-7.866222757393870779e+01,-1.251147727380930519e+01,-1.524128159913743730e+00,1.234335381272535415e+01,9.446745872497558594e+00,-7.649186849594116211e-01,-1.147378161549568176e-01,5.230000000000000000e+02
-7.604398998513761398e+01,-6.367558882311277557e+01,-2.349049195186694305e+01,5.514286053114119568e+00,-7.718465619843300374e+01,-1.277167411327354785e+01,-1.150128925586841433e+00,1.324257355161762462e+01,9.446745872497558594e+00,-7.649186849594116211e-01,-1.147378161549568176e-01,5.240000000000000000e+02
-7.616038019016764338e+01,-6.274390753862053316e+01,-2.217871462871835320e+01,7.399117833810578304e+00,-7.522626307444852500e+01,-1.234590590176730984e+01,-1.373490852879058366e+00,1.339837617683019744e+01,9.446745872497558594e+00,-7.649186849594116211e-01,-1.147378161549568176e-01,5.250000000000000000e+02
-7.530756030910060872e+01,-6.144606522572280483e+01,-2.037420640133996130e+01,9.141703075662007905e+00,-7.300811886244582638e+01,-1.079087928264289076e+01,-1.134677418748879063e+00,1.361220488229946568e+01,9.446745872497558594e+00,-7.649186849594116211e-01,-1.147378161549568176e-01,5.260000000000000000e+02
-7.342873538265416755e+01,-6.016128400160891943e+01,-1.840003493507674648e+01,1.017476330058616441e+01,-7.077448430020876913e+01,-8.326720909260529879e+00,-5.056877155404890800e-01,1.460068768840937992e+01,9.446745872497558594e+00,-7.649186849594116211e-01,-1.147378161549568176e-01,5.270000000000000000e+02
-7.111020588270821463e+01,-5.956354115957219619e+01,-1.660554554104464842e+01,1.023449117900236160e+01,-6.863263045727239842e+01,-5.665563627895153331e+00,-1.784327169625612441e-01,1.652652804425747490e+01,9.446745872497558594e+00,-7.649186849594116211e-01,-1.147378161549568176e-01,5.280000000000000000e+02
-6.898392883797714603e+01,-5.976022361788136550e+01,-1.521953438047694362e+01,9.605115791151092708e+00,-6.654803763248946780e+01,-3.483209557419286284e+00,-4.480394533650269295e-01,1.888180039691064849e+01,9.446745872497558594e+00,-7.649186849594116211e-01,-1.147378161549568176e-01,5.290000000000000000e+02
-6.725226364264926815e+01,-6.003693987023007139e+01,-1.431277965600293101e+01,8.912967595953432465e+00,-6.452317390357438853e+01,-2.055086966831368045e+00,-8.251052126659033092e-01,2.077062470315422615e+01,9.446745872497558594e+00,-7.649186849594116211e-01,-1.147378161549568176e-01,5.300000000000000000e+02
-6.569153491653378296e+01,-5.943596593336769729e+01,-1.377972220662240943e+01,8.692094603945406561e+00,-6.276232550915756292e+01,-1.292243717149176518e+00,-5.806767825420138252e-01,2.143706471768928168e+01,9.446745872497558594e+00,-7.649186849594116211e-01,-1.147378161549568176e-01,5.310000000000000000e+02
-6.401384483109222856e+01,-5.755106959513159381e+01,-1.332928514127024755e+01,9.137862202417636581e+00,-6.159181380548216111e+01,-9.646984918294947420e-01,4.609940006553188141e-01,2.072878877726907376e+01,9.446745872497558594e+00,-7.649186849594116211e-01,-1.147378161549568176e-01,5.320000000000000000e+02
-6.219599223309569425e+01,-5.477626903891268739e+01,-1.259534592157751831e+01,1.018549420408817241e+01,-6.115611718065565583e+01,-8.180921013681654586e-01,1.718960474642699410e+00,1.918900097355890466e+01,9.446745872497558594e+00,-7.649186849594116211e-01,-1.147378161549568176e-01,5.330000000000000000e+02
-6.051514222462355974e+01,-5.188197784954672898e+01,-1.141470003568565517e+01,1.168801901289862144e+01,-6.120694425508918357e+01,-5.629807311524928082e-01,2.380878329126517201e+00,1.767955945718722433e+01,9.446745872497558594e+00,-7.649186849594116211e-01,-1.147378161549568176e-01,5.340000000000000000e+02
-5.935147101642178313e+01,-4.943562376146110182e+01,-1.008796027540302020e+01,1.344516524336813745e+01,-6.126639481116262687e+01,7.791453236359302537e-02,2.086915830638190528e+00,1.679786511852807962e+01,9.446745872497558594e+00,-7.649186849594116211e-01,-1.147378161549568176e-01,5.350000000000000000e+02
-5.897437214538103945e+01,-4.760628837830199700e+01,-9.312572645979344088e+00,1.512747401356273258e+01,-6.105117137157958496e+01,1.208679902193580347e+00,1.154016408832831075e+00,1.655475924550046329e+01,9.446745872497558594e+00,-7.649186849594116211e-01,-1.147378161549568176e-01,5.360000000000000000e+02
-5.943679100340659716e+01,-4.635601700459847052e+01,-9.690193485841518850e+00,1.633167605834660208e+01,-6.071730272074228196e+01,2.664415573593032605e+00,2.453318900143131032e-01,1.658525629325004047e+01,9.446745872497558594e+00,-7.649186849594116211e-01,-1.147378161549568176e-01,5.370000000000000000e+02
-6.054313051402641577e+01,-4.562638402383026914e+01,-1.114536283318830101e+01,1.682910555984881285e+01,-6.061246664657937799e+01,4.144963062175520463e+00,-1.169715545388498867e-01,1.669002675899901078e+01,9.446745872497558594e+00,-7.649186849594116211e-01,-1.147378161549568176e-01,5.380000000000000000e+02
-6.186126948066566911e+01,-4.529450685650317610e+01,-1.280697825253264455e+01,1.676947547151758044e+01,-6.075547541881769575e+01,5.461827683891897323e+00,2.078693687781196786e-01,1.715253160641304930e+01,9.446745872497558594e+00,-7.649186849594116211e-01,-1.147378161549568176e-01,5.390000000000000000e+02
-6.281976100622341619e+01,-4.508144678890539581e+01,-1.356096258626530471e+01,1.657904719530415605e+01,-6.060138562649035521e+01,6.626019047955196584e+00,1.051393296960668522e+00,1.847347736040956079e+01,9.446745872497558594e+00,-7.649186849594116211e-01,-1.147378161549568176e-01,5.400000000000000000e+02
-6.292943979857727754e+01,-4.470176795036331896e+01,-1.286765861555977608e+01,1.660273520235114120e+01,-5.942001979620999919e+01,7.688162488149828278e+00,2.120693976310121798e+00,2.075858340077911635e+01,9.446745872497558594e+00,-7.649186849594116211e-01,-1.147378161549568176e-01,5.410000000000000000e+02
-6.205012286450801184e+01,-4.419036040378796315e+01,-1.113566701765648759e+01,1.684869740127032856e+01,-5.698751514834384579e+01,8.571343303830872173e+00,3.118403106339428632e+00,2.340826593028668867e+01,9.446745872497558594e+00,-7.649186849594116211e-01,-1.147378161549568176e-01,5.420000000000000000e+02
-6.048671772233865340e+01,-4.397788534693881957e+01,-9.299933418677028385e+00,1.711865496095560957e+01,-5.390593250194979191e+01,9.173628112287588010e+00,3.804271593952762487e+00,2.550599843412646806e+01,9.446745872497558594e+00,-7.649186849594116211e-01,-1.147378161549568176e-01,5.430000000000000000e+02
-5.877021679557947209e+01,-4.447366512289318052e+01,-7.995311736735857266e+00,1.737217341473842680e+01,-5.118265733236330561e+01,9.651943612341710832e+00,4.061886535278063093e+00,2.656131520929011458e+01,9.446745872497558594e+00,-7.649186849594116211e-01,-1.147378161549568176e-01,5.440000000000000000e+02
-5.724014199913472112e+01,-4.549601849086502625e+01,-7.097484020663614501e+00,1.789128424526188610e+01,-4.942881350030984322e+01,1.047820269253861625e+01,3.967773059353021381e+00,2.680448134557536832e+01,9.446745872497558594e+00,-7.649186849594116211e-01,-1.147378161549568176e-01,5.450000000000000000e+02
-5.577175381547931465e+01,-4.618183620457693905e+01,-6.046519066684595600e+00,1.903078285097944899e+01,-4.843043034301899752e+01,1.203833031222347927e+01,3.784009512605734926e+00,2.664608508022320166e+01,9.446745872497558594e+00,-7.649186849594116211e-01,-1.147378161549568176e-01,5.460000000000000000e+02
-5.391013352282698179e+01,-4.561878997014900960e+01,-4.587031993143682485e+00,2.079975644501155330e+01,-4.748391945121511526e+01,1.409285483123039739e+01,3.841132327512241318e+00,2.582328657612197276e+01,9.446745872497558594e+00,-7.649186849594116211e-01,-1.147378161549568176e-01,5.470000000000000000e+02
-5.133597579294564639e+01,-4.370225508922067092e+01,-3.152444573226603097e+00,2.272693878533391398e+01,-4.613410655415827932e+01,1.571104424643817765e+01,4.381749358127308369e+00,2.323063148037999781e+01,9.484992027282714844e+00,-8.031646609306335449e-01,-7.649187743663787842e-02,5.480000000000000000e+02
-4.827690708426234778e+01,-4.140571640155576461e+01,-2.495923858773494430e+00,2.418277784220026660e+01,-4.456480150408242480e+01,1.593851962878670747e+01,5.472904331863901461e+00,1.786502681456659047e+01,9.484992027282714844e+00,-8.031646609306335449e-01,-7.649187743663787842e-02,5.490000000000000000e+02
-4.548767320204387943e+01,-4.015908108322219050e+01,-2.944191545217108796e+00,2.487149009128006583e+01,-4.327118492233148572e+01,1.471350621813326143e+01,7.039269621893254225e+00,1.014489013104866899e+01,9.484992027282714844e+00,-8.031646609306335449e-01,-7.649187743663787842e-02,5.500000000000000000e+02
-4.377298539485309448e+01,-4.083999355914056650e+01,-4.032192693149227125e+00,2.503370641364199400e+01,-4.240842028911447414e+01,1.316773611959342816e+01,8.962994659740616044e+00,2.277351254701898142e+00,9.484992027282714844e+00,-8.031646609306335449e-01,-7.649187743663787842e-02,5.510000000000000000e+02
-4.341866817320715199e+01,-4.320927228743585147e+01,-4.883805719829069858e+00,2.520214682482946955e+01,-4.155297181277364871e+01,1.290507478459585400e+01,1.115662916103883617e+01,-2.921881256619599299e+00,9.484992027282714844e+00,-8.031646609306335449e-01,-7.649187743663787842e-02,5.520000000000000000e+02
-4.398908122277043731e+01,-4.620134722813600092e+01,-4.950968956659380638e+00,2.576934431770860101e+01,-4.015346421853337233e+01,1.477266479887475725e+01,1.355396501641007490e+01,-3.931721873110291199e+00,9.484992027282714844e+00,-8.031646609306335449e-01,-7.649187743663787842e-02,5.530000000000000000e+02
-4.464298097521259479e+01,-4.873223259360747761e+01,-4.415152477833544253e+00,2.674494873601543077e+01,-3.819319139611707214e+01,1.815648076523939380e+01,1.603190405873738200e+01,-1.584041814984630037e+00,9.484992027282714844e+00,-8.031646609306335449e-01,-7.649187743663787842e-02,5.540000000000000000e+02
-4.470024907403785619e+01,-5.033708159820889705e+01,-3.927758620649001386e+00,2.783400974753749324e+01,-3.633720353668650205e+01,2.142684751997876447e+01,1.832333745425603411e+01,1.607138864734224626e+00,9.484992027282714844e+00,-8.031646609306335449e-01,-7.649187743663787842e-02,5.550000000000000000e+02
-4.402555927695539140e+01,-5.124175713224667561e+01,-4.012941981462063268e+00,2.864981496857399179e+01,-3.536370231424461963e+01,2.316661256202678487e+01,2.000832846272260213e+01,3.235839473179112247e+00,9.484992027282714844e+00,-8.031646609306335449e-01,-7.649187743663787842e-02,5.560000000000000000e+02
-4.298031625405201339e+01,-5.199906558348266117e+01,-4.718427463726584392e+00,2.884317759851273877e+01,-3.546222512159602047e+01,2.313276105063596333e+01,2.064371409519662848e+01,2.407440280259834253e+00,9.484992027282714844e+00,-8.031646609306335449e-01,-7.649187743663787842e-02,5.570000000000000000e+02
-4.205708822641190636e+01,-5.307131944931825274e+01,-5.750425435112447303e+00,2.815188462689548032e+01,-3.614115331682296528e+01,2.218132136483836803e+01,2.002081097812333610e+01,-2.240464910610171501e-01,9.484992027282714844e+00,-8.031646609306335449e-01,-7.649187743663787842e-02,5.580000000000000000e+02
-4.153515271010473953e+01,-5.462662751229618152e+01,-6.836159759796828439e+00,2.649833032768765406e+01,-3.684283658676667983e+01,2.134015117575472686e+01,1.841433502821200818e+01,-3.458200636046967702e+00,9.484992027282714844e+00,-8.031646609306335449e-01,-7.649187743663787842e-02,5.590000000000000000e+02
-4.140181862314511818e+01,-5.655332550810180692e+01,-7.913787516228694585e+00,2.416203702534585318e+01,-3.758541054771012568e+01,2.096237831372673099e+01,1.661073054944972682e+01,-6.466994436697859783e+00,9.484992027282714844e+00,-8.031646609306335449e-01,-7.649187743663787842e-02,5.600000000000000000e+02
-4.152411279219086282e+01,-5.857084609579032985e+01,-9.035311925917994813e+00,2.186444041534196003e+01,-3.888086077363368531e+01,2.072274942216245108e+01,1.559954163794191118e+01,-8.889776512127355090e+00,9.484992027282714844e+00,-8.031646609306335449e-01,-7.649187743663787842e-02,5.610000000000000000e+02
-4.185236092538525554e+01,-6.037305996967734245e+01,-1.019893303466415091e+01,2.055645853432906733e+01,-4.097522900358671905e+01,2.031177486753585981e+01,1.605199340539184050e+01,-1.038085658564523328e+01,9.484992027282714844e+00,-8.031646609306335449e-01,-7.649187743663787842e-02,5.620000000000000000e+02
-4.245518700919274124e+01,-6.177302001700081746e+01,-1.132179228413315286e+01,2.092224382781023451e+01,-4.323009903086676786e+01,1.998949299284504377e+01,1.792316853498596174e+01,-1.040805718303909089e+01,9.484992027282714844e+00,-8.031646609306335449e-01,-7.649187743663787842e-02,5.630000000000000000e+02
-4.337079410199839913e+01,-6.278176389392774581e+01,-1.232157467523393279e+01,2.290992623560850916e+01,-4.437562633339803142e+01,2.037291529739377438e+01,2.047573654250118125e+01,-8.651674392593122320e+00,9.484992027282714844e+00,-8.031646609306335449e-01,-7.649187743663787842e-02,5.640000000000000000e+02
-4.444004386763663206e+01,-6.354845496640336933e+01,-1.313151022998499684e+01,2.566372456459066598e+01,-4.349062392459018156e+01,2.169805221609021828e+01,2.271266163392829185e+01,-5.554107100588225876e+00,9.484992027282714844e+00,-8.031646609306335449e-01,-7.649187743663787842e-02,5.650000000000000000e+02
-4.527961393203804619e+01,-6.418220984370236692e+01,-1.360907722783576901e+01,2.797568678644893225e+01,-4.079431922185176518e+01,2.340393509674504458e+01,2.390586746475491964e+01,-2.322559390420792624e+00,9.484992027282714844e+00,-8.031646609306335449e-01,-7.649187743663787842e-02,5.660000000000000000e+02
-4.544898393925359414e+01,-6.460273626770685951e+01,-1.350693894543474016e+01,2.897022958936577197e+01,-3.750420839873368095e+01,2.454963818881697080e+01,2.386368441036211152e+01,-2.596189431096718181e-01,9.484992027282714844e+00,-8.031646609306335449e-01,-7.649187743663787842e-02,5.670000000000000000e+02
-4.469976892769773258e+01,-6.456959129970891809e+01,-1.264703837747219950e+01,2.856217102454684209e+01,-3.491282603970830678e+01,2.467665567827134510e+01,2.285382604017286212e+01,1.281195944829960354e-02,9.484992027282714844e+00,-8.031646609306335449e-01,-7.649187743663787842e-02,5.680000000000000000e+02
-4.313032689049941837e+01,-6.390146463267956278e+01,-1.117867876939817506e+01,2.739196912620900548e+01,-3.355003985682196799e+01,2.421698331683182914e+01,2.138683097480134165e+01,-1.219569767295979545e+00,9.484992027282714844e+00,-8.031646609306335449e-01,-7.649187743663787842e-02,5.690000000000000000e+02
-4.114856357807184395e+01,-6.272820788077297038e+01,-9.623919745332386810e+00,2.630152921252010856e+01,-3.310212322547158692e+01,2.401253484783592285e+01,2.006575960454028973e+01,-3.179490852191520389e+00,9.484992027282714844e+00,-8.031646609306335449e-01,-7.649187743663787842e-02,5.700000000000000000e+02
-3.927994176062020415e+01,-6.154861685118339665e+01,-8.583083396877555060e+00,2.574123949809472833e+01,-3.296983009396353737e+01,2.445115930741667398e+01,1.949163046255489462e+01,-5.176491877648004447e+00,9.484992027282714844e+00,-8.031646609306335449e-01,-7.649187743663787842e-02,5.710000000000000000e+02
-3.795558380175680213e+01,-6.097794736555260897e+01,-8.329773358154852758e+00,2.553129031701791973e+01,-3.282054868676459591e+01,2.511846968148165615e+01,2.006280716686524102e+01,-6.853171700320672244e+00,9.484992027282714844e+00,-8.031646609306335449e-01,-7.649187743663787842e-02,5.720000000000000000e+02
-3.739312405920281890e+01,-6.131503669280755275e+01,-8.654610232790219015e+00,2.512571591050800635e+01,-3.266845022508277907e+01,2.530684459629628691e+01,2.165311524029129941e+01,-8.071899435000887024e+00,9.484992027282714844e+00,-8.031646609306335449e-01,-7.649187743663787842e-02,5.730000000000000000e+02
-3.757793580423640378e+01,-6.223456600441932096e+01,-9.100599614563179784e+00,2.414569722942178487e+01,-3.261107647062453907e+01,2.479940686707595887e+01,2.345849837432615459e+01,-8.780276029334345367e+00,9.484992027282714844e+00,-8.031646609306335449e-01,-7.649187743663787842e-02,5.740000000000000000e+02
-3.828687490624724887e+01,-6.288812117775705701e+01,-9.363534948717642692e+00,2.274002500858659914e+01,-3.264758697923025466e+01,2.407925347152558970e+01,2.431464284889807459e+01,-9.086014664229878690e+00,9.484992027282714844e+00,-8.031646609306335449e-01,-7.649187743663787842e-02,5.750000000000000000e+02
-3.912580350306598120e+01,-6.243884244954460883e+01,-9.482727374324895209e+00,2.148589150604857423e+01,-3.274858112988113135e+01,2.376917721617792267e+01,2.341521603093315207e+01,-9.381466348071626271e+00,9.484992027282714844e+00,-8.031646609306335449e-01,-7.649187743663787842e-02,5.760000000000000000e+02
-3.962155067849380430e+01,-6.069642538322295877e+01,-9.679599455370407668e+00,2.092900893650403304e+01,-3.297936116325763578e+01,2.392919494378293166e+01,2.091935705340438290e+01,-1.019817459553087247e+01,9.484992027282714844e+00,-8.031646609306335449e-01,-7.649187743663787842e-02,5.770000000000000000e+02
-3.941310473070916487e+01,-5.835719596375747642e+01,-1.005692567770711321e+01,2.117151551375900453e+01,-3.344589170886865759e+01,2.396486837244810886e+01,1.791341887963608315e+01,-1.177298814215464517e+01,9.484992027282714844e+00,-8.031646609306335449e-01,-7.649187743663787842e-02,5.780000000000000000e+02
-3.847283897381748830e+01,-5.657687333820831554e+01,-1.047367338998446940e+01,2.186869937738993031e+01,-3.412267116502516728e+01,2.322412256591996993e+01,1.571931284187849087e+01,-1.370932393194561882e+01,9.484992027282714844e+00,-7.649186849594116211e-01,-1.529837548732757568e-01,5.790000000000000000e+02
-3.718248273763856560e+01,-5.611941159270281787e+01,-1.069361856136310962e+01,2.260120244974314119e+01,-3.481023245406140632e+01,2.163476789848937187e+01,1.509690605351352133e+01,-1.514617842210464005e+01,9.484992027282714844e+00,-7.649186849594116211e-01,-1.529837548732757568e-01,5.800000000000000000e+02
-3.613507408412442601e+01,-5.673951629142175079e+01,-1.062648707411608484e+01,2.323928869236260653e+01,-3.531264379047388502e+01,1.973771527840290219e+01,1.593670196275706985e+01,-1.539033095235026849e+01,9.484992027282714844e+00,-7.649186849594116211e-01,-1.529837548732757568e-01,5.810000000000000000e+02
-3.575165013000878389e+01,-5.734950718497930211e+01,-1.041276749124517664e+01,2.392615005376137560e+01,-3.563114127802145958e+01,1.812580596097177477e+01,1.755325602791344863e+01,-1.448040765861696855e+01,9.484992027282714844e+00,-7.649186849594116211e-01,-1.529837548732757568e-01,5.820000000000000000e+02
-3.599375665543630021e+01,-5.688459031575257541e+01,-1.028231928342211177e+01,2.472344100414738932e+01,-3.592465573063600459e+01,1.691020690247751190e+01,1.918447407299936458e+01,-1.314471523529391561e+01,9.484992027282714844e+00,-7.649186849594116211e-01,-1.529837548732757568e-01,5.830000000000000000e+02
-3.641011117275047582e+01,-5.517303734702363727e+01,-1.032992558240766812e+01,2.534421651604316139e+01,-3.625441779969878553e+01,1.576385029947414296e+01,2.026566145095785032e+01,-1.213271899297978962e+01,9.484992027282714844e+00,-7.649186849594116211e-01,-1.529837548732757568e-01,5.840000000000000000e+02
-3.648033969385869568e+01,-5.309520090076694032e+01,-1.040480281563213794e+01,2.531167104940141144e+01,-3.640193351689777046e+01,1.444436450485954992e+01,2.043066571510098584e+01,-1.152421805903031782e+01,9.484992027282714844e+00,-7.649186849594116211e-01,-1.529837548732757568e-01,5.850000000000000000e+02
-3.595652887461801583e+01,-5.188639949954995245e+01,-1.019466589345574903e+01,2.443109076453583839e+01,-3.597905988012644229e+01,1.321380343513010303e+01,1.952978747675479099e+01,-1.067395081470203877e+01,9.484992027282714844e+00,-7.649186849594116211e-01,-1.529837548732757568e-01,5.860000000000000000e+02
-3.493639704397719470e+01,-5.216918209583673161e+01,-9.445971987021039240e+00,2.308283166843284562e+01,-3.475557663132713060e+01,1.268890658697637264e+01,1.779756228792393813e+01,-8.886964412355155218e+00,9.484992027282714844e+00,-7.649186849594116211e-01,-1.529837548732757568e-01,5.870000000000000000e+02
-3.366414782476749679e+01,-5.351391808158405183e+01,-8.175966186883670161e+00,2.197970261896080046e+01,-3.289942372807126958e+01,1.324236537799879443e+01,1.594289008663690765e+01,-6.233576328888375429e+00,9.484992027282714844e+00,-7.649186849594116211e-01,-1.529837548732757568e-01,5.880000000000000000e+02
-3.230400894223748764e+01,-5.483803239345979819e+01,-6.729448438421968604e+00,2.156872024235417484e+01,-3.089573847699284670e+01,1.453422441458315006e+01,1.487378367391283973e+01,-3.725581908585809288e+00,9.484992027282714844e+00,-7.649186849594116211e-01,-1.529837548732757568e-01,5.890000000000000000e+02
-3.090806217780664156e+01,-5.523860592035816808e+01,-5.606746098437724868e+00,2.165209101385335089e+01,-2.921604877283971291e+01,1.564464352483628318e+01,1.513221712121594464e+01,-2.605782036907839938e+00,9.484992027282714844e+00,-7.649186849594116211e-01,-1.529837548732757568e-01,5.900000000000000000e+02
-2.955133792629203526e+01,-5.456834822135533614e+01,-5.126752170444888179e+00,2.160973168300552061e+01,-2.802060470384822111e+01,1.572722795845402288e+01,1.650659711706248345e+01,-3.308491976724326378e+00,9.484992027282714844e+00,-7.649186849594116211e-01,-1.529837548732757568e-01,5.910000000000000000e+02
-2.842860652340095839e+01,-5.336408151569594338e+01,-5.155650783581222640e+00,2.102185504328008392e+01,-2.713388983977347380e+01,1.464377297971077496e+01,1.820418930308915151e+01,-4.987590363543858984e+00,9.484992027282714844e+00,-7.649186849594116211e-01,-1.529837548732757568e-01,5.920000000000000000e+02
-2.774482612951032934e+01,-5.230006796942871006e+01,-5.156575299650285160e+00,2.011379333753575338e+01,-2.628434734926486271e+01,1.307299943926773267e+01,1.944966432423825609e+01,-6.066498557207523845e+00,9.484992027282714844e+00,-7.649186849594116211e-01,-1.529837548732757568e-01,5.930000000000000000e+02
-2.749327808990346966e+01,-5.168076166405626282e+01,-4.616140355183233623e+00,1.961558412719023181e+01,-2.539193528501346009e+01,1.202149235057368060e+01,1.994893474592754501e+01,-5.412646227765435469e+00,9.484992027282714844e+00,-7.649186849594116211e-01,-1.529837548732757568e-01,5.940000000000000000e+02
-2.737610511199454777e+01,-5.132951150308144861e+01,-3.548651022387275589e+00,2.018539165206675534e+01,-2.466760483420148375e+01,1.215510834957240149e+01,1.983656850457191467e+01,-3.187685312830581097e+00,9.484992027282714844e+00,-7.649186849594116211e-01,-1.529837548732757568e-01,5.950000000000000000e+02
-2.699906497299525654e+01,-5.083819157730613369e+01,-2.614720782925360254e+00,2.190605420478095766e+01,-2.444575515661927056e+01,1.346873499199136859e+01,1.929319628915982321e+01,-6.673181402657064609e-01,9.484992027282714844e+00,-7.649186849594116211e-01,-1.529837548732757568e-01,5.960000000000000000e+02
-2.619793719723020331e+01,-4.988913867905284860e+01,-2.641043109542806633e+00,2.422788997889801976e+01,-2.488239277029788354e+01,1.546153429712649086e+01,1.834007269431458553e+01,8.307924716464185622e-01,9.484992027282714844e+00,-7.649186849594116211e-01,-1.529837548732757568e-01,5.970000000000000000e+02
-2.519236355840257602e+01,-4.842097491132517462e+01,-3.871805256738298340e+00,2.631616045398914139e+01,-2.575716577630009851e+01,1.756571900833660038e+01,1.704971178787673125e+01,1.017511905967694474e+00,9.484992027282714844e+00,-7.649186849594116211e-01,-1.529837548732757568e-01,5.980000000000000000e+02
-2.440834323649687576e+01,-4.661117046116123674e+01,-5.617576895096135559e+00,2.749443489742043312e+01,-2.654658677257248200e+01,1.945098113279891550e+01,1.585181952903440106e+01,8.083418111564242281e-01,9.484992027282714844e+00,-7.649186849594116211e-01,-1.529837548732757568e-01,5.990000000000000000e+02
-2.410469476871003280e+01,-4.478072531550424173e+01,-6.676855379562766757e+00,2.753367762196285184e+01,-2.671911977777199354e+01,2.102135680280480301e+01,1.545698015276866499e+01,1.458417912504955893e+00,9.523238182067871094e+00,-8.031646609306335449e-01,-1.147378161549568176e-01,6.000000000000000000e+02
-2.411989104456733912e+01,-4.329740662043332122e+01,-6.224534087377833202e+00,2.672417671035145759e+01,-2.602334709981369087e+01,2.223445578184328042e+01,1.636167000557907159e+01,3.409026560653728666e+00,9.523238182067871094e+00,-8.031646609306335449e-01,-1.147378161549568176e-01,6.010000000000000000e+02
-2.395879216217144858e+01,-4.245800717456586426e+01,-4.395986343119147932e+00,2.574346472463730606e+01,-2.455778500741143944e+01,2.298188296164153144e+01,1.841269717106479220e+01,5.863674893596908078e+00,9.523238182067871094e+00,-8.031646609306335449e-01,-1.147378161549568176e-01,6.020000000000000000e+02
-2.315850917013813159e+01,-4.235849242496988154e+01,-2.060500906049128389e+00,2.534341628468609997e+01,-2.260382917751121568e+01,2.313686982809304027e+01,2.092362012332523591e+01,7.482740851206472144e+00,9.523238182067871094e+00,-8.031646609306335449e-01,-1.147378161549568176e-01,6.030000000000000000e+02
-2.162989362024381990e+01,-4.282982232662834576e+01,-2.833439575988450088e-02,2.595065729178168112e+01,-2.040904335918457946e+01,2.269594770361072733e+01,2.325810415719024604e+01,7.603685648024111288e+00,9.523238182067871094e+00,-8.031646609306335449e-01,-1.147378161549568176e-01,6.040000000000000000e+02
-1.970527993805080769e+01,-4.352120060111337807e+01,1.553019825387309538e+00,2.741010889639801462e+01,-1.812092153468256583e+01,2.187623662440091721e+01,2.527361266437219456e+01,6.892396970491972752e+00,9.523238182067871094e+00,-8.031646609306335449e-01,-1.147378161549568176e-01,6.050000000000000000e+02
-1.787216485170574742e+01,-4.409660339858237421e+01,3.099074057303369045e+00,2.908959791764573311e+01,-1.587870063658920117e+01,2.109922490143799223e+01,2.717006578202926903e+01,6.812739604782109382e+00,9.523238182067871094e+00,-8.031646609306335449e-01,-1.147378161549568176e-01,6.060000000000000000e+02
-1.643129870917255175e+01,-4.437799178657223820e+01,4.981783955947321374e+00,3.031652958143240539e+01,-1.391837423765173298e+01,2.084715638518900960e+01,2.895051487151795300e+01,8.352839637627766933e+00,9.523238182067871094e+00,-8.031646609306335449e-01,-1.147378161549568176e-01,6.070000000000000000e+02
-1.535796809182647849e+01,-4.429079443637601798e+01,7.078072545446048025e+00,3.083356808091048151e+01,-1.254407626984539093e+01,2.143035335797321750e+01,3.016254593693884090e+01,1.113368458838522201e+01,9.523238182067871094e+00,-8.031646609306335449e-01,-1.147378161549568176e-01,6.080000000000000000e+02
-1.445253892497930792e+01,-4.369131678555640974e+01,8.895022371758386726e+00,3.091932005704438780e+01,-1.197192170787093346e+01,2.275891528052306967e+01,3.029480364835762884e+01,1.370589900246704929e+01,9.523238182067871094e+00,-8.031646609306335449e-01,-1.147378161549568176e-01,6.090000000000000000e+02
-1.361579698256900883e+01,-4.232283150640796521e+01,1.005705050857068272e+01,3.110411268956158892e+01,-1.217987958872981835e+01,2.428859416927298298e+01,2.943442798730393406e+01,1.478397117687927675e+01,9.523238182067871094e+00,-8.031646609306335449e-01,-1.147378161549568176e-01,6.100000000000000000e+02
-1.298640192461243714e+01,-4.004200678446795791e+01,1.060131828655721620e+01,3.175890476038330235e+01,-1.288644591672345996e+01,2.527159043807841954e+01,2.843112696604293888e+01,1.431692527181439800e+01,9.523238182067871094e+00,-8.031646609306335449e-01,-1.147378161549568176e-01,6.110000000000000000e+02
-1.281543836546188686e+01,-3.715682289890537504e+01,1.080036449476028793e+01,3.287223710623948136e+01,-1.367346814831034862e+01,2.521049339413730195e+01,2.825952107560442528e+01,1.344909338177967584e+01,9.523238182067871094e+00,-8.031646609306335449e-01,-1.147378161549568176e-01,6.120000000000000000e+02
-1.319528144712603535e+01,-3.449303671293819207e+01,1.079617808659531875e+01,3.411984855895934743e+01,-1.415467728649673518e+01,2.420537243967555696e+01,2.913110607312773936e+01,1.345421609388722572e+01,9.523238182067871094e+00,-8.031646609306335449e-01,-1.147378161549568176e-01,6.130000000000000000e+02
-1.390183545308900648e+01,-3.297519874143836205e+01,1.050199301254906459e+01,3.509391344224422937e+01,-1.409350459783672704e+01,2.288169192841451149e+01,3.025077411775055225e+01,1.464484404508039006e+01,9.523238182067871094e+00,-8.031646609306335449e-01,-1.147378161549568176e-01,6.140000000000000000e+02
