F3,F4,C3,C4,P3,P4,Cz,Pz,Accel_x,Accel_y,Accel_z,Sample
-4.092726157978177071e-11,-3.001332515850663185e-11,-2.910383045673370361e-11,-3.819877747446298599e-11,-4.547473508864641190e-11,-4.001776687800884247e-11,-2.819433575496077538e-11,-5.002220859751105309e-11,9.561484336853027344e+00,-1.376853704452514648e+00,-3.442134261131286621e-01,2.020000000000000000e+02
2.121273980522346392e+00,-1.140842820715988637e+00,1.403122938830711064e+01,1.696048860726750718e+01,1.383031295810542360e+01,1.216428996723698219e+01,4.497613056862974190e+00,2.948873895624274155e+00,9.561484336853027344e+00,-1.376853704452514648e+00,-3.442134261131286621e-01,2.030000000000000000e+02
-1.216052765624226595e+00,-8.297886666359772789e+00,1.787693299431248306e+01,2.439541226106757676e+01,1.376115867626049294e+01,1.219380497635029315e+01,5.415988875684888626e+00,1.916474186994491902e+00,9.561484336853027344e+00,-1.376853704452514648e+00,-3.442134261131286621e-01,2.040000000000000000e+02
-1.026745967911938351e+01,-2.141032643150992953e+01,1.091541993322243798e+01,2.164822297865157452e+01,-1.310562872511582100e+00,-9.238358908387453994e-01,2.925638764138057013e+00,-3.109406044039133121e+00,9.561484336853027344e+00,-1.376853704452514648e+00,-3.442134261131286621e-01,2.050000000000000000e+02
-2.021240102444244258e+01,-3.435746809148167813e+01,2.081277630067233986e+00,1.715881475711466919e+01,-1.969183114389761613e+01,-1.687405581182974856e+01,7.675843680362959276e-01,-8.345878391295627807e+00,9.561484336853027344e+00,-1.376853704452514648e+00,-3.442134261131286621e-01,2.060000000000000000e+02
-2.631611704634724447e+01,-4.090325340362960560e+01,6.322815720805010642e-01,2.017989389826470870e+01,-2.911859713849298714e+01,-2.444632595946677611e+01,2.348163902129272174e+00,-1.023821360241254297e+01,9.561484336853027344e+00,-1.376853704452514648e+00,-3.442134261131286621e-01,2.070000000000000000e+02
-2.864928858548228163e+01,-4.046814223167075397e+01,7.329862472914101090e+00,3.245478235512200627e+01,-2.830166781860498304e+01,-2.180637242117882124e+01,7.205203765730402665e+00,-9.017824342487074318e+00,9.561484336853027344e+00,-1.376853704452514648e+00,-3.442134261131286621e-01,2.080000000000000000e+02
-3.162060437551372161e+01,-3.816460447071131057e+01,1.470568388540959859e+01,4.770967634646513034e+01,-2.646673425453991513e+01,-1.673695394096466771e+01,1.146184480064403033e+01,-8.143164162759603641e+00,9.523238182067871094e+00,-1.300361871719360352e+00,-4.207052886486053467e-01,2.090000000000000000e+02
-3.916818827047336526e+01,-3.959821737409129128e+01,1.534938896661424224e+01,5.848233510171121452e+01,-3.263821778360124881e+01,-1.774835959762094717e+01,1.170693067624051764e+01,-1.042351557770871295e+01,9.523238182067871094e+00,-1.300361871719360352e+00,-4.207052886486053467e-01,2.100000000000000000e+02
-5.076477126781264815e+01,-4.595339357031025429e+01,9.271924699447481544e+00,6.286546119562808599e+01,-4.654814053929749207e+01,-2.582245845239776827e+01,8.356111377475826885e+00,-1.499996165208722232e+01,9.523238182067871094e+00,-1.300361871719360352e+00,-4.207052886486053467e-01,2.110000000000000000e+02
-6.209360940328224387e+01,-5.391289379616409860e+01,3.247349432424925908e+00,6.494099195025228255e+01,-6.000367245933102822e+01,-3.468132478776897187e+01,5.298241891490761191e+00,-1.821054255300623481e+01,9.523238182067871094e+00,-1.300361871719360352e+00,-4.207052886486053467e-01,2.120000000000000000e+02
-6.922488090856040799e+01,-5.964964375396630203e+01,3.741839196502951381e+00,6.974036353140036226e+01,-6.588896865815877391e+01,-3.798048789945642056e+01,6.422261732824154024e+00,-1.720703237496854854e+01,9.523238182067871094e+00,-1.300361871719360352e+00,-4.207052886486053467e-01,2.130000000000000000e+02
-7.187668017650412366e+01,-6.236902629909309326e+01,1.106764881232538755e+01,7.860889577693797037e+01,-6.471326924851291551e+01,-3.525017822142490331e+01,1.243841284817426640e+01,-1.256018832632253179e+01,9.523238182067871094e+00,-1.300361871719360352e+00,-4.207052886486053467e-01,2.140000000000000000e+02
-7.292678216970580252e+01,-6.420604636240841501e+01,2.004451538942066691e+01,8.914577080849812774e+01,-6.270073204736581829e+01,-3.104449936975743185e+01,2.066020149033829512e+01,-7.490747693251250894e+00,9.523238182067871094e+00,-1.300361871719360352e+00,-4.207052886486053467e-01,2.150000000000000000e+02
-7.543136976136520389e+01,-6.748463653051840083e+01,2.533029636341234436e+01,9.845870275240486080e+01,-6.494866213043042080e+01,-2.950965649103454780e+01,2.736518772116050968e+01,-4.919782612581002468e+00,9.523238182067871094e+00,-1.300361871719360352e+00,-4.207052886486053467e-01,2.160000000000000000e+02
-8.043511287724231806e+01,-7.265430932318668056e+01,2.558335131168314547e+01,1.056226539297122144e+02,-7.140558135437913734e+01,-3.069208959219577082e+01,3.031224607388776349e+01,-5.365283701840780850e+00,9.523238182067871094e+00,-1.300361871719360352e+00,-4.207052886486053467e-01,2.170000000000000000e+02
-8.722472691870916606e+01,-7.865960922050726367e+01,2.309388760532146989e+01,1.112777892713484107e+02,-7.887498336606040539e+01,-3.182654924341204605e+01,2.958249998409110049e+01,-7.306981333015755808e+00,9.523238182067871094e+00,-1.300361871719360352e+00,-4.207052886486053467e-01,2.180000000000000000e+02
-9.486048526319609664e+01,-8.452817674992274988e+01,2.063285351895501663e+01,1.159379537078548310e+02,-8.531050232590314408e+01,-3.107686915906015201e+01,2.682534741041217785e+01,-9.039262356578547042e+00,9.523238182067871094e+00,-1.300361871719360352e+00,-4.207052886486053467e-01,2.190000000000000000e+02
-1.029621127571090256e+02,-9.005248078930526390e+01,1.929370964402278332e+01,1.194835758902008820e+02,-9.121770192831445456e+01,-2.927719256703403516e+01,2.408863792314696184e+01,-9.994741916162638518e+00,9.523238182067871094e+00,-1.300361871719360352e+00,-4.207052886486053467e-01,2.200000000000000000e+02
-1.112380244785908872e+02,-9.514784978732041054e+01,1.881071959038672503e+01,1.221120895799422215e+02,-9.748013644673119416e+01,-2.837878876506783854e+01,2.298685703923274559e+01,-1.068772286970124696e+01,9.523238182067871094e+00,-1.300361871719360352e+00,-4.207052886486053467e-01,2.210000000000000000e+02
-1.188568095763966994e+02,-9.923857380766185088e+01,1.881434765651829366e+01,1.250097571966816759e+02,-1.032074791677678149e+02,-2.908839788590739772e+01,2.418127516853428460e+01,-1.195624799056804477e+01,9.523238182067871094e+00,-1.300361871719360352e+00,-4.207052886486053467e-01,2.220000000000000000e+02
-1.246741650775757080e+02,-1.017649544492551286e+02,1.913028707423927699e+01,1.295297332144546090e+02,-1.065136718779940566e+02,-3.047288299884166918e+01,2.707848135112408272e+01,-1.445470843978910125e+01,9.523238182067871094e+00,-1.300361871719360352e+00,-4.207052886486053467e-01,2.230000000000000000e+02
-1.280873212214619343e+02,-1.032077942011947016e+02,1.919457654470625130e+01,1.357464152278544134e+02,-1.070617606539663029e+02,-3.149616543994306994e+01,3.004548326928033930e+01,-1.853404781918743538e+01,9.523238182067871094e+00,-1.300361871719360352e+00,-4.207052886486053467e-01,2.240000000000000000e+02
-1.295636170669804415e+02,-1.051744021457652707e+02,1.794796190713077522e+01,1.421346276579170080e+02,-1.070785273963738291e+02,-3.233164776193370926e+01,3.136931364404881606e+01,-2.407875893199525308e+01,9.523238182067871094e+00,-1.300361871719360352e+00,-4.207052886486053467e-01,2.250000000000000000e+02
-1.303728518009984327e+02,-1.091314116882003873e+02,1.472172189033244649e+01,1.468541697409918925e+02,-1.095426227726311481e+02,-3.400332810743839218e+01,3.046183514319545793e+01,-3.023577264045525226e+01,9.523238182067871094e+00,-1.300361871719360352e+00,-4.207052886486053467e-01,2.260000000000000000e+02
-1.318911075562891710e+02,-1.150068922386071790e+02,1.008386448781493527e+01,1.493589882856140321e+02,-1.155326967036162387e+02,-3.705371253424527822e+01,2.831876909802303999e+01,-3.552270761821091583e+01,9.523238182067871094e+00,-1.300361871719360352e+00,-4.207052886486053467e-01,2.270000000000000000e+02
-1.350601449326131842e+02,-1.211784581495376187e+02,5.501198690554701898e+00,1.507826697581476765e+02,-1.234815627964972009e+02,-4.085975779721411527e+01,2.673124296341757145e+01,-3.859405639960277767e+01,9.523238182067871094e+00,-1.300361871719360352e+00,-4.207052886486053467e-01,2.280000000000000000e+02
-1.401591145702623180e+02,-1.259463942879156093e+02,2.118658827352192020e+00,1.529045660026295081e+02,-1.307854705042491332e+02,-4.415407925776162301e+01,2.687461624778188707e+01,-3.913839055779590126e+01,9.523238182067871094e+00,-1.300361871719360352e+00,-4.207052886486053467e-01,2.290000000000000000e+02
-1.467307374958809305e+02,-1.290499201517468464e+02,2.521930196235189214e-02,1.568032270588546453e+02,-1.358663619433054919e+02,-4.597248177057554130e+01,2.850118182023743429e+01,-3.802526393856442155e+01,9.523238182067871094e+00,-1.300361871719360352e+00,-4.207052886486053467e-01,2.300000000000000000e+02
-1.536812004304019865e+02,-1.317864494733830725e+02,-1.260554373828199459e+00,1.622638948284029539e+02,-1.388361447206452794e+02,-4.612858916460390901e+01,3.035378587656214222e+01,-3.651341757441423397e+01,9.523238182067871094e+00,-1.300361871719360352e+00,-4.207052886486053467e-01,2.310000000000000000e+02
-1.597189417110357681e+02,-1.357216776443319759e+02,-1.835652637011662591e+00,1.680936323672785875e+02,-1.407398827912102206e+02,-4.514281087692597794e+01,3.126863903158209723e+01,-3.531629829111079744e+01,9.523238182067871094e+00,-1.300361871719360352e+00,-4.207052886486053467e-01,2.320000000000000000e+02
-1.640283543128934980e+02,-1.413018648157562893e+02,-1.258217736921324104e+00,1.728461246954930175e+02,-1.426340107940604867e+02,-4.404382378322588920e+01,3.093510719739924753e+01,-3.446461515829560085e+01,9.523238182067871094e+00,-1.300361871719360352e+00,-4.207052886486053467e-01,2.330000000000000000e+02
-1.666613280399888026e+02,-1.475966540748299849e+02,6.185460866472567432e-01,1.755249728281105490e+02,-1.452775055097008590e+02,-4.412240636560818530e+01,2.982830042994555697e+01,-3.396552402391716896e+01,9.484992027282714844e+00,-1.300361871719360352e+00,-4.207052886486053467e-01,2.340000000000000000e+02
-1.682462710988420440e+02,-1.531911851602744719e+02,2.942405191802208719e+00,1.760944147129985140e+02,-1.491637375246282318e+02,-4.638272292552846920e+01,2.872119509120557268e+01,-3.431262820914071199e+01,9.484992027282714844e+00,-1.300361871719360352e+00,-4.207052886486053467e-01,2.350000000000000000e+02
-1.692954472925011942e+02,-1.572520326454318820e+02,4.331728017009936593e+00,1.756110863865660576e+02,-1.543874199206857156e+02,-5.081441074592294171e+01,2.837183676236372776e+01,-3.608765721711733931e+01,9.484992027282714844e+00,-1.300361871719360352e+00,-4.207052886486053467e-01,2.360000000000000000e+02
-1.698672741054851940e+02,-1.598581463856698974e+02,4.201742707033645274e+00,1.757564169531951848e+02,-1.604352875857857725e+02,-5.616483164215424040e+01,2.946640151567908106e+01,-3.898603166712837265e+01,9.484992027282714844e+00,-1.300361871719360352e+00,-4.207052886486053467e-01,2.370000000000000000e+02
-1.699652499976045874e+02,-1.615737456060278419e+02,3.496429918926423852e+00,1.778429406943387221e+02,-1.663889438986971072e+02,-6.072413003903875506e+01,3.241381472187504187e+01,-4.143675886708479084e+01,9.484992027282714844e+00,-1.300361871719360352e+00,-4.207052886486053467e-01,2.380000000000000000e+02
-1.701908538784250595e+02,-1.629320402600865236e+02,3.847737238869285648e+00,1.819064317674237827e+02,-1.715686148243412390e+02,-6.363775342990902573e+01,3.677681164436626204e+01,-4.156822985761664313e+01,9.484992027282714844e+00,-1.300361871719360352e+00,-4.207052886486053467e-01,2.390000000000000000e+02
-1.717850257523896289e+02,-1.643347042950267678e+02,5.828213833762674767e+00,1.866248625440994147e+02,-1.760330852620927544e+02,-6.556003584099016734e+01,4.086907499565541002e+01,-3.888064597459651850e+01,9.484992027282714844e+00,-1.300361871719360352e+00,-4.207052886486053467e-01,2.400000000000000000e+02
-1.758256857896894871e+02,-1.662438776508161027e+02,8.027961108472027263e+00,1.902235946143000547e+02,-1.804147610632917349e+02,-6.796447057524255797e+01,4.232447677586878854e+01,-3.505888648293330334e+01,9.484992027282714844e+00,-1.300361871719360352e+00,-4.207052886486053467e-01,2.410000000000000000e+02
-1.822724666319941207e+02,-1.691994675981982255e+02,8.039442323447019589e+00,1.916954864931212796e+02,-1.852488078193237016e+02,-7.172121978222821781e+01,3.967610060927927407e+01,-3.296912419858563226e+01,9.484992027282714844e+00,-1.300361871719360352e+00,-4.207052886486053467e-01,2.420000000000000000e+02
-1.897885045002476545e+02,-1.734808886212344987e+02,4.591099237224625540e+00,1.913752667908720468e+02,-1.904792156130588410e+02,-7.629946548710722709e+01,3.383100067451323412e+01,-3.453388869176615117e+01,9.484992027282714844e+00,-1.300361871719360352e+00,-4.207052886486053467e-01,2.430000000000000000e+02
-1.965503902420737177e+02,-1.787188954108069083e+02,-1.106463695929960522e+00,1.904995918625295417e+02,-1.955403326092737188e+02,-8.030311368363800284e+01,2.802632019065458735e+01,-3.927629310940665164e+01,9.484992027282714844e+00,-1.300361871719360352e+00,-4.207052886486053467e-01,2.440000000000000000e+02
-2.013439624162388100e+02,-1.839028547416291985e+02,-6.109482489031961450e+00,1.902315593497983173e+02,-1.998027658126902679e+02,-8.274335577229794580e+01,2.591928045795157232e+01,-4.477829905122734999e+01,9.484992027282714844e+00,-1.300361871719360352e+00,-4.207052886486053467e-01,2.450000000000000000e+02
-2.040591267936342774e+02,-1.878731284615955701e+02,-8.003112942982625100e+00,1.909680447250980251e+02,-2.029542506873731327e+02,-8.381687216475165769e+01,2.908223007161950591e+01,-4.862160046651661105e+01,9.484992027282714844e+00,-1.300361871719360352e+00,-4.207052886486053467e-01,2.460000000000000000e+02
-2.053610233512631567e+02,-1.899298374042045907e+02,-6.727863729472574050e+00,1.923662589978684991e+02,-2.051569130030507040e+02,-8.456972509488332435e+01,3.583604109558427808e+01,-5.012285215959354900e+01,9.484992027282714844e+00,-1.300361871719360352e+00,-4.207052886486053467e-01,2.470000000000000000e+02
-2.060096313006142736e+02,-1.901171429332057414e+02,-4.401779503068155464e+00,1.939037604702530189e+02,-2.070249126461535525e+02,-8.590729977885621338e+01,4.239670372842647339e+01,-5.045374875495417655e+01,9.484992027282714844e+00,-1.300361871719360352e+00,-4.207052886486053467e-01,2.480000000000000000e+02
-2.064333783226588821e+02,-1.890809862911887649e+02,-3.369919888700223964e+00,1.954330103768888875e+02,-2.094047870214058094e+02,-8.789073297839149745e+01,4.548813821870999163e+01,-5.123486645273578688e+01,9.484992027282714844e+00,-1.300361871719360352e+00,-4.207052886486053467e-01,2.490000000000000000e+02
-2.067962370979225852e+02,-1.877648556581020785e+02,-4.327838032301769999e+00,1.972565483033758937e+02,-2.129647536128159118e+02,-8.988938764618160349e+01,4.443524174998628951e+01,-5.300227714269567514e+01,9.484992027282714844e+00,-1.300361871719360352e+00,-4.207052886486053467e-01,2.500000000000000000e+02
-2.073443416355999034e+02,-1.872069007713830615e+02,-6.208766360441131837e+00,1.996790772341282718e+02,-2.177767309065070549e+02,-9.134143753805437882e+01,4.125040667910388947e+01,-5.489398349246084763e+01,9.484992027282714844e+00,-1.300361871719360352e+00,-4.207052886486053467e-01,2.510000000000000000e+02
-2.086294506583244583e+02,-1.883816397005302861e+02,-7.747695581389052677e+00,2.024766018021036871e+02,-2.232166140517024360e+02,-9.235896831201080204e+01,3.887225980765788336e+01,-5.564188824280199697e+01,9.484992027282714844e+00,-1.300361871719360352e+00,-4.207052886486053467e-01,2.520000000000000000e+02
-2.113583680793121857e+02,-1.918606891007411832e+02,-8.998532134128254256e+00,2.048506431171808799e+02,-2.283211676814794373e+02,-9.361682344010296219e+01,3.906251989115344259e+01,-5.479634789775536774e+01,9.484992027282714844e+00,-1.300361871719360352e+00,-4.207052886486053467e-01,2.530000000000000000e+02
-2.159129048894656080e+02,-1.973401735848415228e+02,-1.119363953384208799e+01,2.060155177488363734e+02,-2.323343909408554282e+02,-9.565213747917186993e+01,4.149721997823917263e+01,-5.307827818741498049e+01,9.484992027282714844e+00,-1.300361871719360352e+00,-4.207052886486053467e-01,2.540000000000000000e+02
-2.218640150788000938e+02,-2.034948953098605671e+02,-1.509272113664792414e+01,2.059208088699961081e+02,-2.349892181416944368e+02,-9.825543384088496168e+01,4.445093793945761718e+01,-5.171053797502645466e+01,9.484992027282714844e+00,-1.300361871719360352e+00,-4.207052886486053467e-01,2.550000000000000000e+02
-2.279200257854154188e+02,-2.085547139808086285e+02,-1.959252573422782007e+01,2.053985862006575189e+02,-2.363410403516627412e+02,-1.005516706086455088e+02,4.627329466540868452e+01,-5.146219462155704605e+01,9.484992027282714844e+00,-1.300361871719360352e+00,-4.207052886486053467e-01,2.560000000000000000e+02
-2.325050038967988257e+02,-2.113661419315194507e+02,-2.213523931197687489e+01,2.055321350801664266e+02,-2.364099242600887010e+02,-1.017171446405850475e+02,4.651108905884620981e+01,-5.219334945017862992e+01,9.484992027282714844e+00,-1.300361871719360352e+00,-4.207052886486053467e-01,2.570000000000000000e+02
-2.346685866920256558e+02,-2.121365142008794464e+02,-2.068063251632929678e+01,2.067870075267451284e+02,-2.350711427567644023e+02,-1.016737374636090863e+02,4.597183447187808270e+01,-5.311613145941282710e+01,9.484992027282714844e+00,-1.300361871719360352e+00,-4.207052886486053467e-01,2.580000000000000000e+02
-2.346673160818672841e+02,-2.122016401571809183e+02,-1.546246165047705290e+01,2.087010324507255064e+02,-2.323502888523589718e+02,-1.011065343824357114e+02,4.584974514427722170e+01,-5.343697449002729627e+01,9.484992027282714844e+00,-1.300361871719360352e+00,-4.207052886486053467e-01,2.590000000000000000e+02
-2.337268262903162395e+02,-2.129644888997395356e+02,-8.929280009424473974e+00,2.103941637173797972e+02,-2.288336909523250142e+02,-1.008050730925374410e+02,4.668355057329972624e+01,-5.291459540542746254e+01,9.484992027282714844e+00,-1.300361871719360352e+00,-4.207052886486053467e-01,2.600000000000000000e+02
-2.331316141945085292e+02,-2.148777134501133332e+02,-3.964543165439408767e+00,2.113797918401487550e+02,-2.257499053954065857e+02,-1.009933106635330660e+02,4.797968184452565765e+01,-5.203744600636537143e+01,9.408499717712402344e+00,-1.300361871719360352e+00,-3.824593424797058105e-01,2.610000000000000000e+02
-2.333928720793487628e+02,-2.172620489311584606e+02,-1.970960202394962835e+00,2.119541695155744492e+02,-2.245105182863967457e+02,-1.012692293455388608e+02,4.881980139620713999e+01,-5.170930106238620283e+01,9.408499717712402344e+00,-1.300361871719360352e+00,-3.824593424797058105e-01,2.620000000000000000e+02
-2.341802848295142212e+02,-2.189911298728438851e+02,-2.338900766624647076e+00,2.129374689315800424e+02,-2.258993141951855250e+02,-1.011168708977161259e+02,4.894779875484482545e+01,-5.253360014257259536e+01,9.408499717712402344e+00,-1.300361871719360352e+00,-3.824593424797058105e-01,2.630000000000000000e+02
-2.349987871579846797e+02,-2.193959228567237005e+02,-3.452629326895021222e+00,2.151236287852179885e+02,-2.294293285332860250e+02,-1.003741611144300805e+02,4.928158219611555069e+01,-5.412044183822308696e+01,9.408499717712402344e+00,-1.300361871719360352e+00,-3.824593424797058105e-01,2.640000000000000000e+02
-2.358794425062222899e+02,-2.187283711145635152e+02,-4.151440490685899931e+00,2.188227928427390907e+02,-2.334406118152992349e+02,-9.922437331293144780e+01,5.112173607756176352e+01,-5.508660784328219506e+01,9.408499717712402344e+00,-1.300361871719360352e+00,-3.824593424797058105e-01,2.650000000000000000e+02
-2.373819486143702306e+02,-2.180146141631097407e+02,-4.451423722649678894e+00,2.235328694538179661e+02,-2.361049441502927948e+02,-9.792929324680449099e+01,5.453125360869955784e+01,-5.409184847180097222e+01,9.408499717712402344e+00,-1.300361871719360352e+00,-3.824593424797058105e-01,2.660000000000000000e+02
-2.399333265470205561e+02,-2.185283409601431686e+02,-5.196457930989708984e+00,2.277458649717382286e+02,-2.367653419787933444e+02,-9.680581455831270432e+01,5.742904733313059751e+01,-5.129794958996137666e+01,9.408499717712402344e+00,-1.300361871719360352e+00,-3.824593424797058105e-01,2.670000000000000000e+02
-2.432045891017523900e+02,-2.211595946227517970e+02,-7.161464208628785855e+00,2.292205460065454190e+02,-2.365670955317411881e+02,-9.649678081956312781e+01,5.668018857920242226e+01,-4.890102183056399099e+01,9.408499717712402344e+00,-1.300361871719360352e+00,-3.824593424797058105e-01,2.680000000000000000e+02
-2.461829673935633309e+02,-2.258554511267293492e+02,-1.032821265739494265e+01,2.260820486653806256e+02,-2.376739338523610741e+02,-9.799050264885499928e+01,5.074361215304702455e+01,-4.984843068685472645e+01,9.408499717712402344e+00,-1.300361871719360352e+00,-3.824593424797058105e-01,2.690000000000000000e+02
-2.479052714953563736e+02,-2.313715741118834330e+02,-1.375115199080983075e+01,2.183784469688609988e+02,-2.415023012526748971e+02,-1.019606280927623629e+02,4.171179510220883913e+01,-5.543905204334760128e+01,9.408499717712402344e+00,-1.300361871719360352e+00,-3.824593424797058105e-01,2.700000000000000000e+02
-2.481825843918344390e+02,-2.356395679879760792e+02,-1.601741014124536377e+01,2.088516178277261588e+02,-2.474079249217999177e+02,-1.078327750491298502e+02,3.464775783030381717e+01,-6.380008309663674027e+01,9.408499717712402344e+00,-1.300361871719360352e+00,-3.824593424797058105e-01,2.710000000000000000e+02
-2.477040757063336969e+02,-2.367846754161553235e+02,-1.603541757340713048e+01,2.018137957900576112e+02,-2.530357680547971313e+02,-1.135743379286916479e+02,3.426134864222672149e+01,-7.079306493984643112e+01,9.408499717712402344e+00,-1.300361871719360352e+00,-3.824593424797058105e-01,2.720000000000000000e+02
-2.475129765160824036e+02,-2.342520617053885417e+02,-1.372582733692070178e+01,2.005055398916756531e+02,-2.561190171506126489e+02,-1.167355395046188278e+02,4.141312861290259661e+01,-7.286395588037225934e+01,9.408499717712402344e+00,-1.300361871719360352e+00,-3.824593424797058105e-01,2.730000000000000000e+02
-2.483490937235936826e+02,-2.292104560897518013e+02,-1.017968995455817094e+01,2.048854251406960429e+02,-2.561639945442949511e+02,-1.160786812416592966e+02,5.233463993132090764e+01,-6.957086917437675311e+01,9.408499717712402344e+00,-1.300361871719360352e+00,-3.824593424797058105e-01,2.740000000000000000e+02
-2.503491689908187254e+02,-2.238902714681509565e+02,-7.143468324479727016e+00,2.117001082434205728e+02,-2.546019846988863264e+02,-1.124850100965950332e+02,6.121448055932614807e+01,-6.375860301328896185e+01,9.408499717712402344e+00,-1.300361871719360352e+00,-3.824593424797058105e-01,2.750000000000000000e+02
-2.531647791649438659e+02,-2.203895252763676922e+02,-6.136746523603392234e+00,2.167797809918022267e+02,-2.534888533870795300e+02,-1.084052898215727510e+02,6.398749363510864896e+01,-5.942361333589064998e+01,9.408499717712402344e+00,-1.300361871719360352e+00,-3.824593424797058105e-01,2.760000000000000000e+02
-2.562141284875668816e+02,-2.198602394264045188e+02,-7.759955526529097369e+00,2.176165697349429138e+02,-2.541214943864952147e+02,-1.063406633020522349e+02,6.035724899966908197e+01,-5.919086952823795400e+01,9.408499717712402344e+00,-1.300361871719360352e+00,-3.824593424797058105e-01,2.770000000000000000e+02
-2.588650194845149599e+02,-2.224737885328527796e+02,-1.156943849835113269e+01,2.142372254311269444e+02,-2.567505683169795248e+02,-1.075343973045410166e+02,5.291381112121189290e+01,-6.331364659593987199e+01,9.408499717712402344e+00,-1.300361871719360352e+00,-3.824593424797058105e-01,2.780000000000000000e+02
-2.605900923060493142e+02,-2.277420602504390672e+02,-1.644370105681650784e+01,2.081825419062918172e+02,-2.612176351993416574e+02,-1.116393922074230431e+02,4.475879655538176394e+01,-7.043272551586085228e+01,9.408499717712402344e+00,-1.300361871719360352e+00,-3.824593424797058105e-01,2.790000000000000000e+02
-2.612203647365741972e+02,-2.346081991383903187e+02,-2.112110957461584348e+01,2.010571060102361116e+02,-2.674404720542189580e+02,-1.172526881661729021e+02,3.787865540002508169e+01,-7.884548324078832593e+01,9.408499717712402344e+00,-1.300361871719360352e+00,-3.824593424797058105e-01,2.800000000000000000e+02
-2.611960655750333444e+02,-2.413286872753707257e+02,-2.469140720089956176e+01,1.940309287097829838e+02,-2.751265162218095384e+02,-1.227149980212236642e+02,3.314606048924213155e+01,-8.708950852352938909e+01,9.408499717712402344e+00,-1.300361871719360352e+00,-3.824593424797058105e-01,2.810000000000000000e+02
-2.614985073890765079e+02,-2.457586518971999681e+02,-2.696951905027526664e+01,1.882194374328391859e+02,-2.832345448925165101e+02,-1.267081060526709280e+02,3.102302522821958064e+01,-9.381791434888577896e+01,9.408499717712402344e+00,-1.300361871719360352e+00,-3.824593424797058105e-01,2.820000000000000000e+02
-2.631060137504941849e+02,-2.463644261070314769e+02,-2.863364384535611862e+01,1.848379676683930484e+02,-2.901232437028456843e+02,-1.285479589295327969e+02,3.170754993157561330e+01,-9.775816433613636036e+01,9.408499717712402344e+00,-1.300361871719360352e+00,-3.824593424797058105e-01,2.830000000000000000e+02
-2.662652694483664391e+02,-2.433707631865566441e+02,-3.088902630617531031e+01,1.845096713291713968e+02,-2.945230989887143096e+02,-1.282238910171980706e+02,3.460186087145950751e+01,-9.819157678507099263e+01,9.408499717712402344e+00,-1.300361871719360352e+00,-3.824593424797058105e-01,2.840000000000000000e+02
-2.701544018094210742e+02,-2.389509850232299186e+02,-3.460709469205130517e+01,1.863882144826603735e+02,-2.964341206212512816e+02,-1.262358070027092936e+02,3.806884710065889976e+01,-9.553182086412948593e+01,9.408499717712402344e+00,-1.300361871719360352e+00,-3.824593424797058105e-01,2.850000000000000000e+02
-2.732829143156643568e+02,-2.360133102628515758e+02,-3.940351098689302489e+01,1.882482909089144414e+02,-2.970052743777180240e+02,-1.233413539981959275e+02,4.020224447466353013e+01,-9.130286631566741562e+01,9.408499717712402344e+00,-1.300361871719360352e+00,-3.824593424797058105e-01,2.860000000000000000e+02
-2.743762438595950925e+02,-2.363698887492285508e+02,-4.346164189276339584e+01,1.877816570086077945e+02,-2.974556905555527919e+02,-1.203736543515723270e+02,4.010226436729089983e+01,-8.737210982554972816e+01,9.408499717712402344e+00,-1.300361871719360352e+00,-3.824593424797058105e-01,2.870000000000000000e+02
-2.731014588389628557e+02,-2.397035217296170231e+02,-4.451081198406086514e+01,1.840699947254224753e+02,-2.980546796223533192e+02,-1.181831637418811169e+02,3.845156222490845721e+01,-8.502512718590855911e+01,9.408499717712402344e+00,-1.300361871719360352e+00,-3.824593424797058105e-01,2.880000000000000000e+02
-2.701304636829055994e+02,-2.440555667814026037e+02,-4.138998169413218875e+01,1.780240950855884421e+02,-2.980788764691351389e+02,-1.175432520402334831e+02,3.685424834182663290e+01,-8.451651129889728509e+01,9.408499717712402344e+00,-1.300361871719360352e+00,-3.824593424797058105e-01,2.890000000000000000e+02
-2.666050934323398565e+02,-2.472716507482668362e+02,-3.500264534414839090e+01,1.715729123216498238e+02,-2.966992580527594328e+02,-1.188591296585902910e+02,3.660380440846483907e+01,-8.520798996541157067e+01,9.408499717712402344e+00,-1.300361871719360352e+00,-3.824593424797058105e-01,2.900000000000000000e+02
-2.635070356634292352e+02,-2.482005639329310611e+02,-2.787823188388870221e+01,1.664583828222212105e+02,-2.939324195812514517e+02,-1.218306589810111973e+02,3.795750168073686837e+01,-8.602517831255545389e+01,9.408499717712402344e+00,-1.300361871719360352e+00,-3.824593424797058105e-01,2.910000000000000000e+02
-2.613619043962499973e+02,-2.469034044100391156e+02,-2.265254011376123344e+01,1.635927928943727920e+02,-2.908348901333407639e+02,-1.254680091154656338e+02,4.031912508737809731e+01,-8.599895086531159905e+01,9.446745872497558594e+00,-1.376853704452514648e+00,-3.824593424797058105e-01,2.920000000000000000e+02
-2.602908760149567229e+02,-2.441103329682424601e+02,-2.062404541627540766e+01,1.631229465912362002e+02,-2.888576848136659692e+02,-1.286341123012551861e+02,4.282177243409830680e+01,-8.477970097138540950e+01,9.446745872497558594e+00,-1.376853704452514648e+00,-3.824593424797058105e-01,2.930000000000000000e+02
-2.601576890990107813e+02,-2.406513483211131756e+02,-2.141171121246213715e+01,1.646762632869357503e+02,-2.889302899642264038e+02,-1.307184845105858813e+02,4.467902086157255326e+01,-8.291022406586716897e+01,9.446745872497558594e+00,-1.376853704452514648e+00,-3.824593424797058105e-01,2.940000000000000000e+02
-2.606560347894568395e+02,-2.372679627131076927e+02,-2.375965128067821297e+01,1.673805603854823403e+02,-2.909379309160094635e+02,-1.318035214058807014e+02,4.526279555555947809e+01,-8.152491037589061307e+01,9.446745872497558594e+00,-1.376853704452514648e+00,-3.824593424797058105e-01,2.950000000000000000e+02
-2.614025092706204418e+02,-2.346291364974223370e+02,-2.663572901861050468e+01,1.698602984653106205e+02,-2.938679769400506530e+02,-1.321559479574601710e+02,4.428786109064128595e+01,-8.145624331996077672e+01,9.446745872497558594e+00,-1.376853704452514648e+00,-3.824593424797058105e-01,2.960000000000000000e+02
-2.620818984604316029e+02,-2.331880206280476386e+02,-2.968368988700638056e+01,1.706818993704556533e+02,-2.964016975892880055e+02,-1.315940987700748792e+02,4.221653092392136841e+01,-8.233403481453376571e+01,9.446745872497558594e+00,-1.376853704452514648e+00,-3.824593424797058105e-01,2.970000000000000000e+02
-2.625339466928141974e+02,-2.328592840039493694e+02,-3.279590865460954774e+01,1.692373371430826410e+02,-2.974789422469948477e+02,-1.294572043586077825e+02,4.042671609087074103e+01,-8.251555829516064478e+01,9.446745872497558594e+00,-1.376853704452514648e+00,-3.824593424797058105e-01,2.980000000000000000e+02
-2.626557122442492300e+02,-2.328835012629493235e+02,-3.539811512351559486e+01,1.663602800229928107e+02,-2.965058514577506230e+02,-1.252628907926119837e+02,4.063444787607056696e+01,-8.012374071231124617e+01,9.446745872497558594e+00,-1.376853704452514648e+00,-3.824593424797058105e-01,2.990000000000000000e+02
-2.622376472812152315e+02,-2.322160664652066089e+02,-3.629012724570304727e+01,1.639132742453496121e+02,-2.932790397990308975e+02,-1.194011881535697057e+02,4.372202249391489204e+01,-7.449504175731055966e+01,9.446745872497558594e+00,-1.376853704452514648e+00,-3.824593424797058105e-01,3.000000000000000000e+02
-2.610289380001235600e+02,-2.302919580353174069e+02,-3.438078965794102260e+01,1.633953862994999326e+02,-2.879578251964140918e+02,-1.131529031064072797e+02,4.885164802739427614e+01,-6.687148052301802181e+01,9.446745872497558594e+00,-1.376853704452514648e+00,-3.824593424797058105e-01,3.010000000000000000e+02
-2.590944740062745950e+02,-2.275596134968266142e+02,-2.977297480846084454e+01,1.646086484342641825e+02,-2.812335444309157992e+02,-1.079833860317953622e+02,5.370697391013766264e+01,-5.975281437613944036e+01,9.446745872497558594e+00,-1.376853704452514648e+00,-3.824593424797058105e-01,3.020000000000000000e+02
-2.570980077525135243e+02,-2.252506021498929272e+02,-2.422265429975084317e+01,1.655835811255186627e+02,-2.744543316641098727e+02,-1.047492662462152566e+02,5.583952858143481990e+01,-5.546123822448146257e+01,9.446745872497558594e+00,-1.376853704452514648e+00,-3.824593424797058105e-01,3.030000000000000000e+02
-2.560466397030010626e+02,-2.244625376113912694e+02,-2.038340773202764922e+01,1.639996934327878080e+02,-2.693145491411345347e+02,-1.034762847518587705e+02,5.419268290794343557e+01,-5.505738806575675426e+01,9.446745872497558594e+00,-1.376853704452514648e+00,-3.824593424797058105e-01,3.040000000000000000e+02
-2.565264590396698168e+02,-2.252599380511173308e+02,-2.021490940761714228e+01,1.590256179627317579e+02,-2.670842234601036580e+02,-1.037618496363721761e+02,4.972663292113031730e+01,-5.827242804271099885e+01,9.446745872497558594e+00,-1.376853704452514648e+00,-3.824593424797058105e-01,3.050000000000000000e+02
-2.580757446580880128e+02,-2.265379613679771751e+02,-2.366823641636233333e+01,1.520729186012821401e+02,-2.678828245901380569e+02,-1.052626312911081641e+02,4.481150404906588847e+01,-6.409956651844595399e+01,9.446745872497558594e+00,-1.376853704452514648e+00,-3.824593424797058105e-01,3.060000000000000000e+02
-2.593948210158918073e+02,-2.268332851004573740e+02,-2.864984978268728355e+01,1.458239227663812017e+02,-2.706331567527330435e+02,-1.077744790556222370e+02,4.188829630223995082e+01,-7.127129664092569783e+01,9.446745872497558594e+00,-1.376853704452514648e+00,-3.824593424797058105e-01,3.070000000000000000e+02
-2.593872891864577355e+02,-2.254781286355863017e+02,-3.233593322070760223e+01,1.423471153666062037e+02,-2.738065187996600116e+02,-1.109276272113405639e+02,4.224273951161819696e+01,-7.828890059199932239e+01,9.446745872497558594e+00,-1.376853704452514648e+00,-3.824593424797058105e-01,3.080000000000000000e+02
-2.581469880683490032e+02,-2.231545265164579632e+02,-3.290669760829837287e+01,1.418467003877866546e+02,-2.763490702909480206e+02,-1.139394332968171284e+02,4.552989283286842692e+01,-8.335888224591349172e+01,9.446745872497558594e+00,-1.376853704452514648e+00,-3.824593424797058105e-01,3.090000000000000000e+02
-2.569361683855796628e+02,-2.213718617544217295e+02,-3.053488123091210582e+01,1.429243718543553996e+02,-2.780596999031664609e+02,-1.158233306145763208e+02,5.015109223270576422e+01,-8.481542709244581602e+01,9.446745872497558594e+00,-1.376853704452514648e+00,-3.824593424797058105e-01,3.100000000000000000e+02
-2.570559253644004798e+02,-2.212430140350849115e+02,-2.706724546017164812e+01,1.438862051195848153e+02,-2.792530279350127103e+02,-1.159765623795071861e+02,5.419627314609158475e+01,-8.201623980816293624e+01,9.446745872497558594e+00,-1.376853704452514648e+00,-3.824593424797058105e-01,3.110000000000000000e+02
-2.585584300863287694e+02,-2.225280019648780012e+02,-2.473392890953402912e+01,1.438750700262073678e+02,-2.801773396892079973e+02,-1.146469757168199521e+02,5.646675463972007947e+01,-7.599453888833227211e+01,9.446745872497558594e+00,-1.376853704452514648e+00,-3.824593424797058105e-01,3.120000000000000000e+02
-2.599415703468671381e+02,-2.237058861786492230e+02,-2.475690677731927281e+01,1.430331449749173771e+02,-2.807277417736092957e+02,-1.128064221898476944e+02,5.707762088668755496e+01,-6.912597436638054660e+01,9.446745872497558594e+00,-1.262115836143493652e+00,-3.442134261131286621e-01,3.130000000000000000e+02
-2.591342260389299668e+02,-2.230235742695755903e+02,-2.668245546452817507e+01,1.419241744833311714e+02,-2.805542447002636663e+02,-1.114300945893509152e+02,5.729794596353929137e+01,-6.382539525913512080e+01,9.446745872497558594e+00,-1.262115836143493652e+00,-3.442134261131286621e-01,3.140000000000000000e+02
-2.550152406074280407e+02,-2.197297100476891956e+02,-2.878078870818671930e+01,1.409711551936507021e+02,-2.793142327050463791e+02,-1.107387097024395644e+02,5.866740659716492701e+01,-6.116979513730052531e+01,9.446745872497558594e+00,-1.262115836143493652e+00,-3.442134261131286621e-01,3.150000000000000000e+02
-2.482910381974908205e+02,-2.145580906113297601e+02,-2.923264487225981156e+01,1.403665236376381245e+02,-2.768585022256114598e+02,-1.100748721889414128e+02,6.193496227685614031e+01,-6.048252122106021034e+01,9.446745872497558594e+00,-1.262115836143493652e+00,-3.442134261131286621e-01,3.160000000000000000e+02
-2.411196207446821518e+02,-2.091346159355615555e+02,-2.737122635302171147e+01,1.402703010609131979e+02,-2.733695339769905104e+02,-1.085716278032728042e+02,6.652774607642072624e+01,-6.019298795794486523e+01,9.446745872497558594e+00,-1.262115836143493652e+00,-3.442134261131286621e-01,3.170000000000000000e+02
-2.358168200602342495e+02,-2.048095141505839365e+02,-2.416257421904958846e+01,1.408916806165636899e+02,-2.694889936544302600e+02,-1.060513129539352803e+02,7.091160315247316248e+01,-5.924859483101954538e+01,9.446745872497558594e+00,-1.262115836143493652e+00,-3.442134261131286621e-01,3.180000000000000000e+02
-2.335686430783334799e+02,-2.018365415796777143e+02,-2.155460988135689604e+01,1.423443171121728028e+02,-2.662651969820043405e+02,-1.033282223785035967e+02,7.356145895431609461e+01,-5.792794067980787531e+01,9.446745872497558594e+00,-1.262115836143493652e+00,-3.442134261131286621e-01,3.190000000000000000e+02
-2.339690064823740840e+02,-1.995338132675469183e+02,-2.116096585827358467e+01,1.444431734429640528e+02,-2.647363572801533564e+02,-1.016194815525998365e+02,7.378897582429738122e+01,-5.745235605667801337e+01,9.446745872497558594e+00,-1.262115836143493652e+00,-3.442134261131286621e-01,3.200000000000000000e+02
-2.355461411490249475e+02,-1.972258809494719571e+02,-2.326541892669933986e+01,1.466189632428537379e+02,-2.652899243647159437e+02,-1.015741727195191970e+02,7.189624504234575397e+01,-5.878336244981778691e+01,9.446745872497558594e+00,-1.262115836143493652e+00,-3.442134261131286621e-01,3.210000000000000000e+02
-2.367622322917075053e+02,-1.950852602806119194e+02,-2.684411207247353559e+01,1.479777814874851174e+02,-2.672706129471440590e+02,-1.027680336289985235e+02,6.875687264357401318e+01,-6.163886607012705099e+01,9.446745872497558594e+00,-1.262115836143493652e+00,-3.442134261131286621e-01,3.220000000000000000e+02
-2.367519338124193382e+02,-1.940756297346728161e+02,-3.042610560474849990e+01,1.475089309069592218e+02,-2.692279857276022312e+02,-1.040544265056416862e+02,6.533056128520229322e+01,-6.454083729199874142e+01,9.446745872497558594e+00,-1.262115836143493652e+00,-3.442134261131286621e-01,3.230000000000000000e+02
-2.353966166355735368e+02,-1.950037343339236031e+02,-3.294554609397107470e+01,1.445255017924640697e+02,-2.697033591978921550e+02,-1.043767665200577994e+02,6.248850201580467001e+01,-6.582242974620066889e+01,9.446745872497558594e+00,-1.262115836143493652e+00,-3.442134261131286621e-01,3.240000000000000000e+02
-2.329222557595489889e+02,-1.975531276032211281e+02,-3.395432275695725366e+01,1.392668173095187285e+02,-2.680377315051289315e+02,-1.033423640071268892e+02,6.101939169593299539e+01,-6.475844464049760063e+01,9.446745872497558594e+00,-1.262115836143493652e+00,-3.442134261131286621e-01,3.250000000000000000e+02
-2.295452912205635130e+02,-2.002604095725007483e+02,-3.333031748773078107e+01,1.332214787847187836e+02,-2.646710482390674315e+02,-1.012094644152030014e+02,6.145628662895700245e+01,-6.193964972253695578e+01,9.446745872497558594e+00,-1.262115836143493652e+00,-3.442134261131286621e-01,3.260000000000000000e+02
-2.255359210613482901e+02,-2.015727291169287128e+02,-3.110190793557080724e+01,1.286173771425104633e+02,-2.607884218584869132e+02,-9.849407572730797256e+01,6.367092144789910435e+01,-5.868922417045064321e+01,9.446745872497558594e+00,-1.262115836143493652e+00,-3.442134261131286621e-01,3.270000000000000000e+02
-2.215271623320911658e+02,-2.010615037271813890e+02,-2.766251972204702270e+01,1.271000209391658018e+02,-2.575680495248574289e+02,-9.559890295490163226e+01,6.666405413566928928e+01,-5.608887242998741840e+01,9.446745872497558594e+00,-1.262115836143493652e+00,-3.442134261131286621e-01,3.280000000000000000e+02
-2.185631250492081108e+02,-1.996540801188220939e+02,-2.396385855485857519e+01,1.284865473223976551e+02,-2.554839099196087773e+02,-9.266369489225735379e+01,6.898335523119800428e+01,-5.443550470355694415e+01,9.446745872497558594e+00,-1.262115836143493652e+00,-3.442134261131286621e-01,3.290000000000000000e+02
-2.176313187194275542e+02,-1.986802391731267790e+02,-2.118482684746345512e+01,1.306914559822438378e+02,-2.541216690406646421e+02,-8.964802883408742673e+01,6.957489804747211792e+01,-5.352927897527627010e+01,9.446745872497558594e+00,-1.262115836143493652e+00,-3.442134261131286621e-01,3.300000000000000000e+02
-2.190017264913419694e+02,-1.986730690769298917e+02,-2.001649620517673611e+01,1.310701391429704472e+02,-2.527084008521613896e+02,-8.659646108774916229e+01,6.834355212497661114e+01,-5.344599115874757445e+01,9.446745872497558594e+00,-1.262115836143493652e+00,-3.442134261131286621e-01,3.310000000000000000e+02
-2.219737148917616878e+02,-1.990759322341693860e+02,-2.026889658331208466e+01,1.282120655131675449e+02,-2.510340156116083108e+02,-8.396434403073203612e+01,6.590348952781198477e+01,-5.502152255792009328e+01,9.446745872497558594e+00,-1.262115836143493652e+00,-3.442134261131286621e-01,3.320000000000000000e+02
-2.252988169318425662e+02,-1.990570970107661424e+02,-2.127069444493577066e+01,1.227663806964305877e+02,-2.499900650036420302e+02,-8.269784001902712589e+01,6.280331184193062199e+01,-5.950788520159665040e+01,9.446745872497558594e+00,-1.262115836143493652e+00,-3.442134261131286621e-01,3.330000000000000000e+02
-2.279079060326166655e+02,-1.985016110451035729e+02,-2.268054485517075136e+01,1.167117216561891837e+02,-2.510729755017603111e+02,-8.376151927802561659e+01,5.906994930614666828e+01,-6.756411933221204436e+01,9.446745872497558594e+00,-1.262115836143493652e+00,-3.442134261131286621e-01,3.340000000000000000e+02
-2.293123130924656152e+02,-1.981292983536982319e+02,-2.484202668425768934e+01,1.118037562008262285e+02,-2.550497292520966539e+02,-8.724875469246421744e+01,5.457326015770581762e+01,-7.834588395196919919e+01,9.446745872497558594e+00,-1.262115836143493652e+00,-3.442134261131286621e-01,3.350000000000000000e+02
-2.294718601155155966e+02,-1.986564274756481154e+02,-2.830544853592846266e+01,1.085287536633226182e+02,-2.609283849331560532e+02,-9.181952301366709435e+01,4.976111228445699908e+01,-8.948502396028231942e+01,9.446745872497558594e+00,-1.262115836143493652e+00,-3.442134261131286621e-01,3.360000000000000000e+02
-2.285230740771521596e+02,-1.999217990380793708e+02,-3.305839793397706217e+01,1.062745031974651511e+02,-2.663283196690160821e+02,-9.524138548326027376e+01,4.580251505923536115e+01,-9.815942666450860088e+01,9.446745872497558594e+00,-1.262115836143493652e+00,-3.442134261131286621e-01,3.370000000000000000e+02
-2.268510174501932397e+02,-2.009239671672322629e+02,-3.835078715717861542e+01,1.042458088295313701e+02,-2.691747103051679915e+02,-9.592820169302990507e+01,4.373674566927479646e+01,-1.026491876231273181e+02,9.484992027282714844e+00,-1.223870038986206055e+00,-3.442134261131286621e-01,3.380000000000000000e+02
-2.254348462480470516e+02,-2.007613452192758814e+02,-4.336759788324877718e+01,1.021127945237736867e+02,-2.693428631496929029e+02,-9.429332131693399788e+01,4.332893843100214326e+01,-1.033605307251858676e+02,9.484992027282714844e+00,-1.223870038986206055e+00,-3.442134261131286621e-01,3.390000000000000000e+02
-2.258690472293651510e+02,-1.995702350815508908e+02,-4.808589380472415087e+01,9.983867112610289496e+01,-2.687793291377410014e+02,-9.265567482344954442e+01,4.281999218731266410e+01,-1.025958268955348558e+02,9.484992027282714844e+00,-1.223870038986206055e+00,-3.442134261131286621e-01,3.400000000000000000e+02
-2.295958151871111568e+02,-1.985991607416269744e+02,-5.340480979278459017e+01,9.703718597814213354e+01,-2.699541770341340907e+02,-9.361150563286719262e+01,4.003560087417133673e+01,-1.031651416789379709e+02,9.484992027282714844e+00,-1.223870038986206055e+00,-3.442134261131286621e-01,3.410000000000000000e+02
-2.367178926569065425e+02,-1.994180164534531059e+02,-6.035864329298385655e+01,9.267126868746026958e+01,-2.740066978532468056e+02,-9.818108677624536540e+01,3.398415382498399140e+01,-1.067400960630072859e+02,9.484992027282714844e+00,-1.223870038986206055e+00,-3.442134261131286621e-01,3.420000000000000000e+02
-2.454419198700520610e+02,-2.030043806087112443e+02,-6.912802193909465132e+01,8.553046077753174359e+01,-2.801564360099284841e+02,-1.052663753707468004e+02,2.552754924052442220e+01,-1.130622691206408490e+02,9.484992027282714844e+00,-1.223870038986206055e+00,-3.442134261131286621e-01,3.430000000000000000e+02
-2.529013578741111132e+02,-2.093758270839525721e+02,-7.873242296573732801e+01,7.512958350421831710e+01,-2.867017809160811339e+02,-1.127558426657933524e+02,1.654491838653575542e+01,-1.205088608168806559e+02,9.484992027282714844e+00,-1.223870038986206055e+00,-3.442134261131286621e-01,3.440000000000000000e+02
-2.569548028310350674e+02,-2.178242204689524897e+02,-8.763875308318790758e+01,6.222314398856269690e+01,-2.925407567955523973e+02,-1.191923152780020700e+02,8.395111056066866695e+00,-1.275271461289428316e+02,9.484992027282714844e+00,-1.223870038986206055e+00,-3.442134261131286621e-01,3.450000000000000000e+02
-2.576061988760695840e+02,-2.273300883465969946e+02,-9.472076352900637630e+01,4.844336510080768221e+01,-2.978711789687063174e+02,-1.245874114934083536e+02,1.102958494769950448e+00,-1.337858113326963121e+02,9.484992027282714844e+00,-1.223870038986206055e+00,-3.442134261131286621e-01,3.460000000000000000e+02
-2.568877616271643092e+02,-2.368081648625502567e+02,-9.979065870984561570e+01,3.531059709122519052e+01,-3.036399577867332482e+02,-1.299086023906429546e+02,-6.078356580068316362e+00,-1.401334129891552038e+02,9.484992027282714844e+00,-1.223870038986206055e+00,-3.442134261131286621e-01,3.470000000000000000e+02
-2.572873329624934513e+02,-2.452059403372045381e+02,-1.033839766328095493e+02,2.340886572980366509e+01,-3.104333378919636743e+02,-1.359471455744107971e+02,-1.344880082280110400e+01,-1.474652260515208582e+02,9.484992027282714844e+00,-1.223870038986206055e+00,-3.442134261131286621e-01,3.480000000000000000e+02
-2.599618929958030549e+02,-2.516275225499654198e+02,-1.061029158673101165e+02,1.239211356172836531e+01,-3.177959097036048206e+02,-1.426074568444339548e+02,-2.026125233479160670e+01,-1.555100389489164172e+02,9.484992027282714844e+00,-1.223870038986206055e+00,-3.442134261131286621e-01,3.490000000000000000e+02
-2.640878076405783759e+02,-2.555241950873139558e+02,-1.080918616234893079e+02,1.767548551467598372e+00,-3.244155698561999088e+02,-1.490469393936818960e+02,-2.528264620096854287e+01,-1.626201042609441174e+02,9.484992027282714844e+00,-1.223870038986206055e+00,-3.442134261131286621e-01,3.500000000000000000e+02
-2.676709708204416529e+02,-2.568220575921504860e+02,-1.090174954760655055e+02,-8.256386118406908281e+00,-3.289031092832540253e+02,-1.543189306481131098e+02,-2.786309370978699462e+01,-1.667745417293847368e+02,9.484992027282714844e+00,-1.223870038986206055e+00,-3.442134261131286621e-01,3.510000000000000000e+02
-2.689453935374815501e+02,-2.558587820297600501e+02,-1.084595438715114142e+02,-1.659144850518350722e+01,-3.305546299758429996e+02,-1.578907224514982772e+02,-2.838356949449519107e+01,-1.669406710045072941e+02,9.484992027282714844e+00,-1.223870038986206055e+00,-3.442134261131286621e-01,3.520000000000000000e+02
-2.672556941417715279e+02,-2.531866382178482127e+02,-1.063466907423016892e+02,-2.194666201530594662e+01,-3.296329969134608291e+02,-1.597258879843097930e+02,-2.770732998938706260e+01,-1.636688016283851539e+02,9.484992027282714844e+00,-1.223870038986206055e+00,-3.442134261131286621e-01,3.530000000000000000e+02
-2.630452361466936964e+02,-2.494129290061960091e+02,-1.031491919262939518e+02,-2.385383618453874988e+01,-3.271009865792307210e+02,-1.600526245926007505e+02,-2.635040423988050406e+01,-1.585636009478566848e+02,9.484992027282714844e+00,-1.223870038986206055e+00,-3.442134261131286621e-01,3.540000000000000000e+02
-2.574003553277600531e+02,-2.451890498285395097e+02,-9.978639862455429466e+01,-2.327429147960219780e+01,-3.240677334856975449e+02,-1.591381784113109461e+02,-2.433773848199166423e+01,-1.532794341707576677e+02,9.484992027282714844e+00,-1.223870038986206055e+00,-3.442134261131286621e-01,3.550000000000000000e+02
-2.517089546680156218e+02,-2.412868073685717718e+02,-9.736875330682414642e+01,-2.235216242388196406e+01,-3.213326921492239308e+02,-1.572886851345665491e+02,-2.186628128624965939e+01,-1.489470752975585128e+02,9.484992027282714844e+00,-1.223870038986206055e+00,-3.442134261131286621e-01,3.560000000000000000e+02
-2.474238434258777488e+02,-2.385591705845597517e+02,-9.684220729420826501e+01,-2.341817323157238206e+01,-3.192463428042615305e+02,-1.550091569256928778e+02,-1.988300362172674340e+01,-1.462667279706288355e+02,9.484992027282714844e+00,-1.223870038986206055e+00,-3.442134261131286621e-01,3.570000000000000000e+02
-2.456016317149908446e+02,-2.376651081594563948e+02,-9.857996337680128818e+01,-2.779279712312745687e+01,-3.178196160784095810e+02,-1.530625604603010288e+02,-1.969268761040814297e+01,-1.457378322948850382e+02,9.484992027282714844e+00,-1.223870038986206055e+00,-3.442134261131286621e-01,3.580000000000000000e+02
-2.462521776645053251e+02,-2.386639376613459262e+02,-1.020682773653579716e+02,-3.506775244151685911e+01,-3.168614991637859930e+02,-1.522070563772908827e+02,-2.178956172448204143e+01,-1.474829279215859970e+02,9.484992027282714844e+00,-1.223870038986206055e+00,-3.442134261131286621e-01,3.590000000000000000e+02
-2.480801174876867208e+02,-2.407794540711545324e+02,-1.059656036428129937e+02,-4.333018669083685381e+01,-3.160333844533442971e+02,-1.526762179888323772e+02,-2.508747251685599622e+01,-1.508069200032318804e+02,9.484992027282714844e+00,-1.223870038986206055e+00,-3.442134261131286621e-01,3.600000000000000000e+02
-2.491515739581427624e+02,-2.426087584139145292e+02,-1.086998556578373609e+02,-5.027675152990263996e+01,-3.149265691451184921e+02,-1.538118495175031057e+02,-2.749740170410564133e+01,-1.541581676485766366e+02,9.484992027282714844e+00,-1.223870038986206055e+00,-3.442134261131286621e-01,3.610000000000000000e+02
-2.481672098144072152e+02,-2.427705710565960544e+02,-1.093141133434060066e+02,-5.456695882921076191e+01,-3.132604419281103674e+02,-1.542768962878997172e+02,-2.748719262900101512e+01,-1.558423589956482829e+02,9.484992027282714844e+00,-1.223870038986206055e+00,-3.442134261131286621e-01,3.620000000000000000e+02
-2.452782797367603962e+02,-2.406305185800633808e+02,-1.079275761014428099e+02,-5.650116557919363913e+01,-3.110613329658010571e+02,-1.528562659664496550e+02,-2.519893519779600410e+01,-1.549872464396353280e+02,9.484992027282714844e+00,-1.223870038986206055e+00,-3.442134261131286621e-01,3.630000000000000000e+02
-2.416667199271228128e+02,-2.365943016712817553e+02,-1.053966749215055643e+02,-5.750744662828469700e+01,-3.085508915546165554e+02,-1.493048213866704828e+02,-2.203284255694325111e+01,-1.518706013061091653e+02,9.484992027282714844e+00,-1.223870038986206055e+00,-3.442134261131286621e-01,3.640000000000000000e+02
-2.383070945457054677e+02,-2.317455963818160853e+02,-1.024562525014684979e+02,-5.884052758638654268e+01,-3.057291452299768935e+02,-1.445600339728839572e+02,-1.910176326108876310e+01,-1.473103258339169770e+02,9.408499717712402344e+00,-1.262115836143493652e+00,-3.059675097465515137e-01,3.650000000000000000e+02
-2.351770275866849715e+02,-2.271118044706554429e+02,-9.915723154550983054e+01,-6.058214155366613340e+01,-3.020671670468045704e+02,-1.401152495915903273e+02,-1.608966157294605637e+01,-1.417800899819085316e+02,9.408499717712402344e+00,-1.262115836143493652e+00,-3.059675097465515137e-01,3.660000000000000000e+02
-2.316901560884070932e+02,-2.231436217127943564e+02,-9.514623796081900764e+01,-6.179339723571774812e+01,-2.967549569015513953e+02,-1.370139308107422949e+02,-1.165519789356267211e+01,-1.351713420008318280e+02,9.408499717712402344e+00,-1.262115836143493652e+00,-3.059675097465515137e-01,3.670000000000000000e+02
-2.277689318402458412e+02,-2.197924020721179659e+02,-9.043979770110968275e+01,-6.164735313541768846e+01,-2.894209373494090869e+02,-1.352066500701912446e+02,-5.005650990207868745e+00,-1.273956307836776887e+02,9.408499717712402344e+00,-1.262115836143493652e+00,-3.059675097465515137e-01,3.680000000000000000e+02
-2.242364341415088802e+02,-2.170105534894723860e+02,-8.577178045463892886e+01,-6.046648909237569569e+01,-2.806644877621474734e+02,-1.337019788696256910e+02,2.905964406766997854e+00,-1.191113684467295570e+02,9.408499717712402344e+00,-1.262115836143493652e+00,-3.059675097465515137e-01,3.690000000000000000e+02
-2.219716459937385480e+02,-2.151102872696458235e+02,-8.203468018470607603e+01,-5.969231454388227576e+01,-2.718320925341417933e+02,-1.313286592374324755e+02,9.759902678070375259e+00,-1.117052860995947867e+02,9.408499717712402344e+00,-1.262115836143493652e+00,-3.059675097465515137e-01,3.700000000000000000e+02
-2.207353866673747689e+02,-2.145758204741914597e+02,-7.938934731199697126e+01,-6.082585833788516538e+01,-2.641816392875950896e+02,-1.275343635752096816e+02,1.349055935926821803e+01,-1.064787109295934897e+02,9.408499717712402344e+00,-1.262115836143493652e+00,-3.059675097465515137e-01,3.710000000000000000e+02
-2.190662172847441980e+02,-2.154883384573249714e+02,-7.707420741122609797e+01,-6.429733948113153019e+01,-2.581596853882774667e+02,-1.227024358514859159e+02,1.370147828917026800e+01,-1.038346236260310889e+02,9.408499717712402344e+00,-1.262115836143493652e+00,-3.059675097465515137e-01,3.720000000000000000e+02
-2.155279044793937828e+02,-2.171041411663434246e+02,-7.423585515994227535e+01,-6.916601480201188679e+01,-2.533489568393181344e+02,-1.178206206837114678e+02,1.176938532499843859e+01,-1.031784383899962450e+02,9.408499717712402344e+00,-1.262115836143493652e+00,-3.059675097465515137e-01,3.730000000000000000e+02
-2.100887458709587463e+02,-2.180376195729083975e+02,-7.095676182934653298e+01,-7.374044594293172850e+01,-2.489633054932887717e+02,-1.137654187374073445e+02,9.782749674627893910e+00,-1.034869719010316658e+02,9.408499717712402344e+00,-1.262115836143493652e+00,-3.059675097465515137e-01,3.740000000000000000e+02
-2.041758724588985388e+02,-2.170055671276002158e+02,-6.836355992488006450e+01,-7.648753944632176172e+01,-2.443645136671902947e+02,-1.107134948761658961e+02,9.345457789351257816e+00,-1.039043011010737700e+02,9.408499717712402344e+00,-1.262115836143493652e+00,-3.059675097465515137e-01,3.750000000000000000e+02
-1.992901557732518540e+02,-2.136081733725864069e+02,-6.760339294466098181e+01,-7.659653011736077133e+01,-2.392741967815841235e+02,-1.081088461418985389e+02,1.107187517852116798e+01,-1.038793449781014715e+02,9.408499717712402344e+00,-1.262115836143493652e+00,-3.059675097465515137e-01,3.760000000000000000e+02
-1.955753782126603255e+02,-2.085766294068555453e+02,-6.865634177879178424e+01,-7.406768374770172159e+01,-2.337583530522329056e+02,-1.051923656572639629e+02,1.472856303887624563e+01,-1.029871438590218986e+02,9.408499717712402344e+00,-1.262115836143493652e+00,-3.059675097465515137e-01,3.770000000000000000e+02
-1.918210552497666868e+02,-2.033073251706273368e+02,-7.015850721555557357e+01,-6.954751074719524695e+01,-2.281608870895770451e+02,-1.016378157406529681e+02,1.949461793072919136e+01,-1.008740037478410159e+02,9.408499717712402344e+00,-1.262115836143493652e+00,-3.059675097465515137e-01,3.780000000000000000e+02
-1.869273576995456096e+02,-1.990281365055770948e+02,-7.042129131653382501e+01,-6.411647359093194609e+01,-2.229603726686855225e+02,-9.776038005892041838e+01,2.409103264611462691e+01,-9.748609461581304458e+01,9.408499717712402344e+00,-1.262115836143493652e+00,-3.059675097465515137e-01,3.790000000000000000e+02
-1.813782004120832880e+02,-1.961946272711090842e+02,-6.868826967319023424e+01,-5.904021609040796648e+01,-2.184688683867618693e+02,-9.419308147202445980e+01,2.703931115841737665e+01,-9.328240068489708392e+01,9.408499717712402344e+00,-1.262115836143493652e+00,-3.059675097465515137e-01,3.800000000000000000e+02
-1.772259833502926085e+02,-1.945034810432284758e+02,-6.551008122007397105e+01,-5.545636423954692873e+01,-2.145405205260012735e+02,-9.144281840330768318e+01,2.730743995205170904e+01,-8.908422094037723582e+01,9.408499717712402344e+00,-1.262115836143493652e+00,-3.059675097465515137e-01,3.810000000000000000e+02
-1.764844838563783469e+02,-1.934164120231650941e+02,-6.203223166062502969e+01,-5.408595492809899952e+01,-2.106239973362191904e+02,-8.977831412424166047e+01,2.504683031828722051e+01,-8.560736999282994475e+01,9.408499717712402344e+00,-1.262115836143493652e+00,-3.059675097465515137e-01,3.820000000000000000e+02
-1.792864079764042344e+02,-1.926892899736296840e+02,-5.897588718928682283e+01,-5.506972256719109282e+01,-2.062276933797686524e+02,-8.939772128537697427e+01,2.175016987843105198e+01,-8.307275400382286534e+01,9.408499717712402344e+00,-1.262115836143493652e+00,-3.059675097465515137e-01,3.830000000000000000e+02
-1.833988548839781743e+02,-1.924459556802796669e+02,-5.623156620165582353e+01,-5.794017700327685816e+01,-2.014067855658026929e+02,-9.043789658627383687e+01,1.945831047105548350e+01,-8.122979730087581629e+01,9.408499717712402344e+00,-1.262115836143493652e+00,-3.059675097465515137e-01,3.840000000000000000e+02
-1.855446571949814825e+02,-1.927729381703427407e+02,-5.328015481015268051e+01,-6.170477314445224692e+01,-1.967806608939906710e+02,-9.259215115124106887e+01,1.948032543193494348e+01,-7.971416038716620278e+01,9.408499717712402344e+00,-1.262115836143493652e+00,-3.059675097465515137e-01,3.850000000000000000e+02
-1.835224790746735835e+02,-1.932781155237994426e+02,-4.991608824443778758e+01,-6.510045398883539747e+01,-1.930524479351413447e+02,-9.474462660669541947e+01,2.160934953188757390e+01,-7.838135016124556387e+01,9.408499717712402344e+00,-1.262115836143493652e+00,-3.059675097465515137e-01,3.860000000000000000e+02
-1.775780406433855205e+02,-1.931236450101382616e+02,-4.662042718921452433e+01,-6.709043317490386471e+01,-1.905254504838667344e+02,-9.528060428232629420e+01,2.442807914731383789e+01,-7.737512608850352080e+01,9.408499717712402344e+00,-1.262115836143493652e+00,-3.059675097465515137e-01,3.870000000000000000e+02
-1.701094175462831117e+02,-1.916046828607720727e+02,-4.436398345132693066e+01,-6.745092848331751156e+01,-1.890786910363349307e+02,-9.313159288442921024e+01,2.638602473306423235e+01,-7.697100000787349927e+01,9.408499717712402344e+00,-1.262115836143493652e+00,-3.059675097465515137e-01,3.880000000000000000e+02
-1.640086240678479044e+02,-1.887657901169552588e+02,-4.407099139640649810e+01,-6.700601263408816521e+01,-1.884931479992396817e+02,-8.869610365205699054e+01,2.676165667871555343e+01,-7.735044218800430826e+01,9.408499717712402344e+00,-1.262115836143493652e+00,-3.059675097465515137e-01,3.890000000000000000e+02
-1.608638851731348041e+02,-1.854445659793173036e+02,-4.610006383941322383e+01,-6.715615623530129596e+01,-1.886531642190821003e+02,-8.365885065196562209e+01,2.584814148881491747e+01,-7.841856060254167460e+01,9.408499717712402344e+00,-1.262115836143493652e+00,-3.059675097465515137e-01,3.900000000000000000e+02
-1.602406951104462678e+02,-1.826107236174020727e+02,-4.998792748596952151e+01,-6.890251704738602712e+01,-1.894111913101914979e+02,-7.970422187844087603e+01,2.441862989420769736e+01,-7.974597978561496348e+01,9.408499717712402344e+00,-1.262115836143493652e+00,-3.059675097465515137e-01,3.910000000000000000e+02
-1.603770560881760048e+02,-1.805315143874222485e+02,-5.453325191628027824e+01,-7.209583091326271642e+01,-1.903777951327792834e+02,-7.722378393458075152e+01,2.307208588738899380e+01,-8.068520008670270727e+01,9.408499717712402344e+00,-1.262115836143493652e+00,-3.059675097465515137e-01,3.920000000000000000e+02
-1.595910875075342119e+02,-1.785297906717328260e+02,-5.820216512976617196e+01,-7.555444701967599030e+01,-1.909863564590018541e+02,-7.519381409327979782e+01,2.197193511121076881e+01,-8.066765999612334781e+01,9.408499717712402344e+00,-1.262115836143493652e+00,-3.059675097465515137e-01,3.930000000000000000e+02
-1.573073405060379173e+02,-1.756067848578911708e+02,-5.974004748370339257e+01,-7.797000950536425989e+01,-1.908030756624971218e+02,-7.228252059479564195e+01,2.100251014432046759e+01,-7.954651317429966184e+01,9.408499717712402344e+00,-1.262115836143493652e+00,-3.059675097465515137e-01,3.940000000000000000e+02
-1.540807608549496308e+02,-1.714135419232291042e+02,-5.872789245440435479e+01,-7.881725799897981233e+01,-1.897246282160958799e+02,-6.808424944132184464e+01,2.004479900087471833e+01,-7.770038529354928869e+01,9.408499717712402344e+00,-1.262115836143493652e+00,-3.059675097465515137e-01,3.950000000000000000e+02
-1.508858460470330556e+02,-1.667024621193968414e+02,-5.575680293584332503e+01,-7.851216234967796481e+01,-1.878398446292544577e+02,-6.334478344958370144e+01,1.913113378957405075e+01,-7.573358780781222777e+01,9.446745872497558594e+00,-1.300361871719360352e+00,-4.207052886486053467e-01,3.960000000000000000e+02
-1.484075975938785632e+02,-1.628142719936640788e+02,-5.205243198528705761e+01,-7.779540331670295927e+01,-1.851555572548941200e+02,-5.910566194316879773e+01,1.846089910514592702e+01,-7.397202368403713990e+01,9.446745872497558594e+00,-1.300361871719360352e+00,-4.207052886486053467e-01,3.970000000000000000e+02
-1.468202148848215529e+02,-1.606354534860406602e+02,-4.876460224010111233e+01,-7.703253428740708841e+01,-1.815704010949534677e+02,-5.574743115540604776e+01,1.834850115000085680e+01,-7.222780092666152996e+01,9.446745872497558594e+00,-1.300361871719360352e+00,-4.207052886486053467e-01,3.980000000000000000e+02
-1.459340345214632180e+02,-1.599312586003484284e+02,-4.640613807416457348e+01,-7.611049181131465957e+01,-1.771686661616281526e+02,-5.286946302763590211e+01,1.911344892033025644e+01,-7.011485748370296278e+01,9.446745872497558594e+00,-1.300361871719360352e+00,-4.207052886486053467e-01,3.990000000000000000e+02
-1.453480948181161239e+02,-1.596242950465343711e+02,-4.484150538216317727e+01,-7.494252762241603705e+01,-1.725042920564342239e+02,-4.999596744798600412e+01,2.086932829061834127e+01,-6.765771584506774161e+01,9.446745872497558594e+00,-1.300361871719360352e+00,-4.207052886486053467e-01,4.000000000000000000e+02
-1.445457503765460388e+02,-1.587294126411013622e+02,-4.378171897675861146e+01,-7.395339811283065501e+01,-1.685347976279936120e+02,-4.726281898322895358e+01,2.327586167568347264e+01,-6.558471208499349814e+01,9.446745872497558594e+00,-1.300361871719360352e+00,-4.207052886486053467e-01,4.010000000000000000e+02
-1.431245314046022941e+02,-1.570547957288961243e+02,-4.327927048406627364e+01,-7.390851449803221840e+01,-1.661895795463419745e+02,-4.533728258989776805e+01,2.551494476270636369e+01,-6.488511798968056610e+01,9.446745872497558594e+00,-1.300361871719360352e+00,-4.207052886486053467e-01,4.020000000000000000e+02
-1.411718100239922933e+02,-1.550531042657287344e+02,-4.370461964365426866e+01,-7.513152274559661237e+01,-1.658591034115529510e+02,-4.467188633501973527e+01,2.668498353529753331e+01,-6.588960892295062877e+01,9.446745872497558594e+00,-1.300361871719360352e+00,-4.207052886486053467e-01,4.030000000000000000e+02
-1.394076460170590508e+02,-1.530728273056054149e+02,-4.521592528561313884e+01,-7.685856418776938881e+01,-1.671242793453025115e+02,-4.489423804048192324e+01,2.641888994933765389e+01,-6.768873282129379731e+01,9.446745872497558594e+00,-1.300361871719360352e+00,-4.207052886486053467e-01,4.040000000000000000e+02
-1.387151588255201204e+02,-1.508657439720573166e+02,-4.730892386267487382e+01,-7.751092264157523459e+01,-1.688891899737313906e+02,-4.501835878656811474e+01,2.520995206374846020e+01,-6.854674133122625790e+01,9.446745872497558594e+00,-1.300361871719360352e+00,-4.207052886486053467e-01,4.050000000000000000e+02
-1.392703998561059962e+02,-1.479125236439112996e+02,-4.901489937202495639e+01,-7.588941729491625665e+01,-1.698903326387408015e+02,-4.435554925339829424e+01,2.407595058356946538e+01,-6.713120786492208936e+01,9.446745872497558594e+00,-1.300361871719360352e+00,-4.207052886486053467e-01,4.060000000000000000e+02
-1.401036567025062141e+02,-1.442269705355352016e+02,-4.966305357963619826e+01,-7.235323928992602305e+01,-1.693635793417779496e+02,-4.326105850944850317e+01,2.377478857609889928e+01,-6.359327763807186784e+01,9.446745872497558594e+00,-1.300361871719360352e+00,-4.207052886486053467e-01,4.070000000000000000e+02
-1.397106146738992720e+02,-1.407316412962634331e+02,-4.947996521800541814e+01,-6.888460397462995388e+01,-1.674928336473185482e+02,-4.294145953415863914e+01,2.424583357535402683e+01,-5.956243380979594804e+01,9.446745872497558594e+00,-1.300361871719360352e+00,-4.207052886486053467e-01,4.080000000000000000e+02
-1.373306243948027259e+02,-1.386762055956735367e+02,-4.937103203689525799e+01,-6.780048952786864902e+01,-1.652689566339286102e+02,-4.438513280194501931e+01,2.478295620852964021e+01,-5.700586526105735174e+01,9.446745872497558594e+00,-1.300361871719360352e+00,-4.207052886486053467e-01,4.090000000000000000e+02
-1.337100626208557514e+02,-1.385766891917687644e+02,-5.001379737527895486e+01,-7.007926176777482397e+01,-1.637472477221217559e+02,-4.732997113878809614e+01,2.475916434630289586e+01,-5.687492299682071462e+01,9.446745872497558594e+00,-1.300361871719360352e+00,-4.207052886486053467e-01,4.100000000000000000e+02
-1.305329196160914762e+02,-1.397298172195958159e+02,-5.115200463527503416e+01,-7.470813405760554815e+01,-1.632477486187303839e+02,-5.025947490286171160e+01,2.415209332544236531e+01,-5.864249048002329801e+01,9.446745872497558594e+00,-1.300361871719360352e+00,-4.207052886486053467e-01,4.110000000000000000e+02
-1.289417167471547145e+02,-1.408064417386549394e+02,-5.180780003324730387e+01,-7.957996076710560374e+01,-1.631717125925301843e+02,-5.152404311903273992e+01,2.335595047948299907e+01,-6.097762466793165004e+01,9.446745872497558594e+00,-1.300361871719360352e+00,-4.207052886486053467e-01,4.120000000000000000e+02
-1.285163730338622372e+02,-1.409591864451292622e+02,-5.122044848836094388e+01,-8.309758545351951398e+01,-1.625956563920085500e+02,-5.065033015475546563e+01,2.253544211825669663e+01,-6.280347228394202830e+01,9.446745872497558594e+00,-1.300361871719360352e+00,-4.207052886486053467e-01,4.130000000000000000e+02
-1.276940238033580499e+02,-1.403636046982853713e+02,-4.958965671356190796e+01,-8.506064707152199844e+01,-1.610799709598250047e+02,-4.869175801000756110e+01,2.129493885851843515e+01,-6.377851114126860921e+01,9.446745872497558594e+00,-1.300361871719360352e+00,-4.207052886486053467e-01,4.140000000000000000e+02
-1.252212725590502487e+02,-1.396892544274826378e+02,-4.789379360383372841e+01,-8.616764720322817084e+01,-1.589147509734716550e+02,-4.732199214612410287e+01,1.915663658280868731e+01,-6.394260282510413163e+01,9.446745872497558594e+00,-1.300361871719360352e+00,-4.207052886486053467e-01,4.150000000000000000e+02
-1.212819799832600438e+02,-1.391071998845939106e+02,-4.698770960338379155e+01,-8.683690348998470654e+01,-1.566033540470757544e+02,-4.751297122354299063e+01,1.643015743539558571e+01,-6.315498646560399720e+01,9.446745872497558594e+00,-1.300361871719360352e+00,-4.207052886486053467e-01,4.160000000000000000e+02
-1.173373271128639317e+02,-1.379007949246372391e+02,-4.686498483327977738e+01,-8.663846812229212446e+01,-1.541736820502860610e+02,-4.893147135776825962e+01,1.448506835660236902e+01,-6.107121153703064920e+01,9.408499717712402344e+00,-1.300361871719360352e+00,-3.442134261131286621e-01,4.170000000000000000e+02
-1.149645041650519488e+02,-1.351122880804095985e+02,-4.676371386309801892e+01,-8.487701010742694052e+01,-1.510831131187064784e+02,-5.043575983457958500e+01,1.488475618221718833e+01,-5.769576288051030133e+01,9.408499717712402344e+00,-1.300361871719360352e+00,-3.442134261131286621e-01,4.180000000000000000e+02
-1.148183093620336876e+02,-1.306119004334750571e+02,-4.597003407924557905e+01,-8.163280983682898295e+01,-1.468645436462256839e+02,-5.104646146457116629e+01,1.795803788355578945e+01,-5.381405925574063076e+01,9.408499717712402344e+00,-1.300361871719360352e+00,-3.442134261131286621e-01,4.190000000000000000e+02
-1.165132673242092096e+02,-1.255509889212723920e+02,-4.456814446976704858e+01,-7.811724438336750609e+01,-1.418957880738275890e+02,-5.051719130362380383e+01,2.210248513112287583e+01,-5.069679269549305900e+01,9.408499717712402344e+00,-1.300361871719360352e+00,-3.442134261131286621e-01,4.200000000000000000e+02
-1.191805009658642120e+02,-1.217171380750044136e+02,-4.349055392458285496e+01,-7.592262232361872520e+01,-1.374938187807338181e+02,-4.923059244135583867e+01,2.467480298871305422e+01,-4.923279026749787590e+01,9.408499717712402344e+00,-1.300361871719360352e+00,-3.442134261131286621e-01,4.210000000000000000e+02
-1.219314876535459007e+02,-1.202931065902744194e+02,-4.382374339270336350e+01,-7.583272941859331695e+01,-1.351177322734206427e+02,-4.779192795695007590e+01,2.396509312277453319e+01,-4.926473181679148183e+01,9.408499717712402344e+00,-1.300361871719360352e+00,-3.442134261131286621e-01,4.220000000000000000e+02
-1.238810651887101812e+02,-1.209973142934636599e+02,-4.585926322927662113e+01,-7.720563580752195776e+01,-1.352379848015898460e+02,-4.673647288959591606e+01,2.069233608249760437e+01,-4.971841304943882278e+01,9.408499717712402344e+00,-1.300361871719360352e+00,-3.442134261131286621e-01,4.230000000000000000e+02
-1.241111070336455668e+02,-1.222265683798586906e+02,-4.853738402608360047e+01,-7.836063747396883628e+01,-1.367385363211719778e+02,-4.636693782765769356e+01,1.771261773140759033e+01,-4.935444229692166118e+01,9.408499717712402344e+00,-1.300361871719360352e+00,-3.442134261131286621e-01,4.240000000000000000e+02
-1.220539549529380565e+02,-1.220574608600618376e+02,-4.972779338519558223e+01,-7.757655533418392224e+01,-1.373730748471584775e+02,-4.656408537040715601e+01,1.804149822319777741e+01,-4.746445374561744757e+01,9.408499717712402344e+00,-1.300361871719360352e+00,-3.442134261131286621e-01,4.250000000000000000e+02
-1.181211437508168274e+02,-1.194318567849616102e+02,-4.737179789465972135e+01,-7.399554981312485324e+01,-1.350716339782175055e+02,-4.668574089084359002e+01,2.267782122846756465e+01,-4.405476845695375232e+01,9.408499717712402344e+00,-1.300361871719360352e+00,-3.442134261131286621e-01,4.260000000000000000e+02
-1.138314901863382147e+02,-1.148072877795375462e+02,-4.093918606073020783e+01,-6.800838832842828197e+01,-1.292806829575529264e+02,-4.587042493862509218e+01,2.987839537470858886e+01,-3.964680093353581469e+01,9.408499717712402344e+00,-1.300361871719360352e+00,-3.442134261131286621e-01,4.270000000000000000e+02
-1.110100738692703999e+02,-1.099077839580224918e+02,-3.222846703611367047e+01,-6.109139857478658087e+01,-1.214450442525298968e+02,-4.374220962561139459e+01,3.635700114579117326e+01,-3.508300234866328537e+01,9.408499717712402344e+00,-1.300361871719360352e+00,-3.442134261131286621e-01,4.280000000000000000e+02
-1.105618197730163956e+02,-1.067177647860535217e+02,-2.471369198458432948e+01,-5.520545326022465815e+01,-1.142724562546463858e+02,-4.093532168125784665e+01,3.941799549535198821e+01,-3.142793426024672954e+01,9.408499717712402344e+00,-1.300361871719360352e+00,-3.442134261131286621e-01,4.290000000000000000e+02
-1.118911228351898899e+02,-1.062936102714566005e+02,-2.158630733192603657e+01,-5.191289287093468374e+01,-1.102364222947276176e+02,-3.879018152609569370e+01,3.846431370518871518e+01,-2.970048514762902414e+01,9.408499717712402344e+00,-1.300361871719360352e+00,-3.442134261131286621e-01,4.300000000000000000e+02
-1.135017735308460942e+02,-1.081345375843725378e+02,-2.373857601462077582e+01,-5.156074981407982705e+01,-1.103095834065843519e+02,-3.831149625613306853e+01,3.497866588048009362e+01,-3.032154966946745844e+01,9.408499717712402344e+00,-1.300361871719360352e+00,-3.442134261131286621e-01,4.310000000000000000e+02
-1.141719185877418568e+02,-1.105424129760797314e+02,-2.918513693737122594e+01,-5.299829667623725982e+01,-1.136952837530193392e+02,-3.928077959838628885e+01,3.129096082042269700e+01,-3.265560739151487724e+01,9.408499717712402344e+00,-1.300361871719360352e+00,-3.442134261131286621e-01,4.320000000000000000e+02
-1.135823263104066427e+02,-1.117257048288890928e+02,-3.444037664359802875e+01,-5.412442685340010939e+01,-1.185389942893107218e+02,-4.037425959174470336e+01,2.916080255654333087e+01,-3.519745485719204225e+01,9.408499717712402344e+00,-1.300361871719360352e+00,-3.442134261131286621e-01,4.330000000000000000e+02
-1.119465601299589252e+02,-1.108601500093564027e+02,-3.685378439818532570e+01,-5.305342239479341515e+01,-1.229444895396509310e+02,-4.021054800087495096e+01,2.901715073492096053e+01,-3.649523985216364963e+01,9.408499717712402344e+00,-1.300361871719360352e+00,-3.442134261131286621e-01,4.340000000000000000e+02
-1.093058347049923213e+02,-1.083724645128222619e+02,-3.617201136539415529e+01,-4.921521773029098767e+01,-1.256308003709577861e+02,-3.837862936975216144e+01,3.003647429655597989e+01,-3.615896705046679926e+01,9.408499717712402344e+00,-1.300361871719360352e+00,-3.442134261131286621e-01,4.350000000000000000e+02
-1.054572216908791233e+02,-1.053385305223769137e+02,-3.422938980744220316e+01,-4.365822007538281468e+01,-1.260623064190181140e+02,-3.555923194764727668e+01,3.080039447390140595e+01,-3.504927374664475792e+01,9.408499717712402344e+00,-1.300361871719360352e+00,-3.442134261131286621e-01,4.360000000000000000e+02
-1.006366413718978947e+02,-1.025689898259129222e+02,-3.317166158511281537e+01,-3.832064198926400422e+01,-1.243012007818651909e+02,-3.275930950302563360e+01,3.017049243840529016e+01,-3.437476709474594827e+01,9.408499717712402344e+00,-1.300361871719360352e+00,-3.442134261131286621e-01,4.370000000000000000e+02
-9.604654075065400320e+01,-1.001190979961886569e+02,-3.371565435360548690e+01,-3.470263851379604603e+01,-1.208157543633797104e+02,-3.046386399345874452e+01,2.804547862508889011e+01,-3.443129942686391587e+01,9.408499717712402344e+00,-1.300361871719360352e+00,-3.442134261131286621e-01,4.380000000000000000e+02
-9.332508434350165771e+01,-9.752364411882103923e+01,-3.477189663073113479e+01,-3.280250435656080299e+01,-1.162513766553406640e+02,-2.845433461725815505e+01,2.559445023778016548e+01,-3.413615237421845450e+01,9.408499717712402344e+00,-1.300361871719360352e+00,-3.442134261131286621e-01,4.390000000000000000e+02
-9.321471690708631286e+01,-9.443518139228012842e+01,-3.458758689319756741e+01,-3.108986788131232970e+01,-1.111682032789358345e+02,-2.631100629829052195e+01,2.462488600706092257e+01,-3.187854567390741067e+01,9.408499717712402344e+00,-1.300361871719360352e+00,-3.442134261131286621e-01,4.400000000000000000e+02
-9.472252878685094402e+01,-9.108018889852269240e+01,-3.237823513870353054e+01,-2.762623464991884248e+01,-1.059225676535957064e+02,-2.399954722975553523e+01,2.627056097832382875e+01,-2.702691534898895043e+01,9.408499717712402344e+00,-1.300361871719360352e+00,-3.442134261131286621e-01,4.410000000000000000e+02
-9.577280004512886080e+01,-8.821022041130527214e+01,-2.911451883423023901e+01,-2.161435584620085137e+01,-1.008436886277136182e+02,-2.199738426995281770e+01,2.987952554665776006e+01,-2.079178525868246652e+01,9.446745872497558594e+00,-1.338607788085937500e+00,-3.824593424797058105e-01,4.420000000000000000e+02
-9.490303161939937127e+01,-8.664360967232141775e+01,-2.685127132247566806e+01,-1.421757847172557376e+01,-9.651759839479245784e+01,-2.090760286628210451e+01,3.313789209906667566e+01,-1.562220070604507782e+01,9.446745872497558594e+00,-1.338607788085937500e+00,-3.824593424797058105e-01,4.430000000000000000e+02
-9.246037985900693457e+01,-8.674669523059492349e+01,-2.714780147583633152e+01,-7.915377552371865022e+00,-9.374459091491462459e+01,-2.096075812108529135e+01,3.363061105887322810e+01,-1.355086245243319354e+01,9.446745872497558594e+00,-1.338607788085937500e+00,-3.824593424797058105e-01,4.440000000000000000e+02
-9.018501398367288857e+01,-8.816902944882190241e+01,-2.985388707561628507e+01,-4.762579831333368929e+00,-9.302040408893071799e+01,-2.183848647937384158e+01,3.075928438684672983e+01,-1.482721644458024457e+01,9.446745872497558594e+00,-1.338607788085937500e+00,-3.824593424797058105e-01,4.450000000000000000e+02
-8.961605185040070864e+01,-8.995730434108281770e+01,-3.325787781802796417e+01,-4.873461825733102160e+00,-9.399728596846443907e+01,-2.293649101858409267e+01,2.639292007134781670e+01,-1.793245029975423677e+01,9.446745872497558594e+00,-1.338607788085937500e+00,-3.824593424797058105e-01,4.460000000000000000e+02
-9.082300677732155236e+01,-9.096745655862332569e+01,-3.548121156040269852e+01,-6.338146978772783768e+00,-9.554554831071982335e+01,-2.381408018647698555e+01,2.354257969258605954e+01,-2.088558417424610525e+01,9.446745872497558594e+00,-1.338607788085937500e+00,-3.824593424797058105e-01,4.470000000000000000e+02
-9.250615973414869586e+01,-9.038572270936901987e+01,-3.594019637088604213e+01,-6.614879073168140167e+00,-9.648222572058648439e+01,-2.444506364573135215e+01,2.403982676648774941e+01,-2.268709308813595271e+01,9.446745872497558594e+00,-1.338607788085937500e+00,-3.824593424797058105e-01,4.480000000000000000e+02
-9.312434978622900417e+01,-8.814071819499235971e+01,-3.562221978835987102e+01,-4.232366826637644408e+00,-9.631935069316205045e+01,-2.508301885760738514e+01,2.713101475453368039e+01,-2.373012559023163703e+01,9.446745872497558594e+00,-1.338607788085937500e+00,-3.824593424797058105e-01,4.490000000000000000e+02
-9.187924859025679325e+01,-8.501644697381698279e+01,-3.597866837992705769e+01,5.276047263200780435e-01,-9.534663292660115985e+01,-2.591073538080536309e+01,3.015892802721236876e+01,-2.499301555434567490e+01,9.446745872497558594e+00,-1.338607788085937500e+00,-3.824593424797058105e-01,4.500000000000000000e+02
-8.883702507736757070e+01,-8.237038386860444916e+01,-3.748745142426287202e+01,6.297917859893914283e+00,-9.407487681651218736e+01,-2.683524217837884862e+01,3.072209731282987377e+01,-2.687379822115144634e+01,9.446745872497558594e+00,-1.338607788085937500e+00,-3.824593424797058105e-01,4.510000000000000000e+02
-8.447737905280018822e+01,-8.150618781761500031e+01,-3.921084289171267301e+01,1.184381418677617148e+01,-9.269405813438788755e+01,-2.762097002536575019e+01,2.848579304309328109e+01,-2.872128911393110684e+01,9.446745872497558594e+00,-1.338607788085937500e+00,-3.824593424797058105e-01,4.520000000000000000e+02
-7.940644188457758901e+01,-8.294432639544606900e+01,-3.971135865286396438e+01,1.678548199285251030e+01,-9.108073272923684272e+01,-2.816832261300214668e+01,2.522844769377570628e+01,-2.937068260336809544e+01,9.446745872497558594e+00,-1.338607788085937500e+00,-3.824593424797058105e-01,4.530000000000000000e+02
-7.446721041051023349e+01,-8.598584051150896812e+01,-3.840158184311349032e+01,2.148890611140905094e+01,-8.920511484967983051e+01,-2.855942721257451922e+01,2.326835167082845146e+01,-2.809613344007561864e+01,9.446745872497558594e+00,-1.338607788085937500e+00,-3.824593424797058105e-01,4.540000000000000000e+02
-7.080483991196410898e+01,-8.895101788650526942e+01,-3.607220020324075449e+01,2.654007745591388812e+01,-8.739392776529484763e+01,-2.878628228376237530e+01,2.366446266834554990e+01,-2.518516461146191432e+01,9.446745872497558594e+00,-1.338607788085937500e+00,-3.824593424797058105e-01,4.550000000000000000e+02
-6.943550895552243674e+01,-9.008682029977808270e+01,-3.417832695878928462e+01,3.234905790418929428e+01,-8.617657347919248423e+01,-2.849640049844902023e+01,2.561614838530385896e+01,-2.176554009572487303e+01,9.446745872497558594e+00,-1.338607788085937500e+00,-3.824593424797058105e-01,4.560000000000000000e+02
-7.052283806932769039e+01,-8.862509910996936924e+01,-3.361363491621818866e+01,3.902250088785285698e+01,-8.593672838861220953e+01,-2.713830551223190923e+01,2.736021395406578449e+01,-1.911202040137754921e+01,9.446745872497558594e+00,-1.338607788085937500e+00,-3.824593424797058105e-01,4.570000000000000000e+02
-7.305035258352882011e+01,-8.526918115888065586e+01,-3.407247767709395703e+01,4.632737252258925764e+01,-8.671381026483231835e+01,-2.446500010027966709e+01,2.765520006216752336e+01,-1.793559355811476053e+01,9.446745872497558594e+00,-1.338607788085937500e+00,-3.824593424797058105e-01,4.580000000000000000e+02
-7.529450404734461699e+01,-8.170375126637600260e+01,-3.445088959857821465e+01,5.370356647036942377e+01,-8.819961978178821482e+01,-2.088361886412076274e+01,2.664589551664903411e+01,-1.802248183354004141e+01,9.446745872497558594e+00,-1.338607788085937500e+00,-3.824593424797058105e-01,4.590000000000000000e+02
-7.580049929283472920e+01,-7.948180065400742933e+01,-3.383052110795210865e+01,6.045968616741811275e+01,-8.979186198589582091e+01,-1.725936244181775692e+01,2.551972586974761725e+01,-1.839071098693875683e+01,9.446745872497558594e+00,-1.338607788085937500e+00,-3.824593424797058105e-01,4.600000000000000000e+02
-7.412998579247528141e+01,-7.913249247204453241e+01,-3.220374392892040305e+01,6.619211434371823088e+01,-9.071284405235246595e+01,-1.434930078913794205e+01,2.536966650466069950e+01,-1.791885069872819258e+01,9.446745872497558594e+00,-1.338607788085937500e+00,-3.824593424797058105e-01,4.610000000000000000e+02
-7.091125265574919467e+01,-8.012321873694645546e+01,-3.046517222057855179e+01,7.111997255703704468e+01,-9.035782467616991198e+01,-1.244220567351226236e+01,2.624148570775173539e+01,-1.615109388607970686e+01,9.446745872497558594e+00,-1.338607788085937500e+00,-3.824593424797058105e-01,4.620000000000000000e+02
-6.734224908767305351e+01,-8.155998375004605805e+01,-2.980580094258516510e+01,7.591696285489774709e+01,-8.879858420746882075e+01,-1.152678415397940626e+01,2.710510848079820789e+01,-1.375254597906132403e+01,9.446745872497558594e+00,-1.338607788085937500e+00,-3.824593424797058105e-01,4.630000000000000000e+02
-6.458449128721190391e+01,-8.289050980472370611e+01,-3.093530279233414149e+01,8.107591452553424460e+01,-8.694656811028903576e+01,-1.166234132194631457e+01,2.674729108874112171e+01,-1.213781219041038639e+01,9.446745872497558594e+00,-1.338607788085937500e+00,-3.824593424797058105e-01,4.640000000000000000e+02
-6.332178677856768445e+01,-8.401622198600398406e+01,-3.355375565560098039e+01,8.636154448712159137e+01,-8.597144925276734284e+01,-1.301176874761176805e+01,2.484708942650456720e+01,-1.239104217215799508e+01,9.446745872497558594e+00,-1.338607788085937500e+00,-3.824593424797058105e-01,4.650000000000000000e+02
-6.350631061051331017e+01,-8.487960053130268534e+01,-3.634296076549230747e+01,9.094851942760556085e+01,-8.627516912148871597e+01,-1.543272184885222487e+01,2.237799006978866601e+01,-1.426328410948735836e+01,9.446745872497558594e+00,-1.338607788085937500e+00,-3.824593424797058105e-01,4.660000000000000000e+02
-6.431246432005718816e+01,-8.508922537034527522e+01,-3.752375927444109038e+01,9.424049544111994692e+01,-8.694309302460942490e+01,-1.812438538652349962e+01,2.102537755980847578e+01,-1.614350333340485122e+01,9.446745872497558594e+00,-1.338607788085937500e+00,-3.824593424797058105e-01,4.670000000000000000e+02
-6.442936155470897575e+01,-8.402026807872744030e+01,-3.577132868057947235e+01,9.666617918611245841e+01,-8.632901456340528057e+01,-1.986803634009720554e+01,2.206807530608352863e+01,-1.616960167147067295e+01,9.446745872497558594e+00,-1.338607788085937500e+00,-3.824593424797058105e-01,4.680000000000000000e+02
-6.271804454385824101e+01,-8.128080113426199205e+01,-3.101885587728725113e+01,9.967474703779248557e+01,-8.338527571735494348e+01,-1.976785329656240719e+01,2.557769375952580049e+01,-1.362125233526239754e+01,9.484992027282714844e+00,-1.376853704452514648e+00,-3.824593424797058105e-01,4.690000000000000000e+02
-5.894422358346969304e+01,-7.708598548256668437e+01,-2.464489860335970661e+01,1.047983083722292577e+02,-7.858820962800882626e+01,-1.784458862240308008e+01,3.047428614658235801e+01,-9.423224906214727525e+00,9.484992027282714844e+00,-1.376853704452514648e+00,-3.824593424797058105e-01,4.700000000000000000e+02
-5.406215762310444006e+01,-7.220046155937120602e+01,-1.884570625532342092e+01,1.124975811418496505e+02,-7.364154429836821691e+01,-1.492548897926371865e+01,3.527362134055601928e+01,-5.327311573018960189e+00,9.484992027282714844e+00,-1.376853704452514648e+00,-3.824593424797058105e-01,4.710000000000000000e+02
-4.972688402856215362e+01,-6.753043845439151482e+01,-1.550754818710231575e+01,1.217743645777291022e+02,-7.024743884071949651e+01,-1.194466046905040457e+01,3.888462724453074770e+01,-2.515825141904542761e+00,9.484992027282714844e+00,-1.376853704452514648e+00,-3.824593424797058105e-01,4.720000000000000000e+02
-4.729881770771896754e+01,-6.371624308393961655e+01,-1.523131992965977588e+01,1.309298602058672714e+02,-6.900745048084900191e+01,-9.289656797904171981e+00,4.093124928765882942e+01,-8.538516333169354766e-01,9.484992027282714844e+00,-1.376853704452514648e+00,-3.824593424797058105e-01,4.730000000000000000e+02
-4.706537751159373784e+01,-6.099013020713471178e+01,-1.710048868990691062e+01,1.388513882357273133e+02,-6.929225934159353528e+01,-6.728059687635777664e+00,4.156332053252310743e+01,6.202034934383391374e-01,9.484992027282714844e+00,-1.376853704452514648e+00,-3.824593424797058105e-01,4.740000000000000000e+02
-4.824790092405703490e+01,-5.929721720060149437e+01,-1.934456972682721698e+01,1.456954809912680275e+02,-6.999805087212712351e+01,-3.893646778804850328e+00,4.111818494288058901e+01,2.524035010398620216e+00,9.484992027282714844e+00,-1.376853704452514648e+00,-3.824593424797058105e-01,4.750000000000000000e+02
-4.968249242869910631e+01,-5.849325626501672559e+01,-2.046001173920399197e+01,1.523567307926178955e+02,-7.040385331968582250e+01,-8.350145166043603240e-01,3.998702174788797947e+01,4.442998962669776120e+00,9.484992027282714844e+00,-1.376853704452514648e+00,-3.824593424797058105e-01,4.760000000000000000e+02
-5.053973294989191345e+01,-5.842972535521676036e+01,-2.003287390178127225e+01,1.592434264489286306e+02,-7.044995037603064247e+01,1.864685846252200463e+00,3.868381079408857204e+01,5.338814429489275426e+00,9.484992027282714844e+00,-1.376853704452514648e+00,-3.824593424797058105e-01,4.770000000000000000e+02
-5.053957761471383492e+01,-5.887362629656820445e+01,-1.872036748635230197e+01,1.655794212252087618e+02,-7.040181095211880802e+01,3.484087310907852952e+00,3.786889347767606750e+01,4.608853560383181502e+00,9.484992027282714844e+00,-1.376853704452514648e+00,-3.824593424797058105e-01,4.780000000000000000e+02
-4.967239363282578779e+01,-5.938532748177419762e+01,-1.747531338522890110e+01,1.700054956579065220e+02,-7.037415974654777528e+01,3.742624857046507714e+00,3.816743208702820311e+01,2.785030951018597989e+00,9.484992027282714844e+00,-1.376853704452514648e+00,-3.824593424797058105e-01,4.790000000000000000e+02
-4.792984131912885459e+01,-5.937576420810637501e+01,-1.671285085394390535e+01,1.719618840181145742e+02,-7.018919737871499365e+01,3.070863532715634392e+00,3.983155968465661090e+01,1.209166166004592924e+00,9.484992027282714844e+00,-1.376853704452514648e+00,-3.824593424797058105e-01,4.800000000000000000e+02
-4.542927662060151306e+01,-5.843965602150274208e+01,-1.615505094817774534e+01,1.724711684125834950e+02,-6.964554554814742460e+01,2.309275037204884029e+00,4.247594894107373875e+01,9.575314363804636741e-01,9.484992027282714844e+00,-1.376853704452514648e+00,-3.824593424797058105e-01,4.810000000000000000e+02
-4.272630393346088340e+01,-5.674953260559942692e+01,-1.541553634276164075e+01,1.734492408225555664e+02,-6.884893968416167809e+01,2.064286577035659320e+00,4.513056868571584346e+01,1.973485278845657831e+00,9.484992027282714844e+00,-1.376853704452514648e+00,-3.824593424797058105e-01,4.820000000000000000e+02
-4.076764709121914620e+01,-5.510153776348130350e+01,-1.461712758601652240e+01,1.761056537419860888e+02,-6.818913446888359431e+01,2.291875243954223151e+00,4.667959236037367532e+01,3.198900455366299411e+00,9.484992027282714844e+00,-1.376853704452514648e+00,-3.824593424797058105e-01,4.830000000000000000e+02
-4.027047268165881633e+01,-5.440422303002728199e+01,-1.428422895848439111e+01,1.799420915264479959e+02,-6.790734853074357602e+01,2.522633450634543806e+00,4.649059575716847803e+01,3.612227148015364264e+00,9.484992027282714844e+00,-1.376853704452514648e+00,-3.824593424797058105e-01,4.840000000000000000e+02
-4.101116913249401819e+01,-5.493440875167624426e+01,-1.457960866099097075e+01,1.833119596313163981e+02,-6.769070595565048620e+01,2.539768240157172841e+00,4.482915727755235480e+01,3.243590835395679051e+00,9.484992027282714844e+00,-1.376853704452514648e+00,-3.824593424797058105e-01,4.850000000000000000e+02
-4.175810635254660497e+01,-5.602541433613458821e+01,-1.476486297965138306e+01,1.850136530740812191e+02,-6.679945680219933024e+01,2.830627080907532900e+00,4.275474666839379267e+01,3.252634033576384809e+00,9.484992027282714844e+00,-1.376853704452514648e+00,-3.824593424797058105e-01,4.860000000000000000e+02
-4.106559481202882012e+01,-5.653449834603691215e+01,-1.364248461324607575e+01,1.854196192169592621e+02,-6.472534117695394684e+01,4.307693673374942023e+00,4.152059726632571568e+01,4.970241227789557570e+00,9.484992027282714844e+00,-1.376853704452514648e+00,-3.824593424797058105e-01,4.870000000000000000e+02
-3.835472723528727101e+01,-5.573360513253194881e+01,-1.073449282511606384e+01,1.861270880019544904e+02,-6.177530717667258386e+01,7.495435444661751490e+00,4.184576187858419871e+01,8.697487883960064892e+00,9.484992027282714844e+00,-1.376853704452514648e+00,-3.824593424797058105e-01,4.880000000000000000e+02
-3.438084728784639310e+01,-5.383134665564136867e+01,-7.031756282435310368e+00,1.885486756620177289e+02,-5.892299552441124888e+01,1.195163492861297527e+01,4.355223459780580697e+01,1.328159273209223556e+01,9.484992027282714844e+00,-1.376853704452514648e+00,-3.824593424797058105e-01,4.890000000000000000e+02
-3.070901731711899174e+01,-5.168395379208902796e+01,-4.427004744134137582e+00,1.927674793928582062e+02,-5.698069610704669685e+01,1.649150170612347210e+01,4.578374213879652643e+01,1.683230672614683954e+01,9.484992027282714844e+00,-1.376853704452514648e+00,-3.824593424797058105e-01,4.900000000000000000e+02
-2.867656999930568418e+01,-5.003504497709820953e+01,-4.236691002276472773e+00,1.975923878252500003e+02,-5.591043542719137349e+01,2.000161939533222721e+01,4.759566105957270565e+01,1.799836223273479163e+01,9.484992027282714844e+00,-1.376853704452514648e+00,-3.824593424797058105e-01,4.910000000000000000e+02
-2.868741801296846461e+01,-4.902696065738984998e+01,-6.167048348378216360e+00,2.015861566770331592e+02,-5.501475582712646428e+01,2.209193710728345650e+01,4.845597455556526256e+01,1.679435836341838240e+01,9.484992027282714844e+00,-1.376853704452514648e+00,-3.824593424797058105e-01,4.920000000000000000e+02
-3.025490316420064119e+01,-4.835679169922946130e+01,-8.680847040009325610e+00,2.040817769230776548e+02,-5.381678568467305013e+01,2.309485387208405882e+01,4.835528344792811595e+01,1.440084779263747805e+01,9.484992027282714844e+00,-1.376853704452514648e+00,-3.824593424797058105e-01,4.930000000000000000e+02
-3.251654560622080226e+01,-4.775717057151325662e+01,-1.034806369350974364e+01,2.054290524631862809e+02,-5.263816812698019021e+01,2.360827791873487058e+01,4.759167483305003543e+01,1.221572869683768658e+01,9.484992027282714844e+00,-1.376853704452514648e+00,-3.824593424797058105e-01,4.940000000000000000e+02
-3.467430609949087739e+01,-4.724104606264677386e+01,-1.087360163937125890e+01,2.064809177208242090e+02,-5.219186939339704168e+01,2.410744882675135159e+01,4.650865104011450057e+01,1.096965616270324517e+01,9.484992027282714844e+00,-1.376853704452514648e+00,-3.824593424797058105e-01,4.950000000000000000e+02
-3.611870808658625265e+01,-4.695361971580177851e+01,-1.093603020126352021e+01,2.078704049783933669e+02,-5.262099082331292266e+01,2.485890026690162813e+01,4.539123190367365623e+01,1.053509343463110781e+01,9.484992027282714844e+00,-1.376853704452514648e+00,-3.824593424797058105e-01,4.960000000000000000e+02
-3.642182166906013663e+01,-4.693482793815780951e+01,-1.122097169477217449e+01,2.096152335151905390e+02,-5.309846362391476760e+01,2.594163637797328192e+01,4.447973495225551233e+01,1.039942848801160835e+01,9.484992027282714844e+00,-1.376853704452514648e+00,-3.824593424797058105e-01,4.970000000000000000e+02
-3.544208135091753320e+01,-4.708065863600927514e+01,-1.174266385626242482e+01,2.112551574451940724e+02,-5.254322494346115491e+01,2.716478201434620132e+01,4.395240017346191053e+01,1.025622286322618493e+01,9.484992027282714844e+00,-1.376853704452514648e+00,-3.824593424797058105e-01,4.980000000000000000e+02
-3.349099189389244202e+01,-4.723080185541220999e+01,-1.206555514752949421e+01,2.123758206043855807e+02,-5.075494556781291067e+01,2.801571808926473750e+01,4.385124990701183378e+01,1.020188657629205409e+01,9.484992027282714844e+00,-1.376853704452514648e+00,-3.824593424797058105e-01,4.990000000000000000e+02
-3.131246065517007082e+01,-4.716902059782910328e+01,-1.201398273988752408e+01,2.131102997184430023e+02,-4.875726759119311282e+01,2.791240288732092267e+01,4.404921923134770623e+01,1.045541457089302639e+01,9.446745872497558594e+00,-1.300361871719360352e+00,-3.442134261131286621e-01,5.000000000000000000e+02
-2.974420850348360545e+01,-4.655469444255732014e+01,-1.199973586266196435e+01,2.142019331821047672e+02,-4.793887270152663405e+01,2.669332818860470979e+01,4.434690828358361614e+01,1.096092030169666032e+01,9.446745872497558594e+00,-1.300361871719360352e+00,-3.442134261131286621e-01,5.010000000000000000e+02
-2.924143041612660454e+01,-4.504330828609863602e+01,-1.261996612408847795e+01,2.164862840683642844e+02,-4.881801758222673016e+01,2.488696474384141766e+01,4.464673745902018709e+01,1.132347943801369183e+01,9.446745872497558594e+00,-1.300361871719360352e+00,-3.442134261131286621e-01,5.020000000000000000e+02
-2.961222160047850593e+01,-4.264425498249534030e+01,-1.400624512297054025e+01,2.201426951493467641e+02,-5.061801186212960602e+01,2.342984246008745686e+01,4.503709712353338546e+01,1.118584364692196687e+01,9.446745872497558594e+00,-1.300361871719360352e+00,-3.442134261131286621e-01,5.030000000000000000e+02
-3.016519715977028682e+01,-3.992080417988245244e+01,-1.564373666169262833e+01,2.243879096307000509e+02,-5.197698654220766912e+01,2.304909040192978864e+01,4.570087798040412963e+01,1.069713199401394377e+01,9.446745872497558594e+00,-1.300361871719360352e+00,-3.442134261131286621e-01,5.040000000000000000e+02
-3.016483945862864857e+01,-3.763386971151771832e+01,-1.684459057679350735e+01,2.279874936410151349e+02,-5.202457506522841868e+01,2.385384877042588414e+01,4.672926463662292917e+01,1.057356872081709298e+01,9.446745872497558594e+00,-1.300361871719360352e+00,-3.442134261131286621e-01,5.050000000000000000e+02
-2.929336227527755909e+01,-3.603935094411781392e+01,-1.737913113984996016e+01,2.302111043967356636e+02,-5.086107761559605933e+01,2.541458885784686572e+01,4.801292996279312320e+01,1.156296365469233933e+01,9.446745872497558594e+00,-1.300361871719360352e+00,-3.442134261131286621e-01,5.060000000000000000e+02
-2.782305068437972295e+01,-3.459304548647560296e+01,-1.762245042312906662e+01,2.313823843631671480e+02,-4.919350760672614342e+01,2.710308304802265411e+01,4.931975538654614866e+01,1.370931574244377771e+01,9.446745872497558594e+00,-1.300361871719360352e+00,-3.442134261131286621e-01,5.070000000000000000e+02
-2.640154325361481824e+01,-3.253541143471557007e+01,-1.807510903755428444e+01,2.324973757988009311e+02,-4.765713023341004373e+01,2.833052939477875043e+01,5.050076267596887192e+01,1.612053811088617294e+01,9.446745872497558594e+00,-1.300361871719360352e+00,-3.442134261131286621e-01,5.080000000000000000e+02
-2.558936894033467979e+01,-2.984695135184529136e+01,-1.871691576377725141e+01,2.342851706107549035e+02,-4.643420422686131133e+01,2.863875542209279956e+01,5.166887272008762011e+01,1.760707518560229801e+01,9.446745872497558594e+00,-1.300361871719360352e+00,-3.442134261131286621e-01,5.090000000000000000e+02
-2.544419745448067260e+01,-2.750384035689648954e+01,-1.881218447583751185e+01,2.366226552096122759e+02,-4.530775283986622526e+01,2.786200961682152411e+01,5.320038260181240730e+01,1.774618480003618970e+01,9.446745872497558594e+00,-1.300361871719360352e+00,-3.442134261131286621e-01,5.100000000000000000e+02
-2.546879817743865715e+01,-2.659962608169325904e+01,-1.739791774793866352e+01,2.388226601722917621e+02,-4.392270364445175801e+01,2.637806103069806340e+01,5.549200246126929414e+01,1.737808335734553111e+01,9.446745872497558594e+00,-1.300361871719360352e+00,-3.442134261131286621e-01,5.110000000000000000e+02
-2.500632956912704685e+01,-2.714409013750537270e+01,-1.410013017617984588e+01,2.404087146788642713e+02,-4.202669590735104066e+01,2.511187435376541544e+01,5.857618895262703518e+01,1.792918291106980178e+01,9.446745872497558594e+00,-1.300361871719360352e+00,-3.442134261131286621e-01,5.120000000000000000e+02
-2.382259600220822904e+01,-2.785072816774845705e+01,-9.651576045358979172e+00,2.415325658761448722e+02,-3.963405697302550834e+01,2.500922145308140898e+01,6.183732727395226902e+01,2.003076916593317947e+01,9.446745872497558594e+00,-1.300361871719360352e+00,-3.442134261131286621e-01,5.130000000000000000e+02
-2.242351723148067322e+01,-2.729325496302635656e+01,-5.678029942039756861e+00,2.426375627706611340e+02,-3.709380269432767818e+01,2.627815975705379969e+01,6.411144000212016181e+01,2.269435699829728037e+01,9.446745872497558594e+00,-1.300361871719360352e+00,-3.442134261131286621e-01,5.140000000000000000e+02
-2.180712950478800849e+01,-2.536058299195838117e+01,-3.848955408575420734e+00,2.437842638357365104e+02,-3.498553556252772978e+01,2.811669761672601453e+01,6.426434106902570420e+01,2.394073435196287392e+01,9.446745872497558594e+00,-1.300361871719360352e+00,-3.442134261131286621e-01,5.150000000000000000e+02
-2.274753752912693017e+01,-2.349932441938290140e+01,-4.914647403678827686e+00,2.444176522323032259e+02,-3.381319306686418713e+01,2.933100941947759566e+01,6.199274200101899623e+01,2.248295719400084636e+01,9.446745872497558594e+00,-1.300361871719360352e+00,-3.442134261131286621e-01,5.160000000000000000e+02
-2.508488182151904766e+01,-2.338259876305073703e+01,-8.228666952113599109e+00,2.438803276888206710e+02,-3.364921017358756217e+01,2.940632537776400568e+01,5.829921708802339708e+01,1.901341703605430666e+01,9.446745872497558594e+00,-1.300361871719360352e+00,-3.442134261131286621e-01,5.170000000000000000e+02
-2.757241365203299210e+01,-2.525339144200779629e+01,-1.205365352458102279e+01,2.421702931416784850e+02,-3.400544546992296091e+01,2.906202539688729303e+01,5.515367512647708281e+01,1.587779802593377099e+01,9.446745872497558594e+00,-1.300361871719360352e+00,-3.442134261131286621e-01,5.180000000000000000e+02
-2.848790763821307337e+01,-2.756251385701034451e+01,-1.448873552872919390e+01,2.401610906005234938e+02,-3.409384024886367115e+01,2.971511395434754377e+01,5.435861990854709802e+01,1.530411257350351661e+01,9.446745872497558594e+00,-1.300361871719360352e+00,-3.442134261131286621e-01,5.190000000000000000e+02
-2.669961563732067589e+01,-2.827530569005466532e+01,-1.451233183900785662e+01,2.390087812561478131e+02,-3.335934558381813986e+01,3.225254069802485901e+01,5.629966840675024287e+01,1.763724433030802174e+01,9.446745872497558594e+00,-1.300361871719360352e+00,-3.442134261131286621e-01,5.200000000000000000e+02
-2.253641183318904950e+01,-2.661561142812934122e+01,-1.255575487303394766e+01,2.392324283144344008e+02,-3.193942329050423723e+01,3.614742179247150489e+01,5.951974589730389198e+01,2.104868662697481341e+01,9.446745872497558594e+00,-1.338607788085937500e+00,-4.207052886486053467e-01,5.210000000000000000e+02
-1.782214313574240805e+01,-2.364556912561329227e+01,-1.022012062249632436e+01,2.402893977933190399e+02,-3.068732816439660382e+01,3.968863178875380981e+01,6.159170755818468024e+01,2.294656544768804451e+01,9.446745872497558594e+00,-1.338607788085937500e+00,-4.207052886486053467e-01,5.220000000000000000e+02
-1.489529041466084891e+01,-2.124037799485540745e+01,-9.221393918723151728e+00,2.410511997422254353e+02,-3.063743386265377922e+01,4.117849784172994987e+01,6.079363571652447717e+01,2.191923267423044308e+01,9.446745872497558594e+00,-1.338607788085937500e+00,-4.207052886486053467e-01,5.230000000000000000e+02
-1.513391769034569734e+01,-2.050998357326625410e+01,-1.018726167041677400e+01,2.407941007351328153e+02,-3.219951710810983059e+01,4.018596198097293382e+01,5.736831019488863603e+01,1.869478665181486576e+01,9.446745872497558594e+00,-1.338607788085937500e+00,-4.207052886486053467e-01,5.240000000000000000e+02
-1.798407428636437544e+01,-2.109810880029635882e+01,-1.216594731443547062e+01,2.398475062402931144e+02,-3.466291057200032810e+01,3.790600752252794337e+01,5.338214400478955213e+01,1.549405675319212605e+01,9.446745872497558594e+00,-1.338607788085937500e+00,-4.207052886486053467e-01,5.250000000000000000e+02
-2.128108525721563637e+01,-2.180065079962059826e+01,-1.330823679117020220e+01,2.393205407488130732e+02,-3.649945459134141856e+01,3.635111234587020590e+01,5.125457032930808055e+01,1.441722041450157121e+01,9.446745872497558594e+00,-1.338607788085937500e+00,-4.207052886486053467e-01,5.260000000000000000e+02
-2.273290528300276492e+01,-2.169597352206619689e+01,-1.229910037242916587e+01,2.401408384440801456e+02,-3.639969671178550925e+01,3.696496684537760302e+01,5.209441490107110440e+01,1.611738539773887169e+01,9.446745872497558594e+00,-1.338607788085937500e+00,-4.207052886486053467e-01,5.270000000000000000e+02
-2.149556607208705827e+01,-2.070098088979466411e+01,-9.421877587529706943e+00,2.422404486365849152e+02,-3.430633621177184978e+01,3.965317453497118549e+01,5.512373148804772427e+01,1.961174167441095051e+01,9.446745872497558594e+00,-1.338607788085937500e+00,-4.207052886486053467e-01,5.280000000000000000e+02
-1.860100378654897213e+01,-1.922168866375250218e+01,-6.337300177541692392e+00,2.446058576022151101e+02,-3.154717787298613985e+01,4.294379058700906171e+01,5.855420688725189393e+01,2.316574236416454369e+01,9.446745872497558594e+00,-1.338607788085937500e+00,-4.207052886486053467e-01,5.290000000000000000e+02
-1.592264340840210934e+01,-1.750793045389855251e+01,-4.734456749665696407e+00,2.461145850190914643e+02,-2.985651470393804630e+01,4.514510478249940206e+01,6.105228090530272311e+01,2.548385974238408380e+01,9.446745872497558594e+00,-1.338607788085937500e+00,-4.207052886486053467e-01,5.300000000000000000e+02
-1.461346297256204707e+01,-1.548537825531275303e+01,-5.033733080957063066e+00,2.463708985100611244e+02,-3.004193743058749533e+01,4.559342056213426986e+01,6.250767305378030869e+01,2.636866921226373961e+01,9.446745872497558594e+00,-1.338607788085937500e+00,-4.207052886486053467e-01,5.310000000000000000e+02
-1.435156662349618273e+01,-1.316387043931354128e+01,-6.291298900448964559e+00,2.458081972032059639e+02,-3.141182561244113458e+01,4.503099562828720082e+01,6.356439285147644114e+01,2.651516009702208976e+01,9.446745872497558594e+00,-1.338607788085937500e+00,-4.207052886486053467e-01,5.320000000000000000e+02
-1.394489089661965409e+01,-1.105351166858690704e+01,-7.343671987331617856e+00,2.450703342147189687e+02,-3.243886355416179867e+01,4.486834315222586156e+01,6.454734688650842145e+01,2.673275150040353765e+01,9.446745872497558594e+00,-1.338607788085937500e+00,-4.207052886486053467e-01,5.330000000000000000e+02
-1.258363297082087229e+01,-1.000649904399779189e+01,-8.029763830689262250e+00,2.443951209740425838e+02,-3.202906897839420708e+01,4.600065228713174292e+01,6.494893678032531170e+01,2.725208130624741898e+01,9.446745872497558594e+00,-1.338607788085937500e+00,-4.207052886486053467e-01,5.340000000000000000e+02
-1.051261661522312352e+01,-1.055153708569196169e+01,-9.296068529602052877e+00,2.435972068411947475e+02,-3.031498100393218920e+01,4.813543283038234222e+01,6.395998183354549838e+01,2.760001792746425053e+01,9.446745872497558594e+00,-1.338607788085937500e+00,-4.207052886486053467e-01,5.350000000000000000e+02
-8.554898102978768293e+00,-1.234522288567040960e+01,-1.209867042168752960e+01,2.425374380660805400e+02,-2.839787152968710870e+01,5.009407893075876927e+01,6.146113883028374403e+01,2.708157738677255111e+01,9.446745872497558594e+00,-1.338607788085937500e+00,-4.207052886486053467e-01,5.360000000000000000e+02
-7.110713728136943246e+00,-1.428963135016238084e+01,-1.619432002573466889e+01,2.414303889765278655e+02,-2.740169339512976876e+01,5.073558852570022282e+01,5.842565166879558092e+01,2.545277703188003215e+01,9.446745872497558594e+00,-1.338607788085937500e+00,-4.207052886486053467e-01,5.370000000000000000e+02
-5.731442676416918403e+00,-1.528163824695457151e+01,-2.004826324277655658e+01,2.405691499660242698e+02,-2.770404040757603070e+01,4.972284365592349786e+01,5.625514224837206712e+01,2.321273953805211931e+01,9.446745872497558594e+00,-1.338607788085937500e+00,-4.207052886486053467e-01,5.380000000000000000e+02
-3.686159628125096788e+00,-1.498932171278283931e+01,-2.201664667803561315e+01,2.397698725553582335e+02,-2.888036265894879762e+01,4.761212883204461832e+01,5.564822956116313435e+01,2.126322276377868548e+01,9.446745872497558594e+00,-1.338607788085937500e+00,-4.207052886486053467e-01,5.390000000000000000e+02
-8.915099287005432416e-01,-1.404778379831259372e+01,-2.176309769835825136e+01,2.382209807880844892e+02,-3.024039131946483394e+01,4.533359737602222594e+01,5.605240763789151970e+01,2.019439242525913869e+01,9.446745872497558594e+00,-1.338607788085937500e+00,-4.207052886486053467e-01,5.400000000000000000e+02
1.797583474315615604e+00,-1.355217622306281555e+01,-2.062887018199035083e+01,2.350440747164866480e+02,-3.142508902668669180e+01,4.354476528352461173e+01,5.620993117344005441e+01,1.979425090695986000e+01,9.446745872497558594e+00,-1.338607788085937500e+00,-4.207052886486053467e-01,5.410000000000000000e+02
3.287886944146521273e+00,-1.424640413308497955e+01,-2.057676265502595925e+01,2.301412269279571774e+02,-3.260421958430561062e+01,4.233247065266368736e+01,5.531408819620901340e+01,1.925324597203507437e+01,9.446745872497558594e+00,-1.338607788085937500e+00,-4.207052886486053467e-01,5.420000000000000000e+02
3.252049006336164894e+00,-1.601362405983854842e+01,-2.256303734731045552e+01,2.245464575658770627e+02,-3.419858852279139683e+01,4.139919727688720741e+01,5.373098582299189729e+01,1.794166033168767171e+01,9.446745872497558594e+00,-1.338607788085937500e+00,-4.207052886486053467e-01,5.430000000000000000e+02
2.427599141135942773e+00,-1.801842434545505967e+01,-2.569310125397896627e+01,2.198913625825807685e+02,-3.640015303028485505e+01,4.049766336561515345e+01,5.265002104761606461e+01,1.609085767176657100e+01,9.446745872497558594e+00,-1.338607788085937500e+00,-4.207052886486053467e-01,5.440000000000000000e+02
1.912930165746729472e+00,-1.935220507754092978e+01,-2.787920804170789779e+01,2.173459313994480908e+02,-3.888652199502757867e+01,3.971602159880239924e+01,5.299238626136957464e+01,1.471915267173426400e+01,9.446745872497558594e+00,-1.338607788085937500e+00,-4.207052886486053467e-01,5.450000000000000000e+02
2.142298212509558653e+00,-1.970302991136486526e+01,-2.753509593216404028e+01,2.167986979093329865e+02,-4.098795367913771770e+01,3.935887004989308480e+01,5.451670679756443860e+01,1.475723925730017072e+01,9.523238182067871094e+00,-1.338607788085937500e+00,-3.442134261131286621e-01,5.460000000000000000e+02
2.533182350123752258e+00,-1.953372565465178923e+01,-2.497233640456761350e+01,2.168834993021046103e+02,-4.217829799779428868e+01,3.956682567948519136e+01,5.587935472665230918e+01,1.611733679270764696e+01,9.523238182067871094e+00,-1.338607788085937500e+00,-3.442134261131286621e-01,5.470000000000000000e+02
2.147198146520167938e+00,-1.961637234307272593e+01,-2.233371698072187428e+01,2.158757391913040919e+02,-4.243643106877061655e+01,4.010441198132321006e+01,5.562523580649030919e+01,1.761268929829748231e+01,9.523238182067871094e+00,-1.338607788085937500e+00,-3.442134261131286621e-01,5.480000000000000000e+02
7.071542556059284834e-01,-2.029624686095485231e+01,-2.204819332153238065e+01,2.128939977829722920e+02,-4.210482953265454853e+01,4.062812433055296424e+01,5.333648465653459425e+01,1.791204955782632169e+01,9.523238182067871094e+00,-1.338607788085937500e+00,-3.442134261131286621e-01,5.490000000000000000e+02
-1.046917580970330164e+00,-2.111941770485645975e+01,-2.500712093430047389e+01,2.085975480053093634e+02,-4.138000401648423576e+01,4.122376953969978786e+01,5.004762938708790898e+01,1.672509664652898209e+01,9.523238182067871094e+00,-1.338607788085937500e+00,-3.442134261131286621e-01,5.500000000000000000e+02
-2.032215458504651906e+00,-2.118400691781062051e+01,-2.993724632103476324e+01,2.048405510619595589e+02,-4.000908349633209582e+01,4.259086445610773808e+01,4.758794686228429782e+01,1.508952666501136264e+01,9.523238182067871094e+00,-1.338607788085937500e+00,-3.442134261131286621e-01,5.510000000000000000e+02
-1.868817803073397954e+00,-1.996192083932510286e+01,-3.448144323822452861e+01,2.034286647627523053e+02,-3.759570558636551141e+01,4.549349910017190268e+01,4.732057416166935582e+01,1.440669468511077866e+01,9.523238182067871094e+00,-1.338607788085937500e+00,-3.442134261131286621e-01,5.520000000000000000e+02
-1.265810337581569911e+00,-1.790427704194735270e+01,-3.704646206131656072e+01,2.048023305403348786e+02,-3.424310567776046810e+01,4.985743689287846792e+01,4.918522884504454851e+01,1.507249184982720180e+01,9.523238182067871094e+00,-1.338607788085937500e+00,-3.442134261131286621e-01,5.530000000000000000e+02
-1.363053688890431658e+00,-1.628365429557379684e+01,-3.785037710588403570e+01,2.076155113709846773e+02,-3.080099143940060458e+01,5.442254238862551574e+01,5.174058681993665232e+01,1.602809095669545059e+01,9.523238182067871094e+00,-1.338607788085937500e+00,-3.442134261131286621e-01,5.540000000000000000e+02
-2.662193687223407323e+00,-1.636140296802659577e+01,-3.837457297311448201e+01,2.095633616420018370e+02,-2.833643894662054663e+01,5.747137591281534696e+01,5.316959665463582496e+01,1.574018287510625669e+01,9.523238182067871094e+00,-1.338607788085937500e+00,-3.442134261131286621e-01,5.550000000000000000e+02
-4.565351757048119907e+00,-1.853781864885240793e+01,-3.987566406094265403e+01,2.088743678078444646e+02,-2.727630217170190008e+01,5.811962109951491584e+01,5.251135965468347422e+01,1.372836003594784415e+01,9.523238182067871094e+00,-1.338607788085937500e+00,-3.442134261131286621e-01,5.560000000000000000e+02
-5.934451931991134188e+00,-2.213091573568090098e+01,-4.237152909618635022e+01,2.053799472960417916e+02,-2.706354228790769412e+01,5.701734376958484063e+01,5.022947268695679668e+01,1.116056529941124609e+01,9.523238182067871094e+00,-1.338607788085937500e+00,-3.442134261131286621e-01,5.570000000000000000e+02
-6.090351762790305656e+00,-2.587688693300333398e+01,-4.489590030949148058e+01,2.004523536087053799e+02,-2.665817473710558261e+01,5.577862956569879316e+01,4.775677610125057981e+01,9.881652453334027086e+00,9.523238182067871094e+00,-1.338607788085937500e+00,-3.442134261131286621e-01,5.580000000000000000e+02
-5.285729456010813010e+00,-2.869776183921021584e+01,-4.654627099237040966e+01,1.960033977458588197e+02,-2.534177034210188140e+01,5.562179787735294667e+01,4.644916735028891708e+01,1.076618940111075062e+01,9.523238182067871094e+00,-1.338607788085937500e+00,-3.442134261131286621e-01,5.590000000000000000e+02
-4.277280596583295846e+00,-3.019309070012786833e+01,-4.719156241637392668e+01,1.933702886260070954e+02,-2.304416150218276016e+01,5.643344805766901118e+01,4.678951317141581967e+01,1.296266601849310973e+01,9.523238182067871094e+00,-1.338607788085937500e+00,-3.442134261131286621e-01,5.600000000000000000e+02
-3.532168921421543928e+00,-3.064463814420923882e+01,-4.725916668907120766e+01,1.927869557203393924e+02,-2.003757362795295194e+01,5.702545152781385696e+01,4.835564961350610247e+01,1.472246111615459085e+01,9.523238182067871094e+00,-1.338607788085937500e+00,-3.442134261131286621e-01,5.610000000000000000e+02
-2.885290594847901957e+00,-3.067765287399015506e+01,-4.704472978040212183e+01,1.935552659442928416e+02,-1.653026418221270433e+01,5.627037837584794033e+01,5.039023525173251983e+01,1.501289863605779829e+01,9.523238182067871094e+00,-1.338607788085937500e+00,-3.442134261131286621e-01,5.620000000000000000e+02
-1.910760650534939487e+00,-3.085980024413038336e+01,-4.638951893717057828e+01,1.945681196470468421e+02,-1.266852394315355923e+01,5.408017708070110530e+01,5.234187192174613301e+01,1.437388599790028820e+01,9.523238182067871094e+00,-1.338607788085937500e+00,-3.442134261131286621e-01,5.630000000000000000e+02
-5.326860662298713578e-01,-3.146024672889325302e+01,-4.504501115712264436e+01,1.947946782473936764e+02,-8.844921030282421270e+00,5.143239590186931309e+01,5.387211408057191875e+01,1.420271932702598860e+01,9.523238182067871094e+00,-1.338607788085937500e+00,-3.442134261131286621e-01,5.640000000000000000e+02
7.954844062314805342e-01,-3.246203606790550111e+01,-4.323298525258724112e+01,1.935835040816309629e+02,-5.793483347722940380e+00,4.952606502441267367e+01,5.448697618046753632e+01,1.517856583176398999e+01,9.523238182067871094e+00,-1.338607788085937500e+00,-3.442134261131286621e-01,5.650000000000000000e+02
1.489883191923581762e+00,-3.378916549272616976e+01,-4.172406113040779019e+01,1.908031160520731646e+02,-4.224879343368229456e+00,4.881219561503894511e+01,5.341306852150228224e+01,1.636694600199916749e+01,9.523238182067871094e+00,-1.338607788085937500e+00,-3.442134261131286621e-01,5.660000000000000000e+02
1.365805437462768168e+00,-3.554849302316506510e+01,-4.130570485542193637e+01,1.868320046501248726e+02,-4.317817770508554531e+00,4.864895027148304507e+01,5.012072495693246310e+01,1.591251113084945246e+01,9.523238182067871094e+00,-1.338607788085937500e+00,-3.442134261131286621e-01,5.670000000000000000e+02
7.761296558346657548e-01,-3.800686267581841093e+01,-4.214236312926004757e+01,1.823903024210158037e+02,-5.550725244000204839e+00,4.782012454621872166e+01,4.514169001844311424e+01,1.273184299003696651e+01,9.523238182067871094e+00,-1.338607788085937500e+00,-3.442134261131286621e-01,5.680000000000000000e+02
2.520780752638529520e-01,-4.121903244970599189e+01,-4.361020349346472358e+01,1.782653831694260589e+02,-6.989572325899644056e+00,4.552855331973114517e+01,4.030376696761959465e+01,7.672813889701501466e+00,9.523238182067871094e+00,-1.338607788085937500e+00,-3.442134261131286621e-01,5.690000000000000000e+02
4.296372299722861499e-02,-4.461465820466582954e+01,-4.472823612724823761e+01,1.750428920207632473e+02,-7.723317480627883924e+00,4.213532676120667020e+01,3.784013208358555858e+01,3.071815232175140409e+00,9.523238182067871094e+00,-1.338607788085937500e+00,-3.442134261131286621e-01,5.700000000000000000e+02
1.299631441725068726e-02,-4.703855341121925449e+01,-4.481872264343655843e+01,1.729464664061670192e+02,-7.156101252858206863e+00,3.905990009334345814e+01,3.883365296519696130e+01,1.061315013408602681e+00,9.523238182067871094e+00,-1.338607788085937500e+00,-3.442134261131286621e-01,5.710000000000000000e+02
-7.122518655887688510e-02,-4.742538165497353475e+01,-4.392109619951588684e+01,1.718346965349373932e+02,-5.158744508957170183e+00,3.783623866388734314e+01,4.222361765149798885e+01,2.037426876016979804e+00,9.523238182067871094e+00,-1.338607788085937500e+00,-3.442134261131286621e-01,5.720000000000000000e+02
-2.117963173077441752e-01,-4.564565342437526851e+01,-4.273212619192054262e+01,1.713351957034537918e+02,-2.175704907160252333e+00,3.898250135396301630e+01,4.532793275624680973e+01,4.507689413487241836e+00,9.446745872497558594e+00,-1.338607788085937500e+00,-4.589512646198272705e-01,5.730000000000000000e+02
-1.668503015644091647e-01,-4.274321597725793254e+01,-4.216824153318884782e+01,1.710564411795967317e+02,8.098063954021199606e-01,4.155494753355014836e+01,4.563640344442319474e+01,6.320401370863692136e+00,9.446745872497558594e+00,-1.338607788085937500e+00,-4.589512646198272705e-01,5.740000000000000000e+02
2.160578816401539370e-01,-4.025033327710116282e+01,-4.283449194769855239e+01,1.707495798331729020e+02,2.644570998214476276e+00,4.375908914397223270e+01,4.252543716539912566e+01,6.151022314617875963e+00,9.446745872497558594e+00,-1.338607788085937500e+00,-4.589512646198272705e-01,5.750000000000000000e+02
6.789672766171861440e-01,-3.911478994191566017e+01,-4.467442952669080114e+01,1.703005954604050203e+02,2.643812762351444690e+00,4.413828036642007646e+01,3.756887046387601004e+01,4.087945698596740840e+00,9.446745872497558594e+00,-1.338607788085937500e+00,-4.589512646198272705e-01,5.760000000000000000e+02
6.541261942402343266e-01,-3.915947018329825369e+01,-4.695559072482865304e+01,1.695771103470724483e+02,1.081393627267971169e+00,4.242184855907180463e+01,3.329871691167863901e+01,1.116856207623641239e+00,9.446745872497558594e+00,-1.338607788085937500e+00,-4.589512646198272705e-01,5.770000000000000000e+02
-1.925127331815019716e-01,-3.950832155885655084e+01,-4.860444292522151954e+01,1.683366563463496277e+02,-9.003513332791044377e-01,3.946845335426769452e+01,3.148802391096614883e+01,-1.758845255462802015e+00,9.446745872497558594e+00,-1.338607788085937500e+00,-4.589512646198272705e-01,5.780000000000000000e+02
-1.439879804514930584e+00,-3.949527086271700682e+01,-4.875578691868940950e+01,1.664079140142675897e+02,-1.949402145299245603e+00,3.655474850175596657e+01,3.227161226510725101e+01,-3.914835699619288789e+00,9.446745872497558594e+00,-1.338607788085937500e+00,-4.589512646198272705e-01,5.790000000000000000e+02
-2.014496766176307574e+00,-3.918550252274872037e+01,-4.726217233956776909e+01,1.640497722881882510e+02,-1.270918046619044617e+00,3.469456187442119699e+01,3.454379780046838277e+01,-4.910923366416682256e+00,9.446745872497558594e+00,-1.338607788085937500e+00,-4.589512646198272705e-01,5.800000000000000000e+02
-1.009521436550130602e+00,-3.911200411085883388e+01,-4.485029006997137913e+01,1.620759767305789865e+02,1.008264014537417097e+00,3.440128693898805068e+01,3.700012511180284491e+01,-4.278242426153155975e+00,9.446745872497558594e+00,-1.338607788085937500e+00,-4.589512646198272705e-01,5.810000000000000000e+02
1.425955961993167875e+00,-3.961464587183581898e+01,-4.273028698491543764e+01,1.614434644480461429e+02,4.054131365242938045e+00,3.576598188315983862e+01,3.888659986089623999e+01,-1.761486884082842153e+00,9.446745872497558594e+00,-1.338607788085937500e+00,-4.589512646198272705e-01,5.820000000000000000e+02
4.013065459355857456e+00,-4.046972112595540239e+01,-4.180136531205425854e+01,1.625326138921518577e+02,6.909768652956699952e+00,3.852451469978041132e+01,4.006750741919859138e+01,2.190330729183187941e+00,9.446745872497558594e+00,-1.338607788085937500e+00,-4.589512646198272705e-01,5.830000000000000000e+02
5.314552130683296127e+00,-4.108677557477130904e+01,-4.196787989916629158e+01,1.647551973337613163e+02,9.065802015924418811e+00,4.204104999376068008e+01,4.070630342653021216e+01,6.324161758941045264e+00,9.446745872497558594e+00,-1.338607788085937500e+00,-4.589512646198272705e-01,5.840000000000000000e+02
4.935623802033660468e+00,-4.095719348350758082e+01,-4.216051461953611579e+01,1.669204071806234424e+02,1.068562413230392849e+01,4.540432760878320551e+01,4.102962052458860853e+01,9.198810749247058993e+00,9.446745872497558594e+00,-1.338607788085937500e+00,-4.589512646198272705e-01,5.850000000000000000e+02
3.823579851894464809e+00,-3.989521430308377603e+01,-4.116149551984199206e+01,1.681127075225194858e+02,1.238419974864154938e+01,4.776577424896822777e+01,4.133273116016425774e+01,1.013980277743758052e+01,9.446745872497558594e+00,-1.338607788085937500e+00,-4.589512646198272705e-01,5.860000000000000000e+02
3.318195550782547798e+00,-3.796081330888773664e+01,-3.864152218533854466e+01,1.683335441486124182e+02,1.472272018639705493e+01,4.874214349985413719e+01,4.202651502585285925e+01,9.752920703504059929e+00,9.446745872497558594e+00,-1.338607788085937500e+00,-4.589512646198272705e-01,5.870000000000000000e+02
3.825525299620494479e+00,-3.532886362634963007e+01,-3.551034849019197281e+01,1.683684669713438780e+02,1.779692128094029613e+01,4.858199383081591805e+01,4.350644483775977278e+01,9.558953527081030188e+00,9.446745872497558594e+00,-1.338607788085937500e+00,-4.589512646198272705e-01,5.880000000000000000e+02
4.431290165659447666e+00,-3.231364191675675102e+01,-3.317871336707321461e+01,1.690560465841044788e+02,2.124553535485028988e+01,4.799634856073316769e+01,4.587209940522734541e+01,1.103056651621591300e+01,9.446745872497558594e+00,-1.338607788085937500e+00,-4.589512646198272705e-01,5.890000000000000000e+02
3.854052774517185753e+00,-2.944599144787935074e+01,-3.233820485954493051e+01,1.706062881437283067e+02,2.461411340680206195e+01,4.778882724400318693e+01,4.871774519038444851e+01,1.469458468902303139e+01,9.446745872497558594e+00,-1.338607788085937500e+00,-4.589512646198272705e-01,5.900000000000000000e+02
1.790143051632185234e+00,-2.735117114039167063e+01,-3.237460101581382332e+01,1.724711651966135832e+02,2.766512921636967803e+01,4.848611509166585165e+01,5.119001577219387400e+01,1.981418061081058113e+01,9.446745872497558594e+00,-1.338607788085937500e+00,-4.589512646198272705e-01,5.910000000000000000e+02
