F3,F4,C3,C4,P3,P4,Cz,Pz,Accel_x,Accel_y,Accel_z,Sample
-5.093170329928398132e-11,-3.547029336914420128e-11,-3.092281986027956009e-11,-3.910827217623591423e-11,-4.820321919396519661e-11,-6.184563972055912018e-11,-2.546585164964199066e-11,-4.365574568510055542e-11,9.484992027282714844e+00,-1.376853704452514648e+00,-3.824593424797058105e-01,2.020000000000000000e+02
5.486455847773868300e+00,8.263729892654737341e+00,2.087704346860027727e+01,2.241254289413518563e+01,2.775879151267054112e+01,2.143526700446273026e+01,8.979135825560661033e+00,8.662535147194830643e+00,9.484992027282714844e+00,-1.376853704452514648e+00,-3.824593424797058105e-01,2.030000000000000000e+02
3.795254579270476825e+00,9.983046000475951587e+00,3.128735293142017326e+01,3.487827889096843137e+01,3.640846261638489523e+01,2.817115137773544120e+01,1.574226276915032940e+01,1.332966523710638285e+01,9.484992027282714844e+00,-1.376853704452514648e+00,-3.824593424797058105e-01,2.040000000000000000e+02
-6.717683532973751426e+00,4.299233043185267888e+00,2.913860820922491257e+01,3.643527036441537348e+01,2.327030558421029127e+01,1.862732230027904734e+01,1.944423802331220941e+01,1.343417246955505107e+01,9.484992027282714844e+00,-1.376853704452514648e+00,-3.824593424797058105e-01,2.050000000000000000e+02
-2.166433849674103840e+01,-3.882572148091639974e+00,2.112889036756132555e+01,3.499637329969664279e+01,2.597164575073293236e+00,4.482115336866627331e+00,2.077892194628475409e+01,1.176816273181157158e+01,9.484992027282714844e+00,-1.376853704452514648e+00,-3.824593424797058105e-01,2.060000000000000000e+02
-3.519930497078439657e+01,-9.214397027297309251e+00,1.543811359508617898e+01,3.865350729968031374e+01,-9.437683571613888489e+00,-1.638631881745823193e+00,2.099027075826961664e+01,1.115318021194161702e+01,9.484992027282714844e+00,-1.376853704452514648e+00,-3.824593424797058105e-01,2.070000000000000000e+02
-4.493708468849672499e+01,-1.100004024614554510e+01,1.449962789329129009e+01,4.768704327076102345e+01,-9.569062882772414014e+00,2.100330376790225273e+00,2.085010748038439488e+01,1.144681416224102577e+01,9.484992027282714844e+00,-1.376853704452514648e+00,-3.824593424797058105e-01,2.080000000000000000e+02
-5.275684550454388955e+01,-1.311123340630365419e+01,1.466925053630711773e+01,5.517739884090678970e+01,-8.000343107299158874e+00,6.929111379864480114e+00,2.048956551606806897e+01,9.901465882302545651e+00,9.446745872497558594e+00,-1.262115836143493652e+00,-3.824593424797058105e-01,2.090000000000000000e+02
-6.155890859926330450e+01,-1.939589254559086839e+01,1.183819282341301005e+01,5.471666967173132434e+01,-1.614113594762056891e+01,3.875555101391000790e+00,1.989883460575583740e+01,4.238730574618784885e+00,9.446745872497558594e+00,-1.262115836143493652e+00,-3.824593424797058105e-01,2.100000000000000000e+02
-7.187225735678475758e+01,-2.964493924200723995e+01,6.197385333401143725e+00,4.673098352857778082e+01,-3.533821507471111545e+01,-7.324011008505294740e+00,1.928213590395898791e+01,-4.890384894200906274e+00,9.446745872497558594e+00,-1.262115836143493652e+00,-3.824593424797058105e-01,2.110000000000000000e+02
-8.165468800347207434e+01,-3.998853958466770564e+01,1.354665636931713379e+00,3.740943051828344323e+01,-5.734015245902901370e+01,-1.940646981060308462e+01,1.890938125675074843e+01,-1.440393674733331864e+01,9.446745872497558594e+00,-1.262115836143493652e+00,-3.824593424797058105e-01,2.120000000000000000e+02
-8.887452803300766391e+01,-4.667888722475709073e+01,-2.726008428599016042e-01,3.251412697567229770e+01,-7.383614235681307036e+01,-2.594643045524026093e+01,1.888074778188456548e+01,-2.137725092131131532e+01,9.446745872497558594e+00,-1.262115836143493652e+00,-3.824593424797058105e-01,2.130000000000000000e+02
-9.381033749325069948e+01,-4.915184804567161336e+01,-2.335186469126711017e-01,3.297095968736630311e+01,-8.397120195470688486e+01,-2.723581031503272243e+01,1.924410310688017489e+01,-2.501978668089850544e+01,9.446745872497558594e+00,-1.262115836143493652e+00,-3.824593424797058105e-01,2.140000000000000000e+02
-9.885246785066101438e+01,-4.975228453863110190e+01,-2.202393046917677566e+00,3.596937240575061878e+01,-9.292691867852681753e+01,-2.824634348705421871e+01,2.028007253573377966e+01,-2.645404193604372267e+01,9.446745872497558594e+00,-1.262115836143493652e+00,-3.824593424797058105e-01,2.150000000000000000e+02
-1.064124712222992457e+02,-5.122119701263272873e+01,-8.035079888621112332e+00,3.896416744946964172e+01,-1.050097863850196518e+02,-3.236248532127410726e+01,2.239156332762559032e+01,-2.712149906381728215e+01,9.446745872497558594e+00,-1.262115836143493652e+00,-3.824593424797058105e-01,2.160000000000000000e+02
-1.171302043166988369e+02,-5.480558439722244657e+01,-1.603651593535141728e+01,4.169686386369903630e+01,-1.194131901693590407e+02,-3.821791713040420291e+01,2.552805945193722437e+01,-2.765548728979592852e+01,9.446745872497558594e+00,-1.262115836143493652e+00,-3.824593424797058105e-01,2.170000000000000000e+02
-1.297222443679174830e+02,-6.030941917689779075e+01,-2.273960743029783771e+01,4.480072155232301157e+01,-1.321553069540386787e+02,-4.221562168261789338e+01,2.883252958490902529e+01,-2.797552975476264692e+01,9.446745872497558594e+00,-1.262115836143493652e+00,-3.824593424797058105e-01,2.180000000000000000e+02
-1.421050552575106849e+02,-6.709806507353368943e+01,-2.585042476975013415e+01,4.770287106313116965e+01,-1.406775366648644194e+02,-4.287761669910742057e+01,3.106968507644023703e+01,-2.796254534249328572e+01,9.446745872497558594e+00,-1.262115836143493652e+00,-3.824593424797058105e-01,2.190000000000000000e+02
-1.526115996572452786e+02,-7.456801945248025731e+01,-2.550861943845757196e+01,4.874474673779332079e+01,-1.458659172709485574e+02,-4.207433455348564166e+01,3.158156619298461010e+01,-2.778928857900609728e+01,9.446745872497558594e+00,-1.262115836143493652e+00,-3.824593424797058105e-01,2.200000000000000000e+02
-1.606196833529138530e+02,-8.193907886591387069e+01,-2.342830570034402626e+01,4.718641261195443803e+01,-1.503500147803160871e+02,-4.256687013888677029e+01,3.082764264765728512e+01,-2.776949280688859290e+01,9.446745872497558594e+00,-1.262115836143493652e+00,-3.824593424797058105e-01,2.210000000000000000e+02
-1.665922512723946056e+02,-8.827944111987017095e+01,-2.147351162526229018e+01,4.442596469079671806e+01,-1.559652016362279028e+02,-4.528763654309477715e+01,2.992567283115749888e+01,-2.817652491945955262e+01,9.446745872497558594e+00,-1.262115836143493652e+00,-3.824593424797058105e-01,2.220000000000000000e+02
-1.716765967291548804e+02,-9.315340438650036958e+01,-2.088877015844809648e+01,4.294006064055065508e+01,-1.629773952985297001e+02,-4.917081504262296221e+01,2.966272307529470709e+01,-2.926095827652170556e+01,9.446745872497558594e+00,-1.262115836143493652e+00,-3.824593424797058105e-01,2.230000000000000000e+02
-1.770012046482916048e+02,-9.717798608568864438e+01,-2.210713535761715320e+01,4.415094431167835864e+01,-1.708989849317767948e+02,-5.297400695807482407e+01,2.996006920654463102e+01,-3.128577894340742205e+01,9.446745872497558594e+00,-1.262115836143493652e+00,-3.824593424797058105e-01,2.240000000000000000e+02
-1.829967916802115724e+02,-1.016504279703185603e+02,-2.464352591258921166e+01,4.742583357221610640e+01,-1.792356497529917760e+02,-5.662296763599169935e+01,3.024225067330553429e+01,-3.439031988533497497e+01,9.446745872497558594e+00,-1.262115836143493652e+00,-3.824593424797058105e-01,2.250000000000000000e+02
-1.892395437860031961e+02,-1.074362353731776238e+02,-2.721679321725423506e+01,5.090688672769283585e+01,-1.875168024021195379e+02,-6.086650471001212281e+01,3.021497548890874896e+01,-3.843024799445356621e+01,9.446745872497558594e+00,-1.262115836143493652e+00,-3.824593424797058105e-01,2.260000000000000000e+02
-1.949985298713363591e+02,-1.141685786940342950e+02,-2.850367069044204982e+01,5.302726391079795576e+01,-1.952675385348029522e+02,-6.617522815101438027e+01,3.023707210017073521e+01,-4.299097320017153834e+01,9.446745872497558594e+00,-1.262115836143493652e+00,-3.824593424797058105e-01,2.270000000000000000e+02
-1.999880277872680381e+02,-1.204813940312524210e+02,-2.815100205464568717e+01,5.340869965765614324e+01,-2.022872584552924309e+02,-7.220827933245800523e+01,3.102979187173559694e+01,-4.745837741766263207e+01,9.446745872497558594e+00,-1.262115836143493652e+00,-3.824593424797058105e-01,2.280000000000000000e+02
-2.045928267897143087e+02,-1.249953014124112087e+02,-2.708140739343707537e+01,5.284439891878719209e+01,-2.087530627426413048e+02,-7.808926908558987634e+01,3.313092988408061501e+01,-5.099389368009451573e+01,9.446745872497558594e+00,-1.262115836143493652e+00,-3.824593424797058105e-01,2.290000000000000000e+02
-2.093878367999150214e+02,-1.271678127911100091e+02,-2.665055267684419960e+01,5.284461419362651213e+01,-2.147508378595803151e+02,-8.285578704958697926e+01,3.661287662767244910e+01,-5.256190072151457571e+01,9.408499717712402344e+00,-1.338607788085937500e+00,-4.207052886486053467e-01,2.300000000000000000e+02
-2.145188870179426885e+02,-1.274455283319448426e+02,-2.746175234906331752e+01,5.503373467680285103e+01,-2.198274597718427685e+02,-8.574115313827132923e+01,4.116224305294463193e+01,-5.133916447673254879e+01,9.408499717712402344e+00,-1.338607788085937500e+00,-4.207052886486053467e-01,2.310000000000000000e+02
-2.196158894183035954e+02,-1.268584108549844132e+02,-2.904850761680609139e+01,6.032515654031976737e+01,-2.234311284866616916e+02,-8.651665502262039809e+01,4.624912245842278935e+01,-4.747921043754831771e+01,9.408499717712402344e+00,-1.338607788085937500e+00,-4.207052886486053467e-01,2.320000000000000000e+02
-2.242371895396900072e+02,-1.264850689620971025e+02,-3.061086361995694460e+01,6.813092331827283488e+01,-2.258943948532032664e+02,-8.588908026680019248e+01,5.120744396326199421e+01,-4.254824106905653025e+01,9.408499717712402344e+00,-1.338607788085937500e+00,-4.207052886486053467e-01,2.330000000000000000e+02
-2.282776844180552871e+02,-1.270868772378635185e+02,-3.185382076995210809e+01,7.627105881972238421e+01,-2.286503771061925363e+02,-8.544950722151315858e+01,5.529423629021357556e+01,-3.894695189949561609e+01,9.408499717712402344e+00,-1.338607788085937500e+00,-4.207052886486053467e-01,2.340000000000000000e+02
-2.319349879575474915e+02,-1.289730065863559503e+02,-3.300065641544733808e+01,8.199021930961680482e+01,-2.330592723966638005e+02,-8.681240145792253315e+01,5.786714778827490591e+01,-3.850680773730528017e+01,9.408499717712402344e+00,-1.338607788085937500e+00,-4.207052886486053467e-01,2.350000000000000000e+02
-2.354186160455901700e+02,-1.320619252561718895e+02,-3.417893933587583888e+01,8.354997419321989582e+01,-2.389520067985231435e+02,-9.048444796011153812e+01,5.864142648883944275e+01,-4.135051096730876452e+01,9.408499717712402344e+00,-1.338607788085937500e+00,-4.207052886486053467e-01,2.360000000000000000e+02
-2.388338734830913381e+02,-1.360641755470810494e+02,-3.511854980516818614e+01,8.123883094748180156e+01,-2.446067441065679304e+02,-9.550678766799319419e+01,5.785175013137859423e+01,-4.597764740596176125e+01,9.408499717712402344e+00,-1.338607788085937500e+00,-4.207052886486053467e-01,2.370000000000000000e+02
-2.423359540695819305e+02,-1.406237393323162905e+02,-3.555402872442300577e+01,7.709704013099963049e+01,-2.483694958854912329e+02,-1.002113182120601778e+02,5.622765587511230478e+01,-5.041777891288347746e+01,9.408499717712402344e+00,-1.338607788085937500e+00,-4.207052886486053467e-01,2.380000000000000000e+02
-2.462561331439442256e+02,-1.453133718797430447e+02,-3.576932325274719915e+01,7.364424916010830202e+01,-2.502879386721242554e+02,-1.033840418548161324e+02,5.478779773938867947e+01,-5.339482792293711100e+01,9.408499717712402344e+00,-1.338607788085937500e+00,-4.207052886486053467e-01,2.390000000000000000e+02
-2.509298452432180966e+02,-1.495755556615931710e+02,-3.648943721091973202e+01,7.254778542542590003e+01,-2.520077688221927019e+02,-1.048154277805861057e+02,5.449693074088099820e+01,-5.461983890116334805e+01,9.408499717712402344e+00,-1.338607788085937500e+00,-4.207052886486053467e-01,2.400000000000000000e+02
-2.563833693594142460e+02,-1.528217477424241224e+02,-3.811262779404887624e+01,7.398836675176880817e+01,-2.550423829084993486e+02,-1.049976966800431910e+02,5.588296103966149531e+01,-5.432077829924492107e+01,9.408499717712402344e+00,-1.338607788085937500e+00,-4.207052886486053467e-01,2.410000000000000000e+02
-2.622515455986913366e+02,-1.547639525640506690e+02,-4.014134180680821373e+01,7.686170573141953355e+01,-2.592926748108984611e+02,-1.046100657157930982e+02,5.877438542093750584e+01,-5.277906396624712215e+01,9.408499717712402344e+00,-1.338607788085937500e+00,-4.207052886486053467e-01,2.420000000000000000e+02
-2.679946997879842456e+02,-1.556737750821130248e+02,-4.146308512498035270e+01,7.959466556046072583e+01,-2.633230964787189805e+02,-1.043249430436735565e+02,6.241915458971743647e+01,-5.030081391004478064e+01,9.408499717712402344e+00,-1.338607788085937500e+00,-4.207052886486053467e-01,2.430000000000000000e+02
-2.731407450087403959e+02,-1.562227904119890809e+02,-4.122877372394896156e+01,8.114121754895450067e+01,-2.660190847870226207e+02,-1.048223807969407062e+02,6.603840455079489402e+01,-4.736999768229634356e+01,9.408499717712402344e+00,-1.338607788085937500e+00,-4.207052886486053467e-01,2.440000000000000000e+02
-2.773062733648444009e+02,-1.569512509566998233e+02,-3.947235734989317280e+01,8.164179614211070657e+01,-2.678153135586917415e+02,-1.065554022295873438e+02,6.944544643663721217e+01,-4.453733167717473407e+01,9.408499717712402344e+00,-1.338607788085937500e+00,-4.207052886486053467e-01,2.450000000000000000e+02
-2.801369051983451754e+02,-1.578820217167058217e+02,-3.697912705060298322e+01,8.226219929066064651e+01,-2.702858652805316524e+02,-1.092912009772135207e+02,7.314082045799796106e+01,-4.209523952517838552e+01,9.408499717712402344e+00,-1.338607788085937500e+00,-4.207052886486053467e-01,2.460000000000000000e+02
-2.815020016780208607e+02,-1.587448759874746429e+02,-3.473308591672548573e+01,8.413833210042139399e+01,-2.747077534203672258e+02,-1.120563567282479198e+02,7.764917551862436085e+01,-4.002448762401263593e+01,9.408499717712402344e+00,-1.338607788085937500e+00,-4.207052886486053467e-01,2.470000000000000000e+02
-2.818788091168025858e+02,-1.595701594278916673e+02,-3.350018480009566701e+01,8.721191624818038690e+01,-2.810414863380210591e+02,-1.137821862321789013e+02,8.262915582713503682e+01,-3.838169851015300083e+01,9.408499717712402344e+00,-1.338607788085937500e+00,-4.207052886486053467e-01,2.480000000000000000e+02
-2.824083714321327534e+02,-1.609047244938492440e+02,-3.370516961517023447e+01,9.007545139313151594e+01,-2.881174964820220339e+02,-1.141051980576166898e+02,8.668361416193920377e+01,-3.764133913217892768e+01,9.408499717712402344e+00,-1.338607788085937500e+00,-4.207052886486053467e-01,2.490000000000000000e+02
-2.842959723645030863e+02,-1.632834853277540788e+02,-3.541512074938236765e+01,9.111988174448379141e+01,-2.946717741164902691e+02,-1.135472117183644514e+02,8.823422713443142129e+01,-3.846421570006214097e+01,9.408499717712402344e+00,-1.338607788085937500e+00,-4.207052886486053467e-01,2.500000000000000000e+02
-2.879295288019261534e+02,-1.664646712120443226e+02,-3.830559961826838844e+01,9.001302864825629513e+01,-3.002461519728713029e+02,-1.129330503112760198e+02,8.677509011068150357e+01,-4.104295380248549918e+01,9.408499717712402344e+00,-1.338607788085937500e+00,-4.207052886486053467e-01,2.510000000000000000e+02
-2.925173548745574408e+02,-1.693154172981253396e+02,-4.172803132142234972e+01,8.812596056612619577e+01,-3.052400271615019847e+02,-1.126830887421892839e+02,8.336940176277721548e+01,-4.473628691345493280e+01,9.408499717712402344e+00,-1.338607788085937500e+00,-4.207052886486053467e-01,2.520000000000000000e+02
-2.966950376532026894e+02,-1.706286751789766640e+02,-4.499272224793912756e+01,8.745523845099432947e+01,-3.101901829715679924e+02,-1.126784078259870512e+02,7.990824497468656773e+01,-4.846175147152098361e+01,9.408499717712402344e+00,-1.338607788085937500e+00,-4.207052886486053467e-01,2.530000000000000000e+02
-2.996510069134869809e+02,-1.701676536162685807e+02,-4.771817558284737970e+01,8.900327897241731989e+01,-3.149806831352452718e+02,-1.127100659144434758e+02,7.779857947691789377e+01,-5.145366621564198795e+01,9.408499717712402344e+00,-1.338607788085937500e+00,-4.207052886486053467e-01,2.540000000000000000e+02
-3.017726153135431559e+02,-1.689451712821232832e+02,-4.995045593165059472e+01,9.205269938267929319e+01,-3.187579787976769694e+02,-1.129048397916617432e+02,7.724322966031195392e+01,-5.355885594516030324e+01,9.446745872497558594e+00,-1.338607788085937500e+00,-3.824593424797058105e-01,2.550000000000000000e+02
-3.042387108152979636e+02,-1.684505372178118705e+02,-5.192264824409858193e+01,9.490594934777209346e+01,-3.207148178394377283e+02,-1.135941149398481684e+02,7.764347465078617461e+01,-5.476570572020909822e+01,9.446745872497558594e+00,-1.338607788085937500e+00,-3.824593424797058105e-01,2.560000000000000000e+02
-3.079176154397314349e+02,-1.695243669190372202e+02,-5.368358470865041454e+01,9.633678002276974439e+01,-3.210794123796254098e+02,-1.147625517646765729e+02,7.853617546001714800e+01,-5.459465928946383428e+01,9.446745872497558594e+00,-1.338607788085937500e+00,-3.824593424797058105e-01,2.570000000000000000e+02
-3.125359458430475570e+02,-1.718706157365345462e+02,-5.498217574261616392e+01,9.645660616995382952e+01,-3.213140981241358531e+02,-1.157271560567869528e+02,8.002773183625913589e+01,-5.224199760296596651e+01,9.446745872497558594e+00,-1.338607788085937500e+00,-3.824593424797058105e-01,2.580000000000000000e+02
-3.168459317306728735e+02,-1.745418802536714793e+02,-5.556299755123836803e+01,9.633923808011877554e+01,-3.231590437452268816e+02,-1.155057718285493138e+02,8.230419589163875571e+01,-4.757376014419833155e+01,9.446745872497558594e+00,-1.338607788085937500e+00,-3.824593424797058105e-01,2.590000000000000000e+02
-3.196379430364349901e+02,-1.768498013798985085e+02,-5.563904518185745474e+01,9.686702962309300347e+01,-3.272980103225559105e+02,-1.136953887567383390e+02,8.480949679399509478e+01,-4.204395677353431893e+01,9.446745872497558594e+00,-1.338607788085937500e+00,-3.824593424797058105e-01,2.600000000000000000e+02
-3.207267842665373792e+02,-1.788791136674094560e+02,-5.610605944952067148e+01,9.785089318911650480e+01,-3.329504370673821541e+02,-1.111494277476958814e+02,8.606136908425924048e+01,-3.847404585586355097e+01,9.446745872497558594e+00,-1.338607788085937500e+00,-3.824593424797058105e-01,2.610000000000000000e+02
-3.210991069627316392e+02,-1.812523863732230893e+02,-5.821149121120060954e+01,9.814141232926795055e+01,-3.388792234096017637e+02,-1.098012676305042987e+02,8.447308378187744893e+01,-3.958153656764307016e+01,9.446745872497558594e+00,-1.338607788085937500e+00,-3.824593424797058105e-01,2.620000000000000000e+02
-3.221221258847654099e+02,-1.844541706155073371e+02,-6.277278154096211438e+01,9.661086560462035777e+01,-3.448214905453864958e+02,-1.115789667486560575e+02,7.958400031334235791e+01,-4.627121156183648054e+01,9.446745872497558594e+00,-1.338607788085937500e+00,-3.824593424797058105e-01,2.630000000000000000e+02
-3.244509823268194850e+02,-1.882783868252845423e+02,-6.938520468872138736e+01,9.325650167658886858e+01,-3.517462473350269647e+02,-1.170568195098412616e+02,7.273093226097421393e+01,-5.690042701206675702e+01,9.446745872497558594e+00,-1.338607788085937500e+00,-3.824593424797058105e-01,2.640000000000000000e+02
-3.274866250472365437e+02,-1.917617696766059225e+02,-7.621301723320857491e+01,8.957738324641763938e+01,-3.605020056454750375e+02,-1.248063540507689595e+02,6.661380770186826794e+01,-6.796695290895331709e+01,9.446745872497558594e+00,-1.338607788085937500e+00,-3.824593424797058105e-01,2.650000000000000000e+02
-3.298128229422267168e+02,-1.936176996656747633e+02,-8.070806209413035504e+01,8.786993230916687025e+01,-3.702035161430701464e+02,-1.320122798350957964e+02,6.397815761078413743e+01,-7.567788855558455907e+01,9.446745872497558594e+00,-1.338607788085937500e+00,-3.824593424797058105e-01,2.660000000000000000e+02
-3.302699836030992628e+02,-1.929231397858973196e+02,-8.095578074464879137e+01,8.985464648914853569e+01,-3.781549553290992662e+02,-1.360248340183438813e+02,6.622098783642434228e+01,-7.744095404206711919e+01,9.446745872497558594e+00,-1.338607788085937500e+00,-3.824593424797058105e-01,2.670000000000000000e+02
-3.288566989488728041e+02,-1.897173041702931187e+02,-7.682201761047735999e+01,9.554081469216612277e+01,-3.816520439046066713e+02,-1.358159824863141694e+02,7.268384420541622148e+01,-7.269080353331651168e+01,9.446745872497558594e+00,-1.338607788085937500e+00,-3.824593424797058105e-01,2.680000000000000000e+02
-3.267962759469636467e+02,-1.851613412975178790e+02,-7.008565564695982175e+01,1.031381009104188706e+02,-3.800461051989543648e+02,-1.323334054123083661e+02,8.097786871763526051e+01,-6.295785836684387959e+01,9.446745872497558594e+00,-1.338607788085937500e+00,-3.824593424797058105e-01,2.690000000000000000e+02
-3.257267009339770993e+02,-1.810815984232585834e+02,-6.341134014196040880e+01,1.101042291346020647e+02,-3.751117346984242431e+02,-1.275896554769810791e+02,8.815312691374424503e+01,-5.130927424284789140e+01,9.446745872497558594e+00,-1.338607788085937500e+00,-3.824593424797058105e-01,2.700000000000000000e+02
-3.265888293802524913e+02,-1.790639038567057924e+02,-5.886108516644776500e+01,1.145948075614080608e+02,-3.694102649453158165e+02,-1.232638122902867508e+02,9.211623508990339815e+01,-4.129636984231240149e+01,9.446745872497558594e+00,-1.338607788085937500e+00,-3.824593424797058105e-01,2.710000000000000000e+02
-3.290022813261228976e+02,-1.796229852562839824e+02,-5.700345270377943052e+01,1.162986570384678089e+02,-3.643248620227612946e+02,-1.198812275607451738e+02,9.251739385962662254e+01,-3.566502640760029408e+01,9.446745872497558594e+00,-1.338607788085937500e+00,-3.824593424797058105e-01,2.720000000000000000e+02
-3.315753867715810657e+02,-1.820276897498829385e+02,-5.719507576648754821e+01,1.161300936014192757e+02,-3.596739886933080470e+02,-1.170869194280637657e+02,9.055946122587670288e+01,-3.539514084275435835e+01,9.446745872497558594e+00,-1.338607788085937500e+00,-3.824593424797058105e-01,2.730000000000000000e+02
-3.329135881681487490e+02,-1.849331656634042247e+02,-5.861274052851047145e+01,1.151563142406726001e+02,-3.550499696949643749e+02,-1.145911638659622440e+02,8.789613963797239649e+01,-3.962275553097890679e+01,9.446745872497558594e+00,-1.338607788085937500e+00,-3.824593424797058105e-01,2.740000000000000000e+02
-3.326050433169148164e+02,-1.873550959217693617e+02,-6.102924231647955366e+01,1.136816351396089431e+02,-3.512528309293771827e+02,-1.128777578544809330e+02,8.548167352193615898e+01,-4.647124880021942772e+01,9.446745872497558594e+00,-1.338607788085937500e+00,-3.824593424797058105e-01,2.750000000000000000e+02
-3.314987511525807804e+02,-1.892392188958841075e+02,-6.464767741758510056e+01,1.112054017212165036e+02,-3.501595304896823109e+02,-1.130269294472541333e+02,8.327966560701634080e+01,-5.413655584893081141e+01,9.446745872497558594e+00,-1.338607788085937500e+00,-3.824593424797058105e-01,2.760000000000000000e+02
-3.310769117358165659e+02,-1.911949934136920888e+02,-6.924556424894387874e+01,1.072347329800588795e+02,-3.530519096212242403e+02,-1.157530244886215769e+02,8.100438230512133941e+01,-6.138549509259519255e+01,9.446745872497558594e+00,-1.338607788085937500e+00,-3.824593424797058105e-01,2.770000000000000000e+02
-3.323656882713298728e+02,-1.936677823471989655e+02,-7.359641088805017262e+01,1.022241331494394672e+02,-3.590749653061642448e+02,-1.204438596348472856e+02,7.907677654721032923e+01,-6.725062113776834849e+01,9.446745872497558594e+00,-1.338607788085937500e+00,-3.824593424797058105e-01,2.780000000000000000e+02
-3.351750946274914895e+02,-1.962989133742919421e+02,-7.596106919628198284e+01,9.778800893060349608e+01,-3.654147344243218640e+02,-1.250671152413310665e+02,7.871548718635131081e+01,-7.055953852948971416e+01,9.446745872497558594e+00,-1.338607788085937500e+00,-3.824593424797058105e-01,2.790000000000000000e+02
-3.382330849624811435e+02,-1.980585559047019615e+02,-7.544583943828808970e+01,9.587037824773733519e+01,-3.691861631633449861e+02,-1.272344708728614933e+02,8.090932723167907170e+01,-7.013868120326060307e+01,9.446745872497558594e+00,-1.338607788085937500e+00,-3.824593424797058105e-01,2.800000000000000000e+02
-3.400809238564914949e+02,-1.980485839190423007e+02,-7.303951444490735412e+01,9.741765421179866280e+01,-3.694018602754318863e+02,-1.257760063936641473e+02,8.523317575216503883e+01,-6.574264207763530976e+01,9.446745872497558594e+00,-1.338607788085937500e+00,-3.824593424797058105e-01,2.810000000000000000e+02
-3.400115102869830821e+02,-1.963029009255084816e+02,-7.120178345248746155e+01,1.015683900628987431e+02,-3.673628126309999971e+02,-1.216312798910200854e+02,8.976726570820233064e+01,-5.881243885240132840e+01,9.484992027282714844e+00,-1.338607788085937500e+00,-3.442134261131286621e-01,2.820000000000000000e+02
-3.383388987466908020e+02,-1.939234457400922906e+02,-7.206457671822579414e+01,1.060679642889567731e+02,-3.652976201530483422e+02,-1.172487574313951200e+02,9.238687858118851182e+01,-5.208818519337501129e+01,9.484992027282714844e+00,-1.338607788085937500e+00,-3.442134261131286621e-01,2.830000000000000000e+02
-3.359153762859774019e+02,-1.924440481374392107e+02,-7.564810818002990800e+01,1.086880483052656245e+02,-3.645834240133897310e+02,-1.148625366734687532e+02,9.231942965089433528e+01,-4.808813631785164944e+01,9.484992027282714844e+00,-1.338607788085937500e+00,-3.442134261131286621e-01,2.840000000000000000e+02
-3.334779773001603189e+02,-1.929240598787227441e+02,-7.970653344090715109e+01,1.085851914363163360e+02,-3.650830129783628308e+02,-1.150340749710259161e+02,9.052577500204017724e+01,-4.761020961494318726e+01,9.484992027282714844e+00,-1.338607788085937500e+00,-3.442134261131286621e-01,2.850000000000000000e+02
-3.314438362979510089e+02,-1.954229500161155215e+02,-8.152224147477636507e+01,1.065410700968673154e+02,-3.659277988184843480e+02,-1.166735636865550987e+02,8.857219417678084028e+01,-4.952119844664412085e+01,9.484992027282714844e+00,-1.338607788085937500e+00,-3.442134261131286621e-01,2.860000000000000000e+02
-3.301599891670899751e+02,-1.991235879409066456e+02,-8.019249898463419868e+01,1.039848378169996295e+02,-3.667250521038230318e+02,-1.184218666972176379e+02,8.715119457259140745e+01,-5.196656245433507593e+01,9.484992027282714844e+00,-1.338607788085937500e+00,-3.442134261131286621e-01,2.870000000000000000e+02
-3.300725873603357172e+02,-2.028682082453752287e+02,-7.740172505674843251e+01,1.017458678200274562e+02,-3.679328255547793560e+02,-1.199968999807992986e+02,8.572758171739678801e+01,-5.386492612732286034e+01,9.484992027282714844e+00,-1.338607788085937500e+00,-3.442134261131286621e-01,2.880000000000000000e+02
-3.314181787788467659e+02,-2.056781770473277220e+02,-7.596779221957376649e+01,9.966363030923730548e+01,-3.701191811457169933e+02,-1.221742399541848272e+02,8.359808044913313552e+01,-5.537139190012067047e+01,9.484992027282714844e+00,-1.338607788085937500e+00,-3.442134261131286621e-01,2.890000000000000000e+02
-3.337175539636187409e+02,-2.070062562671782871e+02,-7.747544080293312163e+01,9.730440923864898650e+01,-3.729777083999039178e+02,-1.254863235911104766e+02,8.118216793302860879e+01,-5.704560423158261528e+01,9.484992027282714844e+00,-1.338607788085937500e+00,-3.442134261131286621e-01,2.900000000000000000e+02
-3.357815293632475004e+02,-2.067693272290292725e+02,-8.112771262425349050e+01,9.493574928448822448e+01,-3.751659170181563923e+02,-1.290466526607608557e+02,8.008855355217451688e+01,-5.872185143454964873e+01,9.484992027282714844e+00,-1.338607788085937500e+00,-3.442134261131286621e-01,2.910000000000000000e+02
-3.365016701743193153e+02,-2.053223979385244320e+02,-8.477316726717856454e+01,9.366204514539401771e+01,-3.752180862354176725e+02,-1.308132584430441057e+02,8.173038440660047854e+01,-5.934316124922611380e+01,9.484992027282714844e+00,-1.338607788085937500e+00,-3.442134261131286621e-01,2.920000000000000000e+02
-3.358055303410286569e+02,-2.034078530409182690e+02,-8.701891733555441988e+01,9.446453699381777369e+01,-3.727717300168833390e+02,-1.291740277031931328e+02,8.577361350959790798e+01,-5.800360223899303946e+01,9.484992027282714844e+00,-1.338607788085937500e+00,-3.442134261131286621e-01,2.930000000000000000e+02
-3.347913145523320964e+02,-2.019787988819896896e+02,-8.839960067004790290e+01,9.701734221260221602e+01,-3.690916819160236173e+02,-1.244108028360986964e+02,8.995058629208176626e+01,-5.520097816746624630e+01,9.484992027282714844e+00,-1.338607788085937500e+00,-3.442134261131286621e-01,2.940000000000000000e+02
-3.347586549811981058e+02,-2.018247930713901042e+02,-9.059687990180248107e+01,9.946679363940563690e+01,-3.665076091020855529e+02,-1.187154634907351465e+02,9.154132069677962136e+01,-5.299722180062985899e+01,9.484992027282714844e+00,-1.338607788085937500e+00,-3.442134261131286621e-01,2.950000000000000000e+02
-3.359939867623711507e+02,-2.031363265312905924e+02,-9.460007477175622626e+01,9.955061629518002064e+01,-3.671474435477547331e+02,-1.147422707335217638e+02,8.932009374985932482e+01,-5.372359584129867471e+01,9.484992027282714844e+00,-1.338607788085937500e+00,-3.442134261131286621e-01,2.960000000000000000e+02
-3.375238938943389257e+02,-2.053003780056828873e+02,-9.963793021784306347e+01,9.624464888021043407e+01,-3.717281982489737402e+02,-1.138867516049517690e+02,8.439405532170633251e+01,-5.818221611547699013e+01,9.484992027282714844e+00,-1.338607788085937500e+00,-3.442134261131286621e-01,2.970000000000000000e+02
-3.381233118560926414e+02,-2.071430021809480309e+02,-1.038246353235149400e+02,9.061782955084674995e+01,-3.790409525707638068e+02,-1.155520221091364874e+02,7.937936492550488765e+01,-6.479340437276289322e+01,9.484992027282714844e+00,-1.338607788085937500e+00,-3.442134261131286621e-01,2.980000000000000000e+02
-3.376062909161294670e+02,-2.075418018182345463e+02,-1.057772480972760150e+02,8.518833534117186446e+01,-3.864209673731123758e+02,-1.177426154901344262e+02,7.669481253191327141e+01,-7.044148332676809332e+01,9.484992027282714844e+00,-1.338607788085937500e+00,-3.442134261131286621e-01,2.990000000000000000e+02
-3.370734778567565968e+02,-2.060586355149338260e+02,-1.056548265595321254e+02,8.226319451953133921e+01,-3.910711404699856075e+02,-1.183831349393698247e+02,7.725793465597632803e+01,-7.245831863679495655e+01,9.484992027282714844e+00,-1.338607788085937500e+00,-3.442134261131286621e-01,3.000000000000000000e+02
-3.377590140913484902e+02,-2.031875372702260165e+02,-1.047367700860213517e+02,8.252243894420905690e+01,-3.915676665669275280e+02,-1.164372326363062484e+02,8.034016958678307674e+01,-7.027425730055267650e+01,9.484992027282714844e+00,-1.338607788085937500e+00,-3.442134261131286621e-01,3.010000000000000000e+02
-3.395775737532219409e+02,-2.000397679771315893e+02,-1.040835776849024796e+02,8.487097872832850953e+01,-3.885806360463725468e+02,-1.122232911887890623e+02,8.435364180400574696e+01,-6.554444866463165908e+01,9.484992027282714844e+00,-1.338607788085937500e+00,-3.442134261131286621e-01,3.020000000000000000e+02
-3.408637133461648432e+02,-1.977014201620951326e+02,-1.036309447418794889e+02,8.752248111038181833e+01,-3.842337178894306362e+02,-1.069136043798038145e+02,8.779235884672573320e+01,-6.078845891276239399e+01,9.484992027282714844e+00,-1.338607788085937500e+00,-3.442134261131286621e-01,3.030000000000000000e+02
-3.396845744768453415e+02,-1.967117031297585754e+02,-1.025362011136077172e+02,8.934927589700328099e+01,-3.805462102733280290e+02,-1.016494717683940507e+02,8.976753284467474714e+01,-5.767745712179009843e+01,9.484992027282714844e+00,-1.338607788085937500e+00,-3.442134261131286621e-01,3.040000000000000000e+02
-3.356197192858619474e+02,-1.969797185760117486e+02,-1.003930354329656893e+02,9.041722574999721473e+01,-3.782419085825788443e+02,-9.692426267853204536e+01,9.003932477482999275e+01,-5.628475693156951820e+01,9.484992027282714844e+00,-1.338607788085937500e+00,-3.442134261131286621e-01,3.050000000000000000e+02
-3.303669093421689809e+02,-1.980623369378834013e+02,-9.808707622512110902e+01,9.144070263757339490e+01,-3.768577408700916749e+02,-9.265050362600936751e+01,8.880641961912192528e+01,-5.570351654176693046e+01,9.484992027282714844e+00,-1.338607788085937500e+00,-3.442134261131286621e-01,3.060000000000000000e+02
-3.265658624415805775e+02,-1.994600084922279279e+02,-9.737954240085070978e+01,9.286291761380050502e+01,-3.758069767464742199e+02,-8.874441618032858514e+01,8.651638957133479835e+01,-5.524503325416026200e+01,9.484992027282714844e+00,-1.338607788085937500e+00,-3.442134261131286621e-01,3.070000000000000000e+02
-3.258505084354406449e+02,-2.007179805652449431e+02,-9.948640685935879446e+01,9.445512447365717890e+01,-3.751408074597935638e+02,-8.560329855656391373e+01,8.374315277877394692e+01,-5.506706919159910285e+01,9.484992027282714844e+00,-1.338607788085937500e+00,-3.442134261131286621e-01,3.080000000000000000e+02
-3.277640912876262860e+02,-2.014462918536166853e+02,-1.038938077512224254e+02,9.565353955488308202e+01,-3.752109181629343766e+02,-8.395920640619510777e+01,8.106090148220550873e+01,-5.578977918589430374e+01,9.484992027282714844e+00,-1.338607788085937500e+00,-3.442134261131286621e-01,3.090000000000000000e+02
-3.303530077957838671e+02,-2.014809958561380085e+02,-1.085523239519674235e+02,9.606660276048148717e+01,-3.758209086847242588e+02,-8.426708471693245883e+01,7.888095474267618101e+01,-5.770390603102214300e+01,9.484992027282714844e+00,-1.338607788085937500e+00,-3.442134261131286621e-01,3.100000000000000000e+02
-3.317753463126907718e+02,-2.011412052196529885e+02,-1.114123479688705629e+02,9.554280088974519458e+01,-3.760785428372223578e+02,-8.629386581456458316e+01,7.733150650819959537e+01,-6.048466850669603900e+01,9.484992027282714844e+00,-1.338607788085937500e+00,-3.442134261131286621e-01,3.110000000000000000e+02
-3.314951536020273579e+02,-2.012070406667011184e+02,-1.120313483440703521e+02,9.387332940208159471e+01,-3.752735672054743645e+02,-8.934658093158532211e+01,7.629418886921962439e+01,-6.364490126886471444e+01,9.484992027282714844e+00,-1.338607788085937500e+00,-3.442134261131286621e-01,3.120000000000000000e+02
-3.302149696589422092e+02,-2.023619426249134108e+02,-1.118463883960049543e+02,9.073091197568828647e+01,-3.737292584751237428e+02,-9.284165401534926332e+01,7.558555777142373699e+01,-6.709761284981641438e+01,9.408499717712402344e+00,-1.338607788085937500e+00,-3.824593424797058105e-01,3.130000000000000000e+02
-3.289141922009532095e+02,-2.044342624910929658e+02,-1.128580703195059414e+02,8.614385699594549806e+01,-3.724127723634622953e+02,-9.652571099644046626e+01,7.510705748185444008e+01,-7.108887831426739012e+01,9.408499717712402344e+00,-1.338607788085937500e+00,-3.824593424797058105e-01,3.140000000000000000e+02
-3.280224551320995943e+02,-2.062181335591529319e+02,-1.159215793200124835e+02,8.098535162753307759e+01,-3.715703462743159662e+02,-1.001316994843335806e+02,7.479636930423669128e+01,-7.554690113700803522e+01,9.408499717712402344e+00,-1.338607788085937500e+00,-3.824593424797058105e-01,3.150000000000000000e+02
-3.273465566131433206e+02,-2.062815718933952098e+02,-1.201493642019132722e+02,7.670438824191080585e+01,-3.700203462046720233e+02,-1.030179203017597729e+02,7.444087797827467057e+01,-7.965384139099830918e+01,9.408499717712402344e+00,-1.338607788085937500e+00,-3.824593424797058105e-01,3.160000000000000000e+02
-3.264876887417321996e+02,-2.041993350638076663e+02,-1.238355340486193654e+02,7.428466910924146305e+01,-3.662233366358667581e+02,-1.044272093105047361e+02,7.363293530144119359e+01,-8.226786861176799448e+01,9.408499717712402344e+00,-1.338607788085937500e+00,-3.824593424797058105e-01,3.170000000000000000e+02
-3.251272295607514025e+02,-2.010674829360664262e+02,-1.258817832568156518e+02,7.338184579135145214e+01,-3.602625991291450873e+02,-1.042338046054501319e+02,7.208269098070991276e+01,-8.287222129419603789e+01,9.408499717712402344e+00,-1.338607788085937500e+00,-3.824593424797058105e-01,3.180000000000000000e+02
-3.229904338893657041e+02,-1.986867453092519895e+02,-1.263777346639917596e+02,7.260815389420179145e+01,-3.545615795665199812e+02,-1.033155922595166203e+02,7.009983084157011035e+01,-8.207227512008478243e+01,9.408499717712402344e+00,-1.338607788085937500e+00,-3.824593424797058105e-01,3.190000000000000000e+02
-3.198101434799762046e+02,-1.980429277053669921e+02,-1.259960897915869964e+02,7.082059607430335291e+01,-3.522017422904308432e+02,-1.029412146573481550e+02,6.874226761070571001e+01,-8.103262185119092464e+01,9.408499717712402344e+00,-1.338607788085937500e+00,-3.824593424797058105e-01,3.200000000000000000e+02
-3.155664196155021273e+02,-1.984435988424552306e+02,-1.250634288704259234e+02,6.821153785572096240e+01,-3.541627496631310805e+02,-1.035923362005133868e+02,6.931957744399880994e+01,-8.031516339561426321e+01,9.408499717712402344e+00,-1.338607788085937500e+00,-3.824593424797058105e-01,3.210000000000000000e+02
-3.108141332103791683e+02,-1.981256342576343741e+02,-1.233396928074708967e+02,6.615629073471893662e+01,-3.581066113769078356e+02,-1.043641615089039760e+02,7.250632294491055063e+01,-7.925670151419672038e+01,9.408499717712402344e+00,-1.338607788085937500e+00,-3.824593424797058105e-01,3.220000000000000000e+02
-3.066346372246973715e+02,-1.957981881873315615e+02,-1.206246767827368558e+02,6.600472716916988247e+01,-3.600346103367585329e+02,-1.036254397169103640e+02,7.775935405146054791e+01,-7.656716050144041219e+01,9.408499717712402344e+00,-1.338607788085937500e+00,-3.824593424797058105e-01,3.230000000000000000e+02
-3.040599251135596433e+02,-1.917450814700480350e+02,-1.173923663084444797e+02,6.800769422624784966e+01,-3.574468009932702444e+02,-1.004015618393150362e+02,8.356795981443082155e+01,-7.167449191034415890e+01,9.408499717712402344e+00,-1.338607788085937500e+00,-3.824593424797058105e-01,3.240000000000000000e+02
-3.033980934001253900e+02,-1.875669005650343024e+02,-1.147287467895823738e+02,7.128879672434413806e+01,-3.512526791137503324e+02,-9.526156513660794189e+01,8.835759154747080402e+01,-6.561945294986981025e+01,9.408499717712402344e+00,-1.338607788085937500e+00,-3.824593424797058105e-01,3.250000000000000000e+02
-3.040451546853463469e+02,-1.848929747362592479e+02,-1.136660593670671915e+02,7.465914551010587275e+01,-3.448764592191536167e+02,-8.995304340932955256e+01,9.130360825336583730e+01,-6.066802155302343635e+01,9.408499717712402344e+00,-1.338607788085937500e+00,-3.824593424797058105e-01,3.260000000000000000e+02
-3.048876856852318724e+02,-1.842373039180957903e+02,-1.145875993773130403e+02,7.735620076319150940e+01,-3.415386257787226896e+02,-8.617422037848029959e+01,9.246343044145771728e+01,-5.889316734695580635e+01,9.408499717712402344e+00,-1.338607788085937500e+00,-3.824593424797058105e-01,3.270000000000000000e+02
-3.048799381251781142e+02,-1.848963947033547583e+02,-1.171599632848232204e+02,7.912128117733357158e+01,-3.420994353981291169e+02,-8.456178963478828337e+01,9.230291253951730823e+01,-6.079873606644673600e+01,9.408499717712402344e+00,-1.338607788085937500e+00,-3.824593424797058105e-01,3.280000000000000000e+02
-3.033864314306422330e+02,-1.857634408811585445e+02,-1.206180473249526131e+02,7.989084130084290791e+01,-3.450127256837266714e+02,-8.459306991955304511e+01,9.122988569554900096e+01,-6.496451333806851380e+01,9.408499717712402344e+00,-1.338607788085937500e+00,-3.824593424797058105e-01,3.290000000000000000e+02
-3.003071682904695763e+02,-1.862478452336571308e+02,-1.240290446943403140e+02,7.964453557165222719e+01,-3.479706725266744343e+02,-8.524198004306435905e+01,8.955581801265162767e+01,-6.892417289338368391e+01,9.408499717712402344e+00,-1.338607788085937500e+00,-3.824593424797058105e-01,3.300000000000000000e+02
-2.961846609870400471e+02,-1.865753880181591740e+02,-1.264732240787483306e+02,7.852152728641465274e+01,-3.495379452610427506e+02,-8.568729643628603299e+01,8.772288506191375745e+01,-7.064738071910835515e+01,9.408499717712402344e+00,-1.338607788085937500e+00,-3.824593424797058105e-01,3.310000000000000000e+02
-2.922107553367910668e+02,-1.873577781462956864e+02,-1.273402463854678217e+02,7.687910629708278520e+01,-3.494882652449770148e+02,-8.555954338793628722e+01,8.635085844236402863e+01,-6.964208750592649722e+01,9.408499717712402344e+00,-1.338607788085937500e+00,-3.824593424797058105e-01,3.320000000000000000e+02
-2.897739777227250215e+02,-1.889129429890563188e+02,-1.267432838388435812e+02,7.508051857515522443e+01,-3.480075271694197454e+02,-8.477341299720399093e+01,8.590857991804114135e+01,-6.701714755568775672e+01,9.408499717712402344e+00,-1.338607788085937500e+00,-3.824593424797058105e-01,3.330000000000000000e+02
-2.895345350794407295e+02,-1.909220106254617804e+02,-1.256493445668791082e+02,7.325126489299384502e+01,-3.449216128994640940e+02,-8.332787730781183200e+01,8.629907684671104562e+01,-6.458136839496592074e+01,9.523238182067871094e+00,-1.338607788085937500e+00,-3.442134261131286621e-01,3.340000000000000000e+02
-2.907223853227596919e+02,-1.926543573150363500e+02,-1.253518993801934585e+02,7.134626915984688367e+01,-3.398392404878052275e+02,-8.132954201345933143e+01,8.680949602469513593e+01,-6.366426784065686206e+01,9.523238182067871094e+00,-1.338607788085937500e+00,-3.442134261131286621e-01,3.350000000000000000e+02
-2.914883946098797196e+02,-1.935267183496874850e+02,-1.265122486098978243e+02,6.946482740523447319e+01,-3.329604509740736376e+02,-7.912717577753483056e+01,8.654543468514975757e+01,-6.445473069841750657e+01,9.523238182067871094e+00,-1.338607788085937500e+00,-3.442134261131286621e-01,3.360000000000000000e+02
-2.903093148994364583e+02,-1.935195781838638140e+02,-1.285718920342000047e+02,6.795668241815121746e+01,-3.255212553656768932e+02,-7.728101322638667625e+01,8.500718630792846398e+01,-6.621687558925270878e+01,9.523238182067871094e+00,-1.338607788085937500e+00,-3.442134261131286621e-01,3.370000000000000000e+02
-2.873130160948709317e+02,-1.931132260663092666e+02,-1.301711405452666668e+02,6.706895249258445801e+01,-3.192073406225949839e+02,-7.628172643959578636e+01,8.235907176409364183e+01,-6.807545348241512784e+01,9.523238182067871094e+00,-1.338607788085937500e+00,-3.442134261131286621e-01,3.380000000000000000e+02
-2.842052101849387782e+02,-1.928139595560862745e+02,-1.303110410284905356e+02,6.648754867452930739e+01,-3.149520655689494788e+02,-7.623619372687971918e+01,7.926589002491198244e+01,-6.967155006363122993e+01,9.523238182067871094e+00,-1.338607788085937500e+00,-3.442134261131286621e-01,3.390000000000000000e+02
-2.827260275717259219e+02,-1.927150897801029714e+02,-1.292717830983491467e+02,6.535525508170951525e+01,-3.122806920428008652e+02,-7.684093518086729091e+01,7.649040229415834347e+01,-7.119916921430660750e+01,9.523238182067871094e+00,-1.338607788085937500e+00,-3.442134261131286621e-01,3.400000000000000000e+02
-2.830083901656870466e+02,-1.925050472920968332e+02,-1.284260173473619489e+02,6.291686584968465468e+01,-3.099051781531534289e+02,-7.768532907992971559e+01,7.454255138441590134e+01,-7.291379627719697964e+01,9.523238182067871094e+00,-1.338607788085937500e+00,-3.442134261131286621e-01,3.410000000000000000e+02
-2.834112643776529694e+02,-1.919033861717593936e+02,-1.290571159203593652e+02,5.925317539201500949e+01,-3.070373444207968987e+02,-7.857405628982996859e+01,7.352242797436531418e+01,-7.464420394475416742e+01,9.523238182067871094e+00,-1.338607788085937500e+00,-3.442134261131286621e-01,3.420000000000000000e+02
-2.820432457713933445e+02,-1.910605686124551994e+02,-1.312146536107994734e+02,5.539793381381582549e+01,-3.041036744763787283e+02,-7.952711848281614948e+01,7.315081903697023336e+01,-7.577415800274025059e+01,9.523238182067871094e+00,-1.338607788085937500e+00,-3.442134261131286621e-01,3.430000000000000000e+02
-2.785485161564159853e+02,-1.904918715159658404e+02,-1.336285937601049909e+02,5.268359402930093438e+01,-3.021025926154911758e+02,-8.048807433046499682e+01,7.294781902769784665e+01,-7.570809130353745786e+01,9.523238182067871094e+00,-1.338607788085937500e+00,-3.442134261131286621e-01,3.440000000000000000e+02
-2.744919245143528315e+02,-1.906124272696404205e+02,-1.347991478079212584e+02,5.185048471608229192e+01,-3.012714215052933469e+02,-8.113814974195338436e+01,7.249541246407397921e+01,-7.442103978027307676e+01,9.523238182067871094e+00,-1.338607788085937500e+00,-3.442134261131286621e-01,3.450000000000000000e+02
-2.720085906019623962e+02,-1.913600663183251527e+02,-1.343405316119669806e+02,5.262789971070503725e+01,-3.005058611905938051e+02,-8.110449862627092443e+01,7.165670665122115679e+01,-7.264160479128759107e+01,9.523238182067871094e+00,-1.338607788085937500e+00,-3.442134261131286621e-01,3.460000000000000000e+02
-2.719977163467351602e+02,-1.922906436345654129e+02,-1.333955769801256110e+02,5.403995377807814293e+01,-2.982549134669015984e+02,-8.036341256956757206e+01,7.059510018589685387e+01,-7.150934835939278855e+01,9.523238182067871094e+00,-1.338607788085937500e+00,-3.442134261131286621e-01,3.470000000000000000e+02
-2.734846575013145866e+02,-1.930193279298631523e+02,-1.337228598437029632e+02,5.507614238332871537e+01,-2.940686716552831967e+02,-7.935425662698480664e+01,6.957043337535890259e+01,-7.191404046721254417e+01,9.523238182067871094e+00,-1.338607788085937500e+00,-3.442134261131286621e-01,3.480000000000000000e+02
-2.746015204026807623e+02,-1.935248996026573423e+02,-1.362243580124109030e+02,5.517873591022816981e+01,-2.892277175914196050e+02,-7.860604342034002912e+01,6.868046289031246943e+01,-7.394376376770924253e+01,9.523238182067871094e+00,-1.338607788085937500e+00,-3.442134261131286621e-01,3.490000000000000000e+02
-2.741778352512462789e+02,-1.940370523999981742e+02,-1.401792727194525696e+02,5.428183136044640378e+01,-2.857433320939089754e+02,-7.826582022898992363e+01,6.779460725100852869e+01,-7.680632254972942974e+01,9.523238182067871094e+00,-1.338607788085937500e+00,-3.442134261131286621e-01,3.500000000000000000e+02
-2.725028574163093253e+02,-1.946799629438194188e+02,-1.438034686171647536e+02,5.258220360647828784e+01,-2.845967956714339380e+02,-7.805842718832764149e+01,6.678985456622137917e+01,-7.926143826691941285e+01,9.523238182067871094e+00,-1.338607788085937500e+00,-3.442134261131286621e-01,3.510000000000000000e+02
-2.707391261881084574e+02,-1.952793529699287092e+02,-1.456253104331797203e+02,5.034544554606259226e+01,-2.848742979972475950e+02,-7.772013660700758919e+01,6.583325419649645482e+01,-8.032707543310107212e+01,9.523238182067871094e+00,-1.338607788085937500e+00,-3.442134261131286621e-01,3.520000000000000000e+02
-2.696969586859459014e+02,-1.954998347204034417e+02,-1.455093495830251413e+02,4.786560635871455816e+01,-2.846119651348290063e+02,-7.736710928696129486e+01,6.536100363591424411e+01,-7.983730937249856652e+01,9.523238182067871094e+00,-1.338607788085937500e+00,-3.442134261131286621e-01,3.530000000000000000e+02
-2.691162158855199777e+02,-1.951031844529095451e+02,-1.445278946815135441e+02,4.548159438348602635e+01,-2.825391394590708387e+02,-7.731272150998029247e+01,6.569011088682702848e+01,-7.849180131548746431e+01,9.523238182067871094e+00,-1.338607788085937500e+00,-3.442134261131286621e-01,3.540000000000000000e+02
-2.680032981838826345e+02,-1.940288708817827228e+02,-1.439396424480141832e+02,4.351544730880027601e+01,-2.791037252516453009e+02,-7.753289248981946002e+01,6.662240225067591837e+01,-7.734343722752691974e+01,9.523238182067871094e+00,-1.338607788085937500e+00,-3.442134261131286621e-01,3.550000000000000000e+02
-2.656026393530562473e+02,-1.922933779251827673e+02,-1.442668107614292694e+02,4.213947204552960102e+01,-2.758811313087355757e+02,-7.746940149577540069e+01,6.744756080441527502e+01,-7.708622788843672424e+01,9.523238182067871094e+00,-1.338607788085937500e+00,-3.442134261131286621e-01,3.560000000000000000e+02
-2.621010182680900016e+02,-1.899580645779071801e+02,-1.452201283419117317e+02,4.129631192953047503e+01,-2.739700317015790461e+02,-7.652118460820383916e+01,6.739550733072201183e+01,-7.767302654895911473e+01,9.523238182067871094e+00,-1.338607788085937500e+00,-3.442134261131286621e-01,3.570000000000000000e+02
-2.584852435653106113e+02,-1.872784050046029733e+02,-1.463435631060901869e+02,4.075190057319014159e+01,-2.728800007542345156e+02,-7.474149079086646452e+01,6.616515077916676546e+01,-7.852571802311854299e+01,9.523238182067871094e+00,-1.338607788085937500e+00,-3.442134261131286621e-01,3.580000000000000000e+02
-2.557374212272920886e+02,-1.848202115327553656e+02,-1.476150749387352334e+02,4.021938569990834367e+01,-2.709469096215357240e+02,-7.292745985206829573e+01,6.407996550887719422e+01,-7.911776047524836031e+01,9.446745872497558594e+00,-1.338607788085937500e+00,-3.442134261131286621e-01,3.590000000000000000e+02
-2.540696039113281586e+02,-1.832530859690364196e+02,-1.493918301413491463e+02,3.945431205383101769e+01,-2.669126648694596042e+02,-7.190477604543593770e+01,6.181279697988043154e+01,-7.938051595202023236e+01,9.446745872497558594e+00,-1.338607788085937500e+00,-3.442134261131286621e-01,3.600000000000000000e+02
-2.528093704685531975e+02,-1.828594365042756635e+02,-1.517841653324660456e+02,3.833891973604113446e+01,-2.612191425440680632e+02,-7.169592729246437557e+01,6.003599454834511562e+01,-7.954560735691006812e+01,9.446745872497558594e+00,-1.338607788085937500e+00,-3.442134261131286621e-01,3.610000000000000000e+02
-2.509940278998869871e+02,-1.831836300698182640e+02,-1.540973414295797284e+02,3.704926571792884715e+01,-2.557432608387625805e+02,-7.141344629499963048e+01,5.933737643800964179e+01,-7.959335079922698242e+01,9.446745872497558594e+00,-1.338607788085937500e+00,-3.442134261131286621e-01,3.620000000000000000e+02
-2.481600549933107231e+02,-1.832258261168774425e+02,-1.549444557391207127e+02,3.624125260031723883e+01,-2.520972652264231328e+02,-6.999582596872573959e+01,6.031806475095118003e+01,-7.891412401952311484e+01,9.446745872497558594e+00,-1.338607788085937500e+00,-3.442134261131286621e-01,3.630000000000000000e+02
-2.446942589201448754e+02,-1.821400520295701426e+02,-1.530672191224057315e+02,3.695222975977821989e+01,-2.500179951934776454e+02,-6.709490187052392685e+01,6.347287112058950242e+01,-7.666225825397373228e+01,9.446745872497558594e+00,-1.338607788085937500e+00,-3.442134261131286621e-01,3.640000000000000000e+02
-2.414923155584885990e+02,-1.799120779756315187e+02,-1.483015819154688870e+02,3.997719822250587640e+01,-2.474079458634901130e+02,-6.335615875518487883e+01,6.869343807520544942e+01,-7.260191823908371589e+01,9.446745872497558594e+00,-1.338607788085937500e+00,-3.442134261131286621e-01,3.650000000000000000e+02
-2.392164965934830434e+02,-1.774477802585654445e+02,-1.419536949063124212e+02,4.498489780930640336e+01,-2.421284329269547015e+02,-5.995765136402587814e+01,7.478765148420779951e+01,-6.767390805476861715e+01,9.446745872497558594e+00,-1.338607788085937500e+00,-3.442134261131286621e-01,3.660000000000000000e+02
-2.377652365619576358e+02,-1.759696551132833520e+02,-1.362331421659430362e+02,5.015079308352733278e+01,-2.339831147306715593e+02,-5.788261798121811808e+01,7.964723906109952623e+01,-6.364348965205408604e+01,9.446745872497558594e+00,-1.338607788085937500e+00,-3.442134261131286621e-01,3.670000000000000000e+02
-2.364219127216456400e+02,-1.761779099461327860e+02,-1.330769256782050434e+02,5.291603732025623685e+01,-2.250887245894302851e+02,-5.745459188544350582e+01,8.123351780903828967e+01,-6.200419443204850722e+01,9.446745872497558594e+00,-1.338607788085937500e+00,-3.442134261131286621e-01,3.680000000000000000e+02
-2.345853925455246554e+02,-1.778079325733103815e+02,-1.331683535921856674e+02,5.156299986405451818e+01,-2.183086640383028225e+02,-5.830158338919591188e+01,7.876079037515864911e+01,-6.305299589136188843e+01,9.446745872497558594e+00,-1.338607788085937500e+00,-3.442134261131286621e-01,3.690000000000000000e+02
-2.324508208397296585e+02,-1.798696088753822551e+02,-1.358101561365299403e+02,4.643640788382936080e+01,-2.152025528762069371e+02,-5.964557967459541032e+01,7.317588747831359797e+01,-6.591574296151748058e+01,9.446745872497558594e+00,-1.338607788085937500e+00,-3.442134261131286621e-01,3.700000000000000000e+02
-2.309751114308651267e+02,-1.813118988439302939e+02,-1.396089240823737327e+02,3.977288777326793934e+01,-2.152556363602454894e+02,-6.074082893569493535e+01,6.656135755460400105e+01,-6.940123375154757923e+01,9.446745872497558594e+00,-1.338607788085937500e+00,-3.442134261131286621e-01,3.710000000000000000e+02
-2.310287712509393714e+02,-1.815801464336029767e+02,-1.432966313260030802e+02,3.422496849228400606e+01,-2.167685721626576196e+02,-6.126213281306399949e+01,6.095557694495073520e+01,-7.280179150477101757e+01,9.446745872497558594e+00,-1.338607788085937500e+00,-3.442134261131286621e-01,3.720000000000000000e+02
-2.323838463399054035e+02,-1.806958934835979562e+02,-1.460278947424067155e+02,3.129035472112195748e+01,-2.182129951286128744e+02,-6.141089355238136704e+01,5.750218206145927979e+01,-7.590447703510585598e+01,9.446745872497558594e+00,-1.338607788085937500e+00,-3.442134261131286621e-01,3.730000000000000000e+02
-2.335069260997615856e+02,-1.789182679202258441e+02,-1.471771513352414331e+02,3.086907592024704172e+01,-2.187378455083144217e+02,-6.160875708740104528e+01,5.637448533904057513e+01,-7.840826943093179580e+01,9.446745872497558594e+00,-1.338607788085937500e+00,-3.442134261131286621e-01,3.740000000000000000e+02
-2.325938159326235564e+02,-1.763867889558780462e+02,-1.462598922125337140e+02,3.205247473488452670e+01,-2.178203126890148269e+02,-6.200936990620812139e+01,5.715590190845045981e+01,-7.963790420248096780e+01,9.446745872497558594e+00,-1.338607788085937500e+00,-3.442134261131286621e-01,3.750000000000000000e+02
-2.291585894143249789e+02,-1.730491423205226056e+02,-1.433679213673703998e+02,3.417606898440772056e+01,-2.150660432145837149e+02,-6.229620635793799011e+01,5.913357496132130109e+01,-7.907082204659036506e+01,9.446745872497558594e+00,-1.338607788085937500e+00,-3.442134261131286621e-01,3.760000000000000000e+02
-2.247996970896679159e+02,-1.688740692713172393e+02,-1.396982548778037199e+02,3.712697106669770619e+01,-2.107329730575704616e+02,-6.201284459860448806e+01,6.133914982852093090e+01,-7.715163574174448513e+01,9.446745872497558594e+00,-1.338607788085937500e+00,-3.442134261131286621e-01,3.770000000000000000e+02
-2.222462481565069083e+02,-1.640958292464774786e+02,-1.373038465147919851e+02,4.084620570016909369e+01,-2.062771101015985096e+02,-6.110162620972278091e+01,6.266364617029262263e+01,-7.535545059882178975e+01,9.446745872497558594e+00,-1.338607788085937500e+00,-3.442134261131286621e-01,3.780000000000000000e+02
-2.232322792686402408e+02,-1.592590228694714369e+02,-1.378312610838499950e+02,4.479504184162669844e+01,-2.038334616343627204e+02,-6.005706419174066468e+01,6.231469956800106047e+01,-7.514413585357328884e+01,9.446745872497558594e+00,-1.338607788085937500e+00,-3.442134261131286621e-01,3.790000000000000000e+02
-2.269234717208437360e+02,-1.550791452848204699e+02,-1.411839230574178146e+02,4.802726964669841436e+01,-2.046730973366379658e+02,-5.950523060709383572e+01,6.033993011758980174e+01,-7.669540620586326440e+01,9.446745872497558594e+00,-1.338607788085937500e+00,-3.442134261131286621e-01,3.800000000000000000e+02
-2.303349855181788826e+02,-1.522448287263957809e+02,-1.454121940861361963e+02,4.976009820081731050e+01,-2.080094483959023819e+02,-5.963855316088938707e+01,5.766349192808047519e+01,-7.866751118368074458e+01,9.446745872497558594e+00,-1.338607788085937500e+00,-3.442134261131286621e-01,3.810000000000000000e+02
-2.305269920359980915e+02,-1.512409189922655059e+02,-1.481128985047837432e+02,4.981520372664090246e+01,-2.114403797915144878e+02,-6.010922125119122938e+01,5.543430842302609562e+01,-7.933280281198426565e+01,9.446745872497558594e+00,-1.338607788085937500e+00,-3.442134261131286621e-01,3.820000000000000000e+02
-2.267952948063261829e+02,-1.521799622724895471e+02,-1.481584299172106967e+02,4.854072304235660340e+01,-2.127513559997255470e+02,-6.047014835755680906e+01,5.418146661744572157e+01,-7.806773518889303887e+01,9.446745872497558594e+00,-1.338607788085937500e+00,-3.442134261131286621e-01,3.830000000000000000e+02
-2.210177549791198999e+02,-1.546631057447275452e+02,-1.462129394514931846e+02,4.642087011339003766e+01,-2.114410364500731703e+02,-6.064466370373565951e+01,5.354596235138660631e+01,-7.582300078041930647e+01,9.446745872497558594e+00,-1.338607788085937500e+00,-3.442134261131286621e-01,3.840000000000000000e+02
-2.159221804002049794e+02,-1.577889074293568683e+02,-1.436962598719542257e+02,4.381600014487730732e+01,-2.086800266752898096e+02,-6.093278770170763892e+01,5.282608306023439582e+01,-7.422620206327746928e+01,9.446745872497558594e+00,-1.338607788085937500e+00,-3.442134261131286621e-01,3.850000000000000000e+02
-2.128513603860969852e+02,-1.604168386508356434e+02,-1.413709161121932993e+02,4.102270903345015540e+01,-2.059859236669312850e+02,-6.161910292309585202e+01,5.178001474904817769e+01,-7.427874496994013498e+01,9.484992027282714844e+00,-1.223870038986206055e+00,-3.824593424797058105e-01,3.860000000000000000e+02
-2.109446554353457941e+02,-1.616118873378195531e+02,-1.389757798197140346e+02,3.845048845881683519e+01,-2.040406827836441153e+02,-6.266605840739930500e+01,5.088904170308660468e+01,-7.583988255446865878e+01,9.484992027282714844e+00,-1.223870038986206055e+00,-3.824593424797058105e-01,3.870000000000000000e+02
-2.082875023719975616e+02,-1.610112443968200751e+02,-1.360965679888702198e+02,3.661969105315120032e+01,-2.026452236834115865e+02,-6.380188502920327664e+01,5.082749696233213399e+01,-7.814457567832596396e+01,9.484992027282714844e+00,-1.223870038986206055e+00,-3.824593424797058105e-01,3.880000000000000000e+02
-2.038386034595012006e+02,-1.588750396249565711e+02,-1.331182614671840838e+02,3.591643046634385428e+01,-2.014520650937947721e+02,-6.480898897197903352e+01,5.169006186669412273e+01,-8.056598381463618352e+01,9.484992027282714844e+00,-1.223870038986206055e+00,-3.824593424797058105e-01,3.890000000000000000e+02
-1.983775572485187695e+02,-1.558358298641842339e+02,-1.311077775619214663e+02,3.628289872149753137e+01,-2.004300738785923386e+02,-6.563837875421404533e+01,5.276692180701252255e+01,-8.279151107395750842e+01,9.484992027282714844e+00,-1.223870038986206055e+00,-3.824593424797058105e-01,3.900000000000000000e+02
-1.937769543391591469e+02,-1.525848640533283742e+02,-1.307460029792318892e+02,3.709835194975221384e+01,-1.995691721523812703e+02,-6.627311218047270813e+01,5.308823729132609515e+01,-8.443694088454094526e+01,9.484992027282714844e+00,-1.223870038986206055e+00,-3.824593424797058105e-01,3.910000000000000000e+02
-1.914231430503195952e+02,-1.496926729407975927e+02,-1.315133402902629314e+02,3.739266444131339995e+01,-1.983261074690990426e+02,-6.659801868653948986e+01,5.221574652082222201e+01,-8.481711322112482776e+01,9.484992027282714844e+00,-1.223870038986206055e+00,-3.824593424797058105e-01,3.920000000000000000e+02
-1.912261637976012025e+02,-1.475475478483040206e+02,-1.320605013023557603e+02,3.634335316524175141e+01,-1.956302990121484982e+02,-6.648406938702191837e+01,5.053839957010859507e+01,-8.335526783789509864e+01,9.484992027282714844e+00,-1.223870038986206055e+00,-3.824593424797058105e-01,3.930000000000000000e+02
-1.919578469283724189e+02,-1.462979049763064268e+02,-1.314073692408348961e+02,3.380733753938375230e+01,-1.906289526321916128e+02,-6.596177735072205905e+01,4.882964382549516813e+01,-8.027644423722176725e+01,9.484992027282714844e+00,-1.223870038986206055e+00,-3.824593424797058105e-01,3.940000000000000000e+02
-1.923918563944585003e+02,-1.457930140602800293e+02,-1.297486867034822353e+02,3.051810483565213872e+01,-1.835487566789438461e+02,-6.521749567595134067e+01,4.755889607077847359e+01,-7.676770962603131920e+01,9.484992027282714844e+00,-1.223870038986206055e+00,-3.824593424797058105e-01,3.950000000000000000e+02
-1.921222866102204989e+02,-1.456105887093287947e+02,-1.280866410676626401e+02,2.774414257292073671e+01,-1.758681774951583066e+02,-6.435977436843040778e+01,4.665934254040257656e+01,-7.425733102061258251e+01,9.484992027282714844e+00,-1.223870038986206055e+00,-3.824593424797058105e-01,3.960000000000000000e+02
-1.914275987268208610e+02,-1.452238147813891374e+02,-1.271310822918476333e+02,2.658768939012020383e+01,-1.695536619300673919e+02,-6.320115937602258782e+01,4.594923148256680179e+01,-7.334383342887622348e+01,9.484992027282714844e+00,-1.223870038986206055e+00,-3.824593424797058105e-01,3.970000000000000000e+02
-1.905379844918084018e+02,-1.442332957920382341e+02,-1.266151116097034901e+02,2.740536313728807727e+01,-1.658779825010988134e+02,-6.130789206751796883e+01,4.569124375406181571e+01,-7.330320915847005381e+01,9.484992027282714844e+00,-1.223870038986206055e+00,-3.824593424797058105e-01,3.980000000000000000e+02
-1.891809079546078465e+02,-1.425114401326982261e+02,-1.256595205477028685e+02,2.974927497936096188e+01,-1.646835554168314957e+02,-5.829481592282263591e+01,4.659192144281678338e+01,-7.263306396495181616e+01,9.484992027282714844e+00,-1.223870038986206055e+00,-3.824593424797058105e-01,3.990000000000000000e+02
-1.868766861879821590e+02,-1.402098661243082915e+02,-1.237435458356339950e+02,3.275654411603727567e+01,-1.646454722974367542e+02,-5.415255620878451737e+01,4.908203939379859548e+01,-7.024766909870413656e+01,9.484992027282714844e+00,-1.223870038986206055e+00,-3.824593424797058105e-01,4.000000000000000000e+02
-1.835969752795654131e+02,-1.376850403860760252e+02,-1.212693631164299859e+02,3.556986075502891254e+01,-1.643004774663031640e+02,-4.940926785405872579e+01,5.251209461567032122e+01,-6.641155982319742179e+01,9.484992027282714844e+00,-1.223870038986206055e+00,-3.824593424797058105e-01,4.010000000000000000e+02
-1.800150643068673162e+02,-1.354014675794119285e+02,-1.191894601673313900e+02,3.748948612547019366e+01,-1.630169422803037378e+02,-4.507585489700250037e+01,5.512409947807714161e+01,-6.271847877212439926e+01,9.484992027282714844e+00,-1.223870038986206055e+00,-3.824593424797058105e-01,4.020000000000000000e+02
-1.770072520173184785e+02,-1.337993185334294139e+02,-1.181343522961369672e+02,3.795513099325080475e+01,-1.611702813507090468e+02,-4.238084426483555944e+01,5.505068426095431278e+01,-6.112063979450249462e+01,9.484992027282714844e+00,-1.223870038986206055e+00,-3.824593424797058105e-01,4.030000000000000000e+02
-1.748510555564971582e+02,-1.330937520951379156e+02,-1.179042292016929423e+02,3.666679279580239381e+01,-1.594944571742585140e+02,-4.228707613248388952e+01,5.167229979011062824e+01,-6.265090180770584993e+01,9.484992027282714844e+00,-1.223870038986206055e+00,-3.824593424797058105e-01,4.040000000000000000e+02
-1.729812780590173134e+02,-1.331224850781643454e+02,-1.177877686305337193e+02,3.386572348564368440e+01,-1.583633002768428923e+02,-4.493709498807993441e+01,4.621043880639535928e+01,-6.671595159110347595e+01,9.484992027282714844e+00,-1.223870038986206055e+00,-3.824593424797058105e-01,4.050000000000000000e+02
-1.706471444329949918e+02,-1.334032696677850254e+02,-1.173100555673647705e+02,3.043757587170694023e+01,-1.577135445055973832e+02,-4.934768675461054954e+01,4.100236088239876153e+01,-7.144611774681334282e+01,9.484992027282714844e+00,-1.223870038986206055e+00,-3.824593424797058105e-01,4.060000000000000000e+02
-1.678791848597270473e+02,-1.334318192742650808e+02,-1.166263762273822522e+02,2.754062860264912160e+01,-1.575457802756959609e+02,-5.369514620013205786e+01,3.796782238636728835e+01,-7.487112537417078784e+01,9.484992027282714844e+00,-1.223870038986206055e+00,-3.824593424797058105e-01,4.070000000000000000e+02
-1.657706796586357996e+02,-1.330128819597416623e+02,-1.162233531920846872e+02,2.592440209769392823e+01,-1.582466895353391010e+02,-5.619305529328448756e+01,3.742112865218041406e+01,-7.610133368711149160e+01,9.484992027282714844e+00,-1.223870038986206055e+00,-3.824593424797058105e-01,4.080000000000000000e+02
-1.656752852932095266e+02,-1.323321554097242370e+02,-1.163202926770868544e+02,2.548350156300739400e+01,-1.601680112354479206e+02,-5.607215823275919320e+01,3.808082418449612305e+01,-7.566799364770531611e+01,9.484992027282714844e+00,-1.223870038986206055e+00,-3.824593424797058105e-01,4.090000000000000000e+02
-1.679876542213341963e+02,-1.317018023587538664e+02,-1.166351469564626768e+02,2.543014988824552347e+01,-1.628673640622341736e+02,-5.399610044510882290e+01,3.815691362627217131e+01,-7.482155851283641823e+01,9.484992027282714844e+00,-1.223870038986206055e+00,-3.824593424797058105e-01,4.100000000000000000e+02
-1.716047224887370248e+02,-1.312123274534612847e+02,-1.167104508654119854e+02,2.494351215261576726e+01,-1.649532696457577003e+02,-5.156507689067166211e+01,3.663803771193897774e+01,-7.437616282661838341e+01,9.484992027282714844e+00,-1.223870038986206055e+00,-3.824593424797058105e-01,4.110000000000000000e+02
-1.745638341716703508e+02,-1.305692363971829764e+02,-1.163319572091488681e+02,2.380204045182199479e+01,-1.648748404598727575e+02,-5.018614857417924213e+01,3.392695664143161594e+01,-7.401963986752070923e+01,9.484992027282714844e+00,-1.223870038986206055e+00,-3.824593424797058105e-01,4.120000000000000000e+02
-1.752966396962051476e+02,-1.292260667396710687e+02,-1.155129318515173509e+02,2.258001994380629185e+01,-1.619318445754884124e+02,-5.008585106469899983e+01,3.153092735289601478e+01,-7.262145461379986955e+01,9.484992027282714844e+00,-1.223870038986206055e+00,-3.824593424797058105e-01,4.130000000000000000e+02
-1.734585547310343827e+02,-1.267261412474326789e+02,-1.141327522667295398e+02,2.232690342796649929e+01,-1.564968370459755533e+02,-5.019756862618987725e+01,3.108941774685672499e+01,-6.928252713117763051e+01,9.484992027282714844e+00,-1.223870038986206055e+00,-3.824593424797058105e-01,4.140000000000000000e+02
-1.697910014883013901e+02,-1.230552062577812649e+02,-1.118246401429501020e+02,2.392118681554393333e+01,-1.493509662942979048e+02,-4.907021533685474424e+01,3.333148086419078027e+01,-6.427778785445798349e+01,9.484992027282714844e+00,-1.223870038986206055e+00,-3.824593424797058105e-01,4.150000000000000000e+02
-1.653701932291869525e+02,-1.188266507663749962e+02,-1.084565317975527705e+02,2.741240973783988011e+01,-1.410594760131998555e+02,-4.617078282849888637e+01,3.749116583737441033e+01,-5.913182012521428987e+01,9.484992027282714844e+00,-1.223870038986206055e+00,-3.824593424797058105e-01,4.160000000000000000e+02
-1.609884425702221051e+02,-1.151887817256765629e+02,-1.047564963080380949e+02,3.168963790723864804e+01,-1.322099851530697379e+02,-4.257755311044093105e+01,4.147489404633006416e+01,-5.577241298623357579e+01,9.484992027282714844e+00,-1.338607788085937500e+00,-3.824593424797058105e-01,4.170000000000000000e+02
-1.570561652006790609e+02,-1.133965466787005880e+02,-1.022258462464365039e+02,3.477984400001059839e+01,-1.241541711212603332e+02,-4.042540041790471150e+01,4.281676334031385522e+01,-5.538233979219194225e+01,9.484992027282714844e+00,-1.338607788085937500e+00,-3.824593424797058105e-01,4.180000000000000000e+02
-1.538008027112618947e+02,-1.141455419083347351e+02,-1.020969131298206776e+02,3.481323632628709674e+01,-1.190398522056957518e+02,-4.139718213303376615e+01,4.004300885534530607e+01,-5.772533270281246587e+01,9.484992027282714844e+00,-1.338607788085937500e+00,-3.824593424797058105e-01,4.190000000000000000e+02
-1.513590996357288532e+02,-1.170269106070363705e+02,-1.041853510680148247e+02,3.117290440817760100e+01,-1.185501452482494642e+02,-4.538432395400377573e+01,3.370261664319582451e+01,-6.133655577659374103e+01,9.484992027282714844e+00,-1.338607788085937500e+00,-3.824593424797058105e-01,4.200000000000000000e+02
-1.496624205145485575e+02,-1.205459278770988476e+02,-1.067895746746012264e+02,2.503461780419820570e+01,-1.222952423162196283e+02,-5.039148038759913106e+01,2.632981512537321578e+01,-6.436051136011383278e+01,9.484992027282714844e+00,-1.338607788085937500e+00,-3.824593424797058105e-01,4.210000000000000000e+02
-1.483561685815302553e+02,-1.228448012332478356e+02,-1.078844370917722699e+02,1.880611393796152697e+01,-1.275206591187579761e+02,-5.380619734675656218e+01,2.118080974604072253e+01,-6.545336654757738870e+01,9.484992027282714844e+00,-1.338607788085937500e+00,-3.824593424797058105e-01,4.220000000000000000e+02
-1.469544065153072552e+02,-1.227348560880748209e+02,-1.065981960084504863e+02,1.475676089534908897e+01,-1.307413157974992828e+02,-5.407416515241129673e+01,2.042534981472681466e+01,-6.424930279833370150e+01,9.484992027282714844e+00,-1.338607788085937500e+00,-3.824593424797058105e-01,4.230000000000000000e+02
-1.451177278166114775e+02,-1.203358516443261124e+02,-1.036649919848882746e+02,1.376024026562527069e+01,-1.300793504264452167e+02,-5.152695753953275926e+01,2.392631213716867933e+01,-6.127024394768477578e+01,9.484992027282714844e+00,-1.338607788085937500e+00,-3.824593424797058105e-01,4.240000000000000000e+02
-1.428119083540309475e+02,-1.168702020072214509e+02,-1.005526915156465293e+02,1.499024420303885563e+01,-1.263446668377628157e+02,-4.786587523853177117e+01,2.940319103141337109e+01,-5.751300796686973626e+01,9.484992027282714844e+00,-1.338607788085937500e+00,-3.824593424797058105e-01,4.250000000000000000e+02
-1.402555073942580748e+02,-1.137860123983114136e+02,-9.822097959084248942e+01,1.668070366126357840e+01,-1.219897725817559149e+02,-4.486638425536420982e+01,3.385125034166912883e+01,-5.403841878996036030e+01,9.484992027282714844e+00,-1.338607788085937500e+00,-3.824593424797058105e-01,4.260000000000000000e+02
-1.377851486908398329e+02,-1.118550042824422235e+02,-9.666400841883387329e+01,1.733494007273930038e+01,-1.189407002337029553e+02,-4.333852715278635515e+01,3.528395464390791858e+01,-5.168912890071896982e+01,9.484992027282714844e+00,-1.338607788085937500e+00,-3.824593424797058105e-01,4.270000000000000000e+02
-1.357927107930358943e+02,-1.108370236675509659e+02,-9.543235061841596689e+01,1.658258619018488389e+01,-1.171924708407223079e+02,-4.297448500629025148e+01,3.372675680057727732e+01,-5.088060536625062014e+01,9.484992027282714844e+00,-1.338607788085937500e+00,-3.824593424797058105e-01,4.280000000000000000e+02
-1.346810344995219566e+02,-1.098131728080363700e+02,-9.432950162474708122e+01,1.526228548351900827e+01,-1.152139776699173126e+02,-4.292074841500334514e+01,3.097301070941921353e+01,-5.140462562898437682e+01,9.484992027282714844e+00,-1.338607788085937500e+00,-3.824593424797058105e-01,4.290000000000000000e+02
-1.346557475579452330e+02,-1.078340147283697661e+02,-9.347705519554028797e+01,1.481400067885351746e+01,-1.115820441817472783e+02,-4.247187352926403037e+01,2.940102914933004286e+01,-5.236298096659174917e+01,9.484992027282714844e+00,-1.338607788085937500e+00,-3.824593424797058105e-01,4.300000000000000000e+02
-1.353911981433179790e+02,-1.044350237532264600e+02,-9.280395614774806745e+01,1.639983437093542307e+01,-1.062869796806908198e+02,-4.140131934098144484e+01,3.062251127470653955e+01,-5.243337310270362650e+01,9.484992027282714844e+00,-1.338607788085937500e+00,-3.824593424797058105e-01,4.310000000000000000e+02
-1.359050505505010733e+02,-9.981627483068996298e+01,-9.170799511222730871e+01,2.021532612571854770e+01,-1.006289000286665214e+02,-3.984852265873769284e+01,3.468386654706091576e+01,-5.050092489223698067e+01,9.484992027282714844e+00,-1.338607788085937500e+00,-3.824593424797058105e-01,4.320000000000000000e+02
-1.349401237711963404e+02,-9.471477511542866523e+01,-8.940183131411004069e+01,2.533390853584751312e+01,-9.597222889704698900e+01,-3.798330522174319412e+01,4.015640424947582687e+01,-4.634347545657556111e+01,9.484992027282714844e+00,-1.338607788085937500e+00,-3.824593424797058105e-01,4.330000000000000000e+02
-1.317496635092929864e+02,-9.011129037041519041e+01,-8.565000423380843131e+01,3.015341029193405120e+01,-9.260746088320638592e+01,-3.576677473364770776e+01,4.495759025818961163e+01,-4.091283890529803102e+01,9.484992027282714844e+00,-1.338607788085937500e+00,-3.824593424797058105e-01,4.340000000000000000e+02
-1.267116636002715495e+02,-8.685807290156935778e+01,-8.114434986633068547e+01,3.320033267943381361e+01,-8.978448010255260670e+01,-3.302010244380198856e+01,4.744404177869500927e+01,-3.592168258405445158e+01,9.484992027282714844e+00,-1.338607788085937500e+00,-3.824593424797058105e-01,4.350000000000000000e+02
-1.211920759804115733e+02,-8.530294454098566348e+01,-7.712236099930078126e+01,3.384286638216735810e+01,-8.680527012678430765e+01,-2.974296519862855348e+01,4.721927840698253931e+01,-3.290628522036604409e+01,9.484992027282714844e+00,-1.338607788085937500e+00,-3.824593424797058105e-01,4.360000000000000000e+02
-1.166744396409453657e+02,-8.507649107444194669e+01,-7.456795101910665835e+01,3.252870170125515870e+01,-8.401736764360202869e+01,-2.638324356123030157e+01,4.523548607935140353e+01,-3.234267796478252421e+01,9.484992027282714844e+00,-1.338607788085937500e+00,-3.824593424797058105e-01,4.370000000000000000e+02
-1.138322779425320732e+02,-8.523799089155886577e+01,-7.366153576353417520e+01,3.046870488319564174e+01,-8.261887598258044818e+01,-2.374711708129279941e+01,4.313902475205554765e+01,-3.339727267093303453e+01,9.484992027282714844e+00,-1.262115836143493652e+00,-4.207052886486053467e-01,4.380000000000000000e+02
-1.123198152298214154e+02,-8.478735775558266141e+01,-7.383235513896443081e+01,2.900521978436472637e+01,-8.335443877004627211e+01,-2.252871702419361100e+01,4.225426559534707849e+01,-3.447563326963381769e+01,9.484992027282714844e+00,-1.262115836143493652e+00,-4.207052886486053467e-01,4.390000000000000000e+02
-1.114112652183889622e+02,-8.327910363754244827e+01,-7.422980705548502556e+01,2.900416502806456265e+01,-8.538001519880663182e+01,-2.284093806991450037e+01,4.285065501626672813e+01,-3.420892073658342269e+01,9.484992027282714844e+00,-1.262115836143493652e+00,-4.207052886486053467e-01,4.400000000000000000e+02
-1.108223894569077856e+02,-8.110574352962112243e+01,-7.417105774920173644e+01,3.052413159429852385e+01,-8.652724030500712615e+01,-2.415696888127968123e+01,4.418532798301839648e+01,-3.221982798607314180e+01,9.484992027282714844e+00,-1.262115836143493652e+00,-4.207052886486053467e-01,4.410000000000000000e+02
-1.108977810937562936e+02,-7.918653037548892826e+01,-7.332021359412919992e+01,3.288026939823521388e+01,-8.489637797693148968e+01,-2.566736292664518260e+01,4.523959840355541928e+01,-2.918047012652823469e+01,9.484992027282714844e+00,-1.262115836143493652e+00,-4.207052886486053467e-01,4.420000000000000000e+02
-1.119947156602470386e+02,-7.826482631586509342e+01,-7.167190306956854329e+01,3.506649713299975701e+01,-8.037841030392337416e+01,-2.667427452425272350e+01,4.553079839666361295e+01,-2.619934373897103796e+01,9.484992027282714844e+00,-1.262115836143493652e+00,-4.207052886486053467e-01,4.430000000000000000e+02
-1.137561609016161128e+02,-7.836616643246088643e+01,-6.951821877293514262e+01,3.633639929533364921e+01,-7.470702915621359352e+01,-2.669820259930429529e+01,4.533885103365469149e+01,-2.406793737406360378e+01,9.484992027282714844e+00,-1.262115836143493652e+00,-4.207052886486053467e-01,4.440000000000000000e+02
-1.151399616375611004e+02,-7.884679477448048601e+01,-6.742834187378002753e+01,3.660374524764574744e+01,-7.004332319312834443e+01,-2.540145040973675350e+01,4.522689742784405098e+01,-2.294112568998070856e+01,9.484992027282714844e+00,-1.262115836143493652e+00,-4.207052886486053467e-01,4.450000000000000000e+02
-1.152718144729792584e+02,-7.894606558600207791e+01,-6.609950379584029179e+01,3.640381653638087300e+01,-6.743137704781565844e+01,-2.265741842172883480e+01,4.539330767399133038e+01,-2.258571523763157529e+01,9.484992027282714844e+00,-1.262115836143493652e+00,-4.207052886486053467e-01,4.460000000000000000e+02
-1.142712787681234659e+02,-7.832587442363865193e+01,-6.601079020274301001e+01,3.644354531613771542e+01,-6.645089829453263519e+01,-1.882173002956096752e+01,4.552678995344876967e+01,-2.282290744682768491e+01,9.484992027282714844e+00,-1.262115836143493652e+00,-4.207052886486053467e-01,4.470000000000000000e+02
-1.131831176417144889e+02,-7.716631734227598827e+01,-6.708486063785335318e+01,3.707013456396225592e+01,-6.613259103342670642e+01,-1.483887790708422472e+01,4.525981388984791920e+01,-2.369681209555210444e+01,9.484992027282714844e+00,-1.262115836143493652e+00,-4.207052886486053467e-01,4.480000000000000000e+02
-1.130362810541810177e+02,-7.585953702962410716e+01,-6.870054051622309998e+01,3.803853727857358535e+01,-6.602045815429391951e+01,-1.184641800120016342e+01,4.463150174978613904e+01,-2.527475402905838564e+01,9.484992027282714844e+00,-1.262115836143493652e+00,-4.207052886486053467e-01,4.490000000000000000e+02
-1.139668122534862960e+02,-7.470702790223845113e+01,-7.017618924659882396e+01,3.869037381634620942e+01,-6.635712152360429172e+01,-1.050239404032254242e+01,4.396294201899763721e+01,-2.740727292704468709e+01,9.484992027282714844e+00,-1.262115836143493652e+00,-4.207052886486053467e-01,4.500000000000000000e+02
-1.152663426540657383e+02,-7.386493142382778387e+01,-7.134755898270145735e+01,3.838223362006510797e+01,-6.740816737011891746e+01,-1.062767418156772692e+01,4.327557071707087744e+01,-2.975561507776137660e+01,9.484992027282714844e+00,-1.262115836143493652e+00,-4.207052886486053467e-01,4.510000000000000000e+02
-1.162272115962905445e+02,-7.340987157296649457e+01,-7.264122433358420494e+01,3.687159995029287529e+01,-6.880702207523336256e+01,-1.148921178059617887e+01,4.201357251745616850e+01,-3.203238039485449917e+01,9.484992027282714844e+00,-1.262115836143493652e+00,-4.207052886486053467e-01,4.520000000000000000e+02
-1.167871257650519965e+02,-7.326962742737009648e+01,-7.443751737544948810e+01,3.446655512681172695e+01,-6.962255797797251944e+01,-1.238536949123681552e+01,3.961701554056321584e+01,-3.409552150740319121e+01,9.484992027282714844e+00,-1.262115836143493652e+00,-4.207052886486053467e-01,4.530000000000000000e+02
-1.172520564919866501e+02,-7.306252079835371660e+01,-7.627669529969352880e+01,3.189750610163491729e+01,-6.898723058577797929e+01,-1.291964051848071904e+01,3.651276329577967772e+01,-3.570841141337200497e+01,9.484992027282714844e+00,-1.262115836143493652e+00,-4.207052886486053467e-01,4.540000000000000000e+02
-1.174766331185851413e+02,-7.219220999834783470e+01,-7.680136268379010289e+01,2.996805987666562032e+01,-6.663814820209790923e+01,-1.282524218806338467e+01,3.439158914934796485e+01,-3.626517370284022945e+01,9.484992027282714844e+00,-1.262115836143493652e+00,-4.207052886486053467e-01,4.550000000000000000e+02
-1.165430499851152035e+02,-7.034052553312267264e+01,-7.470265130050552216e+01,2.915617367124445991e+01,-6.294547494876087512e+01,-1.177454129837133223e+01,3.515509018713282785e+01,-3.493104354002161926e+01,9.484992027282714844e+00,-1.262115836143493652e+00,-4.207052886486053467e-01,4.560000000000000000e+02
-1.134752712887625421e+02,-6.796165949285318675e+01,-6.990804084836804577e+01,2.940900015313218319e+01,-5.853795637082430403e+01,-9.580293527907542739e+00,3.924142045095709364e+01,-3.125251896067061352e+01,9.484992027282714844e+00,-1.262115836143493652e+00,-4.207052886486053467e-01,4.570000000000000000e+02
-1.083707498766668778e+02,-6.619592785779650512e+01,-6.388245860486745187e+01,3.027106749084782678e+01,-5.390969818190183105e+01,-6.600902056642553362e+00,4.482275458993058237e+01,-2.576149476450245857e+01,9.484992027282714844e+00,-1.262115836143493652e+00,-4.207052886486053467e-01,4.580000000000000000e+02
-1.027812307132880960e+02,-6.610109688683405693e+01,-5.867249811515216606e+01,3.122072600440083079e+01,-4.928361632362907585e+01,-3.777012327934244240e+00,4.875443603404255555e+01,-1.999394340950198057e+01,9.484992027282714844e+00,-1.262115836143493652e+00,-4.207052886486053467e-01,4.590000000000000000e+02
-9.884143294030832294e+01,-6.783263965379865112e+01,-5.554134081749680263e+01,3.189277297560101943e+01,-4.477559958122424177e+01,-2.099189950417439832e+00,4.862261540378312930e+01,-1.582437729646653679e+01,9.484992027282714844e+00,-1.262115836143493652e+00,-4.207052886486053467e-01,4.600000000000000000e+02
-9.783778027610264871e+01,-7.056951743496870222e+01,-5.442909446063640644e+01,3.200405468002645648e+01,-4.069723832548129394e+01,-1.974668146525345946e+00,4.425312335585181245e+01,-1.458646287669307640e+01,9.484992027282714844e+00,-1.262115836143493652e+00,-4.207052886486053467e-01,4.610000000000000000e+02
-9.940673802179162521e+01,-7.323302048960863431e+01,-5.457595834491166897e+01,3.120950572898891551e+01,-3.768844457619729837e+01,-3.092809992083630277e+00,3.759883676581375767e+01,-1.653800941213035003e+01,9.484992027282714844e+00,-1.262115836143493652e+00,-4.207052886486053467e-01,4.620000000000000000e+02
-1.019410027437459121e+02,-7.525551245800625111e+01,-5.547404367974900197e+01,2.925109023938352948e+01,-3.644495707971123011e+01,-4.852985042307409458e+00,3.132108018809935857e+01,-2.088332052828332053e+01,9.484992027282714844e+00,-1.300361871719360352e+00,-4.207052886486053467e-01,4.630000000000000000e+02
-1.037223594687739023e+02,-7.667100558187826209e+01,-5.709215264236490839e+01,2.637585709925133415e+01,-3.709207603569439016e+01,-6.821498275319299864e+00,2.731706226825713202e+01,-2.618118519164772806e+01,9.484992027282714844e+00,-1.300361871719360352e+00,-4.207052886486053467e-01,4.640000000000000000e+02
-1.038727495722428102e+02,-7.759700418299166813e+01,-5.929508347670525836e+01,2.349181905860768893e+01,-3.871267141005614576e+01,-8.784196985476455666e+00,2.614170594018992233e+01,-3.089484304037137008e+01,9.484992027282714844e+00,-1.300361871719360352e+00,-4.207052886486053467e-01,4.650000000000000000e+02
-1.026026820620263607e+02,-7.784414288482912525e+01,-6.135952668261938925e+01,2.162287947933441501e+01,-3.964561651074677684e+01,-1.054991431803364321e+01,2.727224002333628050e+01,-3.394579415064731620e+01,9.484992027282714844e+00,-1.300361871719360352e+00,-4.207052886486053467e-01,4.660000000000000000e+02
-1.008672005361113406e+02,-7.716024325174726073e+01,-6.234623885945870825e+01,2.099463034221344060e+01,-3.860284426730686391e+01,-1.194197621828197953e+01,2.961223187969915216e+01,-3.510675670098703449e+01,9.484992027282714844e+00,-1.300361871719360352e+00,-4.207052886486053467e-01,4.670000000000000000e+02
-9.979608376280202719e+01,-7.576978520282250429e+01,-6.199214272945732773e+01,2.070195737804215241e+01,-3.577884015143308716e+01,-1.304309599903535855e+01,3.188288297490248624e+01,-3.496284142003128181e+01,9.484992027282714844e+00,-1.300361871719360352e+00,-4.207052886486053467e-01,4.680000000000000000e+02
-1.001178315394986384e+02,-7.443823585617201388e+01,-6.105719923704964458e+01,1.952828369843314249e+01,-3.285864605825827311e+01,-1.426677032064844752e+01,3.302735711172419997e+01,-3.432527750411827583e+01,9.484992027282714844e+00,-1.300361871719360352e+00,-4.207052886486053467e-01,4.690000000000000000e+02
-1.017041943431627260e+02,-7.382909647646579288e+01,-6.060229446283119614e+01,1.728729356681424179e+01,-3.168840230698310734e+01,-1.595206752024500929e+01,3.272851008761404046e+01,-3.344769317390455399e+01,9.484992027282714844e+00,-1.300361871719360352e+00,-4.207052886486053467e-01,4.700000000000000000e+02
-1.034694942178100519e+02,-7.378689582790752866e+01,-6.088296842384988850e+01,1.532232738244078973e+01,-3.263513273518310598e+01,-1.779813728799035744e+01,3.171297086758750083e+01,-3.172174811691934337e+01,9.484992027282714844e+00,-1.300361871719360352e+00,-4.207052886486053467e-01,4.710000000000000000e+02
-1.038806363087276168e+02,-7.336164150725016952e+01,-6.103634182226585381e+01,1.547876227034157637e+01,-3.410136701458873176e+01,-1.881300451181368771e+01,3.138711166780262829e+01,-2.823976058401331102e+01,9.484992027282714844e+00,-1.300361871719360352e+00,-4.207052886486053467e-01,4.720000000000000000e+02
-1.019851462909223301e+02,-7.165201833416915633e+01,-5.995079693627201323e+01,1.838973113981387542e+01,-3.375184215965509793e+01,-1.802172570716470545e+01,3.284472715415427047e+01,-2.282447769570558194e+01,9.484992027282714844e+00,-1.300361871719360352e+00,-4.207052886486053467e-01,4.730000000000000000e+02
-9.830721786454057565e+01,-6.870058987160587094e+01,-5.747626231497042681e+01,2.271363860067231144e+01,-3.049343690984233035e+01,-1.537463579636983013e+01,3.595005893681786802e+01,-1.661723406872488340e+01,9.484992027282714844e+00,-1.300361871719360352e+00,-4.207052886486053467e-01,4.740000000000000000e+02
-9.478743442076915926e+01,-6.559196734561601261e+01,-5.475460882983361444e+01,2.612438571538302767e+01,-2.552104154771222966e+01,-1.199445126840805642e+01,3.932607388999588238e+01,-1.159468540287298310e+01,9.484992027282714844e+00,-1.300361871719360352e+00,-4.207052886486053467e-01,4.750000000000000000e+02
-9.354222803101174577e+01,-6.366115668997201738e+01,-5.332752019300642132e+01,2.717396029173414718e+01,-2.148673745019084436e+01,-9.445710159434156594e+00,4.135773092666624962e+01,-9.326443345777988725e+00,9.484992027282714844e+00,-1.300361871719360352e+00,-4.207052886486053467e-01,4.760000000000000000e+02
-9.525363380667920410e+01,-6.350880195366517000e+01,-5.385204747949342163e+01,2.632965835745653749e+01,-2.043698276969178096e+01,-8.583284040610465127e+00,4.142658716123025897e+01,-9.964764014061529451e+00,9.484992027282714844e+00,-1.300361871719360352e+00,-4.207052886486053467e-01,4.770000000000000000e+02
-9.847628908999229225e+01,-6.461702215103866820e+01,-5.555184435685134758e+01,2.533488463534104085e+01,-2.220823265142996661e+01,-8.904293928352103649e+00,4.037048951782304584e+01,-1.223082606146022044e+01,9.484992027282714844e+00,-1.300361871719360352e+00,-4.207052886486053467e-01,4.780000000000000000e+02
-1.005452026400362229e+02,-6.579013041628354586e+01,-5.679611892067612189e+01,2.563106815424691831e+01,-2.458900262521297009e+01,-8.892272617435764914e+00,3.981606624265299388e+01,-1.430791550960213954e+01,9.484992027282714844e+00,-1.300361871719360352e+00,-4.207052886486053467e-01,4.790000000000000000e+02
-9.950283482378677036e+01,-6.600646173385950988e+01,-5.623757024876863397e+01,2.731718291379149832e+01,-2.511566015381526995e+01,-7.092423027767495114e+00,4.094914460854829485e+01,-1.489448690042183898e+01,9.484992027282714844e+00,-1.300361871719360352e+00,-4.207052886486053467e-01,4.800000000000000000e+02
-9.556188816263698982e+01,-6.506216469709312378e+01,-5.360787374715067699e+01,2.940879854434166418e+01,-2.302834977258305571e+01,-3.158235348679909293e+00,4.368369431156298788e+01,-1.372137730115542809e+01,9.484992027282714844e+00,-1.300361871719360352e+00,-4.207052886486053467e-01,4.810000000000000000e+02
-9.091131644342874552e+01,-6.359765002323456429e+01,-4.969413716025991334e+01,3.089566290391036318e+01,-1.977196965410126950e+01,1.838796585745171797e+00,4.680651051654695038e+01,-1.138335962010398816e+01,9.484992027282714844e+00,-1.300361871719360352e+00,-4.207052886486053467e-01,4.820000000000000000e+02
-8.800351760514280386e+01,-6.253017209160620382e+01,-4.569234123301862383e+01,3.151608358743283134e+01,-1.763135789468071835e+01,6.030682881149118657e+00,4.889895426258033240e+01,-8.819797313235937963e+00,9.484992027282714844e+00,-1.300361871719360352e+00,-4.207052886486053467e-01,4.830000000000000000e+02
-8.771130979697204566e+01,-6.230151380466202227e+01,-4.249429045339437039e+01,3.166307637441099132e+01,-1.767064358495116494e+01,7.895571067638570639e+00,4.928834477490130439e+01,-6.850363172937534273e+00,9.484992027282714844e+00,-1.300361871719360352e+00,-4.207052886486053467e-01,4.840000000000000000e+02
-8.883804726643163008e+01,-6.249798115405184262e+01,-4.036218757334020779e+01,3.174853877504111210e+01,-1.879395216749567510e+01,7.151307674956598248e+00,4.834937213948389001e+01,-5.937542696594988456e+00,9.484992027282714844e+00,-1.300361871719360352e+00,-4.207052886486053467e-01,4.850000000000000000e+02
-8.928895357620172035e+01,-6.218507041696595650e+01,-3.907620647503239297e+01,3.175122558315295151e+01,-1.877975705785992488e+01,4.806987421227347568e+00,4.704112493627288671e+01,-6.131984392270183548e+00,9.484992027282714844e+00,-1.300361871719360352e+00,-4.207052886486053467e-01,4.860000000000000000e+02
-8.781304044587184876e+01,-6.073125405817877720e+01,-3.829567934746654601e+01,3.133734184318301885e+01,-1.634490562395009761e+01,2.395895043263180924e+00,4.616174010357968172e+01,-7.100559174253149308e+00,9.484992027282714844e+00,-1.300361871719360352e+00,-4.207052886486053467e-01,4.870000000000000000e+02
-8.482518098238807625e+01,-5.841343549010085212e+01,-3.778250037371412873e+01,3.035480283022275216e+01,-1.231309939493266370e+01,1.020945321484703072e+00,4.593657618775426954e+01,-8.212572307371345914e+00,9.484992027282714844e+00,-1.300361871719360352e+00,-4.207052886486053467e-01,4.880000000000000000e+02
-8.177131173215798299e+01,-5.619886567956169188e+01,-3.735352948876055734e+01,2.919726134549057406e+01,-8.779696819623325155e+00,9.393185665559826703e-01,4.617548751267932516e+01,-8.707555497729288163e+00,9.484992027282714844e+00,-1.300361871719360352e+00,-4.207052886486053467e-01,4.890000000000000000e+02
-7.983066614723691146e+01,-5.483185032066717213e+01,-3.673639147002893424e+01,2.867710889418987108e+01,-7.089538365194016478e+00,1.854288259588827259e+00,4.670033165715906875e+01,-7.969101769962151138e+00,9.446745872497558594e+00,-1.262115836143493652e+00,-3.442134261131286621e-01,4.900000000000000000e+02
-7.921574285534688897e+01,-5.409266914929457926e+01,-3.562025447500815289e+01,2.946493366503085554e+01,-6.624350437747580145e+00,3.446402935887817875e+00,4.752291317106551105e+01,-5.869243466461171010e+00,9.446745872497558594e+00,-1.262115836143493652e+00,-3.442134261131286621e-01,4.910000000000000000e+02
-7.955016953743916019e+01,-5.300943205596934149e+01,-3.396907560547646199e+01,3.151935368312877017e+01,-5.597758332060607245e+00,5.575605610789466482e+00,4.860194764225093422e+01,-3.001656275333061785e+00,9.446745872497558594e+00,-1.262115836143493652e+00,-3.442134261131286621e-01,4.920000000000000000e+02
-8.066153871501001049e+01,-5.087554434914034118e+01,-3.228927226249493287e+01,3.398004904831350359e+01,-3.042399443951239846e+00,8.069359701309394950e+00,4.954008731604056948e+01,-5.495181888061324571e-01,9.446745872497558594e+00,-1.262115836143493652e+00,-3.442134261131286621e-01,4.930000000000000000e+02
-8.279176556723473368e+01,-4.806651603584327859e+01,-3.145645478202141021e+01,3.567586196677973476e+01,2.706009573353185260e-02,1.052503248197831454e+01,4.969539733200883802e+01,3.107571624184402026e-01,9.446745872497558594e+00,-1.262115836143493652e+00,-3.442134261131286621e-01,4.940000000000000000e+02
-8.600334607485524430e+01,-4.578549176936428466e+01,-3.208595146732045578e+01,3.589586606345051223e+01,1.476707180328276081e+00,1.248686077558227225e+01,4.874576636632968984e+01,-7.976863101096114406e-01,9.446745872497558594e+00,-1.262115836143493652e+00,-3.442134261131286621e-01,4.950000000000000000e+02
-8.953652462309128168e+01,-4.493710206168168497e+01,-3.393336860420367884e+01,3.482020784269502656e+01,1.422387615198204003e-01,1.384425218918204337e+01,4.717223636794346930e+01,-3.039994666801931089e+00,9.446745872497558594e+00,-1.262115836143493652e+00,-3.442134261131286621e-01,4.960000000000000000e+02
-9.195596072862849724e+01,-4.526410441744428681e+01,-3.590295583969884774e+01,3.325955055248778081e+01,-2.848808699891833385e+00,1.496208475485582312e+01,4.606609386610477941e+01,-4.789612296902078015e+00,9.446745872497558594e+00,-1.262115836143493652e+00,-3.442134261131286621e-01,4.970000000000000000e+02
-9.207828845666176676e+01,-4.563120838597728834e+01,-3.675269782226564530e+01,3.195831634795513310e+01,-4.764824493070364042e+00,1.631295536938614532e+01,4.630127204802442975e+01,-4.710386243124730754e+00,9.446745872497558594e+00,-1.262115836143493652e+00,-3.442134261131286621e-01,4.980000000000000000e+02
-8.981890248639751917e+01,-4.515631949377120691e+01,-3.594363089074386153e+01,3.110599568537872983e+01,-3.319814934886608171e+00,1.795475280722985190e+01,4.781197899746484836e+01,-2.690674071100147557e+00,9.446745872497558594e+00,-1.262115836143493652e+00,-3.442134261131286621e-01,4.990000000000000000e+02
-8.615123435209034142e+01,-4.400223501032701279e+01,-3.393961461120875356e+01,3.047124019665147898e+01,1.722789935835180586e+00,1.939647776691936087e+01,4.970151118664307432e+01,1.655845079753817117e-01,9.446745872497558594e+00,-1.262115836143493652e+00,-3.442134261131286621e-01,5.000000000000000000e+02
-8.223991825792063537e+01,-4.300198649867479617e+01,-3.173160958544463028e+01,2.995158570890271221e+01,8.652617012934115337e+00,2.002818767957705859e+01,5.113350367226257731e+01,2.522998841396656644e+00,9.446745872497558594e+00,-1.262115836143493652e+00,-3.442134261131286621e-01,5.010000000000000000e+02
-7.862215594031886212e+01,-4.255226825580234618e+01,-3.003450323442939407e+01,2.991760013532189078e+01,1.528802230682344998e+01,1.971302250685221225e+01,5.214904145828586479e+01,3.926830414283813298e+00,9.446745872497558594e+00,-1.262115836143493652e+00,-3.442134261131286621e-01,5.020000000000000000e+02
-7.518617231274652113e+01,-4.199971643455614867e+01,-2.884589979223846967e+01,3.096007246539102198e+01,2.041566598719418835e+01,1.897731765006619753e+01,5.356997177296534574e+01,5.061035180935505196e+00,9.446745872497558594e+00,-1.262115836143493652e+00,-3.442134261131286621e-01,5.030000000000000000e+02
-7.182252527409173126e+01,-4.025085146965011518e+01,-2.767801220308956545e+01,3.326291765903965825e+01,2.408464396984754785e+01,1.861618010700931336e+01,5.603995662052784610e+01,6.935643297367278137e+00,9.446745872497558594e+00,-1.262115836143493652e+00,-3.442134261131286621e-01,5.040000000000000000e+02
-6.895373792491955101e+01,-3.703086039272488961e+01,-2.617305530354724397e+01,3.621265709757562945e+01,2.680363525561779170e+01,1.907370925674422324e+01,5.913692020254279669e+01,9.775898542063714558e+00,9.446745872497558594e+00,-1.262115836143493652e+00,-3.442134261131286621e-01,5.050000000000000000e+02
-6.734153870699628897e+01,-3.346857532237504529e+01,-2.452647393302459022e+01,3.865806129652082745e+01,2.860131782716553062e+01,2.015304738671056839e+01,6.146914883387762529e+01,1.265801498511154932e+01,9.446745872497558594e+00,-1.262115836143493652e+00,-3.442134261131286621e-01,5.060000000000000000e+02
-6.734428509436338572e+01,-3.130345922884680476e+01,-2.336314051674571601e+01,3.964676553751496613e+01,2.885466666176807848e+01,2.128865062557088095e+01,6.173786213437733750e+01,1.424077138587335867e+01,9.446745872497558594e+00,-1.262115836143493652e+00,-3.442134261131286621e-01,5.070000000000000000e+02
-6.838750549190626771e+01,-3.138759315107290604e+01,-2.320109984633472777e+01,3.905773945658120283e+01,2.695816539460884087e+01,2.211044093249529396e+01,5.981411014953619087e+01,1.393037558690048172e+01,9.446745872497558594e+00,-1.262115836143493652e+00,-3.442134261131286621e-01,5.080000000000000000e+02
-6.925263188706458095e+01,-3.291017271212240303e+01,-2.399433721134710140e+01,3.764283026239218088e+01,2.312998691206666990e+01,2.277907441638672026e+01,5.685081951110237242e+01,1.241350875265834475e+01,9.446745872497558594e+00,-1.262115836143493652e+00,-3.442134261131286621e-01,5.090000000000000000e+02
-6.899304317579799317e+01,-3.412135624670736433e+01,-2.515082503811845527e+01,3.645729280616660617e+01,1.855455633945484806e+01,2.377485795776237865e+01,5.434670454657134542e+01,1.107848676331695970e+01,9.446745872497558594e+00,-1.262115836143493652e+00,-3.442134261131286621e-01,5.100000000000000000e+02
-6.768571327476729493e+01,-3.389117815619192697e+01,-2.600205592796282872e+01,3.612200822330896699e+01,1.470986840420027875e+01,2.532457546238583745e+01,5.301816741344464390e+01,1.085079922828663257e+01,9.446745872497558594e+00,-1.262115836143493652e+00,-3.442134261131286621e-01,5.110000000000000000e+02
-6.635212458892692666e+01,-3.264181493679552659e+01,-2.630999978875206580e+01,3.646115090944476833e+01,1.247948956559275757e+01,2.701870848775979539e+01,5.243427665097124191e+01,1.146802265672386056e+01,9.446745872497558594e+00,-1.262115836143493652e+00,-3.442134261131286621e-01,5.120000000000000000e+02
-6.609761702569767294e+01,-3.180265970997334080e+01,-2.637802865296225718e+01,3.674201843546734381e+01,1.176069691021803010e+01,2.802994451179802127e+01,5.161673437331592140e+01,1.180069746512845086e+01,9.446745872497558594e+00,-1.262115836143493652e+00,-3.442134261131286621e-01,5.130000000000000000e+02
-6.718969302980531211e+01,-3.234924673195018840e+01,-2.668555761845709640e+01,3.629782966443326586e+01,1.178603957081440967e+01,2.780538098849410744e+01,4.996281760971942276e+01,1.088824362701279824e+01,9.446745872497558594e+00,-1.262115836143493652e+00,-3.442134261131286621e-01,5.140000000000000000e+02
-6.881835346985053548e+01,-3.382831885376617720e+01,-2.739368834108563533e+01,3.504496959815924129e+01,1.176826290887493087e+01,2.660414040036084771e+01,4.770653384939214448e+01,8.784895289326868806e+00,9.446745872497558594e+00,-1.262115836143493652e+00,-3.442134261131286621e-01,5.150000000000000000e+02
-6.967548130373597814e+01,-3.473219787678044668e+01,-2.815211850095511181e+01,3.352476825348003331e+01,1.134988000824705523e+01,2.535398151823937951e+01,4.567866897287331085e+01,6.553365317524367128e+00,9.446745872497558594e+00,-1.262115836143493652e+00,-3.442134261131286621e-01,5.160000000000000000e+02
-6.883953972382914799e+01,-3.378339101164738167e+01,-2.834514311599605207e+01,3.249001206636012284e+01,1.071054630529670249e+01,2.493587431340074545e+01,4.474033641794449068e+01,5.497686201729266031e+00,9.446745872497558594e+00,-1.262115836143493652e+00,-3.442134261131286621e-01,5.170000000000000000e+02
-6.628456861396261957e+01,-3.091503496089308101e+01,-2.752610680743418925e+01,3.239720829039652017e+01,1.050045599864188262e+01,2.554950827362426935e+01,4.537580464596067031e+01,6.313137521893622761e+00,9.446745872497558594e+00,-1.262115836143493652e+00,-3.442134261131286621e-01,5.180000000000000000e+02
-6.273971225626064552e+01,-2.713327544407866299e+01,-2.566639679437821542e+01,3.320228326051437762e+01,1.167228133207390783e+01,2.674046860155613103e+01,4.760600694416461920e+01,8.796777203057899897e+00,9.446745872497558594e+00,-1.262115836143493652e+00,-3.442134261131286621e-01,5.190000000000000000e+02
-5.920005606001450360e+01,-2.356972962075178657e+01,-2.310179270740627544e+01,3.454001221763337526e+01,1.501785145197482052e+01,2.798387976937010535e+01,5.103280947624989494e+01,1.217755037718507083e+01,9.446745872497558594e+00,-1.262115836143493652e+00,-3.442134261131286621e-01,5.200000000000000000e+02
-5.653054643601535645e+01,-2.071564935381411487e+01,-2.032982416436152562e+01,3.604713396656643454e+01,2.037647365059820004e+01,2.917919527226695209e+01,5.485181483474389097e+01,1.562017598595684831e+01,9.408499717712402344e+00,-1.300361871719360352e+00,-4.207052886486053467e-01,5.210000000000000000e+02
-5.532070833025591128e+01,-1.845866485464739526e+01,-1.785730653554674063e+01,3.754892611858394957e+01,2.605058372047824378e+01,3.057970982794995507e+01,5.794178929585677906e+01,1.847618156732642092e+01,9.408499717712402344e+00,-1.300361871719360352e+00,-4.207052886486053467e-01,5.220000000000000000e+02
-5.582806837660427846e+01,-1.664265162954325206e+01,-1.614264075453320402e+01,3.902546961288044258e+01,2.923515926462096104e+01,3.231924528408126207e+01,5.922820079649045510e+01,2.024190131773775647e+01,9.408499717712402344e+00,-1.300361871719360352e+00,-4.207052886486053467e-01,5.230000000000000000e+02
-5.785436954066244652e+01,-1.543534377506603050e+01,-1.553808305251004640e+01,4.047638755216758000e+01,2.762144114200691547e+01,3.410643912821069534e+01,5.826144892482761861e+01,2.050170145934316679e+01,9.408499717712402344e+00,-1.300361871719360352e+00,-4.207052886486053467e-01,5.240000000000000000e+02
-6.067410055258278589e+01,-1.513248562796343322e+01,-1.617301735145611019e+01,4.182617112184925645e+01,2.113902188515203306e+01,3.541473675812994770e+01,5.563253769921220737e+01,1.910041592383731768e+01,9.408499717712402344e+00,-1.300361871719360352e+00,-4.207052886486053467e-01,5.250000000000000000e+02
-6.322944262295823137e+01,-1.569102881003345829e+01,-1.782278176948693726e+01,4.294318556965663447e+01,1.238003563611073332e+01,3.594963682714660536e+01,5.284125052364470321e+01,1.648218070661278034e+01,9.408499717712402344e+00,-1.300361871719360352e+00,-4.207052886486053467e-01,5.260000000000000000e+02
-6.457703655965724465e+01,-1.656234688262975396e+01,-1.986880854008541064e+01,4.374230904132400610e+01,5.186514828749750450e+00,3.590629804176478501e+01,5.158542356361522252e+01,1.383563349513588037e+01,9.408499717712402344e+00,-1.300361871719360352e+00,-4.207052886486053467e-01,5.270000000000000000e+02
-6.428005017632676754e+01,-1.703096821511644521e+01,-2.142934561613492406e+01,4.428139096594077273e+01,2.396112828585501120e+00,3.579700102614333446e+01,5.285786207866476616e+01,1.272908608527905017e+01,9.408499717712402344e+00,-1.300361871719360352e+00,-4.207052886486053467e-01,5.280000000000000000e+02
-6.243688593883325666e+01,-1.673414815845990233e+01,-2.165638435587788990e+01,4.475761867024175444e+01,4.411704245774672017e+00,3.607058672395123722e+01,5.639195023692445830e+01,1.431528372339562338e+01,9.408499717712402344e+00,-1.300361871719360352e+00,-4.207052886486053467e-01,5.290000000000000000e+02
-5.938837921154208743e+01,-1.590400185632915964e+01,-2.012730976289276441e+01,4.535158567835060239e+01,9.449784237123822095e+00,3.685562091835254250e+01,6.077027604905015323e+01,1.857541486379523121e+01,9.408499717712402344e+00,-1.300361871719360352e+00,-4.207052886486053467e-01,5.300000000000000000e+02
-5.546544876624011522e+01,-1.516472905981663644e+01,-1.715466928730529617e+01,4.599173054743641842e+01,1.492388638249394717e+01,3.795944391454577271e+01,6.412493328711479990e+01,2.415650286447635153e+01,9.408499717712402344e+00,-1.300361871719360352e+00,-4.207052886486053467e-01,5.310000000000000000e+02
-5.104614987075729005e+01,-1.508674335655905452e+01,-1.376784772278278979e+01,4.626530901876503776e+01,1.879730351209036598e+01,3.902660635985557747e+01,6.504162961732527037e+01,2.899890220978249999e+01,9.408499717712402344e+00,-1.300361871719360352e+00,-4.207052886486053467e-01,5.320000000000000000e+02
-4.679976803393219598e+01,-1.583815651502209221e+01,-1.126261084141970059e+01,4.564098779188952903e+01,2.021800573990913108e+01,3.972201400969424867e+01,6.318327187666000100e+01,3.138605812203786627e+01,9.408499717712402344e+00,-1.300361871719360352e+00,-4.207052886486053467e-01,5.330000000000000000e+02
-4.371930225406777026e+01,-1.712523649456488783e+01,-1.052870109542436694e+01,4.389892976230385102e+01,1.954663473285290820e+01,3.988997588576967246e+01,5.931849407621029968e+01,3.074258045511396631e+01,9.408499717712402344e+00,-1.300361871719360352e+00,-4.207052886486053467e-01,5.340000000000000000e+02
-4.270399352056665521e+01,-1.839861432529687590e+01,-1.160155840921106574e+01,4.139744038386652392e+01,1.808586747412482509e+01,3.964463324197276961e+01,5.479991637027796969e+01,2.770668495770405571e+01,9.408499717712402344e+00,-1.300361871719360352e+00,-4.207052886486053467e-01,5.350000000000000000e+02
-4.391766796665797301e+01,-1.918703961658593471e+01,-1.376488541206072114e+01,3.888831208212195634e+01,1.751565217714232858e+01,3.930969922428994323e+01,5.086278929621767020e+01,2.355696509516201331e+01,9.408499717712402344e+00,-1.300361871719360352e+00,-4.207052886486053467e-01,5.360000000000000000e+02
-4.645472624380818161e+01,-1.935885659494488209e+01,-1.607063167310298013e+01,3.702885053606314614e+01,1.900921025204115722e+01,3.922945395278293290e+01,4.820512779383716406e+01,1.953480328728801396e+01,9.408499717712402344e+00,-1.300361871719360352e+00,-4.207052886486053467e-01,5.370000000000000000e+02
-4.868596667332531069e+01,-1.914616655434656423e+01,-1.781783556241953193e+01,3.604935884661063028e+01,2.245453675445969566e+01,3.960254532384897175e+01,4.703337154521614139e+01,1.652804296950853313e+01,9.408499717712402344e+00,-1.300361871719360352e+00,-4.207052886486053467e-01,5.380000000000000000e+02
-4.915194151316791249e+01,-1.891202811161565478e+01,-1.866362101495997194e+01,3.588422908960637869e+01,2.647639306311066321e+01,4.048690619333137874e+01,4.732572248137512361e+01,1.510954653033877548e+01,9.408499717712402344e+00,-1.300361871719360352e+00,-4.207052886486053467e-01,5.390000000000000000e+02
-4.744403780061838916e+01,-1.884746350921068370e+01,-1.848950458103172423e+01,3.652523924678462208e+01,2.940288774538748839e+01,4.189838749963564624e+01,4.891444604924981832e+01,1.556931347994395765e+01,9.408499717712402344e+00,-1.300361871719360352e+00,-4.207052886486053467e-01,5.400000000000000000e+02
-4.445881278347042098e+01,-1.885771776065121230e+01,-1.736289128260341386e+01,3.809664354672895570e+01,3.045054496766897500e+01,4.379216519607143709e+01,5.129639552978187567e+01,1.770822680191849940e+01,9.408499717712402344e+00,-1.300361871719360352e+00,-4.207052886486053467e-01,5.410000000000000000e+02
-4.180840857522343867e+01,-1.874202816639444791e+01,-1.568863833141949726e+01,4.050258020884757570e+01,3.010998145882331301e+01,4.588107966141433280e+01,5.349672546153306030e+01,2.061605261273871292e+01,9.370253562927246094e+00,-1.300361871719360352e+00,-3.824593424797058105e-01,5.420000000000000000e+02
-4.075359740518433682e+01,-1.846664212970244989e+01,-1.426736632857864606e+01,4.308340753726224648e+01,2.944663358600337233e+01,4.754962427263308200e+01,5.437492108428250503e+01,2.287642782987677492e+01,9.370253562927246094e+00,-1.300361871719360352e+00,-3.824593424797058105e-01,5.430000000000000000e+02
-4.139372122839085932e+01,-1.824621791967365425e+01,-1.397810606761231611e+01,4.482637987537418667e+01,2.910958728174591670e+01,4.815114002028349205e+01,5.330736604682078905e+01,2.328180878275452415e+01,9.370253562927246094e+00,-1.300361871719360352e+00,-3.824593424797058105e-01,5.440000000000000000e+02
-4.270741828307291144e+01,-1.835939960587165842e+01,-1.524545838010817533e+01,4.505826524594885996e+01,2.904417579807704897e+01,4.753923609192497679e+01,5.068792232122450514e+01,2.156657241452194285e+01,9.370253562927246094e+00,-1.300361871719360352e+00,-3.824593424797058105e-01,5.450000000000000000e+02
-4.340271212786137767e+01,-1.889919952850868867e+01,-1.776528003674684442e+01,4.394834059741697274e+01,2.907707241628304473e+01,4.630640384219259431e+01,4.774270336774043244e+01,1.853604868019101559e+01,9.370253562927246094e+00,-1.300361871719360352e+00,-3.824593424797058105e-01,5.460000000000000000e+02
-4.288815324882489222e+01,-1.972076764779376390e+01,-2.076036811865742493e+01,4.226363438901898917e+01,2.957898309236043133e+01,4.538007631771870365e+01,4.574787461961113877e+01,1.546629115261202969e+01,9.370253562927246094e+00,-1.300361871719360352e+00,-3.824593424797058105e-01,5.470000000000000000e+02
-4.158588573478664330e+01,-2.061433625860081520e+01,-2.350398394775220368e+01,4.060031930320292304e+01,3.139460326204425655e+01,4.527293515224118892e+01,4.529962788901229942e+01,1.331494234083947958e+01,9.370253562927246094e+00,-1.300361871719360352e+00,-3.824593424797058105e-01,5.480000000000000000e+02
-4.039815231600186962e+01,-2.148119611940819595e+01,-2.561116260345988849e+01,3.892107520790705166e+01,3.508869867100656847e+01,4.569994804979796754e+01,4.620655744391478947e+01,1.240746058363401971e+01,9.370253562927246094e+00,-1.300361871719360352e+00,-3.824593424797058105e-01,5.490000000000000000e+02
-3.987065240144147538e+01,-2.233771001121931477e+01,-2.693032910477450059e+01,3.688421424289481365e+01,4.027889916309868568e+01,4.591998901822807966e+01,4.792457380152791302e+01,1.269393090092853527e+01,9.370253562927246094e+00,-1.300361871719360352e+00,-3.824593424797058105e-01,5.500000000000000000e+02
-3.978970953534371802e+01,-2.320968597804676392e+01,-2.734406950593438523e+01,3.455995175191310409e+01,4.575583977532915014e+01,4.542714629721012898e+01,4.995770990702203562e+01,1.408711560388655926e+01,9.370253562927246094e+00,-1.300361871719360352e+00,-3.824593424797058105e-01,5.510000000000000000e+02
-3.947554039114038460e+01,-2.409650623039669881e+01,-2.682595346091511601e+01,3.266289653823514527e+01,5.030028907129235449e+01,4.429711383125140856e+01,5.184303582309166814e+01,1.641412715212391049e+01,9.370253562927246094e+00,-1.300361871719360352e+00,-3.824593424797058105e-01,5.520000000000000000e+02
-3.837224425831664121e+01,-2.504402284152456559e+01,-2.568281938011932652e+01,3.195063546407982358e+01,5.345644436019028944e+01,4.290888537667160563e+01,5.295241640477797773e+01,1.907596497356280452e+01,9.370253562927246094e+00,-1.300361871719360352e+00,-3.824593424797058105e-01,5.530000000000000000e+02
-3.638647215505443455e+01,-2.616895581732387654e+01,-2.458578800152281474e+01,3.238649867047388398e+01,5.563313920187647454e+01,4.143698797991964966e+01,5.259638484724564478e+01,2.095341532277598162e+01,9.370253562927246094e+00,-1.300361871719360352e+00,-3.824593424797058105e-01,5.540000000000000000e+02
-3.383343837209577032e+01,-2.750872120964413625e+01,-2.420040680168131075e+01,3.299148148487802246e+01,5.755510160780977458e+01,3.968784537829742476e+01,5.054761013232018740e+01,2.090762417920086591e+01,9.370253562927246094e+00,-1.300361871719360352e+00,-3.824593424797058105e-01,5.550000000000000000e+02
-3.127007363567099674e+01,-2.882105107074494299e+01,-2.471487645900378993e+01,3.264517914969292178e+01,5.962642527221032651e+01,3.742032020360602473e+01,4.748569231646433764e+01,1.858572215665662952e+01,9.370253562927246094e+00,-1.300361871719360352e+00,-3.824593424797058105e-01,5.560000000000000000e+02
-2.945106031494469789e+01,-2.963390797664578713e+01,-2.575659687503139139e+01,3.109406770291388966e+01,6.172222428753957502e+01,3.473616839377427823e+01,4.472190620356377622e+01,1.481045478363012080e+01,9.370253562927246094e+00,-1.300361871719360352e+00,-3.824593424797058105e-01,5.570000000000000000e+02
-2.922777408792535425e+01,-2.962306783329768223e+01,-2.679378946742508560e+01,2.917904315743362531e+01,6.345867444595023699e+01,3.209930285750306211e+01,4.324878793641073571e+01,1.114193766780044825e+01,9.370253562927246094e+00,-1.300361871719360352e+00,-3.824593424797058105e-01,5.580000000000000000e+02
-3.108049814998776128e+01,-2.898643990576783835e+01,-2.758841259819382685e+01,2.805353521768665814e+01,6.458896329826166038e+01,3.001091366150649264e+01,4.292651743484566396e+01,8.930092368525947677e+00,9.370253562927246094e+00,-1.300361871719360352e+00,-3.824593424797058105e-01,5.590000000000000000e+02
-3.448497049373690970e+01,-2.840328598877749755e+01,-2.825558699113935290e+01,2.813049818976287497e+01,6.513003489442780847e+01,2.870326763933189795e+01,4.260253497114172205e+01,8.571848419327579904e+00,9.370253562927246094e+00,-1.300361871719360352e+00,-3.824593424797058105e-01,5.600000000000000000e+02
-3.781537645318348950e+01,-2.850618264450349670e+01,-2.893073298228773638e+01,2.876439670114268665e+01,6.517877418767238851e+01,2.814194709874573164e+01,4.116142451540872571e+01,9.483287947276039631e+00,9.370253562927246094e+00,-1.300361871719360352e+00,-3.824593424797058105e-01,5.610000000000000000e+02
-3.922738748658593977e+01,-2.928792109152163903e+01,-2.946860598509738338e+01,2.895912463350759936e+01,6.470982924277996062e+01,2.825840828647415037e+01,3.861625388816173654e+01,1.068563733640985447e+01,9.370253562927246094e+00,-1.300361871719360352e+00,-3.824593424797058105e-01,5.620000000000000000e+02
-3.802186324519607297e+01,-3.001492990156111773e+01,-2.953908216642776097e+01,2.841518500308484363e+01,6.362647992414349574e+01,2.911881800695846323e+01,3.625175545121601317e+01,1.147080576959524478e+01,9.370253562927246094e+00,-1.300361871719360352e+00,-3.824593424797058105e-01,5.630000000000000000e+02
-3.529792900514439680e+01,-2.979077967812736460e+01,-2.900985486832360039e+01,2.791300679405685514e+01,6.200564717223460320e+01,3.085278399307935615e+01,3.565875603621134360e+01,1.167945340978985769e+01,9.370253562927246094e+00,-1.300361871719360352e+00,-3.824593424797058105e-01,5.640000000000000000e+02
-3.314575287965089956e+01,-2.832746414947905578e+01,-2.819477012776224001e+01,2.862641545256155950e+01,6.020269134415866574e+01,3.341548578770380118e+01,3.744945757173263701e+01,1.151006656016397756e+01,9.370253562927246094e+00,-1.300361871719360352e+00,-3.824593424797058105e-01,5.650000000000000000e+02
-3.292720972037568572e+01,-2.625522526411805302e+01,-2.766952100383059587e+01,3.097895763901215105e+01,5.864201144548133016e+01,3.641980571086605778e+01,4.072022106264557806e+01,1.116247342035785550e+01,9.370253562927246094e+00,-1.300361871719360352e+00,-3.824593424797058105e-01,5.660000000000000000e+02
-3.415714823318194249e+01,-2.470286248551929020e+01,-2.779980376630555838e+01,3.408266018139329390e+01,5.752917235672066454e+01,3.919780009603346116e+01,4.367651753314385132e+01,1.066151879488825216e+01,9.446745872497558594e+00,-1.338607788085937500e+00,-3.442134261131286621e-01,5.670000000000000000e+02
-3.505826695661380654e+01,-2.450569891572558845e+01,-2.840514064481249079e+01,3.629381147722961032e+01,5.685964756867178949e+01,4.108538389655950596e+01,4.487119660694588674e+01,9.970981497379398206e+00,9.446745872497558594e+00,-1.338607788085937500e+00,-3.442134261131286621e-01,5.680000000000000000e+02
-3.429561145604384365e+01,-2.566803505727511947e+01,-2.884190505826882145e+01,3.645233644140898832e+01,5.675269697971089045e+01,4.178853225995408138e+01,4.408524190524803998e+01,9.236184525205317186e+00,9.446745872497558594e+00,-1.338607788085937500e+00,-3.442134261131286621e-01,5.690000000000000000e+02
-3.226332649454343482e+01,-2.744151177014282439e+01,-2.842030398592032725e+01,3.476201972504713922e+01,5.766306558239739388e+01,4.158847981337385136e+01,4.226132566114756628e+01,8.878910015526344068e+00,9.446745872497558594e+00,-1.338607788085937500e+00,-3.442134261131286621e-01,5.700000000000000000e+02
-3.068388565429631853e+01,-2.884886726490185538e+01,-2.681729139132585260e+01,3.260590696899089380e+01,6.005532465907890582e+01,4.120631971947659622e+01,4.069201382007486245e+01,9.403861259172117570e+00,9.446745872497558594e+00,-1.338607788085937500e+00,-3.442134261131286621e-01,5.710000000000000000e+02
-3.087636502183522680e+01,-2.919713214237162902e+01,-2.420216937498480547e+01,3.151321470233233413e+01,6.374034625136118848e+01,4.136766062872629846e+01,4.017635954192883219e+01,1.103647583461861359e+01,9.446745872497558594e+00,-1.338607788085937500e+00,-3.442134261131286621e-01,5.720000000000000000e+02
-3.238253075560714933e+01,-2.829331995107713738e+01,-2.107434149074470042e+01,3.215368618150023394e+01,6.759753161630214890e+01,4.232133692163552041e+01,4.070805962542362977e+01,1.345750860076441313e+01,9.446745872497558594e+00,-1.338607788085937500e+00,-3.442134261131286621e-01,5.730000000000000000e+02
-3.332672723871655762e+01,-2.641062637416689540e+01,-1.801636569049878744e+01,3.409079860269412166e+01,7.016303153897024458e+01,4.363233859874526388e+01,4.171351744982530363e+01,1.583251567997285747e+01,9.446745872497558594e+00,-1.338607788085937500e+00,-3.442134261131286621e-01,5.740000000000000000e+02
-3.222321176021432620e+01,-2.418380491429707035e+01,-1.554796527646976756e+01,3.628414289816282690e+01,7.067313478991854936e+01,4.439494897342592594e+01,4.247392143811521237e+01,1.713392747445686837e+01,9.446745872497558594e+00,-1.338607788085937500e+00,-3.442134261131286621e-01,5.750000000000000000e+02
-2.951202920151990838e+01,-2.244383646369897178e+01,-1.407846338998569991e+01,3.779110497062720242e+01,6.960441722567702527e+01,4.375590200357692083e+01,4.241668543140986003e+01,1.659172408634185558e+01,9.446745872497558594e+00,-1.338607788085937500e+00,-3.442134261131286621e-01,5.760000000000000000e+02
-2.730571046505792765e+01,-2.186792337971564848e+01,-1.382487786146884901e+01,3.817709978708080598e+01,6.817261414542372222e+01,4.146287563674195553e+01,4.127166549346111424e+01,1.406963600797098479e+01,9.446745872497558594e+00,-1.338607788085937500e+00,-3.442134261131286621e-01,5.770000000000000000e+02
-2.749662205594358966e+01,-2.249723215903577511e+01,-1.464959881562390365e+01,3.758589718806251767e+01,6.726812775242433418e+01,3.813268492679708288e+01,3.923061872439029685e+01,1.022602804742200533e+01,9.446745872497558594e+00,-1.338607788085937500e+00,-3.442134261131286621e-01,5.780000000000000000e+02
-2.996295470816039597e+01,-2.349830048709191033e+01,-1.596778835126679041e+01,3.666709538759096176e+01,6.684826534495732631e+01,3.505751817473719711e+01,3.706442413450895401e+01,6.380933809952693991e+00,9.446745872497558594e+00,-1.338607788085937500e+00,-3.442134261131286621e-01,5.790000000000000000e+02
-3.258664947803481482e+01,-2.356881745854116161e+01,-1.694367647800754639e+01,3.639089614727345179e+01,6.625020929509992129e+01,3.353430646874403465e+01,3.592484571464228793e+01,4.038680820514855441e+00,9.446745872497558594e+00,-1.338607788085937500e+00,-3.442134261131286621e-01,5.800000000000000000e+02
-3.307524248117988463e+01,-2.186473459080661996e+01,-1.693395269163738703e+01,3.764256770666543161e+01,6.497470222885385738e+01,3.403218125833154772e+01,3.670560543062129000e+01,4.178662813694245415e+00,9.446745872497558594e+00,-1.338607788085937500e+00,-3.442134261131286621e-01,5.810000000000000000e+02
-3.089377531970967539e+01,-1.874250691974521033e+01,-1.584622940726694651e+01,4.065344554869079730e+01,6.312399789593109745e+01,3.576626603582553798e+01,3.928920789701805916e+01,6.667797325302672107e+00,9.446745872497558594e+00,-1.338607788085937500e+00,-3.442134261131286621e-01,5.820000000000000000e+02
-2.754580145025829552e+01,-1.560508325051341671e+01,-1.408635482965473784e+01,4.466082087760878494e+01,6.118069585556804668e+01,3.712017401525008609e+01,4.232513142350398994e+01,1.024052829665743047e+01,9.446745872497558594e+00,-1.338607788085937500e+00,-3.442134261131286621e-01,5.830000000000000000e+02
-2.504230622358227265e+01,-1.386821532296744408e+01,-1.214026572330476483e+01,4.822372519074633601e+01,5.955403279186066356e+01,3.677708988705489901e+01,4.392388429256425297e+01,1.320405599850710132e+01,9.446745872497558594e+00,-1.338607788085937500e+00,-3.442134261131286621e-01,5.840000000000000000e+02
-2.413898412989874487e+01,-1.391876832885100157e+01,-1.021700107378637767e+01,5.010149990693389555e+01,5.840399753896417678e+01,3.473133654783305246e+01,4.289091839572756726e+01,1.445444900943039102e+01,9.446745872497558594e+00,-1.338607788085937500e+00,-3.442134261131286621e-01,5.850000000000000000e+02
-2.404156295215943828e+01,-1.497167849328252487e+01,-8.292393000105221290e+00,5.006151331425644457e+01,5.779477931260771584e+01,3.230271823344446602e+01,3.958857471503870329e+01,1.406470555832493119e+01,9.446745872497558594e+00,-1.338607788085937500e+00,-3.442134261131286621e-01,5.860000000000000000e+02
-2.369158269224135438e+01,-1.589536591859723558e+01,-6.440989393540803576e+00,4.895550387185357977e+01,5.781591334105178248e+01,3.105178771557257278e+01,3.570895117644431593e+01,1.298900987070737756e+01,9.446745872497558594e+00,-1.338607788085937500e+00,-3.442134261131286621e-01,5.870000000000000000e+02
-2.312132245976681588e+01,-1.617857866177291726e+01,-5.014401074837223860e+00,4.800094672332852497e+01,5.843802386004608707e+01,3.146937009272369323e+01,3.310011454726191005e+01,1.214394633083793451e+01,9.446745872497558594e+00,-1.338607788085937500e+00,-3.442134261131286621e-01,5.880000000000000000e+02
-2.336348620674834820e+01,-1.610599975846707821e+01,-4.398912227356049698e+00,4.792134766110393684e+01,5.933075652996558347e+01,3.259575932453662972e+01,3.259724856862885645e+01,1.169489645074281725e+01,9.446745872497558594e+00,-1.338607788085937500e+00,-3.442134261131286621e-01,5.890000000000000000e+02
-2.504137551462918054e+01,-1.607577017454605084e+01,-4.612824509378697257e+00,4.866278556682664203e+01,5.996763608259789180e+01,3.289528490853990661e+01,3.373871407877595630e+01,1.116577636467263801e+01,9.446745872497558594e+00,-1.338607788085937500e+00,-3.442134261131286621e-01,5.900000000000000000e+02
-2.724182170950007276e+01,-1.586540498076647054e+01,-5.203990992617036682e+00,4.983060989491059445e+01,6.003284066766718752e+01,3.160831158705695998e+01,3.545071765265674912e+01,1.021853741012091632e+01,9.446745872497558594e+00,-1.338607788085937500e+00,-3.442134261131286621e-01,5.910000000000000000e+02
