F3,F4,C3,C4,P3,P4,Cz,Pz,Accel_x,Accel_y,Accel_z,Sample
-2.910383045673370361e-11,-2.910383045673370361e-11,-3.637978807091712952e-11,-4.638422979041934013e-11,-4.092726157978177071e-11,-4.183675628155469894e-11,-2.546585164964199066e-11,-6.366462912410497665e-11,9.446745872497558594e+00,-1.376853704452514648e+00,-3.824593424797058105e-01,1.760000000000000000e+02
-1.270399895173613913e+01,-1.073658986736609222e+01,-6.218952128101591370e+00,-7.663236261148995254e+00,-2.759965241095505917e+01,-2.035978988689566904e+01,3.147886743298840884e+00,-7.063975810748161166e+00,9.446745872497558594e+00,-1.376853704452514648e+00,-3.824593424797058105e-01,1.770000000000000000e+02
-2.503033829745618277e+01,-1.955153922489262186e+01,-1.144447790483172867e+01,-1.181790902897864726e+01,-4.790690562738473091e+01,-3.290955643933557440e+01,5.038734458662474935e+00,-1.254612322214143205e+01,9.446745872497558594e+00,-1.376853704452514648e+00,-3.824593424797058105e-01,1.780000000000000000e+02
-3.721559859573335416e+01,-2.643924065858573158e+01,-1.592509626758055674e+01,-1.234150040387703484e+01,-5.952258762772817136e+01,-3.686698774214346486e+01,5.032120996458615991e+00,-1.672636628877535259e+01,9.446745872497558594e+00,-1.376853704452514648e+00,-3.824593424797058105e-01,1.790000000000000000e+02
-4.982898651623509068e+01,-3.319104873655396659e+01,-2.084210612424794817e+01,-1.245782701372536394e+01,-6.717977492648151383e+01,-3.852460759226960363e+01,3.337518577175615064e+00,-2.161032101739965583e+01,9.446745872497558594e+00,-1.376853704452514648e+00,-3.824593424797058105e-01,1.800000000000000000e+02
-6.281016768172776210e+01,-4.139402802074891952e+01,-2.679033886658453412e+01,-1.544295261217484949e+01,-7.653326764786743297e+01,-4.460063930519936548e+01,7.844242597893753555e-01,-2.888579400514117879e+01,9.484992027282714844e+00,-1.338607788085937500e+00,-3.824593424797058105e-01,1.810000000000000000e+02
-7.499986400251236773e+01,-5.068534831734086765e+01,-3.287203866225627280e+01,-2.153329122738796286e+01,-8.903784140097923228e+01,-5.588943062511316384e+01,-1.635974423716106685e+00,-3.802832702973046253e+01,9.484992027282714844e+00,-1.338607788085937500e+00,-3.824593424797058105e-01,1.820000000000000000e+02
-8.492950416960684379e+01,-5.905582848755420855e+01,-3.753289690683686786e+01,-2.804645861695826170e+01,-1.017415019400659730e+02,-6.737476610493013141e+01,-3.155622753119132540e+00,-4.646389852857555525e+01,9.484992027282714844e+00,-1.338607788085937500e+00,-3.824593424797058105e-01,1.830000000000000000e+02
-9.223760449368364789e+01,-6.481851610921876272e+01,-4.020903511928554508e+01,-3.223987538463825331e+01,-1.112961646968615241e+02,-7.392369193404374528e+01,-3.400422248690119886e+00,-5.163802427007613005e+01,9.484992027282714844e+00,-1.338607788085937500e+00,-3.824593424797058105e-01,1.840000000000000000e+02
-9.831702618945564609e+01,-6.820747050102454523e+01,-4.190548594404117466e+01,-3.379141298091235512e+01,-1.174528809434978029e+02,-7.524055085418876843e+01,-2.418166910080799425e+00,-5.303766836429622344e+01,9.484992027282714844e+00,-1.338607788085937500e+00,-3.824593424797058105e-01,1.850000000000000000e+02
-1.054680706735189233e+02,-7.114160534498023480e+01,-4.408872861700456269e+01,-3.461458310426587559e+01,-1.227385872237773583e+02,-7.537288298579733237e+01,-6.695655346138664754e-01,-5.242587479230678582e+01,9.484992027282714844e+00,-1.338607788085937500e+00,-3.824593424797058105e-01,1.860000000000000000e+02
-1.152417352044258223e+02,-7.563465180008552124e+01,-4.719561034475009365e+01,-3.668199982194892073e+01,-1.295198873758554328e+02,-7.819678970636232407e+01,1.050864964201537077e+00,-5.233486577610256063e+01,9.484992027282714844e+00,-1.338607788085937500e+00,-3.824593424797058105e-01,1.870000000000000000e+02
-1.273897219391510589e+02,-8.251245726284469129e+01,-5.043091255689159880e+01,-4.032530998837864900e+01,-1.380213670588982495e+02,-8.406918034724367317e+01,1.861723610481021751e+00,-5.436248579646053258e+01,9.484992027282714844e+00,-1.338607788085937500e+00,-3.824593424797058105e-01,1.880000000000000000e+02
-1.402138764154051387e+02,-9.144762530167463410e+01,-5.297970035959588131e+01,-4.448555433744604670e+01,-1.470146912029276791e+02,-9.069407365960796596e+01,1.178850954260269646e+00,-5.866506645531353570e+01,9.484992027282714844e+00,-1.338607788085937500e+00,-3.824593424797058105e-01,1.890000000000000000e+02
-1.518800551720923977e+02,-1.018050949594771737e+02,-5.516433744620735524e+01,-4.812987123203311057e+01,-1.556717295139878843e+02,-9.638709886612832634e+01,-9.781188409324386157e-01,-6.464620722632571415e+01,9.484992027282714844e+00,-1.338607788085937500e+00,-3.824593424797058105e-01,1.900000000000000000e+02
-1.615882570213670988e+02,-1.131497141145600835e+02,-5.824951269781195151e+01,-5.107486027473169088e+01,-1.642798809774558322e+02,-1.018483235541489194e+02,-3.990932011351105757e+00,-7.179063006817068526e+01,9.484992027282714844e+00,-1.338607788085937500e+00,-3.824593424797058105e-01,1.910000000000000000e+02
-1.698121877973180744e+02,-1.249829044330354009e+02,-6.317522861191628181e+01,-5.346936730315155728e+01,-1.734254244130870575e+02,-1.088806826258924048e+02,-6.982954179058197042e+00,-7.977975612204954814e+01,9.484992027282714844e+00,-1.338607788085937500e+00,-3.824593424797058105e-01,1.920000000000000000e+02
-1.776522767897276935e+02,-1.363036565979100487e+02,-6.959704633651654149e+01,-5.476440196338626265e+01,-1.830636508187863001e+02,-1.179890994119141396e+02,-9.226334443695122900e+00,-8.801391696848986612e+01,9.484992027282714844e+00,-1.338607788085937500e+00,-3.824593424797058105e-01,1.930000000000000000e+02
-1.859466389569597595e+02,-1.457987261891785238e+02,-7.617339586198977486e+01,-5.347566192632257298e+01,-1.925984540823374118e+02,-1.276226027759439603e+02,-1.036110993908823730e+01,-9.535321253043184697e+01,9.484992027282714844e+00,-1.338607788085937500e+00,-3.824593424797058105e-01,1.940000000000000000e+02
-1.947536089704944970e+02,-1.526789983084818232e+02,-8.166546431694860075e+01,-4.812465063282525080e+01,-2.015404654649000804e+02,-1.356249489746787731e+02,-1.036074594778392566e+01,-1.005813090708488744e+02,9.484992027282714844e+00,-1.338607788085937500e+00,-3.824593424797058105e-01,1.950000000000000000e+02
-2.034351534655615978e+02,-1.574041493156510114e+02,-8.570602288048030459e+01,-3.856659529729404312e+01,-2.097127120999348335e+02,-1.411354955362357941e+02,-9.381443275262427051e+00,-1.032351803908750298e+02,9.484992027282714844e+00,-1.338607788085937500e+00,-3.824593424797058105e-01,1.960000000000000000e+02
-2.111948892553018595e+02,-1.615596132292312177e+02,-8.867694541828677757e+01,-2.653674502106059663e+01,-2.168845034230607780e+02,-1.450811577216991282e+02,-7.694950957951277815e+00,-1.040021654173478964e+02,9.484992027282714844e+00,-1.338607788085937500e+00,-3.824593424797058105e-01,1.970000000000000000e+02
-2.176969826745962564e+02,-1.668706466085568536e+02,-9.110638456451761158e+01,-1.479923156108543481e+01,-2.225942995480363606e+02,-1.490796107388032397e+02,-5.723512324654166150e+00,-1.042476048504468054e+02,9.484992027282714844e+00,-1.338607788085937500e+00,-3.824593424797058105e-01,1.980000000000000000e+02
-2.233838234519862453e+02,-1.740871199624707515e+02,-9.332833800824300852e+01,-5.340058448270610825e+00,-2.265866094634775436e+02,-1.540373250780248782e+02,-4.051242411071598326e+00,-1.050595556888156352e+02,9.484992027282714844e+00,-1.338607788085937500e+00,-3.824593424797058105e-01,1.990000000000000000e+02
-2.292780975675159425e+02,-1.825851234484880479e+02,-9.561405647118317574e+01,2.139039629912076634e+00,-2.293008880873640010e+02,-1.596574761695001143e+02,-3.288216655966152757e+00,-1.066642733044764100e+02,9.484992027282714844e+00,-1.338607788085937500e+00,-3.824593424797058105e-01,2.000000000000000000e+02
-2.363814938363630063e+02,-1.909835292396201112e+02,-9.838875440335868916e+01,1.018801132635508111e+01,-2.316764972067339841e+02,-1.650172659682248195e+02,-3.822377234650048194e+00,-1.086962998359085759e+02,9.484992027282714844e+00,-1.338607788085937500e+00,-3.824593424797058105e-01,2.010000000000000000e+02
-2.450394209374653656e+02,-1.982832718677727826e+02,-1.021334848416508976e+02,2.181603226423794695e+01,-2.344169125001735665e+02,-1.695204192141573003e+02,-5.616691683997942164e+00,-1.109692400504045509e+02,9.484992027282714844e+00,-1.338607788085937500e+00,-3.824593424797058105e-01,2.020000000000000000e+02
-2.546439147754126680e+02,-2.046231175602697476e+02,-1.069798576783487079e+02,3.817637965874018846e+01,-2.375587189425868928e+02,-1.734183260066520234e+02,-8.161263150794184185e+00,-1.138841172482407273e+02,9.484992027282714844e+00,-1.338607788085937500e+00,-3.824593424797058105e-01,2.030000000000000000e+02
-2.638418013847331167e+02,-2.110247886815277525e+02,-1.123608263446594719e+02,5.758748035758071637e+01,-2.407955028048590975e+02,-1.775563413830977879e+02,-1.058346795387069506e+01,-1.179792681089820690e+02,9.484992027282714844e+00,-1.338607788085937500e+00,-3.824593424797058105e-01,2.040000000000000000e+02
-2.711647660177459329e+02,-2.183074464958767749e+02,-1.170831621333518342e+02,7.675576588993590121e+01,-2.440770098413349842e+02,-1.826160200975809857e+02,-1.189548768993108752e+01,-1.230726493503816528e+02,9.484992027282714844e+00,-1.338607788085937500e+00,-3.824593424797058105e-01,2.050000000000000000e+02
-2.758201492784373841e+02,-2.261064711907320088e+02,-1.198847427216605865e+02,9.317055843428261142e+01,-2.477172446175773075e+02,-1.884991973196729305e+02,-1.133818183572793714e+01,-1.279841076277070897e+02,9.484992027282714844e+00,-1.338607788085937500e+00,-3.824593424797058105e-01,2.060000000000000000e+02
-2.782687497881261152e+02,-2.329315794046051451e+02,-1.202032869106415092e+02,1.065924866173590999e+02,-2.519362261727246732e+02,-1.944083569594404253e+02,-8.751702794846096367e+00,-1.313299099685309557e+02,9.484992027282714844e+00,-1.338607788085937500e+00,-3.824593424797058105e-01,2.070000000000000000e+02
-2.801909308708300159e+02,-2.373192141040494789e+02,-1.186631393602274329e+02,1.184810004597729858e+02,-2.564665043998084002e+02,-1.995748535697166517e+02,-4.806508873713482899e+00,-1.327670809039727828e+02,9.484992027282714844e+00,-1.376853704452514648e+00,-4.589512646198272705e-01,2.080000000000000000e+02
-2.836708680355568504e+02,-2.391307450232661722e+02,-1.168650861149126285e+02,1.301956849423877429e+02,-2.607291406742524487e+02,-2.039507831048758817e+02,-8.691207206543367647e-01,-1.334771724468455432e+02,9.484992027282714844e+00,-1.376853704452514648e+00,-4.589512646198272705e-01,2.090000000000000000e+02
-2.899303688550180595e+02,-2.398228473308499815e+02,-1.164662186525147263e+02,1.418722551638784353e+02,-2.643480518555643357e+02,-2.081544738460006556e+02,1.611685367793597834e+00,-1.352722347427861678e+02,9.484992027282714844e+00,-1.376853704452514648e+00,-4.589512646198272705e-01,2.100000000000000000e+02
-2.984435231382731217e+02,-2.414010418572338494e+02,-1.180888496656411917e+02,1.529355288380729689e+02,-2.673935365517409082e+02,-2.126857148447170403e+02,1.941444598948692146e+00,-1.390372657253101352e+02,9.484992027282714844e+00,-1.376853704452514648e+00,-4.589512646198272705e-01,2.110000000000000000e+02
-3.071875372453832824e+02,-2.449697892997860436e+02,-1.208656683741373854e+02,1.633677378497623067e+02,-2.701276862773138419e+02,-2.172151422433562402e+02,6.703286667270731414e-01,-1.439263771199575785e+02,9.484992027282714844e+00,-1.376853704452514648e+00,-4.589512646198272705e-01,2.120000000000000000e+02
-3.139818265186968347e+02,-2.501053144498378060e+02,-1.230494992937410643e+02,1.741455594891076544e+02,-2.726088484077490648e+02,-2.207148763025334119e+02,-6.889515959542222845e-01,-1.480421409079417572e+02,9.484992027282714844e+00,-1.376853704452514648e+00,-4.589512646198272705e-01,2.130000000000000000e+02
-3.179912705358929088e+02,-2.554800096678668524e+02,-1.233053716543067821e+02,1.863300216785073644e+02,-2.746263789963213640e+02,-2.223485087144563295e+02,-6.457219396311302262e-01,-1.499665133093503755e+02,9.484992027282714844e+00,-1.376853704452514648e+00,-4.589512646198272705e-01,2.140000000000000000e+02
-3.202541176745312441e+02,-2.600571432167625971e+02,-1.217243732746451315e+02,1.998546060646176556e+02,-2.760151482545197723e+02,-2.222690641464978398e+02,1.204925359865228529e+00,-1.497951938049445744e+02,9.484992027282714844e+00,-1.376853704452514648e+00,-4.589512646198272705e-01,2.150000000000000000e+02
-3.228222474412168594e+02,-2.637655721381233889e+02,-1.197773131738431402e+02,2.133957494235482955e+02,-2.769889691432754262e+02,-2.215705230730718540e+02,3.823752475666879036e+00,-1.488867231008298404e+02,9.484992027282714844e+00,-1.376853704452514648e+00,-4.589512646198272705e-01,2.160000000000000000e+02
-3.272226504527416182e+02,-2.671887967293705515e+02,-1.192419923743145773e+02,2.255217309178724463e+02,-2.781555658723373199e+02,-2.214647104281830252e+02,5.402356451964351436e+00,-1.487538979224018476e+02,9.484992027282714844e+00,-1.376853704452514648e+00,-4.589512646198272705e-01,2.170000000000000000e+02
-3.334348058119776397e+02,-2.707527322493183419e+02,-1.209392705945369926e+02,2.359611650014057886e+02,-2.802078825637627233e+02,-2.224496211544728794e+02,4.627632430111589201e+00,-1.501634241614242455e+02,9.484992027282714844e+00,-1.376853704452514648e+00,-4.589512646198272705e-01,2.180000000000000000e+02
-3.400752008739018493e+02,-2.742866124942870556e+02,-1.242360415190328240e+02,2.457349013641114652e+02,-2.835572037798656311e+02,-2.241425136728485086e+02,1.610177918319095625e+00,-1.530546753129688113e+02,9.484992027282714844e+00,-1.376853704452514648e+00,-4.589512646198272705e-01,2.190000000000000000e+02
-3.455141889998453735e+02,-2.773534004893808742e+02,-1.276422818044111409e+02,2.560639313954329737e+02,-2.881421006432237846e+02,-2.257717828076001751e+02,-2.210844261561305757e+00,-1.569728247244279373e+02,9.484992027282714844e+00,-1.376853704452514648e+00,-4.589512646198272705e-01,2.200000000000000000e+02
-3.490058895570005006e+02,-2.799205780777342625e+02,-1.299567437903970131e+02,2.671584347920656910e+02,-2.934430575049032086e+02,-2.267757532988634921e+02,-5.083140523001929978e+00,-1.613413351258805051e+02,9.484992027282714844e+00,-1.376853704452514648e+00,-4.589512646198272705e-01,2.210000000000000000e+02
-3.510718609449909309e+02,-2.826396867762164220e+02,-1.310428217531530208e+02,2.779752834685250491e+02,-2.986646084634862746e+02,-2.270546314375606016e+02,-6.090235012720768282e+00,-1.653812327549326255e+02,9.484992027282714844e+00,-1.376853704452514648e+00,-4.589512646198272705e-01,2.220000000000000000e+02
-3.530413494676790833e+02,-2.864083097084144356e+02,-1.316871791398680216e+02,2.870395878846684354e+02,-3.030360088204870408e+02,-2.268545294398900296e+02,-5.606987818841389526e+00,-1.681196136290645882e+02,9.484992027282714844e+00,-1.376853704452514648e+00,-4.589512646198272705e-01,2.230000000000000000e+02
-3.561982611146158888e+02,-2.915693615033428614e+02,-1.327692178324377892e+02,2.935322295501950975e+02,-3.061130931700245128e+02,-2.265175201399233629e+02,-4.847845064497050771e+00,-1.689114495630392412e+02,9.484992027282714844e+00,-1.376853704452514648e+00,-4.589512646198272705e-01,2.240000000000000000e+02
-3.611153360382404571e+02,-2.974657410697300293e+02,-1.345075450999688655e+02,2.977626879053814264e+02,-3.079595947142538535e+02,-2.263193207971835363e+02,-4.982260193641195656e+00,-1.682060414583652346e+02,9.484992027282714844e+00,-1.376853704452514648e+00,-4.589512646198272705e-01,2.250000000000000000e+02
-3.674943834330388199e+02,-3.027698438880584035e+02,-1.364070769735599242e+02,3.007976766683491405e+02,-3.091378338108293065e+02,-2.264701570531660764e+02,-6.479477690842941229e+00,-1.677232981236415981e+02,9.484992027282714844e+00,-1.376853704452514648e+00,-4.589512646198272705e-01,2.260000000000000000e+02
-3.744737169053810248e+02,-3.063521860907230803e+02,-1.378409637744839529e+02,3.036954299883373096e+02,-3.104829598254991652e+02,-2.272086005343094257e+02,-8.996347802495620272e+00,-1.695142214167613020e+02,9.484992027282714844e+00,-1.376853704452514648e+00,-4.589512646198272705e-01,2.270000000000000000e+02
-3.811132879651368057e+02,-3.079939082822643286e+02,-1.385961334980434003e+02,3.069868841625816458e+02,-3.126745002330153511e+02,-2.288227409643050123e+02,-1.162688268292595239e+01,-1.743635548106872193e+02,9.484992027282714844e+00,-1.376853704452514648e+00,-4.589512646198272705e-01,2.280000000000000000e+02
-3.867462620577593952e+02,-3.084146074537998174e+02,-1.388561324396105192e+02,3.106946638691192675e+02,-3.157671968532145002e+02,-2.314761230561084631e+02,-1.326251082812405002e+01,-1.808103227311999035e+02,9.484992027282714844e+00,-1.376853704452514648e+00,-4.589512646198272705e-01,2.290000000000000000e+02
-3.910878515062713632e+02,-3.086957296776713520e+02,-1.387826500372952978e+02,3.146712559790253181e+02,-3.190567562204078058e+02,-2.349344620231249792e+02,-1.302442185258723839e+01,-1.858371185442174465e+02,9.484992027282714844e+00,-1.376853704452514648e+00,-4.589512646198272705e-01,2.300000000000000000e+02
-3.941738166308314248e+02,-3.096302474527192317e+02,-1.383111916850334637e+02,3.188382565780107143e+02,-3.215765746062534163e+02,-2.384862580003664334e+02,-1.076583018097517197e+01,-1.869590651548332971e+02,9.484992027282714844e+00,-1.376853704452514648e+00,-4.589512646198272705e-01,2.310000000000000000e+02
-3.962294953789210012e+02,-3.114582881436972457e+02,-1.374617240621073506e+02,3.231596775998368685e+02,-3.229960055260539775e+02,-2.412488747664515358e+02,-7.371556908632555860e+00,-1.841281245543027580e+02,9.484992027282714844e+00,-1.376853704452514648e+00,-4.589512646198272705e-01,2.320000000000000000e+02
-3.975488545156777036e+02,-3.140168094339687741e+02,-1.367434809667079207e+02,3.275368572513916661e+02,-3.241372721604034268e+02,-2.426886204055658709e+02,-4.456160264575373731e+00,-1.798457148185284495e+02,9.484992027282714844e+00,-1.376853704452514648e+00,-4.589512646198272705e-01,2.330000000000000000e+02
-3.984185791807285568e+02,-3.169839679305246136e+02,-1.369952741864262862e+02,3.318887008777251140e+02,-3.264543215986595897e+02,-2.429092903306109292e+02,-3.429502890949152061e+00,-1.772967452899133605e+02,9.484992027282714844e+00,-1.376853704452514648e+00,-4.589512646198272705e-01,2.340000000000000000e+02
-3.990897144336872771e+02,-3.199809200109266385e+02,-1.386030076025131166e+02,3.363741493789248125e+02,-3.307426622510047309e+02,-2.424580920711764520e+02,-4.514706228528211795e+00,-1.779991110834071151e+02,9.484992027282714844e+00,-1.376853704452514648e+00,-4.589512646198272705e-01,2.350000000000000000e+02
-3.998190589980122240e+02,-3.226207711840816046e+02,-1.408836573365356344e+02,3.413839359494772907e+02,-3.362746873699275056e+02,-2.419003007882802194e+02,-6.569638485205132383e+00,-1.809389795306642554e+02,9.484992027282714844e+00,-1.376853704452514648e+00,-4.589512646198272705e-01,2.360000000000000000e+02
-4.009380046550058978e+02,-3.246804392791577811e+02,-1.424290383877259956e+02,3.470865409827547410e+02,-3.413161496358543445e+02,-2.416068961631499405e+02,-7.982494959107725663e+00,-1.838293157689854525e+02,9.484992027282714844e+00,-1.376853704452514648e+00,-4.589512646198272705e-01,2.370000000000000000e+02
-4.028005830592760503e+02,-3.263286758168133019e+02,-1.422415243080922664e+02,3.528736906457061195e+02,-3.446322224256350637e+02,-2.418587521743133948e+02,-7.915927003589558808e+00,-1.851864574130740948e+02,9.484992027282714844e+00,-1.376853704452514648e+00,-4.589512646198272705e-01,2.380000000000000000e+02
-4.055344344756190367e+02,-3.281122375135774973e+02,-1.405740596786890819e+02,3.573897992282970790e+02,-3.464910401293044515e+02,-2.428944915722070164e+02,-6.797867871510220539e+00,-1.852520625444707321e+02,9.446745872497558594e+00,-1.300361871719360352e+00,-4.589512646198272705e-01,2.390000000000000000e+02
-4.087717107062643436e+02,-3.305465526435842776e+02,-1.386263306482544522e+02,3.593930918594405739e+02,-3.481327272087100937e+02,-2.446004936863882904e+02,-5.678531774913381014e+00,-1.850658434062906963e+02,9.446745872497558594e+00,-1.300361871719360352e+00,-4.589512646198272705e-01,2.400000000000000000e+02
-4.116904629977649392e+02,-3.335936142920701286e+02,-1.374166171176918851e+02,3.588282837337590081e+02,-3.502900114464559920e+02,-2.461376919161148180e+02,-5.180300270478028324e+00,-1.849126704375852341e+02,9.446745872497558594e+00,-1.300361871719360352e+00,-4.589512646198272705e-01,2.410000000000000000e+02
-4.134973600869913071e+02,-3.365432324499812466e+02,-1.369953133172818980e+02,3.570886008421553015e+02,-3.523936201477127952e+02,-2.461369931578738033e+02,-5.103467191458207708e+00,-1.839450061172865389e+02,9.446745872497558594e+00,-1.300361871719360352e+00,-4.589512646198272705e-01,2.420000000000000000e+02
-4.140217598204285423e+02,-3.384842471239753650e+02,-1.367608912193082915e+02,3.560637846959648414e+02,-3.533480657192598073e+02,-2.436294141897765257e+02,-4.968102080013750310e+00,-1.814053220397764790e+02,9.446745872497558594e+00,-1.300361871719360352e+00,-4.589512646198272705e-01,2.430000000000000000e+02
-4.138500564342090229e+02,-3.389789547195390469e+02,-1.363867008270117367e+02,3.567326358142215668e+02,-3.529785518768618431e+02,-2.389781897735083476e+02,-4.714524514664049093e+00,-1.780009664537511753e+02,9.446745872497558594e+00,-1.300361871719360352e+00,-4.589512646198272705e-01,2.440000000000000000e+02
-4.137761375125573977e+02,-3.383656556370813178e+02,-1.362263761340525434e+02,3.585453934876295534e+02,-3.524714641239743287e+02,-2.338539366217012230e+02,-4.670332470735388597e+00,-1.757175798768090544e+02,9.446745872497558594e+00,-1.300361871719360352e+00,-4.589512646198272705e-01,2.450000000000000000e+02
-4.140365635676241709e+02,-3.374642050831146207e+02,-1.367381456269383762e+02,3.601308778016741599e+02,-3.532367028331050278e+02,-2.301133713533636183e+02,-4.817126995059425099e+00,-1.760170909632123539e+02,9.446745872497558594e+00,-1.300361871719360352e+00,-4.589512646198272705e-01,2.460000000000000000e+02
-4.141088293881201707e+02,-3.369717576999606194e+02,-1.376374870409775895e+02,3.606380381473375110e+02,-3.553642446423872343e+02,-2.285131778801767268e+02,-4.310995249863481149e+00,-1.782204944921994638e+02,9.446745872497558594e+00,-1.300361871719360352e+00,-4.589512646198272705e-01,2.470000000000000000e+02
-4.133761085458891102e+02,-3.370595592758549515e+02,-1.378503877016198658e+02,3.604549233337561418e+02,-3.573568382490383328e+02,-2.283979376954303007e+02,-2.054751374162037791e+00,-1.798959825299306203e+02,9.446745872497558594e+00,-1.300361871719360352e+00,-4.589512646198272705e-01,2.480000000000000000e+02
-4.120697578455091161e+02,-3.374252368122734538e+02,-1.364352666843418547e+02,3.607176748057172517e+02,-3.574663406884698134e+02,-2.285428511181476097e+02,2.088948122343481373e+00,-1.790574535556742148e+02,9.446745872497558594e+00,-1.300361871719360352e+00,-4.589512646198272705e-01,2.490000000000000000e+02
-4.115104893916255833e+02,-3.376576151277768076e+02,-1.335250668695869081e+02,3.621744813066468396e+02,-3.552887832535553798e+02,-2.282483114171736815e+02,6.730009932499342540e+00,-1.760405918437534183e+02,9.446745872497558594e+00,-1.300361871719360352e+00,-4.589512646198272705e-01,2.500000000000000000e+02
-4.133014787098306897e+02,-3.376191571274499665e+02,-1.303131584317701481e+02,3.644549375444247516e+02,-3.520777714809394183e+02,-2.276861320204520780e+02,9.802895766946676304e+00,-1.731680040838209607e+02,9.446745872497558594e+00,-1.300361871719360352e+00,-4.589512646198272705e-01,2.510000000000000000e+02
-4.181224371621901810e+02,-3.376011923856573276e+02,-1.280935161449752968e+02,3.663215706394946665e+02,-3.495839053702095498e+02,-2.273493114870861973e+02,1.021424009576401204e+01,-1.724980058885334984e+02,9.446745872497558594e+00,-1.300361871719360352e+00,-4.589512646198272705e-01,2.520000000000000000e+02
-4.251606123653529039e+02,-3.381563524465664159e+02,-1.273242418164689980e+02,3.665938313392103964e+02,-3.486494477483345236e+02,-2.273299145519022204e+02,8.763359637224994003e+00,-1.738649081791496656e+02,9.446745872497558594e+00,-1.300361871719360352e+00,-4.589512646198272705e-01,2.530000000000000000e+02
-4.326162833579249423e+02,-3.396732203020353609e+02,-1.276038404690824564e+02,3.649347872243711208e+02,-3.488577517193793938e+02,-2.272017719280361234e+02,7.409181402313492981e+00,-1.751340767790866266e+02,9.446745872497558594e+00,-1.300361871719360352e+00,-4.589512646198272705e-01,2.540000000000000000e+02
-4.387564689406915477e+02,-3.419407449291155103e+02,-1.284479460184701338e+02,3.619280405803491476e+02,-3.493650110494418186e+02,-2.265664986144827253e+02,7.526305149064342004e+00,-1.743863550593933951e+02,9.446745872497558594e+00,-1.300361871719360352e+00,-4.589512646198272705e-01,2.550000000000000000e+02
-4.426031501389934988e+02,-3.440870751019078284e+02,-1.299625321938636944e+02,3.584895019817779485e+02,-3.499322695213145380e+02,-2.256487744449813135e+02,8.737984580781812838e+00,-1.718837467304373376e+02,9.446745872497558594e+00,-1.300361871719360352e+00,-4.589512646198272705e-01,2.560000000000000000e+02
-4.438826959025667520e+02,-3.451076837731700948e+02,-1.327058041041849492e+02,3.551485168125165046e+02,-3.511423719806857662e+02,-2.253185505679729204e+02,9.318519997039174996e+00,-1.699495353385634644e+02,9.446745872497558594e+00,-1.300361871719360352e+00,-4.589512646198272705e-01,2.570000000000000000e+02
-4.426883612477645897e+02,-3.446955502378435767e+02,-1.369293169099561283e+02,3.517660277042257349e+02,-3.536878268872837907e+02,-2.264846337071322750e+02,7.704668112157719406e+00,-1.709492049013327915e+02,9.446745872497558594e+00,-1.300361871719360352e+00,-4.589512646198272705e-01,2.580000000000000000e+02
-4.394541593678861773e+02,-3.436618184901325890e+02,-1.420057718869592236e+02,3.478874871018938393e+02,-3.574755991834680344e+02,-2.293364818588323715e+02,3.746689347947040005e+00,-1.752740947452726914e+02,9.446745872497558594e+00,-1.300361871719360352e+00,-4.589512646198272705e-01,2.590000000000000000e+02
-4.352329673331049662e+02,-3.434249587952540992e+02,-1.466219276905296738e+02,3.433917593724901280e+02,-3.613944350605830778e+02,-2.330259956400320789e+02,-1.252478507504974914e+00,-1.810500082361901377e+02,9.446745872497558594e+00,-1.338607788085937500e+00,-4.207052886486053467e-01,2.600000000000000000e+02
-4.316765839733808434e+02,-3.448490845947009689e+02,-1.495556677190008941e+02,3.388280390217394142e+02,-3.639845464034516453e+02,-2.360654661274212458e+02,-5.493696729171460902e+00,-1.856012410958638839e+02,9.446745872497558594e+00,-1.338607788085937500e+00,-4.207052886486053467e-01,2.610000000000000000e+02
-4.303077188505968707e+02,-3.473973766774565775e+02,-1.503369158513070261e+02,3.350767370329907635e+02,-3.644788168048246462e+02,-2.372019156134658715e+02,-7.704506584426326299e+00,-1.872265010611060916e+02,9.446745872497558594e+00,-1.338607788085937500e+00,-4.207052886486053467e-01,2.620000000000000000e+02
-4.314669512593156355e+02,-3.494370398573403236e+02,-1.492854118199952609e+02,3.325805402145203971e+02,-3.633472679745107143e+02,-2.361808431051179014e+02,-7.567604616325866118e+00,-1.858901741127359628e+02,9.446745872497558594e+00,-1.338607788085937500e+00,-4.207052886486053467e-01,2.630000000000000000e+02
-4.338610419202526600e+02,-3.495564322517507208e+02,-1.470461387440980161e+02,3.308471680552881935e+02,-3.618520708034893687e+02,-2.338782165782482707e+02,-5.606589581740877293e+00,-1.826633512291999750e+02,9.446745872497558594e+00,-1.338607788085937500e+00,-4.207052886486053467e-01,2.640000000000000000e+02
-4.352829893182323531e+02,-3.478017706564103264e+02,-1.441453820026803214e+02,3.287543274870591858e+02,-3.609520767901307181e+02,-2.317234915523262089e+02,-2.895798038834414001e+00,-1.787742478748496069e+02,9.446745872497558594e+00,-1.338607788085937500e+00,-4.207052886486053467e-01,2.650000000000000000e+02
-4.340829680514237339e+02,-3.457292642765123105e+02,-1.409312484652879220e+02,3.254744981929454752e+02,-3.605047568275133472e+02,-2.308478771856041476e+02,-7.065773326039561653e-01,-1.750955988271730348e+02,9.446745872497558594e+00,-1.338607788085937500e+00,-4.207052886486053467e-01,2.660000000000000000e+02
-4.302082620840253639e+02,-3.451556608238186072e+02,-1.377577423335753792e+02,3.212306820344952030e+02,-3.594757348947686069e+02,-2.315139844532719735e+02,5.877397799145001045e-02,-1.721362766172787815e+02,9.446745872497558594e+00,-1.338607788085937500e+00,-4.207052886486053467e-01,2.670000000000000000e+02
-4.249817800668849372e+02,-3.466186268842243408e+02,-1.350105432239957963e+02,3.171996894468773007e+02,-3.569656221939897023e+02,-2.330756600144438835e+02,-4.663699939865182387e-01,-1.700964227952721330e+02,9.446745872497558594e+00,-1.338607788085937500e+00,-4.207052886486053467e-01,2.680000000000000000e+02
-4.199467410303403767e+02,-3.488288738261453545e+02,-1.328572571855736442e+02,3.146236498885841684e+02,-3.531168304934545858e+02,-2.343444430393515177e+02,-9.559744166743939786e-01,-1.687981042378188477e+02,9.446745872497558594e+00,-1.338607788085937500e+00,-4.207052886486053467e-01,2.690000000000000000e+02
-4.158772257947056801e+02,-3.495868783111238258e+02,-1.310538042524917728e+02,3.138685106296042022e+02,-3.490830507429481031e+02,-2.341362943985830043e+02,2.505192656021790754e-01,-1.677452337515326235e+02,9.446745872497558594e+00,-1.338607788085937500e+00,-4.207052886486053467e-01,2.700000000000000000e+02
-4.127698227690423778e+02,-3.474481962964067634e+02,-1.291799754567681475e+02,3.141795076120399699e+02,-3.461361466522581622e+02,-2.318560690782643405e+02,3.680345731160059586e+00,-1.665180149155826257e+02,9.446745872497558594e+00,-1.338607788085937500e+00,-4.207052886486053467e-01,2.710000000000000000e+02
-4.105899130763752964e+02,-3.428353980547863102e+02,-1.271992614683493912e+02,3.142600084633097595e+02,-3.447683127499568627e+02,-2.279677548440229202e+02,7.885984422102865210e+00,-1.652297697687274649e+02,9.446745872497558594e+00,-1.338607788085937500e+00,-4.207052886486053467e-01,2.720000000000000000e+02
-4.098012424145412638e+02,-3.377358914805350310e+02,-1.257311416449744002e+02,3.131751433612796518e+02,-3.445570539292634749e+02,-2.240102747897448126e+02,1.023770135420352290e+01,-1.644668141777419805e+02,9.446745872497558594e+00,-1.338607788085937500e+00,-4.207052886486053467e-01,2.730000000000000000e+02
-4.110054572642375206e+02,-3.342438001121591356e+02,-1.255824469424001109e+02,3.109098448391517877e+02,-3.447504236411516558e+02,-2.218575815628934151e+02,8.975027370067778065e+00,-1.645685263570146617e+02,9.446745872497558594e+00,-1.338607788085937500e+00,-4.207052886486053467e-01,2.740000000000000000e+02
-4.139944938764623430e+02,-3.331085471323469847e+02,-1.268513689760053467e+02,3.082318959532235567e+02,-3.449083688917797872e+02,-2.224855202102695557e+02,4.829311484326126447e+00,-1.649005650951081634e+02,9.446745872497558594e+00,-1.338607788085937500e+00,-4.207052886486053467e-01,2.750000000000000000e+02
-4.171877318141409887e+02,-3.334026719645583512e+02,-1.284701659980166824e+02,3.060177855335657569e+02,-3.450455237691976436e+02,-2.251560914101728486e+02,7.129508958511223682e-01,-1.639778826563274379e+02,9.446745872497558594e+00,-1.338607788085937500e+00,-4.207052886486053467e-01,2.760000000000000000e+02
-4.181573170747014387e+02,-3.334995123231345246e+02,-1.287597634381675107e+02,3.045337785532883572e+02,-3.453121426107524030e+02,-2.278363329895382776e+02,-4.082245598923464058e-01,-1.605557863024969265e+02,9.446745872497558594e+00,-1.338607788085937500e+00,-4.207052886486053467e-01,2.770000000000000000e+02
-4.150203460204896260e+02,-3.324776485907543702e+02,-1.266411704092263335e+02,3.031787851095862152e+02,-3.456581634522462991e+02,-2.286672317546940576e+02,2.276024568446246121e+00,-1.548110603623709949e+02,9.446745872497558594e+00,-1.338607788085937500e+00,-4.207052886486053467e-01,2.780000000000000000e+02
-4.077372588765210821e+02,-3.307414879076300736e+02,-1.224722364230601670e+02,3.009092738189192460e+02,-3.457791632759706317e+02,-2.272509084361080340e+02,6.951595825128265460e+00,-1.484973916922714352e+02,9.446745872497558594e+00,-1.338607788085937500e+00,-4.207052886486053467e-01,2.790000000000000000e+02
-3.983879308437344093e+02,-3.293651411146241799e+02,-1.178148295313791323e+02,2.970732663439442831e+02,-3.453046752115803883e+02,-2.246141405069614621e+02,1.072279139651197966e+01,-1.438185512400768857e+02,9.446745872497558594e+00,-1.338607788085937500e+00,-4.207052886486053467e-01,2.800000000000000000e+02
-3.901878933773101608e+02,-3.288169408818504849e+02,-1.144087221422428229e+02,2.920256651421212837e+02,-3.440518628212788599e+02,-2.219740648177750018e+02,1.175109114705912816e+01,-1.419349500250891651e+02,9.446745872497558594e+00,-1.338607788085937500e+00,-4.207052886486053467e-01,2.810000000000000000e+02
-3.857970314357553434e+02,-3.282999598428023660e+02,-1.132303684216756210e+02,2.870014305609157645e+02,-3.421917089598365465e+02,-2.195935647647612541e+02,1.026750128477556245e+01,-1.423228323488037859e+02,9.446745872497558594e+00,-1.338607788085937500e+00,-4.207052886486053467e-01,2.820000000000000000e+02
-3.858823556495514708e+02,-3.263772218252413495e+02,-1.142438130432726666e+02,2.832929880384484704e+02,-3.402276191945696837e+02,-2.168582307413407761e+02,7.927296471689487589e+00,-1.434050513546366119e+02,9.446745872497558594e+00,-1.338607788085937500e+00,-4.207052886486053467e-01,2.830000000000000000e+02
-3.887804034879214328e+02,-3.223606560719361482e+02,-1.167131256114236066e+02,2.813659077137483564e+02,-3.387188519541251708e+02,-2.133619199679974372e+02,6.375275165222433316e+00,-1.437896071735141277e+02,9.446745872497558594e+00,-1.338607788085937500e+00,-4.207052886486053467e-01,2.840000000000000000e+02
-3.915461010500270618e+02,-3.172107234989853168e+02,-1.196341799129176025e+02,2.805792250467231952e+02,-3.378770847961426398e+02,-2.097531012435650837e+02,6.230405366192258043e+00,-1.431042857696182864e+02,9.484992027282714844e+00,-1.338607788085937500e+00,-3.824593424797058105e-01,2.850000000000000000e+02
-3.918078453362957134e+02,-3.130607773302692181e+02,-1.220623190775181683e+02,2.796766249127107358e+02,-3.373833640321647636e+02,-2.074239216644303951e+02,7.010943790733563219e+00,-1.419656691446035666e+02,9.484992027282714844e+00,-1.338607788085937500e+00,-3.824593424797058105e-01,2.860000000000000000e+02
-3.892095711520090049e+02,-3.116766379757559662e+02,-1.234156645406975485e+02,2.775952754095404771e+02,-3.366816174100066519e+02,-2.073855946802534618e+02,7.668222983791451952e+00,-1.413663758465265801e+02,9.484992027282714844e+00,-1.338607788085937500e+00,-3.824593424797058105e-01,2.870000000000000000e+02
-3.853877591809617797e+02,-3.131160105053704683e+02,-1.237488424930680821e+02,2.739638744013922178e+02,-3.355683180173169831e+02,-2.094850487339407437e+02,7.184141012043937735e+00,-1.420293814176449132e+02,9.484992027282714844e+00,-1.338607788085937500e+00,-3.824593424797058105e-01,2.880000000000000000e+02
-3.824760179214952132e+02,-3.157202588251856810e+02,-1.237208946943957244e+02,2.690655080167308597e+02,-3.344992521206534093e+02,-2.126535419948188519e+02,5.000024844167569427e+00,-1.440403067915768816e+02,9.484992027282714844e+00,-1.338607788085937500e+00,-3.824593424797058105e-01,2.890000000000000000e+02
-3.813466269593102425e+02,-3.174534824065697194e+02,-1.240846625552774185e+02,2.634931599470116907e+02,-3.342160838748939113e+02,-2.157683318085811379e+02,1.311365069316593690e+00,-1.467814399316378058e+02,9.484992027282714844e+00,-1.338607788085937500e+00,-3.824593424797058105e-01,2.900000000000000000e+02
-3.810750990546176808e+02,-3.174538530207656208e+02,-1.250211713750505851e+02,2.578383700531635441e+02,-3.349944713422057703e+02,-2.182077834928669517e+02,-2.852473486477038023e+00,-1.491577348537642820e+02,9.484992027282714844e+00,-1.338607788085937500e+00,-3.824593424797058105e-01,2.910000000000000000e+02
-3.800154507531306081e+02,-3.164772396725381896e+02,-1.259416252982020978e+02,2.525582029282193162e+02,-3.362548388982745564e+02,-2.197017978088498467e+02,-5.963160932088612753e+00,-1.501041241496151315e+02,9.484992027282714844e+00,-1.338607788085937500e+00,-3.824593424797058105e-01,2.920000000000000000e+02
-3.774090408852631526e+02,-3.158730105472350260e+02,-1.260081714109576296e+02,2.479684344157097939e+02,-3.369372993166203969e+02,-2.199094769575127657e+02,-6.723197544655249658e+00,-1.491731866179682129e+02,9.484992027282714844e+00,-1.338607788085937500e+00,-3.824593424797058105e-01,2.930000000000000000e+02
-3.740245511050832192e+02,-3.160134762594575477e+02,-1.248811763259192276e+02,2.442878835068372609e+02,-3.362506631764471194e+02,-2.183615710522785776e+02,-4.775454812594944087e+00,-1.467970792575041514e+02,9.484992027282714844e+00,-1.338607788085937500e+00,-3.824593424797058105e-01,2.940000000000000000e+02
-3.713365665722417361e+02,-3.156396433988273884e+02,-1.229485967077650912e+02,2.416848433625001462e+02,-3.340650064288010981e+02,-2.148883127082390274e+02,-8.886499181264753133e-01,-1.439581054324178240e+02,9.484992027282714844e+00,-1.338607788085937500e+00,-3.824593424797058105e-01,2.950000000000000000e+02
-3.701600945727188900e+02,-3.128193002559821707e+02,-1.208414975837691827e+02,2.402718411657864408e+02,-3.306816578441611227e+02,-2.100658940111045467e+02,3.507841577277872602e+00,-1.414717477925324829e+02,9.484992027282714844e+00,-1.338607788085937500e+00,-3.824593424797058105e-01,2.960000000000000000e+02
-3.700518177878132065e+02,-3.067412111965511485e+02,-1.187912834391005390e+02,2.400148721999918280e+02,-3.264014074182337026e+02,-2.051503902784670572e+02,7.085113077681057803e+00,-1.394770576948687903e+02,9.484992027282714844e+00,-1.338607788085937500e+00,-3.824593424797058105e-01,2.970000000000000000e+02
-3.698703895203909724e+02,-2.987472502170649022e+02,-1.165304127251602040e+02,2.405911126322494056e+02,-3.214568446381621243e+02,-2.014557160479682807e+02,9.148837681090810747e+00,-1.375709425212577344e+02,9.484992027282714844e+00,-1.338607788085937500e+00,-3.824593424797058105e-01,2.980000000000000000e+02
-3.687126967980868812e+02,-2.916022435573331677e+02,-1.137975812822129456e+02,2.413487909234216886e+02,-3.163002776089890631e+02,-1.996116241574353580e+02,9.722783656259139207e+00,-1.353884124525905008e+02,9.484992027282714844e+00,-1.338607788085937500e+00,-3.824593424797058105e-01,2.990000000000000000e+02
-3.663218290579076211e+02,-2.875613262720198691e+02,-1.108646594250045609e+02,2.415038249715912571e+02,-3.117553695292166367e+02,-1.992400610496172249e+02,9.329083486775346046e+00,-1.330214933688641850e+02,9.484992027282714844e+00,-1.338607788085937500e+00,-3.824593424797058105e-01,3.000000000000000000e+02
-3.628902501752907028e+02,-2.868646724591512793e+02,-1.084914444642324725e+02,2.405057341059160763e+02,-3.086856677843837815e+02,-1.992680510891525500e+02,8.725308718261487684e+00,-1.308830005432618009e+02,9.484992027282714844e+00,-1.338607788085937500e+00,-3.824593424797058105e-01,3.010000000000000000e+02
-3.588154317614330466e+02,-2.878742788784403501e+02,-1.073116801127541748e+02,2.383292246392861671e+02,-3.074004562746099509e+02,-1.986278523896992283e+02,8.696215769915284000e+00,-1.292176876961825656e+02,9.484992027282714844e+00,-1.338607788085937500e+00,-3.824593424797058105e-01,3.020000000000000000e+02
-3.547211937853960535e+02,-2.885774464988753607e+02,-1.072306796991900910e+02,2.354583427646255132e+02,-3.073531911882474787e+02,-1.968464625568758493e+02,9.828225199389066802e+00,-1.278184068690599133e+02,9.484992027282714844e+00,-1.338607788085937500e+00,-3.824593424797058105e-01,3.030000000000000000e+02
-3.513994292599345499e+02,-2.880039049322763276e+02,-1.073737451058057104e+02,2.325644562044420809e+02,-3.073930746457176610e+02,-1.941350951081451512e+02,1.225577364008859149e+01,-1.262355504866982301e+02,9.484992027282714844e+00,-1.338607788085937500e+00,-3.824593424797058105e-01,3.040000000000000000e+02
-3.493126645388376801e+02,-2.864047519243945317e+02,-1.066694195611104305e+02,2.300857865220115173e+02,-3.063945633990153965e+02,-1.910174553607541839e+02,1.547964558662533818e+01,-1.242600018650314269e+02,9.484992027282714844e+00,-1.338607788085937500e+00,-3.824593424797058105e-01,3.050000000000000000e+02
-3.479974545914216151e+02,-2.843717794011722617e+02,-1.046557196983604854e+02,2.279598122335387416e+02,-3.038641872829331305e+02,-1.879100263686276548e+02,1.842819054032497661e+01,-1.222037723647678149e+02,9.484992027282714844e+00,-1.338607788085937500e+00,-3.824593424797058105e-01,3.060000000000000000e+02
-3.461801656332753510e+02,-2.820345288418520795e+02,-1.019334642132415638e+02,2.256843475304476669e+02,-3.001982857152260067e+02,-1.850148206147166547e+02,1.986276257809390700e+01,-1.207321764543614790e+02,9.484992027282714844e+00,-1.338607788085937500e+00,-3.824593424797058105e-01,3.070000000000000000e+02
-3.428453635465682510e+02,-2.791581945275214593e+02,-9.989492317595579607e+01,2.226856659229870274e+02,-2.964776253824697960e+02,-1.825041776605058885e+02,1.905422495347977474e+01,-1.204004899841525003e+02,9.484992027282714844e+00,-1.338607788085937500e+00,-3.824593424797058105e-01,3.080000000000000000e+02
-3.383476719621664870e+02,-2.758292203464732211e+02,-9.977708060509678489e+01,2.187862568364217850e+02,-2.938459026515465666e+02,-1.806324262578581283e+02,1.641888404327528406e+01,-1.212235744410987763e+02,9.484992027282714844e+00,-1.338607788085937500e+00,-3.824593424797058105e-01,3.090000000000000000e+02
-3.343562890942214381e+02,-2.727716456761115751e+02,-1.016301985958042451e+02,2.144159014000688330e+02,-2.927730245693876441e+02,-1.795512450778163611e+02,1.360465658810664991e+01,-1.225581695861445723e+02,9.484992027282714844e+00,-1.338607788085937500e+00,-3.824593424797058105e-01,3.100000000000000000e+02
-3.324652519077656052e+02,-2.708376993732351821e+02,-1.040137362582538572e+02,2.103209990290096130e+02,-2.927039605426723483e+02,-1.790489280831143333e+02,1.271929023438758577e+01,-1.233816671272654730e+02,9.484992027282714844e+00,-1.338607788085937500e+00,-3.824593424797058105e-01,3.110000000000000000e+02
-3.326896119390512467e+02,-2.702009463642318678e+02,-1.048275992473738825e+02,2.069388028334363980e+02,-2.924299326406240880e+02,-1.786104710859062834e+02,1.498468032352889168e+01,-1.228303815954253650e+02,9.446745872497558594e+00,-1.300361871719360352e+00,-3.442134261131286621e-01,3.120000000000000000e+02
-3.333429670065220307e+02,-2.701578664150144959e+02,-1.028405510359993968e+02,2.039700296966454971e+02,-2.909875110064482442e+02,-1.778710633576015425e+02,1.965764340473049288e+01,-1.207506341322564367e+02,9.446745872497558594e+00,-1.300361871719360352e+00,-3.442134261131286621e-01,3.130000000000000000e+02
-3.324892395077285983e+02,-2.697635911901531927e+02,-9.875017222138239958e+01,2.006336274351888278e+02,-2.883633351796231636e+02,-1.769995534141987719e+02,2.416809181779797200e+01,-1.179171241837734669e+02,9.446745872497558594e+00,-1.300361871719360352e+00,-3.442134261131286621e-01,3.140000000000000000e+02
-3.296094989046779347e+02,-2.686464776893374165e+02,-9.481279957126480440e+01,1.964719651092405002e+02,-2.854053082116707856e+02,-1.765306445899204846e+02,2.565108719092006595e+01,-1.156744059517726555e+02,9.446745872497558594e+00,-1.300361871719360352e+00,-3.442134261131286621e-01,3.150000000000000000e+02
-3.259573129518155383e+02,-2.672187669772172285e+02,-9.322722089047101690e+01,1.919213549790752040e+02,-2.830959339131536581e+02,-1.767576207362258174e+02,2.287505254771406271e+01,-1.151517936774514510e+02,9.446745872497558594e+00,-1.300361871719360352e+00,-3.442134261131286621e-01,3.160000000000000000e+02
-3.233672490400726929e+02,-2.661575057155644117e+02,-9.455104634720976264e+01,1.879797892347482957e+02,-2.819304072787813311e+02,-1.773266398631330958e+02,1.709368179022339973e+01,-1.165805510162053906e+02,9.446745872497558594e+00,-1.300361871719360352e+00,-3.442134261131286621e-01,3.170000000000000000e+02
-3.226985233385194078e+02,-2.657377378088416435e+02,-9.745108960821630717e+01,1.851820663321481106e+02,-2.819212271657092970e+02,-1.775084856447042512e+02,1.112141584454377607e+01,-1.192217732580818392e+02,9.446745872497558594e+00,-1.300361871719360352e+00,-3.442134261131286621e-01,3.180000000000000000e+02
-3.232878031791310605e+02,-2.656498856727398561e+02,-9.993303203923539968e+01,1.828861281219539023e+02,-2.829696065597818233e+02,-1.768831189979764531e+02,7.379352491580789319e+00,-1.219461078666408866e+02,9.446745872497558594e+00,-1.300361871719360352e+00,-3.442134261131286621e-01,3.190000000000000000e+02
-3.237062708642988582e+02,-2.653548013639706369e+02,-1.009341617780039542e+02,1.796901834370577262e+02,-2.849753540232027262e+02,-1.757014978501770202e+02,6.486157202475055783e+00,-1.239528636307120451e+02,9.446745872497558594e+00,-1.300361871719360352e+00,-3.442134261131286621e-01,3.200000000000000000e+02
-3.229659883860115315e+02,-2.645167156039169640e+02,-1.009136141374787030e+02,1.747153748382293088e+02,-2.874975469366031575e+02,-1.745347964948459776e+02,7.427503297554153505e+00,-1.250071420956228394e+02,9.446745872497558594e+00,-1.300361871719360352e+00,-3.442134261131286621e-01,3.210000000000000000e+02
-3.211110040985126943e+02,-2.630832904553810749e+02,-1.010499941373557249e+02,1.685785883263163214e+02,-2.894719935125151551e+02,-1.735934410903291791e+02,8.903951229552944824e+00,-1.250773707324560746e+02,9.446745872497558594e+00,-1.300361871719360352e+00,-3.442134261131286621e-01,3.220000000000000000e+02
-3.188809406286286503e+02,-2.610480055122661724e+02,-1.019212500319841865e+02,1.630875637445246866e+02,-2.895850456992179716e+02,-1.724526956278541547e+02,1.048416907693683697e+01,-1.238775380481079083e+02,9.446745872497558594e+00,-1.300361871719360352e+00,-3.442134261131286621e-01,3.230000000000000000e+02
-3.169436664956069762e+02,-2.582704939770238752e+02,-1.029190300021484745e+02,1.598634070955795323e+02,-2.871635112224380464e+02,-1.704784407292684136e+02,1.256342524525268800e+01,-1.209296677350409936e+02,9.446745872497558594e+00,-1.300361871719360352e+00,-3.442134261131286621e-01,3.240000000000000000e+02
-3.153827517581382835e+02,-2.546111985364857446e+02,-1.028559147685919015e+02,1.590811189596342956e+02,-2.827574851476033473e+02,-1.675067572601026313e+02,1.540295681410327688e+01,-1.161801045452980361e+02,9.446745872497558594e+00,-1.300361871719360352e+00,-3.442134261131286621e-01,3.250000000000000000e+02
-3.137448100736039578e+02,-2.502594734439069271e+02,-1.011115093742255340e+02,1.593672137419757746e+02,-2.777919019209325597e+02,-1.641077909337441270e+02,1.840526082362498528e+01,-1.105370514150399686e+02,9.446745872497558594e+00,-1.300361871719360352e+00,-3.442134261131286621e-01,3.260000000000000000e+02
-3.114593631556631408e+02,-2.458977518833225986e+02,-9.823616871862441258e+01,1.588466158988335337e+02,-2.735514548861378898e+02,-1.612177267016020323e+02,2.042405904914357961e+01,-1.056550856164290053e+02,9.446745872497558594e+00,-1.300361871719360352e+00,-3.442134261131286621e-01,3.270000000000000000e+02
-3.082482330102916421e+02,-2.424552743820113392e+02,-9.549608142565330127e+01,1.564141913101911996e+02,-2.704188787316561502e+02,-1.595187844235420016e+02,2.078978557862888010e+01,-1.029741273366955738e+02,9.446745872497558594e+00,-1.300361871719360352e+00,-3.442134261131286621e-01,3.280000000000000000e+02
-3.042680446352835588e+02,-2.405454542090064933e+02,-9.383493433732701305e+01,1.522983164316333387e+02,-2.680057911629180580e+02,-1.590941603968094569e+02,1.999122662568129272e+01,-1.027754152207380685e+02,9.446745872497558594e+00,-1.300361871719360352e+00,-3.442134261131286621e-01,3.290000000000000000e+02
-2.999863795295768796e+02,-2.399809829097739566e+02,-9.322375086556849055e+01,1.476874442180528604e+02,-2.659138361075256398e+02,-1.595371497984078815e+02,1.930867308142615002e+01,-1.040818457466534710e+02,9.446745872497558594e+00,-1.300361871719360352e+00,-3.442134261131286621e-01,3.300000000000000000e+02
-2.959550221589668126e+02,-2.397793395355981829e+02,-9.293380591786080913e+01,1.438766544145012176e+02,-2.642892876023472581e+02,-1.603070365483185924e+02,1.973663173802754045e+01,-1.054900708972008943e+02,9.446745872497558594e+00,-1.300361871719360352e+00,-3.442134261131286621e-01,3.310000000000000000e+02
-2.926225503757177648e+02,-2.387452889037849673e+02,-9.235779957273803120e+01,1.415692433959234222e+02,-2.636118875159427262e+02,-1.609937118880784510e+02,2.122153140866794274e+01,-1.061607180936143777e+02,9.446745872497558594e+00,-1.300361871719360352e+00,-3.442134261131286621e-01,3.320000000000000000e+02
-2.902230201812078576e+02,-2.362914334229096767e+02,-9.153672679305736892e+01,1.406699800351889280e+02,-2.639721204932711771e+02,-1.613513845403749656e+02,2.287083542660207058e+01,-1.061212602420082476e+02,9.446745872497558594e+00,-1.300361871719360352e+00,-3.442134261131286621e-01,3.330000000000000000e+02
-2.886715890093767030e+02,-2.329144906564681605e+02,-9.091458934877482534e+01,1.405107611515404642e+02,-2.646032918819591941e+02,-1.611920754092125208e+02,2.384265623543319634e+01,-1.057687126929604347e+02,9.446745872497558594e+00,-1.300361871719360352e+00,-3.442134261131286621e-01,3.340000000000000000e+02
-2.874702373032550895e+02,-2.299321598016415464e+02,-9.070780130962180010e+01,1.402209133710689457e+02,-2.642185876924911554e+02,-1.603257624389184457e+02,2.401551946760730516e+01,-1.052697044057567837e+02,9.446745872497558594e+00,-1.300361871719360352e+00,-3.442134261131286621e-01,3.350000000000000000e+02
-2.857686884485228802e+02,-2.286153508862830677e+02,-9.065035484995701154e+01,1.390086468687609340e+02,-2.619467754545173648e+02,-1.586468702211957407e+02,2.384601529475708048e+01,-1.045458464271719095e+02,9.446745872497558594e+00,-1.300361871719360352e+00,-3.442134261131286621e-01,3.360000000000000000e+02
-2.827120033995734047e+02,-2.293120274850271016e+02,-9.038856551716230570e+01,1.363184274096183799e+02,-2.580459990182594083e+02,-1.562721952817223610e+02,2.369283526072661061e+01,-1.037407528754119994e+02,9.446745872497558594e+00,-1.300361871719360352e+00,-3.442134261131286621e-01,3.370000000000000000e+02
-2.779932674235469676e+02,-2.311885610525600896e+02,-9.001832051355950171e+01,1.319525191769962476e+02,-2.537274052028826645e+02,-1.535517565630789250e+02,2.338642702130732687e+01,-1.034449068312699183e+02,9.446745872497558594e+00,-1.300361871719360352e+00,-3.442134261131286621e-01,3.380000000000000000e+02
-2.721934895789354414e+02,-2.327452370128162329e+02,-9.004865029039137880e+01,1.262194217709015902e+02,-2.501902382483920064e+02,-1.508465445760484727e+02,2.251100243291523384e+01,-1.042135555657350778e+02,9.446745872497558594e+00,-1.300361871719360352e+00,-3.442134261131286621e-01,3.390000000000000000e+02
-2.664894522904837686e+02,-2.327170837420364933e+02,-9.075654539160314016e+01,1.199752838934068677e+02,-2.477298166313394177e+02,-1.482170757217800201e+02,2.106012000642249404e+01,-1.058170719423449100e+02,9.446745872497558594e+00,-1.300361871719360352e+00,-3.442134261131286621e-01,3.400000000000000000e+02
-2.618448177256279905e+02,-2.307497884272415831e+02,-9.169244822460677824e+01,1.143089488739947228e+02,-2.457731175015219378e+02,-1.453676815468738823e+02,1.969386500738994528e+01,-1.071537703787996634e+02,9.446745872497558594e+00,-1.300361871719360352e+00,-3.442134261131286621e-01,3.410000000000000000e+02
-2.583455048549424191e+02,-2.274364748422963203e+02,-9.200966436702674400e+01,1.098963607625908026e+02,-2.438019277953446817e+02,-1.420042692589786384e+02,1.924886445592778728e+01,-1.071334074658655027e+02,9.446745872497558594e+00,-1.300361871719360352e+00,-3.442134261131286621e-01,3.420000000000000000e+02
-2.553046951678377354e+02,-2.237771690512968235e+02,-9.135597753437332358e+01,1.064953646440324064e+02,-2.421818121888545647e+02,-1.383090352302529027e+02,1.995711194292039181e+01,-1.057091204996982015e+02,9.446745872497558594e+00,-1.300361871719360352e+00,-3.824593424797058105e-01,3.430000000000000000e+02
-2.520795526265251283e+02,-2.204932953278353125e+02,-9.032403958326767679e+01,1.031377855486821318e+02,-2.419258723858608846e+02,-1.350092984213404179e+02,2.117376490271817602e+01,-1.039272130470310458e+02,9.446745872497558594e+00,-1.300361871719360352e+00,-3.824593424797058105e-01,3.440000000000000000e+02
-2.488432171609933903e+02,-2.176724593260400979e+02,-8.985566415496873560e+01,9.902540669904465176e+01,-2.435261210891133032e+02,-1.328550565538948831e+02,2.192092176488324640e+01,-1.028413153770941335e+02,9.446745872497558594e+00,-1.300361871719360352e+00,-3.824593424797058105e-01,3.450000000000000000e+02
-2.465434663676708169e+02,-2.149392310710447873e+02,-9.016773649655988265e+01,9.438294703553765430e+01,-2.460643062117821955e+02,-1.319368887550394902e+02,2.174467076752671346e+01,-1.023996137822971377e+02,9.446745872497558594e+00,-1.300361871719360352e+00,-3.824593424797058105e-01,3.460000000000000000e+02
-2.460190569667543059e+02,-2.119347674094665308e+02,-9.037601171706751302e+01,9.041601899802049047e+01,-2.476436342408298970e+02,-1.315081380446135881e+02,2.109150363945536810e+01,-1.015100185338933443e+02,9.446745872497558594e+00,-1.300361871719360352e+00,-3.824593424797058105e-01,3.470000000000000000e+02
-2.471005205863370975e+02,-2.086996157705063979e+02,-8.933326464551646495e+01,8.827123980367878175e+01,-2.468828950150841592e+02,-1.305564356171189502e+02,2.086439884939090916e+01,-9.927164930247545271e+01,9.446745872497558594e+00,-1.300361871719360352e+00,-3.824593424797058105e-01,3.480000000000000000e+02
-2.485823162827559827e+02,-2.056714062941487100e+02,-8.688643456650356711e+01,8.789965786075845244e+01,-2.440670783599882725e+02,-1.286410360416066396e+02,2.159135652526310878e+01,-9.607501888994625006e+01,9.446745872497558594e+00,-1.300361871719360352e+00,-3.824593424797058105e-01,3.490000000000000000e+02
-2.491149824101075865e+02,-2.033270426230453722e+02,-8.422806813294346284e+01,8.792342696226796761e+01,-2.408315280009014714e+02,-1.262548120933752216e+02,2.298279687388958337e+01,-9.335052928352888557e+01,9.446745872497558594e+00,-1.300361871719360352e+00,-3.824593424797058105e-01,3.500000000000000000e+02
-2.482080367444918920e+02,-2.017965901046952695e+02,-8.291842505868658009e+01,8.667170010138738689e+01,-2.387160901507165818e+02,-1.244315517319967057e+02,2.422066157426479549e+01,-9.219096071913463675e+01,9.446745872497558594e+00,-1.300361871719360352e+00,-3.824593424797058105e-01,3.510000000000000000e+02
-2.464554466186491481e+02,-2.007830397988805089e+02,-8.351016137328542754e+01,8.342341392895787067e+01,-2.379995478763839856e+02,-1.239874042364376692e+02,2.463509561354180732e+01,-9.229758265411760476e+01,9.446745872497558594e+00,-1.300361871719360352e+00,-3.824593424797058105e-01,3.520000000000000000e+02
-2.448638899693455642e+02,-1.998192605120102598e+02,-8.511046849533181557e+01,7.875064271162659679e+01,-2.378163448187124231e+02,-1.250029007628845648e+02,2.413254497517345953e+01,-9.235517836211738540e+01,9.446745872497558594e+00,-1.300361871719360352e+00,-3.824593424797058105e-01,3.530000000000000000e+02
-2.439899236616049620e+02,-1.985955508253023254e+02,-8.625774243546356956e+01,7.379890151080189753e+01,-2.372081736887430452e+02,-1.268039759842199601e+02,2.307157526139735637e+01,-9.141297213353482221e+01,9.446745872497558594e+00,-1.300361871719360352e+00,-3.824593424797058105e-01,3.540000000000000000e+02
-2.436550364973641081e+02,-1.970819214438818108e+02,-8.622802423004486627e+01,6.933990170762263006e+01,-2.359692125237900200e+02,-1.282986405030223978e+02,2.182430915701888807e+01,-8.981139840045989331e+01,9.446745872497558594e+00,-1.300361871719360352e+00,-3.824593424797058105e-01,3.550000000000000000e+02
-2.433397617222697136e+02,-1.954203813322728820e+02,-8.556738531470932685e+01,6.548528387943315465e+01,-2.346227053845034334e+02,-1.284502116492035384e+02,2.048593322404349237e+01,-8.875029714559445893e+01,9.446745872497558594e+00,-1.300361871719360352e+00,-3.824593424797058105e-01,3.560000000000000000e+02
-2.427175353366415038e+02,-1.937615763720534687e+02,-8.546265371095023511e+01,6.212888578399224571e+01,-2.338388952311906905e+02,-1.267413419292734034e+02,1.899364874464208697e+01,-8.905090677051430248e+01,9.446745872497558594e+00,-1.300361871719360352e+00,-3.824593424797058105e-01,3.570000000000000000e+02
-2.417925498023798809e+02,-1.921972438889872592e+02,-8.663450889191040005e+01,5.941116089604747685e+01,-2.339777130779189065e+02,-1.234752527906412070e+02,1.747710052698403160e+01,-9.044163248546601608e+01,9.446745872497558594e+00,-1.300361871719360352e+00,-3.824593424797058105e-01,3.580000000000000000e+02
-2.406265747889160593e+02,-1.907757158956533203e+02,-8.871938944775320124e+01,5.763797127372481555e+01,-2.349894625259221357e+02,-1.196759948797371180e+02,1.643857045988897880e+01,-9.199907158608129976e+01,9.446745872497558594e+00,-1.300361871719360352e+00,-3.824593424797058105e-01,3.590000000000000000e+02
-2.391127574756449121e+02,-1.895040182819491292e+02,-9.054089868542905606e+01,5.682894989991336843e+01,-2.364279489964992536e+02,-1.164995008650744239e+02,1.652847709378329455e+01,-9.308125711555976523e+01,9.446745872497558594e+00,-1.300361871719360352e+00,-3.824593424797058105e-01,3.600000000000000000e+02
-2.371233673846606962e+02,-1.883268402343633170e+02,-9.093980034783567135e+01,5.649907389904342381e+01,-2.374696087998247549e+02,-1.145020989223385186e+02,1.802530845456158204e+01,-9.369707709192334733e+01,9.446745872497558594e+00,-1.300361871719360352e+00,-3.824593424797058105e-01,3.610000000000000000e+02
-2.348044675343257950e+02,-1.871406939129556122e+02,-8.949498223929094820e+01,5.597951285509316222e+01,-2.371660856126475210e+02,-1.133669892165798956e+02,2.044441714978756863e+01,-9.405001825362614909e+01,9.446745872497558594e+00,-1.300361871719360352e+00,-3.824593424797058105e-01,3.620000000000000000e+02
-2.325602154723076183e+02,-1.858641383150493311e+02,-8.668003126647136014e+01,5.493436271660493730e+01,-2.350303187075001006e+02,-1.123632347559369009e+02,2.267260465979393302e+01,-9.396397799246165050e+01,9.446745872497558594e+00,-1.300361871719360352e+00,-3.824593424797058105e-01,3.630000000000000000e+02
-2.306246848535733989e+02,-1.844733814906646785e+02,-8.344214468819586727e+01,5.351884002217411762e+01,-2.315180586743904314e+02,-1.111156083730302271e+02,2.365890222280086164e+01,-9.294247999660865389e+01,9.484992027282714844e+00,-1.338607788085937500e+00,-3.824593424797058105e-01,3.640000000000000000e+02
-2.286878881555055614e+02,-1.829474603300693616e+02,-8.055757690620521316e+01,5.203542299808464122e+01,-2.278308610598191990e+02,-1.099397631509568782e+02,2.321423960777246975e+01,-9.077972840345023542e+01,9.484992027282714844e+00,-1.338607788085937500e+00,-3.824593424797058105e-01,3.650000000000000000e+02
-2.261179778792618436e+02,-1.812096943748797457e+02,-7.824567261952006447e+01,5.049190522698404493e+01,-2.250922970739106859e+02,-1.094522808948031525e+02,2.226337419809078710e+01,-8.799032188288765610e+01,9.484992027282714844e+00,-1.338607788085937500e+00,-3.824593424797058105e-01,3.660000000000000000e+02
-2.227023371901868813e+02,-1.791841425414183959e+02,-7.631498410680751476e+01,4.855833329729716752e+01,-2.236625901276879631e+02,-1.099092001675503525e+02,2.222455692747416833e+01,-8.555606584504766943e+01,9.484992027282714844e+00,-1.338607788085937500e+00,-3.824593424797058105e-01,3.670000000000000000e+02
-2.191658708463098719e+02,-1.769603917590429774e+02,-7.468115225682277014e+01,4.595366188626303483e+01,-2.232382090309124578e+02,-1.109739261687595899e+02,2.388274655912869093e+01,-8.426701680746282364e+01,9.484992027282714844e+00,-1.338607788085937500e+00,-3.824593424797058105e-01,3.680000000000000000e+02
-2.167865753494961609e+02,-1.748659205340275093e+02,-7.373305119999577073e+01,4.283536198701222020e+01,-2.234735736419529530e+02,-1.120862466110083915e+02,2.663682693015198311e+01,-8.431704534815116858e+01,9.484992027282714844e+00,-1.338607788085937500e+00,-3.824593424797058105e-01,3.690000000000000000e+02
-2.162902911691699046e+02,-1.732661862477366412e+02,-7.410014956263285058e+01,3.977706690593686290e+01,-2.242710165782591503e+02,-1.129488419830549901e+02,2.882820601542789518e+01,-8.540664693428198007e+01,9.484992027282714844e+00,-1.338607788085937500e+00,-3.824593424797058105e-01,3.700000000000000000e+02
-2.170167485192864660e+02,-1.722106623728775503e+02,-7.594281153172823906e+01,3.735161903741436618e+01,-2.253812778445053482e+02,-1.136026550228548331e+02,2.900781850831003794e+01,-8.700527750964874940e+01,9.484992027282714844e+00,-1.338607788085937500e+00,-3.824593424797058105e-01,3.710000000000000000e+02
-2.172312012378556574e+02,-1.712828061604457162e+02,-7.840935297791975245e+01,3.576706493963865796e+01,-2.259319752828200762e+02,-1.140863665952401789e+02,2.717435585725957026e+01,-8.839153961151851036e+01,9.484992027282714844e+00,-1.338607788085937500e+00,-3.824593424797058105e-01,3.720000000000000000e+02
-2.154453120264811332e+02,-1.698783980079729190e+02,-7.987914316687215432e+01,3.493951864646260219e+01,-2.247235814785153707e+02,-1.141659259988191479e+02,2.495568244889568632e+01,-8.858705337309720562e+01,9.484992027282714844e+00,-1.338607788085937500e+00,-3.824593424797058105e-01,3.730000000000000000e+02
-2.115863554932493571e+02,-1.676860564741252801e+02,-7.894026708145338489e+01,3.489339041282346443e+01,-2.212053593978980643e+02,-1.134877102169521095e+02,2.453064417431460242e+01,-8.661752766511699519e+01,9.484992027282714844e+00,-1.338607788085937500e+00,-3.824593424797058105e-01,3.740000000000000000e+02
-2.069302802164525019e+02,-1.649174284245307263e+02,-7.535947474263275581e+01,3.596195306227218680e+01,-2.160882266231992617e+02,-1.119782005511701755e+02,2.709177609717971791e+01,-8.219297984829790948e+01,9.484992027282714844e+00,-1.338607788085937500e+00,-3.824593424797058105e-01,3.750000000000000000e+02
-2.028609737738938747e+02,-1.620633120273239456e+02,-7.027325734945566182e+01,3.841678772339400894e+01,-2.107915814453021994e+02,-1.100245819884157754e+02,3.201390256340710039e+01,-7.626374910524236839e+01,9.484992027282714844e+00,-1.338607788085937500e+00,-3.824593424797058105e-01,3.760000000000000000e+02
-1.996387530068445813e+02,-1.594132435580893343e+02,-6.545597410733103061e+01,4.182073980693576232e+01,-2.061773171373097284e+02,-1.081923424451033497e+02,3.729606461135858808e+01,-7.076503654837097201e+01,9.484992027282714844e+00,-1.338607788085937500e+00,-3.824593424797058105e-01,3.770000000000000000e+02
-1.963723516224504237e+02,-1.568205295116079014e+02,-6.227369584598454821e+01,4.482229114412893978e+01,-2.019236169434952899e+02,-1.067517597886667318e+02,4.082490721222029606e+01,-6.754527927961680689e+01,9.484992027282714844e+00,-1.338607788085937500e+00,-3.824593424797058105e-01,3.780000000000000000e+02
-1.922271664081204108e+02,-1.539334864349887084e+02,-6.109753533036973749e+01,4.582619433635545647e+01,-1.972580054169993673e+02,-1.054850482817591910e+02,4.147523835770948608e+01,-6.727490739833137923e+01,9.484992027282714844e+00,-1.338607788085937500e+00,-3.824593424797058105e-01,3.790000000000000000e+02
-1.876435910652016901e+02,-1.506344816537061888e+02,-6.145102632238626938e+01,4.413118704576754681e+01,-1.922584922885089327e+02,-1.039658777043191549e+02,3.941517116522527431e+01,-6.918891298268454193e+01,9.484992027282714844e+00,-1.338607788085937500e+00,-3.824593424797058105e-01,3.800000000000000000e+02
-1.842489203093387005e+02,-1.472446443156766236e+02,-6.257031267792672224e+01,4.053585553010361764e+01,-1.882352901053832284e+02,-1.020405705320458765e+02,3.572193205237135771e+01,-7.177706967081894618e+01,9.484992027282714844e+00,-1.338607788085937500e+00,-3.824593424797058105e-01,3.810000000000000000e+02
-1.833857997784666622e+02,-1.443174289813748601e+02,-6.383510890534785176e+01,3.678916714319166203e+01,-1.866102903965111182e+02,-1.000235550307747872e+02,3.182802196516149706e+01,-7.371571680056513287e+01,9.484992027282714844e+00,-1.338607788085937500e+00,-3.824593424797058105e-01,3.820000000000000000e+02
-1.845808446062783332e+02,-1.422482309896972765e+02,-6.482005881115310331e+01,3.431016668201255015e+01,-1.873367976334147897e+02,-9.836971190266103804e+01,2.913762360313444333e+01,-7.428626694757531368e+01,9.484992027282714844e+00,-1.338607788085937500e+00,-3.824593424797058105e-01,3.830000000000000000e+02
-1.855187784079780613e+02,-1.410534079759913766e+02,-6.515690709316618268e+01,3.329390937203561407e+01,-1.885032156664724425e+02,-9.708708337076132011e+01,2.873495578654978999e+01,-7.321230407670736895e+01,9.484992027282714844e+00,-1.338607788085937500e+00,-3.824593424797058105e-01,3.840000000000000000e+02
-1.837965265529132921e+02,-1.404437227918392637e+02,-6.452876086785613552e+01,3.290623281482658058e+01,-1.877030380028636500e+02,-9.546881553832281497e+01,3.099654515091901885e+01,-7.045348728968156138e+01,9.484992027282714844e+00,-1.338607788085937500e+00,-3.824593424797058105e-01,3.850000000000000000e+02
-1.790130354111593078e+02,-1.400207790194192512e+02,-6.288221228432621501e+01,3.221475875039050152e+01,-1.840481666032214889e+02,-9.251037948723569571e+01,3.524276662901775126e+01,-6.634762259072158486e+01,9.484992027282714844e+00,-1.338607788085937500e+00,-3.824593424797058105e-01,3.860000000000000000e+02
-1.732471497620317678e+02,-1.393624403825506306e+02,-6.061638139827027771e+01,3.089613473169038116e+01,-1.790216057654183714e+02,-8.775547619884218875e+01,3.985641371869382965e+01,-6.183104933799359060e+01,9.484992027282714844e+00,-1.338607788085937500e+00,-3.824593424797058105e-01,3.870000000000000000e+02
-1.693272360274763741e+02,-1.380000179835378731e+02,-5.844321527408737893e+01,2.917572746331325106e+01,-1.753954371550194082e+02,-8.184073915244471209e+01,4.308651617192754202e+01,-5.816913187349837244e+01,9.484992027282714844e+00,-1.338607788085937500e+00,-3.824593424797058105e-01,3.880000000000000000e+02
-1.683622860683753970e+02,-1.355117434807359587e+02,-5.692987123709917796e+01,2.734964697324539884e+01,-1.751584531816838535e+02,-7.618292869592323768e+01,4.411231932588043492e+01,-5.614197133176594434e+01,9.561484336853027344e+00,-1.376853704452514648e+00,-2.677215635776519775e-01,3.890000000000000000e+02
-1.687945065373410216e+02,-1.318390495425703648e+02,-5.609803394670825583e+01,2.556567864678572732e+01,-1.781928312120808187e+02,-7.200903536387386339e+01,4.354396197730829954e+01,-5.540143707508377702e+01,9.561484336853027344e+00,-1.376853704452514648e+00,-2.677215635776519775e-01,3.900000000000000000e+02
-1.679231193050813999e+02,-1.276099813104799523e+02,-5.548866749733133474e+01,2.400590189958984411e+01,-1.826812169467334570e+02,-6.957779482884234312e+01,4.287856773986050030e+01,-5.479615328872932878e+01,9.561484336853027344e+00,-1.376853704452514648e+00,-2.677215635776519775e-01,3.910000000000000000e+02
-1.645275357914224514e+02,-1.240572845174488066e+02,-5.468137870051668870e+01,2.299526667357258702e+01,-1.866703553378724791e+02,-6.827397809806006990e+01,4.329276788252150254e+01,-5.356193834012083244e+01,9.561484336853027344e+00,-1.376853704452514648e+00,-2.677215635776519775e-01,3.920000000000000000e+02
-1.600837772630907239e+02,-1.223683143090868271e+02,-5.378425367187855954e+01,2.267460601011998733e+01,-1.893352417280270856e+02,-6.738850396974066825e+01,4.473726018785055203e+01,-5.227419478338970293e+01,9.561484336853027344e+00,-1.376853704452514648e+00,-2.677215635776519775e-01,3.930000000000000000e+02
-1.573555685618853204e+02,-1.228353200171857225e+02,-5.338637508668080045e+01,2.257561500758447437e+01,-1.909857123420938478e+02,-6.671862983684059145e+01,4.606611109778873470e+01,-5.250346770435317012e+01,9.561484336853027344e+00,-1.376853704452514648e+00,-2.677215635776519775e-01,3.940000000000000000e+02
-1.576899682137946002e+02,-1.245023963266371538e+02,-5.398496722927256997e+01,2.176141755525077315e+01,-1.921451557561645131e+02,-6.639298440596121509e+01,4.603771624334103763e+01,-5.532831335257515093e+01,9.561484336853027344e+00,-1.376853704452514648e+00,-2.677215635776519775e-01,3.950000000000000000e+02
-1.596527571411838835e+02,-1.257322109566246127e+02,-5.544701791468560259e+01,1.962348988147914497e+01,-1.928156147081299423e+02,-6.626631967511775656e+01,4.427556989638378582e+01,-6.006004573690870529e+01,9.561484336853027344e+00,-1.376853704452514648e+00,-2.677215635776519775e-01,3.960000000000000000e+02
-1.603411428698836971e+02,-1.253437112358662944e+02,-5.705865501020844022e+01,1.660218373502539180e+01,-1.926132764079079607e+02,-6.573620861898007206e+01,4.139886342742988745e+01,-6.447618758468615852e+01,9.561484336853027344e+00,-1.376853704452514648e+00,-2.677215635776519775e-01,3.970000000000000000e+02
-1.580933789964806238e+02,-1.234057638455569759e+02,-5.812310697730526954e+01,1.399708552918127680e+01,-1.914193764523811296e+02,-6.430039609527739231e+01,3.835855924820543805e+01,-6.646713336122047622e+01,9.561484336853027344e+00,-1.376853704452514648e+00,-2.677215635776519775e-01,3.980000000000000000e+02
-1.539599089177299902e+02,-1.209980433659445680e+02,-5.849971888413847410e+01,1.289709285372327940e+01,-1.896704917236675101e+02,-6.220910104783433781e+01,3.570080299716209993e+01,-6.563457744130391802e+01,9.561484336853027344e+00,-1.376853704452514648e+00,-2.677215635776519775e-01,3.990000000000000000e+02
-1.505961189583063060e+02,-1.191613424858137478e+02,-5.856006324277132080e+01,1.319536659750701801e+01,-1.879407658332011124e+02,-6.034698426620434475e+01,3.342841425312030879e+01,-6.341283444503778810e+01,9.561484336853027344e+00,-1.376853704452514648e+00,-2.677215635776519775e-01,4.000000000000000000e+02
-1.497809957769354696e+02,-1.180192826541269824e+02,-5.866621844350356696e+01,1.363725761857631369e+01,-1.863539246522682333e+02,-5.934131838854318630e+01,3.146159399440261950e+01,-6.169938954588815250e+01,9.561484336853027344e+00,-1.376853704452514648e+00,-2.677215635776519775e-01,4.010000000000000000e+02
-1.510054881328742340e+02,-1.168909492947657327e+02,-5.875338745670524077e+01,1.284799940017001063e+01,-1.845360378769155432e+02,-5.883535590553856309e+01,3.009581275296773129e+01,-6.134893348896594034e+01,9.561484336853027344e+00,-1.376853704452514648e+00,-2.677215635776519775e-01,4.020000000000000000e+02
-1.523217371853543227e+02,-1.152574492949925116e+02,-5.845728703218628652e+01,1.035891777194501628e+01,-1.821764468902802037e+02,-5.780767506410029455e+01,2.987988284995481081e+01,-6.188891293936922011e+01,9.561484336853027344e+00,-1.376853704452514648e+00,-2.677215635776519775e-01,4.030000000000000000e+02
-1.523321762723780921e+02,-1.135852156210335124e+02,-5.760687112001505739e+01,6.760619119377224706e+00,-1.795453427063425806e+02,-5.569236445175920380e+01,3.098236263598982987e+01,-6.249218351517038172e+01,9.561484336853027344e+00,-1.376853704452514648e+00,-2.677215635776519775e-01,4.040000000000000000e+02
-1.512602749711850265e+02,-1.131299255537928730e+02,-5.653107090869116291e+01,3.017740586592935870e+00,-1.773797355453280034e+02,-5.312764254116336815e+01,3.268525142278076601e+01,-6.304650921448410372e+01,9.561484336853027344e+00,-1.376853704452514648e+00,-2.677215635776519775e-01,4.050000000000000000e+02
-1.502608313497353265e+02,-1.148396050544629361e+02,-5.585948545481096517e+01,-2.892841188008787867e-01,-1.762800339630384769e+02,-5.149114205512205444e+01,3.360210824836576649e+01,-6.421351059244534554e+01,9.561484336853027344e+00,-1.376853704452514648e+00,-2.677215635776519775e-01,4.060000000000000000e+02
-1.500143570626887595e+02,-1.183927121880683444e+02,-5.602404556389546997e+01,-3.130576304046826408e+00,-1.762522595059554078e+02,-5.163602898427052423e+01,3.259453326944776563e+01,-6.650773923249789732e+01,9.561484336853027344e+00,-1.376853704452514648e+00,-2.677215635776519775e-01,4.070000000000000000e+02
-1.501606481601816085e+02,-1.222940868555799625e+02,-5.692960655250908530e+01,-5.644327190269905259e+00,-1.767478143559078489e+02,-5.307711770490459458e+01,2.969609760998537240e+01,-6.943863746148781502e+01,9.561484336853027344e+00,-1.376853704452514648e+00,-2.677215635776519775e-01,4.080000000000000000e+02
-1.499546649531475850e+02,-1.249579214740106181e+02,-5.803782150789038496e+01,-7.755265043940198666e+00,-1.769622754388406065e+02,-5.441025424825829759e+01,2.625948224952071541e+01,-7.163183837963651968e+01,9.561484336853027344e+00,-1.376853704452514648e+00,-2.677215635776519775e-01,4.090000000000000000e+02
-1.491507282533661964e+02,-1.258134143875067821e+02,-5.872538115637598821e+01,-9.205596642645105021e+00,-1.760122669850079546e+02,-5.453575964441915858e+01,2.412005767503410425e+01,-7.183195063049697637e+01,9.561484336853027344e+00,-1.376853704452514648e+00,-2.677215635776519775e-01,4.100000000000000000e+02
-1.480548188252146247e+02,-1.254943810671841220e+02,-5.860837098576212156e+01,-9.890164678987275693e+00,-1.730117327460498018e+02,-5.351509250051185518e+01,2.436468016330127284e+01,-6.985983254889697491e+01,9.561484336853027344e+00,-1.376853704452514648e+00,-2.677215635776519775e-01,4.110000000000000000e+02
-1.468420052169817609e+02,-1.250445597159045974e+02,-5.764731122676084851e+01,-1.006662714909953138e+01,-1.673515765095321512e+02,-5.232934301495924956e+01,2.665205100658749870e+01,-6.670137605023001015e+01,9.561484336853027344e+00,-1.376853704452514648e+00,-2.677215635776519775e-01,4.120000000000000000e+02
-1.451294807975800722e+02,-1.249449754472664154e+02,-5.607686568976805574e+01,-1.018718738913867128e+01,-1.592072697847229392e+02,-5.188928640522999558e+01,2.959339114566864737e+01,-6.374915994919001605e+01,9.561484336853027344e+00,-1.376853704452514648e+00,-2.677215635776519775e-01,4.130000000000000000e+02
-1.424055257763870941e+02,-1.248196746109911146e+02,-5.427420929786967463e+01,-1.050935319637756038e+01,-1.497691340946271339e+02,-5.226821588275197428e+01,3.184710754809430000e+01,-6.191225408098853222e+01,9.561484336853027344e+00,-1.376853704452514648e+00,-2.677215635776519775e-01,4.140000000000000000e+02
-1.388126742630906847e+02,-1.239692933162752979e+02,-5.262599926988355037e+01,-1.087287125966622625e+01,-1.407441221868775756e+02,-5.280704423080396737e+01,3.300845152387023518e+01,-6.127715458177863184e+01,9.561484336853027344e+00,-1.376853704452514648e+00,-2.677215635776519775e-01,4.150000000000000000e+02
-1.352863961547609506e+02,-1.221402520010165063e+02,-5.141550923810518725e+01,-1.086026648527968064e+01,-1.333899195686226449e+02,-5.287110586131666423e+01,3.360518664403298317e+01,-6.141583396067562717e+01,9.446745872497558594e+00,-1.338607788085937500e+00,-4.589512646198272705e-01,4.160000000000000000e+02
-1.327641535892780666e+02,-1.198160232130794611e+02,-5.075073641656649670e+01,-1.018843044781260687e+01,-1.279070346472303754e+02,-5.247026539046146354e+01,3.430778510283835203e+01,-6.191818661183106087e+01,9.446745872497558594e+00,-1.338607788085937500e+00,-4.589512646198272705e-01,4.170000000000000000e+02
-1.312710045516341779e+02,-1.178446480792656530e+02,-5.056415293682175616e+01,-8.998263206830415584e+00,-1.237330396314441714e+02,-5.216536507525643174e+01,3.512043732723077483e+01,-6.268992056964088988e+01,9.446745872497558594e+00,-1.338607788085937500e+00,-4.589512646198272705e-01,4.180000000000000000e+02
-1.298750691356926836e+02,-1.168166803098106357e+02,-5.068430250949154470e+01,-7.811088163050044386e+00,-1.203564342406252763e+02,-5.239009291854472394e+01,3.527319557641021674e+01,-6.388627374475390752e+01,9.446745872497558594e+00,-1.338607788085937500e+00,-4.589512646198272705e-01,4.190000000000000000e+02
-1.275853054274134593e+02,-1.167567592402508581e+02,-5.094859490613430353e+01,-7.220712019610800780e+00,-1.177689999553258531e+02,-5.288339975203598442e+01,3.386262760302497554e+01,-6.566404393302582321e+01,9.446745872497558594e+00,-1.338607788085937500e+00,-4.589512646198272705e-01,4.200000000000000000e+02
-1.242740113388094869e+02,-1.173114476547145841e+02,-5.131281602652438778e+01,-7.572081560363130848e+00,-1.161529158373627979e+02,-5.284742807647489826e+01,3.064942683252411371e+01,-6.798927189266078130e+01,9.446745872497558594e+00,-1.338607788085937500e+00,-4.589512646198272705e-01,4.210000000000000000e+02
-1.207013126808164998e+02,-1.181032911677418724e+02,-5.186643390685776467e+01,-8.790021555588737101e+00,-1.152549144632525895e+02,-5.173705158533903159e+01,2.639312265189346363e+01,-7.057635131284177987e+01,9.446745872497558594e+00,-1.338607788085937500e+00,-4.589512646198272705e-01,4.220000000000000000e+02
-1.176682706116198460e+02,-1.188461004631769811e+02,-5.270530674736710353e+01,-1.037039803438483432e+01,-1.142179432234797787e+02,-4.991748997049080572e+01,2.253782543797410653e+01,-7.293703507586587875e+01,9.446745872497558594e+00,-1.338607788085937500e+00,-4.589512646198272705e-01,4.230000000000000000e+02
-1.152240067654788618e+02,-1.191697032695662983e+02,-5.370773097156120457e+01,-1.149770388499155160e+01,-1.120803112681969651e+02,-4.846085883119940263e+01,2.052867594090866987e+01,-7.450579479360976620e+01,9.446745872497558594e+00,-1.338607788085937500e+00,-4.589512646198272705e-01,4.240000000000000000e+02
-1.127720776890364505e+02,-1.185208229243794449e+02,-5.441695500710420674e+01,-1.133004088238726581e+01,-1.084494595246083009e+02,-4.817612256925394831e+01,2.114603869645588929e+01,-7.483982440579211470e+01,9.446745872497558594e+00,-1.338607788085937500e+00,-4.589512646198272705e-01,4.250000000000000000e+02
-1.099633700885365215e+02,-1.164777232495550834e+02,-5.423314319700921260e+01,-9.467927891623730829e+00,-1.037290925097236141e+02,-4.878570265390453642e+01,2.412391494192320351e+01,-7.382921265557979495e+01,9.446745872497558594e+00,-1.338607788085937500e+00,-4.589512646198272705e-01,4.260000000000000000e+02
-1.074332117088906671e+02,-1.133162510489307806e+02,-5.285059494211009223e+01,-6.384466255853794792e+00,-9.875674421389203417e+01,-4.910145182853420920e+01,2.820715100340134995e+01,-7.176213469107960918e+01,9.446745872497558594e+00,-1.338607788085937500e+00,-4.589512646198272705e-01,4.270000000000000000e+02
-1.066085800352643673e+02,-1.102330280183830382e+02,-5.059040049918621662e+01,-3.424581125048916874e+00,-9.424123676884209999e+01,-4.813078612686331326e+01,3.169126311336572144e+01,-6.916494482500047525e+01,9.446745872497558594e+00,-1.338607788085937500e+00,-4.589512646198272705e-01,4.280000000000000000e+02
-1.086889951279017623e+02,-1.087623041965039192e+02,-4.825186931953658132e+01,-2.145902463240872748e+00,-9.041979307149085798e+01,-4.607095910836505936e+01,3.328751288301555178e+01,-6.650620150652048324e+01,9.446745872497558594e+00,-1.338607788085937500e+00,-4.589512646198272705e-01,4.290000000000000000e+02
-1.136560137222613776e+02,-1.096557295239899759e+02,-4.652654766630871563e+01,-3.319720654487355205e+00,-8.708807633841001916e+01,-4.420357916843204293e+01,3.284454590383620598e+01,-6.399018406595132546e+01,9.446745872497558594e+00,-1.338607788085937500e+00,-4.589512646198272705e-01,4.300000000000000000e+02
-1.201195811835309541e+02,-1.121429817140738123e+02,-4.548219562366557511e+01,-6.335500666927373459e+00,-8.391323066606605607e+01,-4.377097123035355253e+01,3.137273205156998301e+01,-6.159721776595347364e+01,9.446745872497558594e+00,-1.338607788085937500e+00,-4.589512646198272705e-01,4.310000000000000000e+02
-1.260636192133536042e+02,-1.143379633810002360e+02,-4.460424833605770800e+01,-9.545134985015920392e+00,-8.081308586437035046e+01,-4.490905183475615559e+01,3.025349560059112264e+01,-5.928796061560387898e+01,9.446745872497558594e+00,-1.338607788085937500e+00,-4.589512646198272705e-01,4.320000000000000000e+02
-1.298711644823968072e+02,-1.146070119309131314e+02,-4.334344584570862935e+01,-1.131813698072096486e+01,-7.814870239114429751e+01,-4.662089372403715970e+01,3.022142696674745821e+01,-5.712612849443348750e+01,9.446745872497558594e+00,-1.338607788085937500e+00,-4.589512646198272705e-01,4.330000000000000000e+02
-1.309561193922363600e+02,-1.127962709761729911e+02,-4.161079340420610606e+01,-1.095694280887914829e+01,-7.651721401987720128e+01,-4.769582228023773496e+01,3.098730330624903218e+01,-5.517788596999753281e+01,9.446745872497558594e+00,-1.338607788085937500e+00,-4.589512646198272705e-01,4.340000000000000000e+02
-1.298005710734787499e+02,-1.102739316002148371e+02,-3.975827770706837327e+01,-8.823297232410595825e+00,-7.620244835118182891e+01,-4.760910265264146801e+01,3.179647353502286933e+01,-5.334369147904249076e+01,9.446745872497558594e+00,-1.338607788085937500e+00,-4.589512646198272705e-01,4.350000000000000000e+02
-1.275787894729303389e+02,-1.087304553504252453e+02,-3.814466347525785750e+01,-5.788519016153486518e+00,-7.670609547240587744e+01,-4.661188954590534195e+01,3.233297194246961226e+01,-5.136922765277677172e+01,9.446745872497558594e+00,-1.338607788085937500e+00,-4.589512646198272705e-01,4.360000000000000000e+02
-1.256046805307994418e+02,-1.087401833570913823e+02,-3.679767729816421706e+01,-2.636091185645000223e+00,-7.682859539589821907e+01,-4.512720219637026275e+01,3.304142786531019738e+01,-4.905900511969548461e+01,9.446745872497558594e+00,-1.338607788085937500e+00,-4.589512646198272705e-01,4.370000000000000000e+02
-1.247627805098534282e+02,-1.092970928224858653e+02,-3.551014810978540481e+01,1.194319874114171398e-01,-7.535832339174726258e+01,-4.322572798524697646e+01,3.455288372970335331e+01,-4.644207926265289643e+01,9.446745872497558594e+00,-1.338607788085937500e+00,-4.589512646198272705e-01,4.380000000000000000e+02
-1.251023368411276806e+02,-1.086930662334491444e+02,-3.416550162015323622e+01,2.118151325772032578e+00,-7.184902452715209620e+01,-4.069590104462031377e+01,3.684912506776527152e+01,-4.366277295293139105e+01,9.446745872497558594e+00,-1.338607788085937500e+00,-4.589512646198272705e-01,4.390000000000000000e+02
-1.258572624904920758e+02,-1.059895983593544315e+02,-3.285927409045052627e+01,3.131709213864269259e+00,-6.685413653230307318e+01,-3.750729707360915199e+01,3.907349636698029371e+01,-4.073899672319157617e+01,9.446745872497558594e+00,-1.338607788085937500e+00,-4.589512646198272705e-01,4.400000000000000000e+02
-1.260329475608816665e+02,-1.018638923398066254e+02,-3.169696408254367270e+01,3.227643492223251087e+00,-6.147311906165555229e+01,-3.408652379810064303e+01,4.021333703890309152e+01,-3.756885836102492249e+01,9.446745872497558594e+00,-1.338607788085937500e+00,-4.589512646198272705e-01,4.410000000000000000e+02
-1.252374969061409047e+02,-9.814845210500538997e+01,-3.056940448483055661e+01,2.849232065256956048e+00,-5.665565746020365623e+01,-3.109681217612978799e+01,3.996210926494700288e+01,-3.430758685722571499e+01,9.446745872497558594e+00,-1.338607788085937500e+00,-4.589512646198272705e-01,4.420000000000000000e+02
-1.240770733157871746e+02,-9.646039480033164182e+01,-2.924924848504906549e+01,2.566586358472932261e+00,-5.282490152380842119e+01,-2.897727221856075630e+01,3.888960108475998823e+01,-3.172637818498287743e+01,9.446745872497558594e+00,-1.338607788085937500e+00,-4.589512646198272705e-01,4.430000000000000000e+02
-1.236966096193061730e+02,-9.701856341239567882e+01,-2.772767120546882325e+01,2.671718826671622082e+00,-4.996356676893083204e+01,-2.770231524633936715e+01,3.779855287778605089e+01,-3.099540890487196521e+01,9.446745872497558594e+00,-1.338607788085937500e+00,-4.589512646198272705e-01,4.440000000000000000e+02
-1.248134595611800250e+02,-9.856651081464701747e+01,-2.639901826911204807e+01,3.013468056838746634e+00,-4.793033589932338145e+01,-2.695836925307321508e+01,3.697290022599281656e+01,-3.286886000086133208e+01,9.446745872497558594e+00,-1.338607788085937500e+00,-4.589512646198272705e-01,4.450000000000000000e+02
-1.270994821967969983e+02,-9.941670696710286848e+01,-2.583381701990674628e+01,3.211395646851542551e+00,-4.674150631952215917e+01,-2.654671912218577745e+01,3.607030732840473775e+01,-3.696052219251896531e+01,9.446745872497558594e+00,-1.338607788085937500e+00,-4.589512646198272705e-01,4.460000000000000000e+02
-1.294556490235218007e+02,-9.871525173298323352e+01,-2.630012882892685866e+01,2.997279625726378072e+00,-4.668416276347329585e+01,-2.663086835019544196e+01,3.469473632496078608e+01,-4.184979986244911743e+01,9.446745872497558594e+00,-1.300361871719360352e+00,-4.589512646198272705e-01,4.470000000000000000e+02
-1.308682586087136315e+02,-9.689778993345635172e+01,-2.746292189416260499e+01,2.355654244522384033e+00,-4.819267242522937522e+01,-2.759535469510433359e+01,3.299390606988526997e+01,-4.599304455788046653e+01,9.446745872497558594e+00,-1.300361871719360352e+00,-4.589512646198272705e-01,4.480000000000000000e+02
-1.310066860304599459e+02,-9.504346510130744718e+01,-2.851748886740551825e+01,1.454818647937031528e+00,-5.144712283725664292e+01,-2.961305158484060485e+01,3.166849253543546183e+01,-4.859404907321231804e+01,9.446745872497558594e+00,-1.300361871719360352e+00,-4.589512646198272705e-01,4.490000000000000000e+02
-1.301063253811742015e+02,-9.380335109692305195e+01,-2.865122892727163162e+01,5.877667969201638698e-01,-5.587528765690649379e+01,-3.228484164003316437e+01,3.141506922366374965e+01,-4.964369302583088484e+01,9.446745872497558594e+00,-1.300361871719360352e+00,-4.589512646198272705e-01,4.500000000000000000e+02
-1.284995704385991075e+02,-9.290523641221591333e+01,-2.750913257779939158e+01,2.005593360518105328e-01,-6.002818882222845787e+01,-3.469478918422066727e+01,3.237445855723160548e+01,-4.924059126651002316e+01,9.446745872497558594e+00,-1.300361871719360352e+00,-4.589512646198272705e-01,4.510000000000000000e+02
-1.264412239773431565e+02,-9.161927009726048254e+01,-2.537396000464491408e+01,8.287943740900800549e-01,-6.218875709825556442e+01,-3.590098317706872422e+01,3.406346604390603261e+01,-4.709507449139960045e+01,9.446745872497558594e+00,-1.300361871719360352e+00,-4.589512646198272705e-01,4.520000000000000000e+02
-1.243713964560938621e+02,-8.961084226129287345e+01,-2.298059905590571361e+01,2.776387260689489267e+00,-6.145179867655622274e+01,-3.549751472319132972e+01,3.573403867191404970e+01,-4.289411893354053973e+01,9.446745872497558594e+00,-1.300361871719360352e+00,-4.589512646198272705e-01,4.530000000000000000e+02
-1.230594893438085364e+02,-8.724322488836457978e+01,-2.105368470164154360e+01,5.755345550279116651e+00,-5.839105774050381115e+01,-3.376815987647751172e+01,3.678670128673985573e+01,-3.712355170780244862e+01,9.446745872497558594e+00,-1.300361871719360352e+00,-4.589512646198272705e-01,4.540000000000000000e+02
-1.231443219188303715e+02,-8.503715976784053510e+01,-1.983467057712448423e+01,8.912202584639999259e+00,-5.462873247835960910e+01,-3.130347584037269826e+01,3.696727626588909743e+01,-3.128529086081169908e+01,9.446745872497558594e+00,-1.300361871719360352e+00,-4.589512646198272705e-01,4.550000000000000000e+02
-1.244272125532074256e+02,-8.295331678997632707e+01,-1.893525576376515573e+01,1.134057109679588393e+01,-5.162876009590968351e+01,-2.847869700694849371e+01,3.636531279131634165e+01,-2.702335353089250702e+01,9.446745872497558594e+00,-1.300361871719360352e+00,-4.589512646198272705e-01,4.560000000000000000e+02
-1.257893838012228684e+02,-8.037304834800454501e+01,-1.767101798483736275e+01,1.265604412241265209e+01,-4.981916217199744779e+01,-2.532189741670180183e+01,3.534696419300837533e+01,-2.488486184780066424e+01,9.446745872497558594e+00,-1.300361871719360352e+00,-4.589512646198272705e-01,4.570000000000000000e+02
-1.260782503823269280e+02,-7.688737255920341340e+01,-1.566980295620365382e+01,1.306801425819929818e+01,-4.882382985691751287e+01,-2.188679196538612359e+01,3.440794090960145013e+01,-2.399985651604811210e+01,9.446745872497558594e+00,-1.300361871719360352e+00,-4.589512646198272705e-01,4.580000000000000000e+02
-1.252341920308646195e+02,-7.308363440535785571e+01,-1.328048679756707884e+01,1.288168653236273542e+01,-4.840756718896454913e+01,-1.868683543700910832e+01,3.386977653218156092e+01,-2.313715655994721487e+01,9.446745872497558594e+00,-1.300361871719360352e+00,-4.589512646198272705e-01,4.590000000000000000e+02
-1.244582976831612200e+02,-7.043057022858894811e+01,-1.142839960032021906e+01,1.199546989611063452e+01,-4.899662510679601723e+01,-1.666139004800436396e+01,3.355441705950380538e+01,-2.214508070297666364e+01,9.446745872497558594e+00,-1.300361871719360352e+00,-4.589512646198272705e-01,4.600000000000000000e+02
-1.250593849969225175e+02,-7.024992627546500046e+01,-1.101501747521363939e+01,1.001294817695840322e+01,-5.116363809597729073e+01,-1.661470340322722450e+01,3.280196202833265318e+01,-2.226093771300953961e+01,9.446745872497558594e+00,-1.300361871719360352e+00,-4.589512646198272705e-01,4.610000000000000000e+02
-1.270156926209843959e+02,-7.268538680718950218e+01,-1.233380111052821348e+01,6.926353711408580693e+00,-5.467955252335011096e+01,-1.860930126482364244e+01,3.101369252940106946e+01,-2.485148353238810159e+01,9.446745872497558594e+00,-1.300361871719360352e+00,-4.589512646198272705e-01,4.620000000000000000e+02
-1.287010855573823278e+02,-7.656466018932394491e+01,-1.491070147231255305e+01,3.661869152222266166e+00,-5.825184151614951134e+01,-2.182386467290223209e+01,2.838090172620368890e+01,-2.974796478730115723e+01,9.446745872497558594e+00,-1.300361871719360352e+00,-4.589512646198272705e-01,4.630000000000000000e+02
-1.281554278701291310e+02,-8.020619073122480813e+01,-1.779007390786659926e+01,1.810699118319291756e+00,-6.032865075358967033e+01,-2.494671929995604387e+01,2.609344288247871191e+01,-3.485087464793178924e+01,9.446745872497558594e+00,-1.300361871719360352e+00,-4.589512646198272705e-01,4.640000000000000000e+02
-1.247868907379867665e+02,-8.242525357582394463e+01,-1.999034377399789264e+01,2.584328642341404247e+00,-6.021972844062202057e+01,-2.678801610283301216e+01,2.561728567206421303e+01,-3.754799279604594631e+01,9.446745872497558594e+00,-1.300361871719360352e+00,-4.589512646198272705e-01,4.650000000000000000e+02
-1.199308285444546982e+02,-8.297953937473073438e+01,-2.084287499499544083e+01,5.808306916494984762e+00,-5.846267048302593139e+01,-2.677722865548003028e+01,2.749637022928243368e+01,-3.673320858721217519e+01,9.446745872497558594e+00,-1.300361871719360352e+00,-4.589512646198272705e-01,4.660000000000000000e+02
-1.157301734318117497e+02,-8.232100940136569989e+01,-2.011507211448292765e+01,9.867815592143983849e+00,-5.614729668931772721e+01,-2.519210732729720803e+01,3.072785567364888948e+01,-3.358211778642805712e+01,9.446745872497558594e+00,-1.300361871719360352e+00,-4.589512646198272705e-01,4.670000000000000000e+02
-1.134153733847647345e+02,-8.111340277312319813e+01,-1.798512457825131605e+01,1.274090961600302307e+01,-5.396132444528666383e+01,-2.308081077039082629e+01,3.336220789094772954e+01,-3.040344852117482333e+01,9.523238182067871094e+00,-1.300361871719360352e+00,-4.207052886486053467e-01,4.680000000000000000e+02
-1.125482814316155782e+02,-7.993774456350297442e+01,-1.493471677760817329e+01,1.333472623434147408e+01,-5.189104298414827099e+01,-2.181007262547268510e+01,3.393101086138540268e+01,-2.867278612379163860e+01,9.523238182067871094e+00,-1.300361871719360352e+00,-4.207052886486053467e-01,4.690000000000000000e+02
-1.118039878627046164e+02,-7.920275420016309909e+01,-1.159211823457974333e+01,1.209886076742270689e+01,-4.972304700545669220e+01,-2.229528002758570437e+01,3.253274888729902159e+01,-2.803499990377486029e+01,9.523238182067871094e+00,-1.300361871719360352e+00,-4.207052886486053467e-01,4.700000000000000000e+02
-1.104177710493211180e+02,-7.907212301781873975e+01,-8.591374300744064385e+00,1.048577889454668366e+01,-4.768169055528937861e+01,-2.432053411736706039e+01,3.065819426940538506e+01,-2.706093859266070467e+01,9.523238182067871094e+00,-1.300361871719360352e+00,-4.207052886486053467e-01,4.710000000000000000e+02
-1.088660695330902399e+02,-7.936181943884434986e+01,-6.459150550459753504e+00,9.805486051508296441e+00,-4.644237252541279304e+01,-2.649297514756221972e+01,2.998144260183562437e+01,-2.483055030472746694e+01,9.523238182067871094e+00,-1.300361871719360352e+00,-4.207052886486053467e-01,4.720000000000000000e+02
-1.082046080207560408e+02,-7.958658279303563177e+01,-5.482999519270379096e+00,1.045133640291282973e+01,-4.647143692847816965e+01,-2.703213334141628366e+01,3.119327387916712269e+01,-2.174421758633707213e+01,9.523238182067871094e+00,-1.300361871719360352e+00,-4.207052886486053467e-01,4.730000000000000000e+02
-1.088168534015972000e+02,-7.925720413001567977e+01,-5.547788574867809075e+00,1.201385238218836093e+01,-4.737364049061852711e+01,-2.493685887140372870e+01,3.376454988538432644e+01,-1.892441671574056272e+01,9.523238182067871094e+00,-1.300361871719360352e+00,-4.207052886486053467e-01,4.740000000000000000e+02
-1.098621851531365792e+02,-7.822831109935395943e+01,-6.061314713174851931e+00,1.393315585581376581e+01,-4.796893645658337846e+01,-2.070490601878282177e+01,3.661544966202495743e+01,-1.703309489375715202e+01,9.523238182067871094e+00,-1.300361871719360352e+00,-4.207052886486053467e-01,4.750000000000000000e+02
-1.099809537324754274e+02,-7.678879203307792523e+01,-6.194020413484622622e+00,1.591546328271624589e+01,-4.715587345115841345e+01,-1.609804301040594510e+01,3.891103447282648631e+01,-1.581446385025537893e+01,9.523238182067871094e+00,-1.300361871719360352e+00,-4.207052886486053467e-01,4.760000000000000000e+02
-1.085695152487712676e+02,-7.541178240082831508e+01,-5.447068311485509184e+00,1.777910682385459040e+01,-4.484887155612887000e+01,-1.312793182747054743e+01,4.032566140482526862e+01,-1.473146984451932440e+01,9.523238182067871094e+00,-1.300361871719360352e+00,-4.207052886486053467e-01,4.770000000000000000e+02
-1.063798866686806832e+02,-7.439548898678935984e+01,-4.135111715705761526e+00,1.914723184656054400e+01,-4.213140223145455820e+01,-1.292209858924252330e+01,4.084387999453974771e+01,-1.379103947385283391e+01,9.523238182067871094e+00,-1.300361871719360352e+00,-4.207052886486053467e-01,4.780000000000000000e+02
-1.048554563868829064e+02,-7.370891433373503787e+01,-3.233287356565369919e+00,1.959142152949470983e+01,-4.040058418116950634e+01,-1.509232532311716568e+01,4.058770991566984776e+01,-1.349161702263336338e+01,9.523238182067871094e+00,-1.300361871719360352e+00,-4.207052886486053467e-01,4.790000000000000000e+02
-1.048084036404784456e+02,-7.313095560779538573e+01,-3.539287389576202258e+00,1.921485410596051224e+01,-4.019584077409263045e+01,-1.789516751023893448e+01,3.989112447153365792e+01,-1.392568875031474818e+01,9.523238182067871094e+00,-1.300361871719360352e+00,-4.207052886486053467e-01,4.800000000000000000e+02
-1.056620065028641875e+02,-7.247867737677916011e+01,-4.837864529520629731e+00,1.898360721034396192e+01,-4.073868624393162463e+01,-1.910070910550075496e+01,3.936775701489727908e+01,-1.416138169895566534e+01,9.523238182067871094e+00,-1.300361871719360352e+00,-4.207052886486053467e-01,4.810000000000000000e+02
-1.059607862583393398e+02,-7.168627554059912654e+01,-5.915542046227528772e+00,2.018645486080185947e+01,-4.059442855160705221e+01,-1.718009939602598024e+01,3.963775642603991400e+01,-1.282920558062642158e+01,9.523238182067871094e+00,-1.300361871719360352e+00,-4.207052886486053467e-01,4.820000000000000000e+02
-1.046775452214806137e+02,-7.070421273739384560e+01,-5.555195987657043588e+00,2.328782039943962445e+01,-3.886356402192268433e+01,-1.221388943694728368e+01,4.080763671278646143e+01,-9.508884791556283744e+00,9.523238182067871094e+00,-1.300361871719360352e+00,-4.207052886486053467e-01,4.830000000000000000e+02
-1.021312725323487030e+02,-6.940913584431837080e+01,-3.647541215335422748e+00,2.723441862066920294e+01,-3.585221516961564703e+01,-5.928844579006636195e+00,4.222526802477045749e+01,-5.486722191414628469e+00,9.523238182067871094e+00,-1.300361871719360352e+00,-4.207052886486053467e-01,4.840000000000000000e+02
-9.970935919873681996e+01,-6.773058575507502610e+01,-1.365358584721434454e+00,2.999776390875649668e+01,-3.272279325761155633e+01,-7.347117392409927561e-01,4.285806190847461039e+01,-2.966932354211621714e+00,9.523238182067871094e+00,-1.300361871719360352e+00,-4.207052886486053467e-01,4.850000000000000000e+02
-9.867854738735286446e+01,-6.591521308597111783e+01,-2.015336754884629045e-01,3.001047782986643142e+01,-3.058761754688111978e+01,1.674831081068532512e+00,4.205250957609951001e+01,-3.328310976332886639e+00,9.523238182067871094e+00,-1.300361871719360352e+00,-4.207052886486053467e-01,4.860000000000000000e+02
-9.913811056011218170e+01,-6.458631980512745940e+01,-7.396847195741429459e-01,2.732637540565929157e+01,-2.989815240240932326e+01,1.213854081421231967e+00,4.004292682350114774e+01,-6.002252334797958611e+00,9.523238182067871094e+00,-1.300361871719360352e+00,-4.207052886486053467e-01,4.870000000000000000e+02
-9.997923674192952603e+01,-6.436853152660387423e+01,-2.257322258642489032e+00,2.357426994606339576e+01,-3.052001646643248023e+01,-7.984679785604384961e-01,3.778984024615419912e+01,-8.997141146416652191e+00,9.523238182067871094e+00,-1.300361871719360352e+00,-4.207052886486053467e-01,4.880000000000000000e+02
-9.979324630697010434e+01,-6.525623594877470168e+01,-3.438320773731902591e+00,2.082563471737967120e+01,-3.213141006931073207e+01,-2.675715864267658617e+00,3.629802066535603444e+01,-1.055598198310963198e+01,9.523238182067871094e+00,-1.300361871719360352e+00,-4.207052886486053467e-01,4.890000000000000000e+02
-9.791717227063736573e+01,-6.627870012113135090e+01,-3.461822584681158332e+00,2.032001788701745681e+01,-3.441378617376631155e+01,-3.407347822185329278e+00,3.596945004144163249e+01,-1.044558639500655772e+01,9.523238182067871094e+00,-1.300361871719360352e+00,-4.207052886486053467e-01,4.900000000000000000e+02
-9.479858084143143060e+01,-6.592811760945960486e+01,-2.510557853691352648e+00,2.190861068528829492e+01,-3.695605236819938000e+01,-3.039697981530480320e+00,3.643670472819758288e+01,-9.850905551909818314e+00,9.523238182067871094e+00,-1.300361871719360352e+00,-4.207052886486053467e-01,4.910000000000000000e+02
-9.149146984211620293e+01,-6.319549825237936602e+01,-1.390774671502185811e+00,2.439546115215671307e+01,-3.918679610611980024e+01,-2.314198741820291616e+00,3.691527529181621503e+01,-1.015465446042981057e+01,9.523238182067871094e+00,-1.300361871719360352e+00,-4.207052886486053467e-01,4.920000000000000000e+02
-8.882165751884713245e+01,-5.845184377062923886e+01,-7.597247614066873211e-01,2.637093093089879403e+01,-4.054676375818235101e+01,-1.989498500455738395e+00,3.677522594053198191e+01,-1.174744582670064119e+01,9.446745872497558594e+00,-1.300361871719360352e+00,-4.971971809864044189e-01,4.930000000000000000e+02
-8.695099427312197804e+01,-5.337932861269655405e+01,-6.549763440243623336e-01,2.700135891054560489e+01,-4.070707026133732143e+01,-2.322685829191868834e+00,3.594852101089554708e+01,-1.378247329538498889e+01,9.446745872497558594e+00,-1.300361871719360352e+00,-4.971971809864044189e-01,4.940000000000000000e+02
-8.564573372599352297e+01,-4.989826116871790873e+01,-6.019707487921550637e-01,2.639029675456185942e+01,-3.958132890089564171e+01,-2.953642902220053656e+00,3.492500027121104722e+01,-1.489030356470539118e+01,9.446745872497558594e+00,-1.300361871719360352e+00,-4.971971809864044189e-01,4.950000000000000000e+02
-8.488334864400621882e+01,-4.890290594683847303e+01,-6.661458395865338389e-02,2.535898440093569661e+01,-3.722711924129089311e+01,-3.198205412566494488e+00,3.435233702290088331e+01,-1.416457616460138524e+01,9.446745872497558594e+00,-1.300361871719360352e+00,-4.971971809864044189e-01,4.960000000000000000e+02
-8.509616465751696524e+01,-4.979634597888798453e+01,1.164253276141607785e+00,2.479727674581499741e+01,-3.390667113066592719e+01,-2.536030254278557550e+00,3.452925503742517321e+01,-1.169876888334783871e+01,9.446745872497558594e+00,-1.300361871719360352e+00,-4.971971809864044189e-01,4.970000000000000000e+02
-8.667930259063268750e+01,-5.112888746461885603e+01,2.910971114741187193e+00,2.503319764928164659e+01,-3.028883646046415379e+01,-9.605152534750232007e-01,3.519719102287808710e+01,-8.400044698102647089e+00,9.446745872497558594e+00,-1.300361871719360352e+00,-4.971971809864044189e-01,4.980000000000000000e+02
-8.914840017372989678e+01,-5.171246842900109186e+01,4.801970293826343550e+00,2.573281472276175919e+01,-2.738510687629877793e+01,1.095407148497542948e+00,3.581712376003497411e+01,-5.310954605301958509e+00,9.446745872497558594e+00,-1.300361871719360352e+00,-4.971971809864044189e-01,4.990000000000000000e+02
-9.085028951726326341e+01,-5.127129742576107674e+01,6.535895032669941429e+00,2.642062000137229916e+01,-2.599133543937023205e+01,3.189182260121015133e+00,3.609153228817331183e+01,-2.943134079964693228e+00,9.446745872497558594e+00,-1.300361871719360352e+00,-4.971971809864044189e-01,5.000000000000000000e+02
-8.981138953046138340e+01,-5.024626094802079024e+01,7.992920172850972449e+00,2.708395358867619507e+01,-2.607034934778403112e+01,5.199220783558303083e+00,3.620652923249281230e+01,-1.104064678942449973e+00,9.446745872497558594e+00,-1.300361871719360352e+00,-4.971971809864044189e-01,5.010000000000000000e+02
-8.528852487012409256e+01,-4.916697920521619380e+01,9.150231267354683951e+00,2.817543763792218670e+01,-2.679924841446427308e+01,7.167683600747295714e+00,3.651587602847848757e+01,6.474428381079633255e-01,9.446745872497558594e+00,-1.300361871719360352e+00,-4.971971809864044189e-01,5.020000000000000000e+02
-7.875461175783948420e+01,-4.827869542329790420e+01,9.926344107143449946e+00,2.994119350485289033e+01,-2.740206841739563970e+01,8.833710520400018140e+00,3.698598196410148375e+01,2.308087205143237952e+00,9.446745872497558594e+00,-1.300361871719360352e+00,-4.971971809864044189e-01,5.030000000000000000e+02
-7.327190435298507509e+01,-4.765199486420533503e+01,1.014931028433147731e+01,3.181610342127260083e+01,-2.795758036098322918e+01,9.510938805437035626e+00,3.705402900363242225e+01,3.193871283121552551e+00,9.446745872497558594e+00,-1.300361871719360352e+00,-4.971971809864044189e-01,5.040000000000000000e+02
-7.151383245817851275e+01,-4.743386252638538281e+01,9.730471468116775213e+00,3.268302906575900124e+01,-2.926577838121556852e+01,8.660027667407121044e+00,3.618160555410486268e+01,2.522915027487215411e+00,9.446745872497558594e+00,-1.300361871719360352e+00,-4.971971809864044189e-01,5.050000000000000000e+02
-7.392975066481085378e+01,-4.781785759612375841e+01,8.885817622245667735e+00,3.190180219849480636e+01,-3.182182194246797735e+01,6.668972656068945071e+00,3.460292795909481356e+01,3.704455829902144615e-01,9.446745872497558594e+00,-1.300361871719360352e+00,-4.971971809864044189e-01,5.060000000000000000e+02
-7.852246155553893914e+01,-4.872751132349822001e+01,8.145437853846487997e+00,3.010656098103663680e+01,-3.496225839060480212e+01,4.914615636824237299e+00,3.341736327705348231e+01,-1.967791697507891513e+00,9.446745872497558594e+00,-1.300361871719360352e+00,-4.971971809864044189e-01,5.070000000000000000e+02
-8.235924623901792074e+01,-4.961545836185541702e+01,8.059925538686911750e+00,2.887189539470091404e+01,-3.716327099379032006e+01,4.782462197246786673e+00,3.374317589772545034e+01,-2.757400308057185612e+00,9.446745872497558594e+00,-1.300361871719360352e+00,-4.971971809864044189e-01,5.080000000000000000e+02
-8.351260532063042774e+01,-4.972009163748680294e+01,8.807126754101773258e+00,2.945632824637414160e+01,-3.728817319965673960e+01,6.470363397756955237e+00,3.562999160040180868e+01,-1.215598036770643375e+00,9.446745872497558594e+00,-1.300361871719360352e+00,-4.971971809864044189e-01,5.090000000000000000e+02
-8.193394337566041941e+01,-4.865573544163271436e+01,1.002928014850203908e+01,3.177566731159004121e+01,-3.557048290963030013e+01,8.779800320822687354e+00,3.781302423361375986e+01,1.752531721373088658e+00,9.446745872497558594e+00,-1.300361871719360352e+00,-4.971971809864044189e-01,5.100000000000000000e+02
-7.888465260063640017e+01,-4.684824445686535910e+01,1.104051385377897532e+01,3.453744290098984493e+01,-3.340365201717213495e+01,1.016554312167500029e+01,3.866496096510491043e+01,4.233295074991474394e+00,9.446745872497558594e+00,-1.300361871719360352e+00,-4.971971809864044189e-01,5.110000000000000000e+02
-7.575337951160690864e+01,-4.537423596872122289e+01,1.127495798136624217e+01,3.635512893954546598e+01,-3.216627148310362827e+01,1.004761791979217378e+01,3.756824159558163956e+01,4.883516040630638599e+00,9.446745872497558594e+00,-1.300361871719360352e+00,-4.971971809864044189e-01,5.120000000000000000e+02
-7.329316771298908861e+01,-4.525001256769064639e+01,1.068358234962306597e+01,3.676290314628568012e+01,-3.218907163937547011e+01,9.120540621550389915e+00,3.546808617029637389e+01,4.011770748093113070e+00,9.446745872497558594e+00,-1.300361871719360352e+00,-4.971971809864044189e-01,5.130000000000000000e+02
-7.159204252709241700e+01,-4.669457235759819014e+01,9.816778074672583898e+00,3.628864971901566605e+01,-3.270582358132924128e+01,8.455914064968965249e+00,3.408692454750598699e+01,3.189523942623054609e+00,9.446745872497558594e+00,-1.300361871719360352e+00,-4.971971809864044189e-01,5.140000000000000000e+02
-7.037984021582269634e+01,-4.893596995674397476e+01,9.515601177758071572e+00,3.573093698002958263e+01,-3.264564800313746673e+01,8.416121403621218633e+00,3.451405360684930201e+01,3.789886559627120732e+00,9.446745872497558594e+00,-1.300361871719360352e+00,-4.971971809864044189e-01,5.150000000000000000e+02
-6.925847305120441888e+01,-5.072691468137054471e+01,1.036478458880264952e+01,3.546312104699063639e+01,-3.148223896137642441e+01,8.479146574909464107e+00,3.642295123246276489e+01,5.809166889001062373e+00,9.446745872497558594e+00,-1.300361871719360352e+00,-4.971971809864044189e-01,5.160000000000000000e+02
-6.786082916943087184e+01,-5.118045074983274390e+01,1.224325150379991101e+01,3.536134424054580450e+01,-2.949760996345867170e+01,8.017799573884985875e+00,3.853464194268781284e+01,7.982304574041336309e+00,9.446745872497558594e+00,-1.300361871719360352e+00,-4.971971809864044189e-01,5.170000000000000000e+02
-6.610847208432096522e+01,-5.028950504876229388e+01,1.432560915959766135e+01,3.520763796222672681e+01,-2.742795531081537774e+01,7.074941225639122422e+00,3.977602952237975842e+01,8.949241242837160826e+00,9.446745872497558594e+00,-1.300361871719360352e+00,-4.971971809864044189e-01,5.180000000000000000e+02
-6.440379510336606472e+01,-4.874977312489136239e+01,1.564048419055143313e+01,3.501587928394837945e+01,-2.587583311612434045e+01,6.324125309127339278e+00,4.003943058428740187e+01,8.328652533056811080e+00,9.446745872497558594e+00,-1.300361871719360352e+00,-4.971971809864044189e-01,5.190000000000000000e+02
-6.339929897440742934e+01,-4.727180104703802499e+01,1.581496359938319074e+01,3.496941640588738665e+01,-2.492622409622890700e+01,6.364751220186008140e+00,3.994273851305479184e+01,6.802728814887814224e+00,9.446745872497558594e+00,-1.338607788085937500e+00,-4.207052886486053467e-01,5.200000000000000000e+02
-6.337932650270886370e+01,-4.600134354729925690e+01,1.537361869003325410e+01,3.515424063196951465e+01,-2.418409111250548449e+01,7.167381975590615184e+00,3.999054383663951739e+01,5.359995026330580004e+00,9.446745872497558594e+00,-1.338607788085937500e+00,-4.207052886486053467e-01,5.210000000000000000e+02
-6.385965563431636838e+01,-4.453907071992034616e+01,1.526078019306442002e+01,3.545830543992269668e+01,-2.317105894373889896e+01,8.224799589879694395e+00,4.007404316821248358e+01,4.587583926359002362e+00,9.446745872497558594e+00,-1.338607788085937500e+00,-4.207052886486053467e-01,5.220000000000000000e+02
-6.394561004248680547e+01,-4.248452159981025034e+01,1.595720557007007301e+01,3.573002211395942140e+01,-2.177814303078230296e+01,9.149676250586708193e+00,3.977459904059287510e+01,4.620637779153184965e+00,9.446745872497558594e+00,-1.338607788085937500e+00,-4.207052886486053467e-01,5.230000000000000000e+02
-6.317770467719492444e+01,-3.996387907329335576e+01,1.701019747145801375e+01,3.595622271264619485e+01,-2.038035489221329044e+01,1.004128636099267169e+01,3.906001779534562957e+01,5.532585190707322909e+00,9.446745872497558594e+00,-1.338607788085937500e+00,-4.207052886486053467e-01,5.240000000000000000e+02
-6.195996195216685010e+01,-3.766089635516436829e+01,1.744790137524068996e+01,3.619458094610672561e+01,-1.949480631837650435e+01,1.126883260785871244e+01,3.853224887435862911e+01,7.482423477304109838e+00,9.446745872497558594e+00,-1.338607788085937500e+00,-4.207052886486053467e-01,5.250000000000000000e+02
-6.102096700819856778e+01,-3.636450497229452594e+01,1.669314589880013955e+01,3.629551047632776317e+01,-1.930884766647977813e+01,1.294646812053906615e+01,3.887584249984956841e+01,1.033387427455272700e+01,9.446745872497558594e+00,-1.338607788085937500e+00,-4.207052886486053467e-01,5.260000000000000000e+02
-6.041034705158199358e+01,-3.644757277775897819e+01,1.511064637763774954e+01,3.576503720983055246e+01,-1.953970425599254668e+01,1.465620712410964188e+01,4.006726748088476597e+01,1.324957518093287945e+01,9.446745872497558594e+00,-1.338607788085937500e+00,-4.207052886486053467e-01,5.270000000000000000e+02
-5.917694865795965597e+01,-3.766465735898964340e+01,1.369615064748722943e+01,3.406597708687695558e+01,-1.976483216710403212e+01,1.569782511810626602e+01,4.123504248199969879e+01,1.495791472038035863e+01,9.446745872497558594e+00,-1.338607788085937500e+00,-4.207052886486053467e-01,5.280000000000000000e+02
-5.621967543652681343e+01,-3.930373034531476151e+01,1.327315920344517508e+01,3.123576954901545832e+01,-1.984196353751212882e+01,1.566427257593932154e+01,4.145467250283036265e+01,1.471077528818568680e+01,9.446745872497558594e+00,-1.338607788085937500e+00,-4.207052886486053467e-01,5.290000000000000000e+02
-5.150286914449316100e+01,-4.048553334592179453e+01,1.399299368151878298e+01,2.826279443702151184e+01,-1.994643423928573611e+01,1.485238438910528203e+01,4.075424670293250529e+01,1.307614790808656835e+01,9.446745872497558594e+00,-1.338607788085937500e+00,-4.207052886486053467e-01,5.300000000000000000e+02
-4.636405135794484522e+01,-4.045070362074875447e+01,1.548217234995900071e+01,2.668936006881813228e+01,-2.023391737170641136e+01,1.412949372327420861e+01,4.025056787063840602e+01,1.164695935660165560e+01,9.446745872497558594e+00,-1.338607788085937500e+00,-4.207052886486053467e-01,5.310000000000000000e+02
-4.254976275114677264e+01,-3.883754163968114881e+01,1.728025659108607215e+01,2.753291516936042171e+01,-2.060354375092174450e+01,1.429676329620633624e+01,4.111317449525631673e+01,1.171875968055792328e+01,9.446745872497558594e+00,-1.338607788085937500e+00,-4.207052886486053467e-01,5.320000000000000000e+02
-4.092527034773411287e+01,-3.590611319373601873e+01,1.904848123141528049e+01,3.035118960106228769e+01,-2.089697957959651831e+01,1.542430171515297843e+01,4.326747597525718447e+01,1.308972514031120227e+01,9.446745872497558594e+00,-1.338607788085937500e+00,-4.207052886486053467e-01,5.330000000000000000e+02
-4.110272824392995972e+01,-3.251422840318628005e+01,2.047311148624612542e+01,3.335677287060934759e+01,-2.127046229591724114e+01,1.674358985389699228e+01,4.516666733331112482e+01,1.417775739247917954e+01,9.446745872497558594e+00,-1.338607788085937500e+00,-4.207052886486053467e-01,5.340000000000000000e+02
-4.216460197204651195e+01,-2.970240385673605488e+01,2.121326484239034471e+01,3.467409220012450533e+01,-2.219498824026231887e+01,1.726978415204575867e+01,4.504554615435336018e+01,1.345896601674212434e+01,9.446745872497558594e+00,-1.338607788085937500e+00,-4.207052886486053467e-01,5.350000000000000000e+02
-4.346487423942016903e+01,-2.808627664252344402e+01,2.112092233230941929e+01,3.375870291840510617e+01,-2.395705682459447416e+01,1.667401291202622815e+01,4.259956641336793837e+01,1.093133887731528375e+01,9.446745872497558594e+00,-1.338607788085937500e+00,-4.207052886486053467e-01,5.360000000000000000e+02
-4.457983715879890951e+01,-2.752135397265919892e+01,2.049373647608081228e+01,3.174253910924016964e+01,-2.616280142534014885e+01,1.562992343910809723e+01,3.948973118535286631e+01,8.207498878111437079e+00,9.446745872497558594e+00,-1.338607788085937500e+00,-4.207052886486053467e-01,5.370000000000000000e+02
-4.467814482301400858e+01,-2.733441208212570928e+01,1.996441878380392154e+01,3.039965645165284513e+01,-2.782760417664394481e+01,1.527658985783273238e+01,3.809161848987787380e+01,7.151153645212616539e+00,9.446745872497558594e+00,-1.338607788085937500e+00,-4.207052886486053467e-01,5.380000000000000000e+02
-4.246459348708958714e+01,-2.690355899258611316e+01,2.002571182954670803e+01,3.068802656275329355e+01,-2.802133701092679985e+01,1.624913720786935301e+01,3.954420544592539954e+01,8.351208843701897422e+00,9.446745872497558594e+00,-1.338607788085937500e+00,-4.207052886486053467e-01,5.390000000000000000e+02
-3.726246107065890101e+01,-2.605644989320717286e+01,2.064349037822466926e+01,3.216881011402256263e+01,-2.646337926593332668e+01,1.814787709026131779e+01,4.283305555145125254e+01,1.083051958301075501e+01,9.446745872497558594e+00,-1.338607788085937500e+00,-4.207052886486053467e-01,5.400000000000000000e+02
-3.028280171675214660e+01,-2.499010224107769318e+01,2.135158766153108445e+01,3.369865054599722498e+01,-2.357503311394248158e+01,1.991374214103780105e+01,4.569227061568199133e+01,1.312994652765337378e+01,9.446745872497558594e+00,-1.338607788085937500e+00,-4.207052886486053467e-01,5.410000000000000000e+02
-2.448337914867443033e+01,-2.393815068068943219e+01,2.170644833674123220e+01,3.454260807023456437e+01,-2.010470975160933449e+01,2.072921945775306085e+01,4.644623278514882259e+01,1.459112767973419977e+01,9.446745872497558594e+00,-1.338607788085937500e+00,-4.207052886486053467e-01,5.420000000000000000e+02
-2.259143770907758153e+01,-2.302643872730914154e+01,2.160873787377204280e+01,3.476488994730243576e+01,-1.679421319403263624e+01,2.060614019421336707e+01,4.513620970847659919e+01,1.561483298313032719e+01,9.446745872497558594e+00,-1.338607788085937500e+00,-4.207052886486053467e-01,5.430000000000000000e+02
-2.479886447749595391e+01,-2.242033840818112367e+01,2.122032802743706270e+01,3.468737624951972975e+01,-1.428569683216119302e+01,2.020621567120906548e+01,4.310738355244939157e+01,1.687359009174178937e+01,9.446745872497558594e+00,-1.338607788085937500e+00,-4.207052886486053467e-01,5.440000000000000000e+02
-2.832748635666212067e+01,-2.243180842428955657e+01,2.068890518821172009e+01,3.425552507782413159e+01,-1.306520418291620445e+01,2.019631561784262885e+01,4.171592963719558611e+01,1.850693432641492109e+01,9.446745872497558594e+00,-1.338607788085937500e+00,-4.207052886486053467e-01,5.450000000000000000e+02
-2.952978022714887629e+01,-2.325623051701222721e+01,2.008275177256291499e+01,3.316654044774259091e+01,-1.323257243390617077e+01,2.080506924312066985e+01,4.148259469798722421e+01,2.016831357124101487e+01,9.446745872497558594e+00,-1.338607788085937500e+00,-4.207052886486053467e-01,5.460000000000000000e+02
-2.680812918334777351e+01,-2.451192922369591543e+01,1.960652587510412559e+01,3.162379378716286737e+01,-1.425980576080110040e+01,2.191598377358241123e+01,4.231171083516528597e+01,2.172589693245026865e+01,9.446745872497558594e+00,-1.338607788085937500e+00,-4.207052886486053467e-01,5.470000000000000000e+02
-2.179813245614786865e+01,-2.516004215962311719e+01,1.974061972096751560e+01,3.071575639759612386e+01,-1.512896086816181196e+01,2.342078209450846771e+01,4.416559592970588710e+01,2.365628222687519155e+01,9.446745872497558594e+00,-1.338607788085937500e+00,-4.207052886486053467e-01,5.480000000000000000e+02
-1.781257564804764115e+01,-2.412440064926340710e+01,2.098235255621329998e+01,3.171214037977551925e+01,-1.493459517626615707e+01,2.536014421865547774e+01,4.722189890234221821e+01,2.657136031340996851e+01,9.446745872497558594e+00,-1.338607788085937500e+00,-4.207052886486053467e-01,5.490000000000000000e+02
-1.702283445326247602e+01,-2.120881477756120148e+01,2.332411673275782960e+01,3.477695042991763330e+01,-1.351261560428247321e+01,2.769705871038604528e+01,5.129894684844657604e+01,3.036118060889566550e+01,9.446745872497558594e+00,-1.338607788085937500e+00,-4.207052886486053467e-01,5.500000000000000000e+02
-1.889595170082247932e+01,-1.746674619986879406e+01,2.598590402258923859e+01,3.840686316187930061e+01,-1.154547977110632928e+01,3.002499839321535546e+01,5.530949031835916685e+01,3.392338816307892557e+01,9.446745872497558594e+00,-1.376853704452514648e+00,-4.207052886486053467e-01,5.510000000000000000e+02
-2.107741139345671399e+01,-1.457092461175852804e+01,2.777414055543704308e+01,4.036406709742732346e+01,-1.004501132052610046e+01,3.160785261768614873e+01,5.759486649754580867e+01,3.585242246729831095e+01,9.446745872497558594e+00,-1.376853704452514648e+00,-4.207052886486053467e-01,5.520000000000000000e+02
-2.159076055175682995e+01,-1.363105924416595371e+01,2.788820352551192627e+01,3.945627595501719043e+01,-9.635382953238149639e+00,3.182377970798552269e+01,5.708577894119298435e+01,3.549490283005434321e+01,9.446745872497558594e+00,-1.376853704452514648e+00,-4.207052886486053467e-01,5.530000000000000000e+02
-2.022162933133949991e+01,-1.443017098582276958e+01,2.654720065034780419e+01,3.661966414273774717e+01,-1.017041083917138167e+01,3.067424240473701502e+01,5.427015916118762107e+01,3.343382019570344710e+01,9.446745872497558594e+00,-1.376853704452514648e+00,-4.207052886486053467e-01,5.540000000000000000e+02
-1.805746997001915588e+01,-1.570455941335239913e+01,2.488777381515683373e+01,3.427752816294014337e+01,-1.091391050765378168e+01,2.890430259901404497e+01,5.098999928101147816e+01,3.104029888386503444e+01,9.446745872497558594e+00,-1.376853704452514648e+00,-4.207052886486053467e-01,5.550000000000000000e+02
-1.604528412951913197e+01,-1.617904662644650671e+01,2.416397080831666244e+01,3.447656313259722083e+01,-1.108634448370139580e+01,2.758754032388242194e+01,4.915634431018224859e+01,2.958017230853511137e+01,9.446745872497558594e+00,-1.376853704452514648e+00,-4.207052886486053467e-01,5.560000000000000000e+02
-1.421291758766528801e+01,-1.546040857157277060e+01,2.484008856107175234e+01,3.737093123006343376e+01,-1.039941739999994752e+01,2.746989179469528608e+01,4.943970056640318944e+01,2.958344284656413947e+01,9.446745872497558594e+00,-1.376853704452514648e+00,-4.207052886486053467e-01,5.570000000000000000e+02
-1.219372558711984311e+01,-1.408749717808314017e+01,2.627830087495385669e+01,4.129708150581063819e+01,-9.242703280760906637e+00,2.858766987778290058e+01,5.102061094220880477e+01,3.078827765924870619e+01,9.446745872497558594e+00,-1.376853704452514648e+00,-4.207052886486053467e-01,5.580000000000000000e+02
-1.018179405271803262e+01,-1.281338943866285263e+01,2.730044095175981056e+01,4.427574114693561569e+01,-8.361959402827778831e+00,3.045818305820284877e+01,5.254139613121515140e+01,3.250315024261362851e+01,9.446745872497558594e+00,-1.376853704452514648e+00,-4.207052886486053467e-01,5.590000000000000000e+02
-9.076559993158298312e+00,-1.186276553864809102e+01,2.717371181890121079e+01,4.556046827003956423e+01,-8.219188759190728888e+00,3.262799007878857083e+01,5.333423299659443728e+01,3.404894712528039236e+01,9.446745872497558594e+00,-1.376853704452514648e+00,-4.207052886486053467e-01,5.600000000000000000e+02
-9.589433844907034654e+00,-1.083205482385164942e+01,2.620883875765139237e+01,4.594288957036769716e+01,-8.511487586492876289e+00,3.505448709498523385e+01,5.384844728390999080e+01,3.510092787300891359e+01,9.446745872497558594e+00,-1.376853704452514648e+00,-4.207052886486053467e-01,5.610000000000000000e+02
-1.129994091137996293e+01,-9.240825056946050609e+00,2.548337369916407624e+01,4.672044542362709763e+01,-8.290352250383875798e+00,3.797161817771120695e+01,5.499188626219984144e+01,3.584006823522213381e+01,9.446745872497558594e+00,-1.376853704452514648e+00,-4.207052886486053467e-01,5.620000000000000000e+02
-1.280149581910518464e+01,-7.178595876768667949e+00,2.591086649475619197e+01,4.836767430135660106e+01,-6.697432565495546442e+00,4.140791446592993452e+01,5.702423784797065309e+01,3.675582749814930139e+01,9.446745872497558594e+00,-1.376853704452514648e+00,-4.207052886486053467e-01,5.630000000000000000e+02
-1.294576057587983087e+01,-5.444597499863448320e+00,2.742912997723760782e+01,5.007873828090669122e+01,-3.760755338818853488e+00,4.487874473557894817e+01,5.900114409080561018e+01,3.808254880667664111e+01,9.446745872497558594e+00,-1.376853704452514648e+00,-4.207052886486053467e-01,5.640000000000000000e+02
