F3,F4,C3,C4,P3,P4,Cz,Pz,Accel_x,Accel_y,Accel_z,Sample
-1.114131009671837091e-11,7.389644451905041933e-13,-9.094947017729282379e-12,-6.139089236967265606e-12,-1.364242052659392357e-11,-1.546140993013978004e-11,-3.456079866737127304e-11,-1.386979420203715563e-11,9.484992027282714844e+00,-8.031646609306335449e-01,3.824593871831893921e-02,2.260000000000000000e+02
-1.750087534802855771e+01,8.972109403451327125e-01,-2.701412129970776732e+00,9.928803194273996269e-01,2.176882169265854827e+01,8.702623798690183321e+00,2.102990484376823588e+01,-1.551802291667013378e+01,9.484992027282714844e+00,-8.031646609306335449e-01,3.824593871831893921e-02,2.270000000000000000e+02
-2.696237592180273168e+01,7.391431987370538081e-01,-3.648084693727014383e+00,2.527409380635617708e+00,3.151143672685157071e+01,1.173775884454198604e+01,3.074093078571513615e+01,-2.081933781243947124e+01,9.484992027282714844e+00,-8.031646609306335449e-01,3.824593871831893921e-02,2.280000000000000000e+02
-2.700269006919324966e+01,-2.066782976988292830e-01,-2.951234750305502530e+00,4.728383945352447881e+00,2.700976331945230413e+01,7.971445617741210299e+00,2.728629657549390686e+01,-1.477164886553464385e+01,9.484992027282714844e+00,-8.031646609306335449e-01,3.824593871831893921e-02,2.290000000000000000e+02
-2.320857166750420220e+01,-3.201805828130090958e-01,-2.483331278250489049e+00,7.328585248811805286e+00,1.640182144597702063e+01,1.108067505965664168e+00,1.871797829346451181e+01,-5.646023055350269715e+00,9.484992027282714844e+00,-8.031646609306335449e-01,3.824593871831893921e-02,2.300000000000000000e+02
-2.223879958564771187e+01,1.995085931213225194e+00,-3.931180373017014062e+00,9.999626191926495267e+00,9.595730480908969184e+00,-4.245727266072663042e+00,1.457221940295039531e+01,-2.872901956896157571e+00,9.484992027282714844e+00,-8.031646609306335449e-01,3.824593871831893921e-02,2.310000000000000000e+02
-2.587971110570765632e+01,6.714009692357308268e+00,-7.054503256240650444e+00,1.248443369838958006e+01,9.488686690488066233e+00,-6.728593275738603552e+00,1.741286479215068539e+01,-8.784923682377439036e+00,9.484992027282714844e+00,-8.031646609306335449e-01,3.824593871831893921e-02,2.320000000000000000e+02
-3.063266879762113604e+01,1.182110865452091275e+01,-9.894095638321005026e+00,1.437214489397206307e+01,1.124702800044951800e+01,-8.716884631402535888e+00,2.229600109750663250e+01,-1.808361601736078228e+01,9.370253562927246094e+00,-8.414105772972106934e-01,3.824593871831893921e-02,2.330000000000000000e+02
-3.232562111605875543e+01,1.461556575601196073e+01,-1.058651067639448229e+01,1.496511582763889692e+01,9.045248405283928150e+00,-1.321563459809658525e+01,2.336389830983944194e+01,-2.430013560915995185e+01,9.370253562927246094e+00,-8.414105772972106934e-01,3.824593871831893921e-02,2.340000000000000000e+02
-3.042917982493850104e+01,1.369145824642004072e+01,-8.876167733202009913e+00,1.372114684824475717e+01,2.465833436273896950e+00,-2.062136907890817383e+01,1.988575778534459459e+01,-2.580111413582585556e+01,9.370253562927246094e+00,-8.414105772972106934e-01,3.824593871831893921e-02,2.350000000000000000e+02
-2.797034015445319710e+01,9.970623591785056306e+00,-5.954757521732517489e+00,1.102825167527339545e+01,-3.679071118528554507e+00,-2.844515224175256662e+01,1.590349254113107236e+01,-2.560472092798340782e+01,9.370253562927246094e+00,-8.414105772972106934e-01,3.824593871831893921e-02,2.360000000000000000e+02
-2.804037461342250026e+01,5.942596840036173944e+00,-3.098667783724067704e+00,8.457664671887869190e+00,-4.777358249758890452e+00,-3.376514945931057810e+01,1.513035220628580646e+01,-2.653275082791151362e+01,9.370253562927246094e+00,-8.414105772972106934e-01,3.824593871831893921e-02,2.370000000000000000e+02
-3.106387598166702446e+01,3.745303894120297628e+00,-6.654368119975515583e-01,7.967973601579501519e+00,-7.386986091082690109e-01,-3.562501056477776729e+01,1.731970068631380855e+01,-2.774022920930474356e+01,9.370253562927246094e+00,-8.414105772972106934e-01,3.824593871831893921e-02,2.380000000000000000e+02
-3.527451053735285313e+01,3.678661691506192710e+00,1.682014523040379572e+00,1.058561083509232503e+01,4.826452345504094410e+00,-3.521671517658023731e+01,1.957026199401843769e+01,-2.611034549014789263e+01,9.370253562927246094e+00,-8.414105772972106934e-01,3.824593871831893921e-02,2.390000000000000000e+02
-3.899940822185749312e+01,4.344822764912407820e+00,4.119612222437353921e+00,1.572853975682676264e+01,8.642316629112428927e+00,-3.424011562925579710e+01,2.012665211045577962e+01,-2.019719544048348325e+01,9.370253562927246094e+00,-8.414105772972106934e-01,3.824593871831893921e-02,2.400000000000000000e+02
-4.188642625206148296e+01,4.184406755648183207e+00,6.303412930329386654e+00,2.177627922758097156e+01,1.030689952760258166e+01,-3.344622118631014018e+01,2.002937148635191988e+01,-1.205622550825501094e+01,9.370253562927246094e+00,-8.414105772972106934e-01,3.824593871831893921e-02,2.410000000000000000e+02
-4.418097026833197560e+01,2.973848223443326333e+00,7.826196666502028165e+00,2.729850663095885466e+01,1.126464470942255502e+01,-3.265060415675361583e+01,2.121759752690695677e+01,-5.302932775091903750e+00,9.370253562927246094e+00,-8.414105772972106934e-01,3.824593871831893921e-02,2.420000000000000000e+02
-4.564201624416568848e+01,1.942755922857543283e+00,8.776466085250376636e+00,3.179679016170280192e+01,1.235233633503548845e+01,-3.168370664866506559e+01,2.393242631379325758e+01,-1.983452321916274741e+00,9.370253562927246094e+00,-8.414105772972106934e-01,3.824593871831893921e-02,2.430000000000000000e+02
-4.570191846266857283e+01,2.470398994785625746e+00,9.660321626585300692e+00,3.544648931747281040e+01,1.297289106895050281e+01,-3.095112960375354305e+01,2.654152567192340939e+01,-1.552141558981702474e+00,9.370253562927246094e+00,-8.414105772972106934e-01,3.824593871831893921e-02,2.440000000000000000e+02
-4.450432788637601789e+01,4.656447940096654747e+00,1.079474292758618503e+01,3.840724412400822985e+01,1.233790889520469136e+01,-3.105262230858670591e+01,2.759262537142149085e+01,-2.373840669611126941e+00,9.370253562927246094e+00,-8.414105772972106934e-01,3.824593871831893921e-02,2.450000000000000000e+02
-4.326081051499613750e+01,7.170492753299413380e+00,1.192001686971275376e+01,4.060178071311679560e+01,1.076790799762147799e+01,-3.205813052156690901e+01,2.736741528015136282e+01,-3.491068562482496418e+00,9.370253562927246094e+00,-8.414105772972106934e-01,3.824593871831893921e-02,2.460000000000000000e+02
-4.332531534925101369e+01,8.521567481973022495e+00,1.249161180844794217e+01,4.214790538869601733e+01,9.430046304998086271e+00,-3.329834363574218514e+01,2.719777823099548186e+01,-4.752180925950142409e+00,9.370253562927246094e+00,-8.414105772972106934e-01,3.824593871831893921e-02,2.470000000000000000e+02
-4.505108830996562119e+01,8.467925768938528108e+00,1.231101920944070116e+01,4.376017748608694546e+01,9.125587202583119506e+00,-3.385102817457891433e+01,2.770908980940066613e+01,-5.753187674524951944e+00,9.370253562927246094e+00,-8.414105772972106934e-01,3.824593871831893921e-02,2.480000000000000000e+02
-4.768915142549735720e+01,8.156648898106027445e+00,1.181812788067895781e+01,4.643174746297006550e+01,9.752396962785496726e+00,-3.322664419954844561e+01,2.824631218189733772e+01,-5.336179556412162128e+00,9.370253562927246094e+00,-8.414105772972106934e-01,3.824593871831893921e-02,2.490000000000000000e+02
-5.025738853069015022e+01,8.851021449405493513e+00,1.178884836964653005e+01,5.054343083218645916e+01,1.092609992501661509e+01,-3.171226546654679623e+01,2.802790098457580825e+01,-2.390487347861835588e+00,9.370253562927246094e+00,-8.414105772972106934e-01,3.824593871831893921e-02,2.500000000000000000e+02
-5.223885231679150820e+01,1.054091565992587221e+01,1.277960312101890850e+01,5.526920808081308678e+01,1.270435697453922330e+01,-3.022164661203441938e+01,2.743035161702891855e+01,2.977722111940920513e+00,9.370253562927246094e+00,-8.414105772972106934e-01,3.824593871831893921e-02,2.510000000000000000e+02
-5.342413660934562358e+01,1.187895906823484893e+01,1.480519218059816922e+01,5.896961352258631450e+01,1.535578656670259079e+01,-2.983171225246269387e+01,2.777926261063976199e+01,9.226751118376114391e+00,9.370253562927246094e+00,-8.414105772972106934e-01,3.824593871831893921e-02,2.520000000000000000e+02
-5.348125638692488337e+01,1.151513873888455919e+01,1.738938711237028656e+01,6.032793435432381557e+01,1.851940427735530648e+01,-3.124871903866505818e+01,2.993440902920065128e+01,1.430196294275037872e+01,9.370253562927246094e+00,-8.414105772972106934e-01,3.824593871831893921e-02,2.530000000000000000e+02
-5.213427318386027309e+01,9.460244721109461352e+00,1.979432913603523048e+01,5.931889174538366660e+01,2.094081946206460998e+01,-3.442333958549534145e+01,3.332424086733180957e+01,1.681218688209241918e+01,9.370253562927246094e+00,-8.414105772972106934e-01,3.824593871831893921e-02,2.540000000000000000e+02
-4.986084246790926500e+01,7.086737449237773490e+00,2.126715088787454988e+01,5.726612157146064419e+01,2.129121768835921102e+01,-3.851663090667216238e+01,3.644666070959556237e+01,1.656550653567137488e+01,9.370253562927246094e+00,-8.414105772972106934e-01,3.824593871831893921e-02,2.550000000000000000e+02
-4.809887082500608813e+01,5.774786752134389189e+00,2.130761516260963617e+01,5.600984233311874050e+01,1.929964407741931609e+01,-4.229103035160824220e+01,3.818275107449426287e+01,1.433792912260310004e+01,9.370253562927246094e+00,-8.414105772972106934e-01,3.824593871831893921e-02,2.560000000000000000e+02
-4.834932725346516236e+01,5.612914926446023856e+00,1.995463833191161029e+01,5.683398628293571164e+01,1.605906053427679581e+01,-4.474741397956677247e+01,3.852213266826129257e+01,1.132027069167293121e+01,9.370253562927246094e+00,-8.414105772972106934e-01,3.824593871831893921e-02,2.570000000000000000e+02
-5.089344381832609088e+01,5.456385881284518291e+00,1.788001307457420808e+01,5.981357793775214304e+01,1.325243230174032760e+01,-4.562783028746321179e+01,3.816010781206250613e+01,8.607026320292106902e+00,9.370253562927246094e+00,-8.414105772972106934e-01,3.824593871831893921e-02,2.580000000000000000e+02
-5.448554389407581766e+01,4.217763643671503360e+00,1.606923522145598326e+01,6.386069721386627407e+01,1.205136401246886635e+01,-4.547418654872899424e+01,3.763648844980889407e+01,6.843730281819034644e+00,9.370253562927246094e+00,-8.414105772972106934e-01,3.824593871831893921e-02,2.590000000000000000e+02
-5.746582251796735363e+01,2.011765950456208429e+00,1.521141840335758388e+01,6.734948745143174165e+01,1.255489107702010187e+01,-4.524619825393392603e+01,3.694384880321604214e+01,6.100298021725848230e+00,9.408499717712402344e+00,-8.031646609306335449e-01,7.649187743663787842e-02,2.600000000000000000e+02
-5.925104920418436905e+01,-1.969805420901593607e-02,1.527229339475502456e+01,6.897596678754257482e+01,1.397542784221832335e+01,-4.578111484974897394e+01,3.580193742213486985e+01,6.031964625841737870e+00,9.408499717712402344e+00,-8.031646609306335449e-01,7.649187743663787842e-02,2.610000000000000000e+02
-6.073393670348116302e+01,-9.394391673596373948e-01,1.565079545249409421e+01,6.844622641404805563e+01,1.518517440548339437e+01,-4.738735055179859046e+01,3.409068525206112099e+01,6.270698704674941837e+00,9.408499717712402344e+00,-8.031646609306335449e-01,7.649187743663787842e-02,2.620000000000000000e+02
-6.323422606891188025e+01,-9.824047127157768955e-01,1.578799727914565665e+01,6.661197360824371572e+01,1.524761992432422630e+01,-4.970878062032579692e+01,3.199439047672467495e+01,6.745237420170042242e+00,9.408499717712402344e+00,-8.031646609306335449e-01,7.649187743663787842e-02,2.630000000000000000e+02
-6.709596276281399696e+01,-1.312313499339666123e+00,1.564292202823162370e+01,6.491453919785624294e+01,1.377850645502803673e+01,-5.188878407910146962e+01,2.985262540992289360e+01,7.654053927261657009e+00,9.408499717712402344e+00,-8.031646609306335449e-01,7.649187743663787842e-02,2.640000000000000000e+02
-7.131377805296096994e+01,-2.928377930249439487e+00,1.556844038528060992e+01,6.444213999120040626e+01,1.106259119499213739e+01,-5.301585437952508073e+01,2.796559092803681779e+01,9.129359647892215435e+00,9.408499717712402344e+00,-8.031646609306335449e-01,7.649187743663787842e-02,2.650000000000000000e+02
-7.448172052223617357e+01,-5.907877417381826035e+00,1.574385239119442303e+01,6.523881826504327819e+01,7.832965550428525603e+00,-5.270655213566396924e+01,2.648829713114128026e+01,1.091450361925126344e+01,9.408499717712402344e+00,-8.031646609306335449e-01,7.649187743663787842e-02,2.660000000000000000e+02
-7.605512500780685059e+01,-9.657602089658553268e+00,1.579987414635570531e+01,6.637810244149557093e+01,4.751180191201910930e+00,-5.148918714117166928e+01,2.536535620556651338e+01,1.235158187239358085e+01,9.408499717712402344e+00,-8.031646609306335449e-01,7.649187743663787842e-02,2.670000000000000000e+02
-7.670243845529728333e+01,-1.368631387225485696e+01,1.509771336459812119e+01,6.672457546648308835e+01,1.945705007392461994e+00,-5.062926512644844479e+01,2.434175851479903940e+01,1.266523128300809731e+01,9.408499717712402344e+00,-8.031646609306335449e-01,7.649187743663787842e-02,2.680000000000000000e+02
-7.749764007990972914e+01,-1.792036476349380791e+01,1.344292647910583582e+01,6.576453735753921137e+01,-9.687181940207665320e-01,-5.136717818312831696e+01,2.314523428261600202e+01,1.134070823475872203e+01,9.408499717712402344e+00,-8.031646609306335449e-01,7.649187743663787842e-02,2.690000000000000000e+02
-7.880652221739842389e+01,-2.224638715675490630e+01,1.150297225909548615e+01,6.385324312522254786e+01,-4.394163946509706875e+00,-5.407270782586442692e+01,2.176002097881973896e+01,8.391287801965177096e+00,9.408499717712402344e+00,-8.031646609306335449e-01,7.649187743663787842e-02,2.700000000000000000e+02
-7.991147492667892038e+01,-2.595755657404174599e+01,1.041260011596136792e+01,6.174905329461478232e+01,-8.308363267175082001e+00,-5.802738140491419472e+01,2.049190123638572913e+01,4.397261804508048044e+00,9.408499717712402344e+00,-8.031646609306335449e-01,7.649187743663787842e-02,2.710000000000000000e+02
-7.969395974268968530e+01,-2.793144655800787746e+01,1.081999822819511792e+01,5.989640229867211474e+01,-1.234423097997910190e+01,-6.206395449574392842e+01,1.966519192312989617e+01,2.501717038416018113e-01,9.408499717712402344e+00,-8.031646609306335449e-01,7.649187743663787842e-02,2.720000000000000000e+02
-7.775780870406310896e+01,-2.752586450510847271e+01,1.221219749828173917e+01,5.806659189012265188e+01,-1.623111387839662711e+01,-6.550318118883137686e+01,1.923701803417998235e+01,-3.337795858134541049e+00,9.408499717712402344e+00,-8.031646609306335449e-01,7.649187743663787842e-02,2.730000000000000000e+02
-7.499119419767941963e+01,-2.530816665820867684e+01,1.319429633274535263e+01,5.559572745480534195e+01,-2.006785721733740502e+01,-6.856080470168762986e+01,1.873947879142087913e+01,-6.213778402967591319e+00,9.408499717712402344e+00,-8.031646609306335449e-01,7.649187743663787842e-02,2.740000000000000000e+02
-7.307779908001555214e+01,-2.281353749127598007e+01,1.256300471761244353e+01,5.194731709238789108e+01,-2.411761792152810813e+01,-7.189418130749641023e+01,1.764414330149611487e+01,-8.668390264262825440e+00,9.408499717712402344e+00,-8.031646609306335449e-01,7.649187743663787842e-02,2.750000000000000000e+02
-7.336879232098203829e+01,-2.147976576202461274e+01,1.024938458174062816e+01,4.713283639112171386e+01,-2.837354059102653991e+01,-7.577409584788665597e+01,1.581325234627138343e+01,-1.088121025676082354e+01,9.408499717712402344e+00,-8.031646609306335449e-01,7.649187743663787842e-02,2.760000000000000000e+02
-7.600789074707540749e+01,-2.170912258848264287e+01,7.290885693070435991e+00,4.171279933896278180e+01,-3.241539505392188403e+01,-7.971435529354948812e+01,1.361932407627659813e+01,-1.249663855136861912e+01,9.408499717712402344e+00,-8.031646609306335449e-01,7.649187743663787842e-02,2.770000000000000000e+02
-7.995808041976999903e+01,-2.284800003159719495e+01,4.873602742353682515e+00,3.643832467436965317e+01,-3.574143276313725437e+01,-8.291666596672507694e+01,1.165862522622614961e+01,-1.288948804737344744e+01,9.408499717712402344e+00,-8.031646609306335449e-01,7.649187743663787842e-02,2.780000000000000000e+02
-8.383310386898335764e+01,-2.397527396842767189e+01,3.349030649576889118e+00,3.182473390136954094e+01,-3.822480175926943957e+01,-8.506189886424158431e+01,1.035047274734256462e+01,-1.194830678460027684e+01,9.408499717712402344e+00,-8.031646609306335449e-01,7.649187743663787842e-02,2.790000000000000000e+02
-8.684036240501421844e+01,-2.467716555008200885e+01,2.129671511286232999e+00,2.793538274535416122e+01,-4.020369624780869344e+01,-8.663861390074089286e+01,9.737256487960394225e+00,-1.052288509691493346e+01,9.408499717712402344e+00,-8.031646609306335449e-01,7.649187743663787842e-02,2.800000000000000000e+02
-8.917057001155905027e+01,-2.515226929707415593e+01,4.757688775981705476e-01,2.446997302665369034e+01,-4.212864309064252666e+01,-8.846597019873956924e+01,9.536494030678795752e+00,-9.923182638686967039e+00,9.408499717712402344e+00,-8.031646609306335449e-01,7.649187743663787842e-02,2.810000000000000000e+02
-9.166988381761780147e+01,-2.573119253388068728e+01,-1.696218899547716319e+00,2.105851263667028661e+01,-4.418001731266372190e+01,-9.088936605818457792e+01,9.292856322502757394e+00,-1.084799550603918306e+01,9.408499717712402344e+00,-8.031646609306335449e-01,7.649187743663787842e-02,2.820000000000000000e+02
-9.515349703588088914e+01,-2.640613603061248682e+01,-3.832181483781482711e+00,1.753243159259585582e+01,-4.628883900943765184e+01,-9.346700844012775633e+01,8.535371105622971299e+00,-1.284166613959473580e+01,9.408499717712402344e+00,-8.031646609306335449e-01,7.649187743663787842e-02,2.830000000000000000e+02
-9.987253821091741202e+01,-2.681085678899026448e+01,-5.545319966072042916e+00,1.397408626373930929e+01,-4.852848461005692116e+01,-9.549222004975513300e+01,6.944953866414380173e+00,-1.490336745567537946e+01,9.408499717712402344e+00,-8.031646609306335449e-01,7.649187743663787842e-02,2.840000000000000000e+02
-1.054213300486699154e+02,-2.654335674794216970e+01,-7.306597106239109962e+00,1.052224618321992011e+01,-5.140677061523615521e+01,-9.685577224232338267e+01,4.503872556760597945e+00,-1.665414780112269000e+01,9.408499717712402344e+00,-8.031646609306335449e-01,7.649187743663787842e-02,2.850000000000000000e+02
-1.110469510488958349e+02,-2.544333797999098579e+01,-1.023177798635515501e+01,7.106734826656690984e+00,-5.565961297293870302e+01,-9.837545220178685668e+01,1.502817067239448079e+00,-1.886891056194997418e+01,9.408499717712402344e+00,-8.031646609306335449e-01,7.649187743663787842e-02,2.860000000000000000e+02
-1.160988893085078644e+02,-2.361720727314897772e+01,-1.514529920293375653e+01,3.348846585093156136e+00,-6.169091186593482234e+01,-1.012363678486672143e+02,-1.685071308155784209e+00,-2.284202157435174740e+01,9.408499717712402344e+00,-8.031646609306335449e-01,7.649187743663787842e-02,2.870000000000000000e+02
-1.203363598549560152e+02,-2.133023356720022434e+01,-2.188344031278643342e+01,-1.277770471785288464e+00,-6.924110224469359309e+01,-1.060758326369964379e+02,-4.936829178258903994e+00,-2.931794434359312618e+01,9.408499717712402344e+00,-8.031646609306335449e-01,7.649187743663787842e-02,2.880000000000000000e+02
-1.239309638404152736e+02,-1.898715357183226615e+01,-2.955310604610244241e+01,-7.169491047579256815e+00,-7.770235004832022696e+01,-1.126060544612724925e+02,-8.556256785471930471e+00,-3.809817949352748201e+01,9.408499717712402344e+00,-8.031646609306335449e-01,7.649187743663787842e-02,2.890000000000000000e+02
-1.272183401615187677e+02,-1.722276611787935963e+01,-3.744414333432985131e+01,-1.444780835755643977e+01,-8.681651163958312623e+01,-1.201259719472863026e+02,-1.313496707788704043e+01,-4.855124867869517402e+01,9.408499717712402344e+00,-8.031646609306335449e-01,7.649187743663787842e-02,2.900000000000000000e+02
-1.304160790830644601e+02,-1.693845882573015160e+01,-4.560452773116284675e+01,-2.304906510089887206e+01,-9.700270027629051128e+01,-1.283491467654546909e+02,-1.919130889069265322e+01,-6.021396427643037441e+01,9.446745872497558594e+00,-8.414105772972106934e-01,7.649187743663787842e-02,2.910000000000000000e+02
-1.335377179096206532e+02,-1.911956518321011345e+01,-5.447114728892617563e+01,-3.290644259711883990e+01,-1.088410186190880324e+02,-1.376541879914810238e+02,-2.684898137697319953e+01,-7.269562366464759862e+01,9.446745872497558594e+00,-8.414105772972106934e-01,7.649187743663787842e-02,2.920000000000000000e+02
-1.365409482191183201e+02,-2.442992027192039473e+01,-6.400537557211882245e+01,-4.398298773577687371e+01,-1.221066495320349361e+02,-1.484789539614988314e+02,-3.574366137414460809e+01,-8.511462053620465440e+01,9.446745872497558594e+00,-8.414105772972106934e-01,7.649187743663787842e-02,2.930000000000000000e+02
-1.394925069868191088e+02,-3.275689231507243449e+01,-7.331023774343961463e+01,-5.606761487142433964e+01,-1.353391351840308516e+02,-1.604978241357574120e+02,-4.517237542303735154e+01,-9.601521448309944162e+01,9.446745872497558594e+00,-8.414105772972106934e-01,7.649187743663787842e-02,2.940000000000000000e+02
-1.425287524672660311e+02,-4.296739380645743722e+01,-8.118054037455993921e+01,-6.853390879636069144e+01,-1.465638467499759656e+02,-1.725055265216752787e+02,-5.438920330006487802e+01,-1.042277752636849755e+02,9.446745872497558594e+00,-8.414105772972106934e-01,7.649187743663787842e-02,2.950000000000000000e+02
-1.456539433814307358e+02,-5.308811550112872624e+01,-8.704617123666548650e+01,-8.036847298302112108e+01,-1.546898660331285100e+02,-1.832138591629322946e+02,-6.290150063771596933e+01,-1.099489178946377876e+02,9.446745872497558594e+00,-8.414105772972106934e-01,7.649187743663787842e-02,2.960000000000000000e+02
-1.486653463751841286e+02,-6.098636122249473601e+01,-9.139726739666255639e+01,-9.056065704699146579e+01,-1.603567280203844234e+02,-1.921900196574623862e+02,-7.061719365582069941e+01,-1.148177683094399981e+02,9.446745872497558594e+00,-8.414105772972106934e-01,7.649187743663787842e-02,2.970000000000000000e+02
-1.513977202025271822e+02,-6.532931656403525267e+01,-9.535413091213945336e+01,-9.858391365739971945e+01,-1.654281755262828710e+02,-1.999820855461447877e+02,-7.774074861473826559e+01,-1.206703061105429526e+02,9.446745872497558594e+00,-8.414105772972106934e-01,7.649187743663787842e-02,2.980000000000000000e+02
-1.540616750319044286e+02,-6.629309233945295432e+01,-9.987068601407474944e+01,-1.045680837864322967e+02,-1.715645165363029037e+02,-2.072980308391011874e+02,-8.447096066884347465e+01,-1.280091904441763404e+02,9.446745872497558594e+00,-8.414105772972106934e-01,7.649187743663787842e-02,2.990000000000000000e+02
-1.572278265256601912e+02,-6.549578812308581632e+01,-1.052563378766510311e+02,-1.090110727800808093e+02,-1.791232042816934609e+02,-2.140876699817461315e+02,-9.073002527666039896e+01,-1.355860288939087184e+02,9.446745872497558594e+00,-8.414105772972106934e-01,7.649187743663787842e-02,3.000000000000000000e+02
-1.613358764205569855e+02,-6.508813637494540671e+01,-1.111979663093364366e+02,-1.123051651626203409e+02,-1.872112958231654432e+02,-2.194723776509962079e+02,-9.615309914626288901e+01,-1.414522616687982293e+02,9.446745872497558594e+00,-8.414105772972106934e-01,7.649187743663787842e-02,3.010000000000000000e+02
-1.661595590803168534e+02,-6.655647498502460735e+01,-1.169684290664437469e+02,-1.145195252707678151e+02,-1.945698587244934856e+02,-2.225856755725585003e+02,-1.003501393033384943e+02,-1.444617351482305878e+02,9.446745872497558594e+00,-8.414105772972106934e-01,7.649187743663787842e-02,3.020000000000000000e+02
-1.708160102164109162e+02,-7.003859217396490067e+01,-1.215923284044487787e+02,-1.156293083748089003e+02,-2.003319782966337925e+02,-2.234786874311914175e+02,-1.032050851685500561e+02,-1.449292996461134919e+02,9.446745872497558594e+00,-8.414105772972106934e-01,7.649187743663787842e-02,3.030000000000000000e+02
-1.744051908849668848e+02,-7.454802636265469573e+01,-1.241241033775119718e+02,-1.159196030550256609e+02,-2.041507492288457684e+02,-2.232224100904466013e+02,-1.049676630678621905e+02,-1.440960264428806852e+02,9.446745872497558594e+00,-8.414105772972106934e-01,7.649187743663787842e-02,3.040000000000000000e+02
-1.767164595740593711e+02,-7.878729829254481842e+01,-1.241966704231915628e+02,-1.160737117362567972e+02,-2.060308493682170479e+02,-2.231500198121598260e+02,-1.061052361200736982e+02,-1.431473212658480634e+02,9.446745872497558594e+00,-8.414105772972106934e-01,7.649187743663787842e-02,3.050000000000000000e+02
-1.783566663873775155e+02,-8.186075715101725336e+01,-1.225379539764877563e+02,-1.167663357771404549e+02,-2.063675605633710290e+02,-2.239709754663240631e+02,-1.070799869815107286e+02,-1.427124214993219198e+02,9.446745872497558594e+00,-8.414105772972106934e-01,7.649187743663787842e-02,3.060000000000000000e+02
-1.802121831826708558e+02,-8.346842925910954136e+01,-1.208096053707277804e+02,-1.180976415359028096e+02,-2.060782680990931794e+02,-2.254668165869692587e+02,-1.082011894701499273e+02,-1.429756398171452076e+02,9.446745872497558594e+00,-8.414105772972106934e-01,7.649187743663787842e-02,3.070000000000000000e+02
-1.827826394731447408e+02,-8.369745760389866973e+01,-1.205533720312052708e+02,-1.194122394353306191e+02,-2.062655840385202737e+02,-2.268382136658869968e+02,-1.095424196607250451e+02,-1.438565986685204621e+02,9.446745872497558594e+00,-8.414105772972106934e-01,7.649187743663787842e-02,3.080000000000000000e+02
-1.859481443551360940e+02,-8.279073523159601677e+01,-1.219646198105955079e+02,-1.197312498769335036e+02,-2.073270224797889512e+02,-2.272586636369493363e+02,-1.108864443716537380e+02,-1.448766585357811607e+02,9.446745872497558594e+00,-8.414105772972106934e-01,7.649187743663787842e-02,3.090000000000000000e+02
-1.892008301395905789e+02,-8.107890176640040636e+01,-1.236250050856527025e+02,-1.184676995926633083e+02,-2.083258393124151553e+02,-2.262305310843161692e+02,-1.117738570814166223e+02,-1.449965924761060023e+02,9.446745872497558594e+00,-8.414105772972106934e-01,7.649187743663787842e-02,3.100000000000000000e+02
-1.919570668770854240e+02,-7.896897291510563832e+01,-1.235881950927874300e+02,-1.158500626587045303e+02,-2.075316150499138246e+02,-2.237056165175332012e+02,-1.117431511230834076e+02,-1.429902263956211357e+02,9.446745872497558594e+00,-8.414105772972106934e-01,7.649187743663787842e-02,3.110000000000000000e+02
-1.936629417996308575e+02,-7.686614604988872657e+01,-1.209351563703785359e+02,-1.127517022241041502e+02,-2.039338065552843773e+02,-2.201017641569304431e+02,-1.106594865724238161e+02,-1.383474482355126440e+02,9.523238182067871094e+00,-8.031646609306335449e-01,3.824593871831893921e-02,3.120000000000000000e+02
-1.938055278121394167e+02,-7.507712539093432724e+01,-1.164203078456401670e+02,-1.101341107343675958e+02,-1.983657910275436222e+02,-2.162138752403123192e+02,-1.088449570354254945e+02,-1.319478395542387261e+02,9.523238182067871094e+00,-8.031646609306335449e-01,3.824593871831893921e-02,3.130000000000000000e+02
-1.920883267867835684e+02,-7.378927389215388644e+01,-1.116796917009081938e+02,-1.085472772670303669e+02,-1.930566948531044034e+02,-2.129033768023952575e+02,-1.068408586820314099e+02,-1.257211217188184094e+02,9.523238182067871094e+00,-8.031646609306335449e-01,3.824593871831893921e-02,3.140000000000000000e+02
-1.887528422577550202e+02,-7.306857281811949179e+01,-1.078592544448997330e+02,-1.079459300453525259e+02,-1.899339988813666764e+02,-2.106361580175431811e+02,-1.049840073247531791e+02,-1.213952718953032957e+02,9.523238182067871094e+00,-8.031646609306335449e-01,3.824593871831893921e-02,3.150000000000000000e+02
-1.847207473098919763e+02,-7.274924427962612583e+01,-1.050115282511937949e+02,-1.077734878612727130e+02,-1.892546355909753402e+02,-2.091891294827296406e+02,-1.031886732987900928e+02,-1.193482304107426444e+02,9.523238182067871094e+00,-8.031646609306335449e-01,3.824593871831893921e-02,3.160000000000000000e+02
-1.812853324586567112e+02,-7.228704173591596316e+01,-1.026885195209867447e+02,-1.071717957563537595e+02,-1.897920565880938000e+02,-2.078120689983726379e+02,-1.011332022804060387e+02,-1.185339041891055842e+02,9.523238182067871094e+00,-8.031646609306335449e-01,3.824593871831893921e-02,3.170000000000000000e+02
-1.794775776498575510e+02,-7.087046248444558216e+01,-1.008615437464118827e+02,-1.052818412195190518e+02,-1.902005280102725351e+02,-2.057486332176627570e+02,-9.863826723095337456e+01,-1.174817325157047208e+02,9.523238182067871094e+00,-8.031646609306335449e-01,3.824593871831893921e-02,3.180000000000000000e+02
-1.795228402048431064e+02,-6.792671321602369972e+01,-1.000194763214310854e+02,-1.016455293517263101e+02,-1.900756131184261335e+02,-2.027035421544285896e+02,-9.588074350899688625e+01,-1.154349557941735611e+02,9.523238182067871094e+00,-8.031646609306335449e-01,3.824593871831893921e-02,3.190000000000000000e+02
-1.807231003211939537e+02,-6.366624072512975374e+01,-1.003359228927326683e+02,-9.655713968111821544e+01,-1.897779852399604579e+02,-1.989300774917419972e+02,-9.331500929755247853e+01,-1.127098535708021245e+02,9.523238182067871094e+00,-8.031646609306335449e-01,3.824593871831893921e-02,3.200000000000000000e+02
-1.818163039616992478e+02,-5.907187182591313501e+01,-1.009740443135319481e+02,-9.106571948148317119e+01,-1.895267900683828373e+02,-1.949849608267256542e+02,-9.146768671285198593e+01,-1.102196739676554387e+02,9.523238182067871094e+00,-8.031646609306335449e-01,3.824593871831893921e-02,3.210000000000000000e+02
-1.816373519196818904e+02,-5.519777488588854908e+01,-1.005398913231713323e+02,-8.647887395512991304e+01,-1.889619200925453413e+02,-1.914467706595839900e+02,-9.078264122211623999e+01,-1.087742692496376549e+02,9.523238182067871094e+00,-8.031646609306335449e-01,3.824593871831893921e-02,3.220000000000000000e+02
-1.797833538146984438e+02,-5.239955880686332534e+01,-9.839037236696208311e+01,-8.361957473670514673e+01,-1.876121891711389651e+02,-1.887534388159982655e+02,-9.147452427346209447e+01,-1.086470603860991275e+02,9.523238182067871094e+00,-8.031646609306335449e-01,3.824593871831893921e-02,3.230000000000000000e+02
-1.769197707135331825e+02,-5.030763190680634978e+01,-9.539604405568164225e+01,-8.236691133532960407e+01,-1.855190820433246017e+02,-1.870682137958842759e+02,-9.330026026175534071e+01,-1.093907060610813176e+02,9.523238182067871094e+00,-8.031646609306335449e-01,3.824593871831893921e-02,3.240000000000000000e+02
-1.744308094630023618e+02,-4.859781139615012080e+01,-9.316816576652712456e+01,-8.183385634891871518e+01,-1.831075476704387484e+02,-1.861015573768683851e+02,-9.538677373175028151e+01,-1.097528922829295084e+02,9.523238182067871094e+00,-8.031646609306335449e-01,3.824593871831893921e-02,3.250000000000000000e+02
-1.734848877760515506e+02,-4.769338812264409455e+01,-9.235895695621641721e+01,-8.103113218694076636e+01,-1.804085950922658412e+02,-1.850594063409477030e+02,-9.642684083317109867e+01,-1.079130015432822063e+02,9.523238182067871094e+00,-8.031646609306335449e-01,3.824593871831893921e-02,3.260000000000000000e+02
-1.741049526884900160e+02,-4.849698341157417758e+01,-9.176391289708311660e+01,-7.947963346358700676e+01,-1.766611432099014110e+02,-1.829759401689810829e+02,-9.533685443417053307e+01,-1.023969056046740320e+02,9.523238182067871094e+00,-8.031646609306335449e-01,3.824593871831893921e-02,3.270000000000000000e+02
-1.750358498840449215e+02,-5.128233555924116160e+01,-8.930635979057257146e+01,-7.733378097757051250e+01,-1.709926628595632678e+02,-1.793674299114315431e+02,-9.197669814290625823e+01,-9.339685335722546711e+01,9.523238182067871094e+00,-8.031646609306335449e-01,3.824593871831893921e-02,3.280000000000000000e+02
-1.746473956753173695e+02,-5.488830917343091187e+01,-8.410423176368146869e+01,-7.502836882762659343e+01,-1.636397922819127189e+02,-1.747146695415801219e+02,-8.731691033042096706e+01,-8.337145280965970073e+01,9.523238182067871094e+00,-8.031646609306335449e-01,3.824593871831893921e-02,3.290000000000000000e+02
-1.721973911028826478e+02,-5.720043003784915925e+01,-7.760604050794276532e+01,-7.282556062838561672e+01,-1.563901495193684354e+02,-1.702652463676411116e+02,-8.281785248965411483e+01,-7.592586868814825607e+01,9.523238182067871094e+00,-8.031646609306335449e-01,3.824593871831893921e-02,3.300000000000000000e+02
-1.683573959305455503e+02,-5.664398014333141873e+01,-7.257334929960777004e+01,-7.064659915400284262e+01,-1.515571087880413188e+02,-1.671947433751112158e+02,-7.947243180038458377e+01,-7.342840133020533244e+01,9.523238182067871094e+00,-8.031646609306335449e-01,3.824593871831893921e-02,3.310000000000000000e+02
-1.644931836884466065e+02,-5.336021256431418180e+01,-7.073963499570535873e+01,-6.827206515214260207e+01,-1.502443803730462264e+02,-1.657898615451663034e+02,-7.728282824157366804e+01,-7.524936761003954189e+01,9.523238182067871094e+00,-8.031646609306335449e-01,3.824593871831893921e-02,3.320000000000000000e+02
-1.613756008940885351e+02,-4.900512020242527456e+01,-7.129855017245793647e+01,-6.569202531145489843e+01,-1.514224790441975301e+02,-1.653564696912800400e+02,-7.556233563101500295e+01,-7.829794309203671787e+01,9.523238182067871094e+00,-8.031646609306335449e-01,3.824593871831893921e-02,3.330000000000000000e+02
-1.585689695200696860e+02,-4.541551836763936478e+01,-7.163909434914765484e+01,-6.329347611646898031e+01,-1.526721545102155062e+02,-1.649214939654843590e+02,-7.374782171402370068e+01,-7.955791163319270254e+01,9.523238182067871094e+00,-8.031646609306335449e-01,3.824593871831893921e-02,3.340000000000000000e+02
-1.550938398201449786e+02,-4.336150851179658616e+01,-6.966095832951555167e+01,-6.169165970084558381e+01,-1.519933189698722913e+02,-1.640644312667672011e+02,-7.199528573384117180e+01,-7.840741124742118018e+01,9.523238182067871094e+00,-8.031646609306335449e-01,3.824593871831893921e-02,3.350000000000000000e+02
-1.507045099500915626e+02,-4.234772921813680568e+01,-6.557972992308435778e+01,-6.126084492412461913e+01,-1.491924773887109836e+02,-1.631089443157818550e+02,-7.105062639047952189e+01,-7.665845586888707430e+01,9.523238182067871094e+00,-8.031646609306335449e-01,3.824593871831893921e-02,3.360000000000000000e+02
-1.465034565509595836e+02,-4.134043365406292025e+01,-6.170367341996063715e+01,-6.168338378870066663e+01,-1.458299636917410282e+02,-1.625638228855296745e+02,-7.154061890851545513e+01,-7.643476144801104510e+01,9.446745872497558594e+00,-8.414105772972106934e-01,3.824593871831893921e-02,3.370000000000000000e+02
-1.442641636286730318e+02,-3.956737167817923506e+01,-6.051729743788700944e+01,-6.191086128523481591e+01,-1.439526875216461406e+02,-1.624365387356232304e+02,-7.330626593546838876e+01,-7.803113436244026957e+01,9.446745872497558594e+00,-8.414105772972106934e-01,3.824593871831893921e-02,3.380000000000000000e+02
-1.450497121973249932e+02,-3.680979756891444765e+01,-6.277467744701851871e+01,-6.071521748426081899e+01,-1.446991203987945198e+02,-1.621244444915110989e+02,-7.536011089551675468e+01,-7.975435290699869029e+01,9.446745872497558594e+00,-8.414105772972106934e-01,3.824593871831893921e-02,3.390000000000000000e+02
-1.483404438334536906e+02,-3.330256967766115395e+01,-6.707579477770852350e+01,-5.752241887397309483e+01,-1.477151867895273085e+02,-1.609523537247595186e+02,-7.651396177991404102e+01,-7.966322766398764088e+01,9.446745872497558594e+00,-8.414105772972106934e-01,3.824593871831893921e-02,3.400000000000000000e+02
-1.523785201774306870e+02,-2.962869592708289446e+01,-7.098996817413549820e+01,-5.289226918326048121e+01,-1.515098958289438542e+02,-1.587541735403232792e+02,-7.615297045122969166e+01,-7.730812278847429297e+01,9.446745872497558594e+00,-8.414105772972106934e-01,3.824593871831893921e-02,3.410000000000000000e+02
-1.553405248238350680e+02,-2.669323937445640382e+01,-7.263539376675655035e+01,-4.820085635962536230e+01,-1.542722101999841016e+02,-1.559107743660595133e+02,-7.452386270374495325e+01,-7.382714964763857779e+01,9.446745872497558594e+00,-8.414105772972106934e-01,3.824593871831893921e-02,3.420000000000000000e+02
-1.563522767797143445e+02,-2.552478413548766056e+01,-7.157769692931182703e+01,-4.471786653846987747e+01,-1.546361560317694739e+02,-1.528700629938875579e+02,-7.234259647778873159e+01,-7.059509156292068610e+01,9.446745872497558594e+00,-8.414105772972106934e-01,3.824593871831893921e-02,3.430000000000000000e+02
-1.556584629677011264e+02,-2.680550133197003149e+01,-6.869518492277950372e+01,-4.283319092868910616e+01,-1.521906968594366276e+02,-1.497457585213903144e+02,-7.015167335002865912e+01,-6.800794534319501849e+01,9.446745872497558594e+00,-8.414105772972106934e-01,3.824593871831893921e-02,3.440000000000000000e+02
-1.540652170028236583e+02,-3.045385102501909813e+01,-6.542209338170079036e+01,-4.207826646652310387e+01,-1.476907423488842142e+02,-1.464656667412486968e+02,-6.805766962277795074e+01,-6.558710498125222443e+01,9.446745872497558594e+00,-8.414105772972106934e-01,3.824593871831893921e-02,3.450000000000000000e+02
-1.522911224239159367e+02,-3.564786012220454126e+01,-6.296808658484553689e+01,-4.184710855859910339e+01,-1.428374886929331069e+02,-1.432605482256495861e+02,-6.602637795297624734e+01,-6.304310696585343976e+01,9.446745872497558594e+00,-8.414105772972106934e-01,3.824593871831893921e-02,3.460000000000000000e+02
-1.507006930372014040e+02,-4.126458582226970151e+01,-6.188969503763766511e+01,-4.207151082198896574e+01,-1.395505707849754344e+02,-1.408774168389762167e+02,-6.429970862402660714e+01,-6.101773127052689460e+01,9.446745872497558594e+00,-8.414105772972106934e-01,3.824593871831893921e-02,3.470000000000000000e+02
-1.494236160383665606e+02,-4.632113308419494757e+01,-6.210236339907606862e+01,-4.318661748255678390e+01,-1.390155856190193617e+02,-1.401893675388567999e+02,-6.337875362936983947e+01,-6.075013338021383902e+01,9.446745872497558594e+00,-8.414105772972106934e-01,3.824593871831893921e-02,3.480000000000000000e+02
-1.485427966744816501e+02,-5.010502802914708553e+01,-6.321438993751428370e+01,-4.548767715841752590e+01,-1.411307993008944948e+02,-1.415548080941621265e+02,-6.355329358699367504e+01,-6.309809866853672133e+01,9.446745872497558594e+00,-8.414105772972106934e-01,3.824593871831893921e-02,3.490000000000000000e+02
-1.481277186875918801e+02,-5.214544428379950602e+01,-6.493248337622688382e+01,-4.862998325264186406e+01,-1.448049233463476071e+02,-1.445813508006744428e+02,-6.454714009118106333e+01,-6.789559213742532506e+01,9.446745872497558594e+00,-8.414105772972106934e-01,3.824593871831893921e-02,3.500000000000000000e+02
-1.481570084632769237e+02,-5.235510805229847620e+01,-6.722297759411878815e+01,-5.184808018165608701e+01,-1.488544647352703123e+02,-1.485088361262979788e+02,-6.577098493280385583e+01,-7.411032296260862040e+01,9.446745872497558594e+00,-8.414105772972106934e-01,3.824593871831893921e-02,3.510000000000000000e+02
-1.484897913009118326e+02,-5.132208477279125702e+01,-7.007834813784720041e+01,-5.466196224001973292e+01,-1.526995479784468444e+02,-1.527471819904599215e+02,-6.695934826589501654e+01,-8.042043707039866263e+01,9.446745872497558594e+00,-8.414105772972106934e-01,3.824593871831893921e-02,3.520000000000000000e+02
-1.489452007832410914e+02,-5.030281238385883569e+01,-7.310682501836043912e+01,-5.726118438282551892e+01,-1.562573717638329640e+02,-1.569587577034775450e+02,-6.843974535496499811e+01,-8.561061769485161221e+01,9.446745872497558594e+00,-8.414105772972106934e-01,3.824593871831893921e-02,3.530000000000000000e+02
-1.494010722117562864e+02,-5.058799419753550808e+01,-7.542378558435527225e+01,-6.008959870727565544e+01,-1.592923946678769198e+02,-1.606806275793987879e+02,-7.063161749728601535e+01,-8.867450842863746630e+01,9.446745872497558594e+00,-8.414105772972106934e-01,3.824593871831893921e-02,3.540000000000000000e+02
-1.498344334725156841e+02,-5.259869214182508301e+01,-7.611844930903336603e+01,-6.306448167555726059e+01,-1.610847954736685779e+02,-1.630919355375493183e+02,-7.328070161030677809e+01,-8.895125846023913141e+01,9.446745872497558594e+00,-8.414105772972106934e-01,3.824593871831893921e-02,3.550000000000000000e+02
-1.503164312886822529e+02,-5.554570832120628410e+01,-7.499555407702462162e+01,-6.533599417617458016e+01,-1.609058919042400930e+02,-1.634136110916440430e+02,-7.533426628324968988e+01,-8.649094109333185543e+01,9.446745872497558594e+00,-8.414105772972106934e-01,3.824593871831893921e-02,3.560000000000000000e+02
-1.510108877906944258e+02,-5.811567921446164320e+01,-7.293048765646827292e+01,-6.597191297970894652e+01,-1.588491466751292478e+02,-1.616756107217311751e+02,-7.575102398526166780e+01,-8.236545973568357226e+01,9.446745872497558594e+00,-8.414105772972106934e-01,3.824593871831893921e-02,3.570000000000000000e+02
-1.521432835891614559e+02,-5.968590044182521837e+01,-7.141516603562098453e+01,-6.494200567609732389e+01,-1.560807021697704613e+02,-1.590332227128125169e+02,-7.450732885653729909e+01,-7.844389401249011939e+01,9.446745872497558594e+00,-8.414105772972106934e-01,3.824593871831893921e-02,3.580000000000000000e+02
-1.538379744385910044e+02,-6.094907373074850909e+01,-7.155853554115424231e+01,-6.333246908685129029e+01,-1.541236106263038437e+02,-1.571185043974264772e+02,-7.275736406381145116e+01,-7.652912473887050737e+01,9.446745872497558594e+00,-8.414105772972106934e-01,3.824593871831893921e-02,3.590000000000000000e+02
-1.558518860848672034e+02,-6.329122277855094580e+01,-7.332216945040860878e+01,-6.241204307039996024e+01,-1.537960108666297856e+02,-1.568587170454558191e+02,-7.191655840425448787e+01,-7.735265633488299386e+01,9.446745872497558594e+00,-8.414105772972106934e-01,3.824593871831893921e-02,3.600000000000000000e+02
-1.574643906403740061e+02,-6.743349334698777398e+01,-7.560565924829637652e+01,-6.236795186407057656e+01,-1.547721029364446395e+02,-1.577874397742191377e+02,-7.250419256662189582e+01,-8.016423091321405536e+01,9.446745872497558594e+00,-8.414105772972106934e-01,3.824593871831893921e-02,3.610000000000000000e+02
-1.578093736147140476e+02,-7.258590838591329941e+01,-7.708824952539410447e+01,-6.198549778597410409e+01,-1.560842578013501338e+02,-1.584806824895999853e+02,-7.381480959285204335e+01,-8.324975686176227896e+01,9.446745872497558594e+00,-8.414105772972106934e-01,3.824593871831893921e-02,3.620000000000000000e+02
-1.565609211767523732e+02,-7.694358385571976555e+01,-7.712883718461353055e+01,-5.972166530774377691e+01,-1.569534416677394120e+02,-1.577384077810686449e+02,-7.465104665424291852e+01,-8.500521543299728933e+01,9.446745872497558594e+00,-8.414105772972106934e-01,3.824593871831893921e-02,3.630000000000000000e+02
-1.544163532574852127e+02,-7.915438090389086767e+01,-7.604399502738078809e+01,-5.528558223116307602e+01,-1.571317638737673406e+02,-1.555005354169233556e+02,-7.437470185347217466e+01,-8.479535007613253583e+01,9.484992027282714844e+00,-8.031646609306335449e-01,7.649187743663787842e-02,3.640000000000000000e+02
-1.528301946939039624e+02,-7.948421093795752768e+01,-7.465551075563183758e+01,-5.026092643379712399e+01,-1.566010396110316378e+02,-1.527855783332161650e+02,-7.334360469271484817e+01,-8.305754261947728878e+01,9.484992027282714844e+00,-8.031646609306335449e-01,7.649187743663787842e-02,3.650000000000000000e+02
-1.530306264754191261e+02,-7.964486069084611586e+01,-7.356200790906029852e+01,-4.710694993706205480e+01,-1.551690412032401127e+02,-1.508259325003489266e+02,-7.246980443521829329e+01,-8.072472830087917828e+01,9.484992027282714844e+00,-8.031646609306335449e-01,7.649187743663787842e-02,3.660000000000000000e+02
-1.550349612008822362e+02,-8.139394633503263776e+01,-7.272485378766106123e+01,-4.733486855253991621e+01,-1.525171901469952900e+02,-1.502002842678493835e+02,-7.242214554289091666e+01,-7.852580547474988748e+01,9.484992027282714844e+00,-8.031646609306335449e-01,7.649187743663787842e-02,3.670000000000000000e+02
-1.575300374097832616e+02,-8.503706776838617998e+01,-7.163504267592145425e+01,-5.039734611115969187e+01,-1.486430364853204082e+02,-1.506234043569271535e+02,-7.317054729291521653e+01,-7.670016719382874726e+01,9.484992027282714844e+00,-8.031646609306335449e-01,7.649187743663787842e-02,3.680000000000000000e+02
-1.587934184345969300e+02,-8.903801001862450448e+01,-6.986302677321248211e+01,-5.419550152320306324e+01,-1.441917317067604358e+02,-1.514145784632157756e+02,-7.414402259917426363e+01,-7.523140632088347957e+01,9.484992027282714844e+00,-8.031646609306335449e-01,7.649187743663787842e-02,3.690000000000000000e+02
-1.579154043203224376e+02,-9.108237991370477005e+01,-6.754599245437367472e+01,-5.671521964613211253e+01,-1.403087487651589527e+02,-1.521397272632462432e+02,-7.474572197581790078e+01,-7.426048299708213563e+01,9.484992027282714844e+00,-8.031646609306335449e-01,7.649187743663787842e-02,3.700000000000000000e+02
-1.553292289327976050e+02,-8.980194747469776928e+01,-6.545744956251689928e+01,-5.740709873214740355e+01,-1.381243491687737333e+02,-1.529062595385261716e+02,-7.478458418592231283e+01,-7.425751943463808402e+01,9.484992027282714844e+00,-8.031646609306335449e-01,7.649187743663787842e-02,3.710000000000000000e+02
-1.522888372088892481e+02,-8.586822983690359479e+01,-6.460423581816922933e+01,-5.725332296826394440e+01,-1.382639842629596387e+02,-1.541601644345555542e+02,-7.455696203753336704e+01,-7.580926564802939538e+01,9.484992027282714844e+00,-8.031646609306335449e-01,7.649187743663787842e-02,3.720000000000000000e+02
-1.498622733756992318e+02,-8.162631516381752306e+01,-6.561581509486086361e+01,-5.763429304330966829e+01,-1.406449294282472238e+02,-1.562084293494140184e+02,-7.459190735195409161e+01,-7.919407270901410811e+01,9.484992027282714844e+00,-8.031646609306335449e-01,7.649187743663787842e-02,3.730000000000000000e+02
-1.483465806736930404e+02,-7.953465418351808580e+01,-6.831496601782777134e+01,-5.905101189490324032e+01,-1.445561404186917684e+02,-1.588402253019966111e+02,-7.527641310471983616e+01,-8.402646526045873543e+01,9.484992027282714844e+00,-8.031646609306335449e-01,7.649187743663787842e-02,3.740000000000000000e+02
-1.474849470884525147e+02,-8.056846273006414094e+01,-7.174998657125581758e+01,-6.073742263646317951e+01,-1.489167448776953506e+02,-1.613152166476346565e+02,-7.661451542439942841e+01,-8.920770766905963001e+01,9.484992027282714844e+00,-8.031646609306335449e-01,7.649187743663787842e-02,3.750000000000000000e+02
-1.470810057977150223e+02,-8.374398946129696242e+01,-7.468996584506191994e+01,-6.136712434886189271e+01,-1.526335902076243656e+02,-1.627411071178510156e+02,-7.825372860477216364e+01,-9.327885669342697383e+01,9.484992027282714844e+00,-8.031646609306335449e-01,7.649187743663787842e-02,3.760000000000000000e+02
-1.472931588891953822e+02,-8.703368493659787930e+01,-7.626633912827668382e+01,-6.016442395624989103e+01,-1.549439550453261063e+02,-1.625965845445906552e+02,-7.972172895418327698e+01,-9.504177971990560536e+01,9.484992027282714844e+00,-8.031646609306335449e-01,7.649187743663787842e-02,3.770000000000000000e+02
-1.483353876244963203e+02,-8.886642673136630322e+01,-7.634728366441288472e+01,-5.749884849988850988e+01,-1.555821726586729596e+02,-1.610444514253288162e+02,-8.067548763467607387e+01,-9.413505843269558682e+01,9.484992027282714844e+00,-8.031646609306335449e-01,7.649187743663787842e-02,3.780000000000000000e+02
-1.499678731121644546e+02,-8.900503993055613705e+01,-7.542770490809277817e+01,-5.455816543498525562e+01,-1.546960662965834672e+02,-1.588203856012139568e+02,-8.100591363146031654e+01,-9.119912745181545688e+01,9.484992027282714844e+00,-8.031646609306335449e-01,7.649187743663787842e-02,3.790000000000000000e+02
-1.513818593782807511e+02,-8.821146951216073262e+01,-7.417400654804851001e+01,-5.244375109350136199e+01,-1.526426994679518430e+02,-1.567708209236222956e+02,-8.079414346563225990e+01,-8.745974225445240791e+01,9.484992027282714844e+00,-8.031646609306335449e-01,7.649187743663787842e-02,3.800000000000000000e+02
-1.516871341069469850e+02,-8.721607718977926993e+01,-7.300594850560412397e+01,-5.143371666348758708e+01,-1.498879400761404668e+02,-1.553598123474646400e+02,-8.021978381839778649e+01,-8.399062532756227029e+01,9.484992027282714844e+00,-8.031646609306335449e-01,7.649187743663787842e-02,3.810000000000000000e+02
-1.505991382406621142e+02,-8.607472938833032572e+01,-7.200762868618176071e+01,-5.094346077273684159e+01,-1.470570154929830551e+02,-1.544816966914725072e+02,-7.948541559376485566e+01,-8.120854342615569976e+01,9.484992027282714844e+00,-8.031646609306335449e-01,7.649187743663787842e-02,3.820000000000000000e+02
-1.486855827215644013e+02,-8.447698376025061862e+01,-7.114383316555426973e+01,-5.011457812618692742e+01,-1.449238764905046537e+02,-1.536687170419264703e+02,-7.874475077864133254e+01,-7.897309128525250799e+01,9.484992027282714844e+00,-8.031646609306335449e-01,7.649187743663787842e-02,3.830000000000000000e+02
-1.469181288400311018e+02,-8.251048118442925272e+01,-7.049438824897703171e+01,-4.848530263086564673e+01,-1.441380320249609213e+02,-1.524936767771157520e+02,-7.804151921047764517e+01,-7.709760587009429855e+01,9.484992027282714844e+00,-8.031646609306335449e-01,7.649187743663787842e-02,3.840000000000000000e+02
-1.459104930005632070e+02,-8.089758970500410840e+01,-7.026305345404540503e+01,-4.622341002012103672e+01,-1.448079165351751953e+02,-1.508688043548805808e+02,-7.733881858611266580e+01,-7.570586149095561268e+01,9.484992027282714844e+00,-8.031646609306335449e-01,7.649187743663787842e-02,3.850000000000000000e+02
-1.455027540827165922e+02,-8.031582821120692017e+01,-7.054970931611052265e+01,-4.384768480828208226e+01,-1.463141174104873130e+02,-1.490653885591377730e+02,-7.666888219739462329e+01,-7.506402882163547474e+01,9.484992027282714844e+00,-8.031646609306335449e-01,7.649187743663787842e-02,3.860000000000000000e+02
-1.450331073918324591e+02,-8.048694581581194996e+01,-7.111245007295531195e+01,-4.180982326224429357e+01,-1.475958259981484844e+02,-1.475102216040988878e+02,-7.626937298564951107e+01,-7.512189720222033884e+01,9.484992027282714844e+00,-8.031646609306335449e-01,7.649187743663787842e-02,3.870000000000000000e+02
-1.440069557407741740e+02,-8.009105860147025169e+01,-7.136929584617780620e+01,-4.034118274114968017e+01,-1.477437840187380971e+02,-1.465556162349665783e+02,-7.648490611511317638e+01,-7.536088071065620397e+01,9.484992027282714844e+00,-8.031646609306335449e-01,7.649187743663787842e-02,3.880000000000000000e+02
-1.424920000131406823e+02,-7.776267326663706569e+01,-7.068505882640516802e+01,-3.960421653955233978e+01,-1.464899279375410970e+02,-1.463837411887761846e+02,-7.743696564139236216e+01,-7.523284884757435975e+01,9.484992027282714844e+00,-8.031646609306335449e-01,7.649187743663787842e-02,3.890000000000000000e+02
-1.408821995871684862e+02,-7.327490346165751589e+01,-6.878601170493016070e+01,-3.982715397234551347e+01,-1.442956581065155888e+02,-1.470406975902528757e+02,-7.877778901295664582e+01,-7.479679720914509744e+01,9.484992027282714844e+00,-8.031646609306335449e-01,7.649187743663787842e-02,3.900000000000000000e+02
-1.393307821557534112e+02,-6.774034686557554608e+01,-6.603476257081410949e+01,-4.114142330288822791e+01,-1.420612618262352953e+02,-1.484693823044683541e+02,-7.984973302260550554e+01,-7.484694556761439799e+01,9.484992027282714844e+00,-8.031646609306335449e-01,7.649187743663787842e-02,3.910000000000000000e+02
-1.374863690630774613e+02,-6.260051800307643077e+01,-6.334314507017325013e+01,-4.321961146934307862e+01,-1.406689486058598959e+02,-1.504312511875673408e+02,-8.018270531570874482e+01,-7.625822061318751821e+01,9.484992027282714844e+00,-8.031646609306335449e-01,7.649187743663787842e-02,3.920000000000000000e+02
-1.348397014659184947e+02,-5.838544840921541379e+01,-6.168867057616785132e+01,-4.510974604439226709e+01,-1.405336112124456349e+02,-1.523551698042803082e+02,-7.986083325351876283e+01,-7.904878263689539608e+01,9.484992027282714844e+00,-8.031646609306335449e-01,7.649187743663787842e-02,3.930000000000000000e+02
-1.313121147956894674e+02,-5.439730445836526940e+01,-6.145851925560475593e+01,-4.554512384970871608e+01,-1.413070405090259101e+02,-1.533103930788926164e+02,-7.936453741247726157e+01,-8.198976201368219563e+01,9.484992027282714844e+00,-8.031646609306335449e-01,7.649187743663787842e-02,3.940000000000000000e+02
-1.274333367333491083e+02,-4.950384668654690756e+01,-6.205018733035421974e+01,-4.357219009017325106e+01,-1.419152538000300865e+02,-1.522751949784770886e+02,-7.901165393355472588e+01,-8.318371517666594173e+01,9.484992027282714844e+00,-8.414105772972106934e-01,3.824593871831893921e-02,3.950000000000000000e+02
-1.238877136603356348e+02,-4.315044119952423785e+01,-6.210146072807168593e+01,-3.904519229258002611e+01,-1.410271252140984188e+02,-1.486356838242155618e+02,-7.854826332906475272e+01,-8.124355515864544941e+01,9.484992027282714844e+00,-8.414105772972106934e-01,3.824593871831893921e-02,3.960000000000000000e+02
-1.208985481718134452e+02,-3.561913309959774665e+01,-6.032552516182602176e+01,-3.266041453862362687e+01,-1.377823974301117005e+02,-1.426050535846027287e+02,-7.731735461893958927e+01,-7.620892728245485159e+01,9.484992027282714844e+00,-8.414105772972106934e-01,3.824593871831893921e-02,3.970000000000000000e+02
-1.180821488392076617e+02,-2.749861286425353057e+01,-5.638765267250823854e+01,-2.558377051489253518e+01,-1.323046515657881628e+02,-1.352224547949113003e+02,-7.484541604214484778e+01,-6.953546371404297588e+01,9.484992027282714844e+00,-8.414105772972106934e-01,3.824593871831893921e-02,3.980000000000000000e+02
-1.148704092130377035e+02,-1.914864012942086902e+01,-5.109390086163853084e+01,-1.896677780408680292e+01,-1.255831132586816921e+02,-1.278681482434350301e+02,-7.127855501616465972e+01,-6.317413653849996535e+01,9.484992027282714844e+00,-8.414105772972106934e-01,3.824593871831893921e-02,3.990000000000000000e+02
-1.110039107241142347e+02,-1.077286553139826708e+01,-4.567816941889793725e+01,-1.359546164436292770e+01,-1.188030938011095259e+02,-1.215926922524087104e+02,-6.727157644947124027e+01,-5.840296632893227979e+01,9.484992027282714844e+00,-8.414105772972106934e-01,3.824593871831893921e-02,4.000000000000000000e+02
-1.066054672823626106e+02,-2.840527302937346121e+00,-4.080172206142634650e+01,-9.727350259724659054e+00,-1.126790604733864711e+02,-1.167066112417737713e+02,-6.346963209742852996e+01,-5.523422175635352005e+01,9.484992027282714844e+00,-8.414105772972106934e-01,3.824593871831893921e-02,4.010000000000000000e+02
-1.018834577527665601e+02,3.898556599426711955e+00,-3.621043014733243126e+01,-7.077243565239314194e+00,-1.073233003115428801e+02,-1.128646971136860202e+02,-6.007706685638981980e+01,-5.274351020330732354e+01,9.484992027282714844e+00,-8.414105772972106934e-01,3.824593871831893921e-02,4.020000000000000000e+02
-9.694452203445405303e+01,9.064728741118500466e+00,-3.140004014445958092e+01,-4.956989592234464226e+00,-1.026352302240582048e+02,-1.094990219170171031e+02,-5.686262576337298924e+01,-4.996101001168398170e+01,9.484992027282714844e+00,-8.414105772972106934e-01,3.824593871831893921e-02,4.030000000000000000e+02
-9.198512300105511486e+01,1.330431324927737080e+01,-2.660198877993400401e+01,-2.584392870187059543e+00,-9.870755201951669733e+01,-1.062280564160412268e+02,-5.352962150679672959e+01,-4.656653780451409830e+01,9.484992027282714844e+00,-8.414105772972106934e-01,3.824593871831893921e-02,4.040000000000000000e+02
-8.756218618025485512e+01,1.809379589702544422e+01,-2.298180934691907851e+01,5.531229127234098542e-01,-9.579603824880041429e+01,-1.029658013301708479e+02,-5.008149639628277328e+01,-4.289039903435815404e+01,9.484992027282714844e+00,-8.414105772972106934e-01,3.824593871831893921e-02,4.050000000000000000e+02
-8.444122616474777487e+01,2.462625669040259879e+01,-2.167202805412478028e+01,4.493468575542493681e+00,-9.391153727431026255e+01,-9.974846391966570991e+01,-4.685239594680570008e+01,-3.938345690420243272e+01,9.484992027282714844e+00,-8.414105772972106934e-01,3.824593871831893921e-02,4.060000000000000000e+02
-8.298008006489965283e+01,3.271028995749024659e+01,-2.248931205098574537e+01,8.867669420330571484e+00,-9.252353642904222397e+01,-9.652416560358767583e+01,-4.418575031843124634e+01,-3.618788688249259167e+01,9.484992027282714844e+00,-8.414105772972106934e-01,3.824593871831893921e-02,4.070000000000000000e+02
-8.261589080854537315e+01,4.074066878958211646e+01,-2.366082599769993067e+01,1.312663423357116699e+01,-9.076377568390182660e+01,-9.314242672402406242e+01,-4.203865879273530481e+01,-3.324656439367515759e+01,9.484992027282714844e+00,-8.414105772972106934e-01,3.824593871831893921e-02,4.080000000000000000e+02
-8.204176165737095516e+01,4.686337892193003540e+01,-2.301166215699481654e+01,1.671907163963282983e+01,-8.801077134401123203e+01,-8.955609712771627073e+01,-3.987084434933944976e+01,-3.070805909214112717e+01,9.484992027282714844e+00,-8.414105772972106934e-01,3.824593871831893921e-02,4.090000000000000000e+02
-8.003471116074138081e+01,5.036199846235356858e+01,-1.964441279716163535e+01,1.915501755198718570e+01,-8.433965887522731464e+01,-8.604187211622331688e+01,-3.698193572351328839e+01,-2.903991035491191042e+01,9.484992027282714844e+00,-8.414105772972106934e-01,3.824593871831893921e-02,4.100000000000000000e+02
-7.627545468281192598e+01,5.212071855306578527e+01,-1.460275306541541340e+01,2.011036182536932415e+01,-8.041529628148714437e+01,-8.318906441182696199e+01,-3.307834538310362404e+01,-2.861620810623094258e+01,9.484992027282714844e+00,-8.414105772972106934e-01,3.824593871831893921e-02,4.110000000000000000e+02
-7.150154512282813357e+01,5.385411991275927335e+01,-9.935362660564123871e+00,1.967599583655106699e+01,-7.692482409192564319e+01,-8.158121659080120480e+01,-2.859718721833701238e+01,-2.922585416470610653e+01,9.484992027282714844e+00,-8.414105772972106934e-01,3.824593871831893921e-02,4.120000000000000000e+02
-6.693954002593397945e+01,5.683815712794751107e+01,-7.054182079905558567e+00,1.856828534559826949e+01,-7.406729806122473292e+01,-8.137885470886908479e+01,-2.445309299088967236e+01,-3.013514351147489378e+01,9.484992027282714844e+00,-8.414105772972106934e-01,3.824593871831893921e-02,4.130000000000000000e+02
-6.352655345838985568e+01,6.118094569602084221e+01,-5.862341947891081873e+00,1.796140366249954923e+01,-7.155394410399003391e+01,-8.214380627437947169e+01,-2.137494748684594015e+01,-3.072858472352027093e+01,9.484992027282714844e+00,-8.414105772972106934e-01,3.824593871831893921e-02,4.140000000000000000e+02
-6.144794333729373648e+01,6.605821713957763563e+01,-5.279804294005543852e+00,1.884513811903747182e+01,-6.907660998054961965e+01,-8.308325141286627513e+01,-1.940258665929923154e+01,-3.104141964287282462e+01,9.484992027282714844e+00,-8.414105772972106934e-01,3.824593871831893921e-02,4.150000000000000000e+02
-6.017111715670171179e+01,7.048196576807285396e+01,-4.440307660056760142e+00,2.132086014453119560e+01,-6.673177985720394645e+01,-8.353793834519842676e+01,-1.798812863852708688e+01,-3.152949091687054306e+01,9.484992027282714844e+00,-8.414105772972106934e-01,1.147378161549568176e-01,4.160000000000000000e+02
-5.885566265634395222e+01,7.386818368966250148e+01,-3.334046292422840452e+00,2.446849052368301614e+01,-6.492456608133170448e+01,-8.332053762693135468e+01,-1.657745181250197675e+01,-3.226726815972665463e+01,9.484992027282714844e+00,-8.414105772972106934e-01,1.147378161549568176e-01,4.170000000000000000e+02
-5.693311962263663872e+01,7.605594599378854070e+01,-2.434980082993206452e+00,2.699894727292294760e+01,-6.383587000511283804e+01,-8.265094648799515653e+01,-1.508681768905148601e+01,-3.253449365979020058e+01,9.484992027282714844e+00,-8.414105772972106934e-01,1.147378161549568176e-01,4.180000000000000000e+02
-5.458699121786168007e+01,7.703680810925392564e+01,-1.947066635108399169e+00,2.819797139887293724e+01,-6.305852554389252873e+01,-8.181876788725264760e+01,-1.383952694791560134e+01,-3.143503635405920704e+01,9.484992027282714844e+00,-8.414105772972106934e-01,1.147378161549568176e-01,4.190000000000000000e+02
-5.282036525585539266e+01,7.686932498541310110e+01,-1.600503162118002365e+00,2.835912859194701241e+01,-6.190804670725083270e+01,-8.094476946674467399e+01,-1.312818431881964898e+01,-2.908204666085566714e+01,9.484992027282714844e+00,-8.414105772972106934e-01,1.147378161549568176e-01,4.200000000000000000e+02
-5.293639375505125599e+01,7.590810868591154303e+01,-1.189340801662183367e+00,2.834437683125139529e+01,-6.020740683317535513e+01,-8.004911588742129425e+01,-1.293543039809401307e+01,-2.712120555829164914e+01,9.484992027282714844e+00,-8.414105772972106934e-01,1.147378161549568176e-01,4.210000000000000000e+02
-5.565218978202307198e+01,7.497816792784915663e+01,-1.128675275354908081e+00,2.870445231174312539e+01,-5.871778495497233052e+01,-7.925966997680995973e+01,-1.310008808119869173e+01,-2.781165410089408851e+01,9.484992027282714844e+00,-8.414105772972106934e-01,1.147378161549568176e-01,4.220000000000000000e+02
-6.048353861105988472e+01,7.506432588938318418e+01,-2.269549257858670899e+00,2.919120481172762993e+01,-5.859981052419277603e+01,-7.882755764977446233e+01,-1.365894188212769222e+01,-3.224403538787100842e+01,9.484992027282714844e+00,-8.414105772972106934e-01,1.147378161549568176e-01,4.230000000000000000e+02
-6.598645772519705588e+01,7.658511954832206925e+01,-5.044640491074346755e+00,2.909837739743142038e+01,-6.025451252130960711e+01,-7.887023895016011465e+01,-1.488696885809258674e+01,-3.919209284086707612e+01,9.484992027282714844e+00,-8.414105772972106934e-01,1.147378161549568176e-01,4.240000000000000000e+02
-7.078018666311203333e+01,7.888083975139569759e+01,-8.812169278660462624e+00,2.804308686577780918e+01,-6.265299220151871396e+01,-7.914271461206624281e+01,-1.694138362633498218e+01,-4.565760257902525154e+01,9.484992027282714844e+00,-8.414105772972106934e-01,1.147378161549568176e-01,4.250000000000000000e+02
-7.452099644577202753e+01,8.053703488093697160e+01,-1.216260600990494822e+01,2.639225983316157453e+01,-6.395540785774471715e+01,-7.916675597818493770e+01,-1.949898570954019306e+01,-4.876332421204119782e+01,9.484992027282714844e+00,-8.414105772972106934e-01,1.147378161549568176e-01,4.260000000000000000e+02
-7.794349245729404174e+01,8.045626564176950524e+01,-1.402106528546823938e+01,2.491704637213786100e+01,-6.301691286670302361e+01,-7.866937672324570485e+01,-2.182199432997640542e+01,-4.753625700614907146e+01,9.484992027282714844e+00,-8.414105772972106934e-01,1.147378161549568176e-01,4.270000000000000000e+02
-8.190611499975716470e+01,7.878230749361284779e+01,-1.455131501305197617e+01,2.403555235937778889e+01,-6.044625131610030166e+01,-7.790012873591240350e+01,-2.322780810299650511e+01,-4.327630438045150640e+01,9.484992027282714844e+00,-8.414105772972106934e-01,1.147378161549568176e-01,4.280000000000000000e+02
-8.633593205215169064e+01,7.673585597036250761e+01,-1.499554687368151917e+01,2.340681294825509440e+01,-5.820539687201573997e+01,-7.747129354885646535e+01,-2.353543294566634358e+01,-3.839974315261792981e+01,9.484992027282714844e+00,-8.414105772972106934e-01,1.147378161549568176e-01,4.290000000000000000e+02
-9.013925322136554996e+01,7.535009968978717154e+01,-1.655998695007167498e+01,2.227532680128553011e+01,-5.804795145777370635e+01,-7.784354187985127282e+01,-2.311716231853279169e+01,-3.479444846534534008e+01,9.484992027282714844e+00,-8.414105772972106934e-01,1.147378161549568176e-01,4.300000000000000000e+02
-9.226010183045684698e+01,7.420407182563786819e+01,-1.936089493056897481e+01,2.023033089721155875e+01,-6.014966086269919288e+01,-7.895648708942678695e+01,-2.258636664799382743e+01,-3.296322844143048769e+01,9.484992027282714844e+00,-8.414105772972106934e-01,1.147378161549568176e-01,4.310000000000000000e+02
-9.291588778519565039e+01,7.138532811914097920e+01,-2.237182822949637284e+01,1.765191301219260822e+01,-6.307269949653641561e+01,-8.035085305380039244e+01,-2.243813673708996248e+01,-3.239305606436801099e+01,9.484992027282714844e+00,-8.414105772972106934e-01,1.147378161549568176e-01,4.320000000000000000e+02
-9.376812057315834181e+01,6.490104415458297638e+01,-2.437137765466457040e+01,1.544309694472468664e+01,-6.497909817228401153e+01,-8.161851555065754837e+01,-2.287832292346251961e+01,-3.253613330333791964e+01,9.484992027282714844e+00,-8.414105772972106934e-01,1.147378161549568176e-01,4.330000000000000000e+02
-9.669872793405005496e+01,5.442514539190480605e+01,-2.495782129708652519e+01,1.433613330814637266e+01,-6.497693704404355231e+01,-8.269889074672175866e+01,-2.382836271269343342e+01,-3.338787981730160936e+01,9.484992027282714844e+00,-8.414105772972106934e-01,1.147378161549568176e-01,4.340000000000000000e+02
-1.021772549777067525e+02,4.188421427939121600e+01,-2.466818929402484173e+01,1.444863897943116626e+01,-6.350899312310673395e+01,-8.371696529470114001e+01,-2.497832403522511413e+01,-3.515244191900887927e+01,9.484992027282714844e+00,-8.414105772972106934e-01,1.147378161549568176e-01,4.350000000000000000e+02
-1.086793641933146546e+02,3.034269984103850959e+01,-2.416714625733322919e+01,1.547096234218639665e+01,-6.163395499382374965e+01,-8.454872783555947535e+01,-2.584774360624828660e+01,-3.743205833096294555e+01,9.484992027282714844e+00,-8.414105772972106934e-01,1.147378161549568176e-01,4.360000000000000000e+02
-1.137386258684150562e+02,2.206065715707339336e+01,-2.338482964057209301e+01,1.723361630406412814e+01,-5.996892786153694033e+01,-8.457951572469551138e+01,-2.591175398310065248e+01,-3.885610556956851269e+01,9.484992027282714844e+00,-8.414105772972106934e-01,1.147378161549568176e-01,4.370000000000000000e+02
-1.157591067356116241e+02,1.723177175717756882e+01,-2.151074111320826887e+01,2.005299888717217982e+01,-5.819507119350942048e+01,-8.292459855181141393e+01,-2.479527978391206489e+01,-3.766664646245646964e+01,9.484992027282714844e+00,-8.414105772972106934e-01,1.147378161549568176e-01,4.380000000000000000e+02
-1.150160971566003809e+02,1.426055229334960472e+01,-1.784157857808475001e+01,2.447938693508609731e+01,-5.543214273615501497e+01,-7.897186253795484845e+01,-2.244279366449927693e+01,-3.287095194223627459e+01,9.484992027282714844e+00,-8.414105772972106934e-01,1.147378161549568176e-01,4.390000000000000000e+02
-1.130367491275072780e+02,1.117311151331333008e+01,-1.258932177158976629e+01,3.065801665432627487e+01,-5.105746421178685068e+01,-7.284476685778156480e+01,-1.914571531195247189e+01,-2.500752519657646644e+01,9.484992027282714844e+00,-8.414105772972106934e-01,1.147378161549568176e-01,4.400000000000000000e+02
-1.110673897234570404e+02,6.981626004252916573e+00,-6.818077300047661993e+00,3.788631840006530638e+01,-4.526975670803653884e+01,-6.546537662382684175e+01,-1.541233979772800922e+01,-1.588121690997047608e+01,9.561484336853027344e+00,-7.649186849594116211e-01,1.147378161549568176e-01,4.410000000000000000e+02
-1.091153588745312959e+02,2.087385848786396991e+00,-1.580818960454962507e+00,4.479922205118981537e+01,-3.896657403626034011e+01,-5.818710620387469135e+01,-1.176389879180555909e+01,-7.476050384206246235e+00,9.561484336853027344e+00,-7.649186849594116211e-01,1.147378161549568176e-01,4.420000000000000000e+02
-1.063824456003739556e+02,-2.318622912283302639e+00,2.850016247858093266e+00,5.010449110239113679e+01,-3.307967371693166569e+01,-5.221353114731527967e+01,-8.560724802444838133e+00,-9.102182915170260458e-01,9.561484336853027344e+00,-7.649186849594116211e-01,1.147378161549568176e-01,4.430000000000000000e+02
-1.024522521877576651e+02,-5.222918577645259575e+00,6.899767729721247633e+00,5.335287001642433324e+01,-2.794406915830973048e+01,-4.811422580757300693e+01,-5.923707072768365833e+00,3.857896359512665185e+00,9.561484336853027344e+00,-7.649186849594116211e-01,1.147378161549568176e-01,4.440000000000000000e+02
-9.789871588779629974e+01,-6.420395364591996668e+00,1.091846782536049432e+01,5.519245942642817226e+01,-2.321976474517578026e+01,-4.567118033106964958e+01,-3.747178050474303745e+00,7.546047296806932536e+00,9.561484336853027344e+00,-7.649186849594116211e-01,1.147378161549568176e-01,4.450000000000000000e+02
-9.372723890703991856e+01,-6.502010879296747703e+00,1.461349209426839479e+01,5.692806146957758529e+01,-1.839267001414327751e+01,-4.409581325109934369e+01,-1.755868949543582858e+00,1.084006123201743321e+01,9.561484336853027344e+00,-7.649186849594116211e-01,1.147378161549568176e-01,4.460000000000000000e+02
-9.038661777504694328e+01,-6.323836544702970741e+00,1.734141931347437549e+01,5.969736620090264978e+01,-1.336268652284570635e+01,-4.245569900685154607e+01,4.379482656840991694e-01,1.402798494633805149e+01,9.561484336853027344e+00,-7.649186849594116211e-01,1.147378161549568176e-01,4.470000000000000000e+02
-8.758158156115609927e+01,-6.326213868030464482e+00,1.895139807090527029e+01,6.382708332957855646e+01,-8.549335889439703351e+00,-4.005779680906186968e+01,3.270324291183669629e+00,1.708989431215888999e+01,9.561484336853027344e+00,-7.649186849594116211e-01,1.147378161549568176e-01,4.480000000000000000e+02
-8.517567277893567734e+01,-6.107952496295695255e+00,2.024892047943819762e+01,6.879612331150883620e+01,-4.423975733941119870e+00,-3.660939261697330949e+01,7.097496381051087155e+00,1.996551430394197268e+01,9.561484336853027344e+00,-7.649186849594116211e-01,1.147378161549568176e-01,4.490000000000000000e+02
-8.411825451413483279e+01,-4.525837092080337243e+00,2.251256971533166507e+01,7.376075771947120074e+01,-9.639981455433144220e-01,-3.218312678542201866e+01,1.198468664297070063e+01,2.267349263413905192e+01,9.561484336853027344e+00,-7.649186849594116211e-01,1.147378161549568176e-01,4.500000000000000000e+02
-8.613339794051330500e+01,-3.145706318506142907e-01,2.644987142753484477e+01,7.814197257448432765e+01,2.389906865406828729e+00,-2.715338787393955045e+01,1.752861262995406832e+01,2.518546614599836175e+01,9.561484336853027344e+00,-7.649186849594116211e-01,1.147378161549568176e-01,4.510000000000000000e+02
-9.216146030836716818e+01,7.095572781745090651e+00,3.154380615976776880e+01,8.176411452355995380e+01,6.191277039888177569e+00,-2.218947235995096889e+01,2.291358626762917083e+01,2.723860378604945254e+01,9.561484336853027344e+00,-7.649186849594116211e-01,1.147378161549568176e-01,4.520000000000000000e+02
-1.009362902039251253e+02,1.704635080238966793e+01,3.637059622856111218e+01,8.450238967826561520e+01,1.037457173250504638e+01,-1.820426927368225734e+01,2.727988370698017206e+01,2.834465449212814292e+01,9.561484336853027344e+00,-7.649186849594116211e-01,1.147378161549568176e-01,4.530000000000000000e+02
-1.091448800725256660e+02,2.776502848587438166e+01,3.958642745094584825e+01,8.592721442803838272e+01,1.418025800781936141e+01,-1.607559195710371114e+01,3.019202497021751697e+01,2.812329045696617413e+01,9.561484336853027344e+00,-7.649186849594116211e-01,1.147378161549568176e-01,4.540000000000000000e+02
-1.132160132736170226e+02,3.713907261363095813e+01,4.074790067171556984e+01,8.547994918626238814e+01,1.672706939518968738e+01,-1.615500704263035914e+01,3.184065478343927680e+01,2.677114868401520198e+01,9.561484336853027344e+00,-7.649186849594116211e-01,1.147378161549568176e-01,4.550000000000000000e+02
-1.113326475134734892e+02,4.376533329929154092e+01,4.038155329555547723e+01,8.313750958227183219e+01,1.773962428999675467e+01,-1.789636128745655697e+01,3.281277515875513018e+01,2.522945251564658520e+01,9.561484336853027344e+00,-7.649186849594116211e-01,1.147378161549568176e-01,4.560000000000000000e+02
-1.041582584721971898e+02,4.769365835843501600e+01,3.939955655249138999e+01,7.988203301807709522e+01,1.779961631659512022e+01,-1.999111381506054386e+01,3.364237502588662210e+01,2.472745806768273269e+01,9.561484336853027344e+00,-7.649186849594116211e-01,1.147378161549568176e-01,4.570000000000000000e+02
-9.399392532712306547e+01,5.033786942199077430e+01,3.843645732475772547e+01,7.731740148100948318e+01,1.791519025326988412e+01,-2.105799596163456044e+01,3.453173899709690886e+01,2.589836439144823999e+01,9.561484336853027344e+00,-7.649186849594116211e-01,1.147378161549568176e-01,4.580000000000000000e+02
-8.332498303592393540e+01,5.346314612626744633e+01,3.759144372903597286e+01,7.656660075870360060e+01,1.876551139621847142e+01,-2.045673553435835856e+01,3.539987451691263232e+01,2.818702101892472456e+01,9.561484336853027344e+00,-7.649186849594116211e-01,1.147378161549568176e-01,4.590000000000000000e+02
-7.385611281187698296e+01,5.783148181105326557e+01,3.665689198891072920e+01,7.739817723224609836e+01,2.022469025679390597e+01,-1.859676253149768854e+01,3.608712091161919489e+01,3.020846731917629313e+01,9.561484336853027344e+00,-7.649186849594116211e-01,1.147378161549568176e-01,4.600000000000000000e+02
-6.632197659104923559e+01,6.250838081882307051e+01,3.554098314127293179e+01,7.846811171163278686e+01,2.152795554874910522e+01,-1.646796840316142152e+01,3.647573173711020900e+01,3.093800339487268047e+01,9.561484336853027344e+00,-7.649186849594116211e-01,1.147378161549568176e-01,4.610000000000000000e+02
-6.065671979211055032e+01,6.550079179495750736e+01,3.450513862974821677e+01,7.853141511777243977e+01,2.193188479127263690e+01,-1.477606456377475297e+01,3.652655634501161330e+01,3.075323484982095579e+01,9.561484336853027344e+00,-7.649186849594116211e-01,1.147378161549568176e-01,4.620000000000000000e+02
-5.614247832381749959e+01,6.538750103062719177e+01,3.404186723432076178e+01,7.751511899160766461e+01,2.136217237540404312e+01,-1.340824234425679151e+01,3.639318508343717440e+01,3.130599418864358086e+01,9.561484336853027344e+00,-7.649186849594116211e-01,1.147378161549568176e-01,4.630000000000000000e+02
-5.163395694347519793e+01,6.262333246144649479e+01,3.448781109926130739e+01,7.644198766098952547e+01,2.053465324292835703e+01,-1.167619404098365976e+01,3.658151171840449933e+01,3.419573918051059991e+01,9.561484336853027344e+00,-7.649186849594116211e-01,1.147378161549568176e-01,4.640000000000000000e+02
-4.610906448164536187e+01,5.924603236188877986e+01,3.567634716077122903e+01,7.631564850491696461e+01,2.042211560609848675e+01,-9.084676731072136135e+00,3.786337793056827650e+01,3.952970696935517481e+01,9.561484336853027344e+00,-7.649186849594116211e-01,1.147378161549568176e-01,4.650000000000000000e+02
-3.935161698485387660e+01,5.703752790356631408e+01,3.694888914935984303e+01,7.710183674697719880e+01,2.148341163479608440e+01,-5.885064271224450749e+00,4.076544835160757430e+01,4.563370479947923286e+01,9.561484336853027344e+00,-7.649186849594116211e-01,1.147378161549568176e-01,4.660000000000000000e+02
-3.215148985945154436e+01,5.572547577336263203e+01,3.760857663937940742e+01,7.781913324192686332e+01,2.330603422261583546e+01,-2.878054520843761566e+00,4.495283172676181493e+01,5.018996209054228075e+01,9.561484336853027344e+00,-7.649186849594116211e-01,1.147378161549568176e-01,4.670000000000000000e+02
-2.568625412017627241e+01,5.297658791442015058e+01,3.752250727466071112e+01,7.757237739218226125e+01,2.498744163327557999e+01,-6.654910212893128119e-01,4.914650163082433210e+01,5.181655359483738721e+01,9.370253562927246094e+00,-8.796565532684326172e-01,7.649187743663787842e-02,4.680000000000000000e+02
-2.053100557228003709e+01,4.634254256395050220e+01,3.736035292039207434e+01,7.639645858099709130e+01,2.590613052636365410e+01,8.831064749941788250e-01,5.184517123837304098e+01,5.079760047175386717e+01,9.370253562927246094e+00,-8.796565532684326172e-01,7.649187743663787842e-02,4.690000000000000000e+02
-1.623311412662184239e+01,3.538389306638308085e+01,3.816858008865688134e+01,7.502705800532442026e+01,2.616299413062415624e+01,2.388885195659099736e+00,5.235249479065919331e+01,4.852970840783791573e+01,9.370253562927246094e+00,-8.796565532684326172e-01,7.649187743663787842e-02,4.700000000000000000e+02
-1.195972534644351981e+01,2.188220807665626921e+01,4.049181418230466534e+01,7.388743303381141914e+01,2.628637740546525947e+01,4.172447097080521417e+00,5.123937677264166268e+01,4.635028994832578064e+01,9.370253562927246094e+00,-8.796565532684326172e-01,7.649187743663787842e-02,4.710000000000000000e+02
-7.670303872350473284e+00,7.888229650669188686e+00,4.370305911132925303e+01,7.241545359924884906e+01,2.651872241654723439e+01,5.732912107285187631e+00,4.983783862389145725e+01,4.476691513043340365e+01,9.370253562927246094e+00,-8.796565532684326172e-01,7.649187743663787842e-02,4.720000000000000000e+02
-4.629063976730890317e+00,-6.371046871957759095e+00,4.614500035240632769e+01,6.949870305112881397e+01,2.643299824091366190e+01,6.090783692735840305e+00,4.922562323107922566e+01,4.352294677490101549e+01,9.370253562927246094e+00,-8.796565532684326172e-01,7.649187743663787842e-02,4.730000000000000000e+02
-4.555266624635237349e+00,-2.240522659459421106e+01,4.610775919100160536e+01,6.462482183896253218e+01,2.529604469114235599e+01,4.720538988095768218e+00,4.956693150894852806e+01,4.216522885769950335e+01,9.370253562927246094e+00,-8.796565532684326172e-01,7.649187743663787842e-02,4.740000000000000000e+02
-7.986146569714151155e+00,-4.102204832998287998e+01,4.300369676927789442e+01,5.860841110445630875e+01,2.282158455645515005e+01,2.176917031354605570e+00,5.026169759813933524e+01,4.051718767979650693e+01,9.370253562927246094e+00,-8.796565532684326172e-01,7.649187743663787842e-02,4.750000000000000000e+02
-1.331071825932923502e+01,-5.991314535800748331e+01,3.786443242876157456e+01,5.316966837546948454e+01,1.956295902136264431e+01,-2.295690533624110685e-01,5.060658251484983339e+01,3.873982879970492377e+01,9.370253562927246094e+00,-8.796565532684326172e-01,7.649187743663787842e-02,4.760000000000000000e+02
-1.751300915524649326e+01,-7.396971542400076771e+01,3.273705804487497062e+01,4.972762741133729492e+01,1.654878966139938257e+01,-1.443902198576665796e+00,5.032072412934348904e+01,3.709007863138413086e+01,9.370253562927246094e+00,-8.796565532684326172e-01,7.649187743663787842e-02,4.770000000000000000e+02
-1.820265049220438414e+01,-7.861237434391884449e+01,2.937992387272697670e+01,4.843978969132945167e+01,1.449898182865797480e+01,-1.443433632150458834e+00,4.959086401740978545e+01,3.566137073335119112e+01,9.370253562927246094e+00,-8.796565532684326172e-01,7.649187743663787842e-02,4.780000000000000000e+02
-1.528621035576446729e+01,-7.348601619749305769e+01,2.821344035982849618e+01,4.822746606411820380e+01,1.333588612417202057e+01,-1.101329947378076213e+00,4.876979079528177863e+01,3.430201541829268308e+01,9.370253562927246094e+00,-8.796565532684326172e-01,7.649187743663787842e-02,4.790000000000000000e+02
-1.086532251792641546e+01,-6.326252077393894524e+01,2.828850193714868055e+01,4.764727206919829428e+01,1.239308459305254928e+01,-1.314377125330906892e+00,4.807670285560016055e+01,3.276104925809858059e+01,9.370253562927246094e+00,-8.796565532684326172e-01,7.649187743663787842e-02,4.800000000000000000e+02
-7.456083333748267705e+00,-5.468693447232119809e+01,2.825158509358027459e+01,4.585785941039577551e+01,1.108637587441978667e+01,-2.210721022955340231e+00,4.752092888360607503e+01,3.098580059274758014e+01,9.370253562927246094e+00,-8.796565532684326172e-01,7.649187743663787842e-02,4.810000000000000000e+02
-6.068876800398356863e+00,-5.219179690044532549e+01,2.748942246088745378e+01,4.301336631070583394e+01,9.448667800693556273e+00,-3.109078178307640883e+00,4.702003604571041251e+01,2.935530785586462343e+01,9.370253562927246094e+00,-8.796565532684326172e-01,7.649187743663787842e-02,4.820000000000000000e+02
-5.769590347347161696e+00,-5.547770366295003441e+01,2.649901558379906419e+01,3.995290795691298058e+01,8.112516651768487463e+00,-3.179544814296946242e+00,4.656829249480529143e+01,2.858522546428918076e+01,9.370253562927246094e+00,-8.796565532684326172e-01,7.649187743663787842e-02,4.830000000000000000e+02
-4.963148434686559085e+00,-6.062645294213434966e+01,2.619725256197989438e+01,3.752099793363399272e+01,7.771506474961142885e+00,-2.193094287434291800e+00,4.628378808088928054e+01,2.922361945951843154e+01,9.370253562927246094e+00,-8.796565532684326172e-01,7.649187743663787842e-02,4.840000000000000000e+02
-3.095271603260016491e+00,-6.340248255775210851e+01,2.682249761551082656e+01,3.599821933044384537e+01,8.533492972536805610e+00,-7.615576858230497237e-01,4.625168758489598986e+01,3.103570881215989630e+01,9.370253562927246094e+00,-8.796565532684326172e-01,7.649187743663787842e-02,4.850000000000000000e+02
-1.160134699177206130e+00,-6.198610243722447422e+01,2.748174841561512949e+01,3.500759753723519907e+01,9.668515308304563405e+00,7.847619394738103438e-02,4.627640467394553525e+01,3.285823657210977444e+01,9.370253562927246094e+00,-8.796565532684326172e-01,7.649187743663787842e-02,4.860000000000000000e+02
-6.160592849676618243e-01,-5.737973626520681592e+01,2.683024060303415581e+01,3.395052224373540639e+01,9.997075492574936106e+00,-3.913633694342024683e-01,4.580968151903050511e+01,3.324702481397298470e+01,9.370253562927246094e+00,-8.796565532684326172e-01,7.649187743663787842e-02,4.870000000000000000e+02
-1.845047854244796781e+00,-5.183058333407441864e+01,2.431558613112412104e+01,3.265013665716946889e+01,8.704061509264533925e+00,-2.015331779409848423e+00,4.425585675664331120e+01,3.155093556022615076e+01,9.370253562927246094e+00,-8.796565532684326172e-01,7.649187743663787842e-02,4.880000000000000000e+02
-3.685059238917688162e+00,-4.694148497583529434e+01,2.082068605612374768e+01,3.163944532677606958e+01,5.976300499230774221e+00,-3.793571866031356876e+00,4.149665777441248338e+01,2.853363780201033251e+01,9.370253562927246094e+00,-8.796565532684326172e-01,7.649187743663787842e-02,4.890000000000000000e+02
-4.506922195684694543e+00,-4.290093900951310957e+01,1.801917161638561993e+01,3.169770118458160368e+01,2.899236186639768675e+00,-4.561903404004965523e+00,3.815016902015702271e+01,2.586211983140549364e+01,9.370253562927246094e+00,-8.796565532684326172e-01,7.649187743663787842e-02,4.900000000000000000e+02
-3.814428888069187451e+00,-3.905113842353149778e+01,1.692456620435439163e+01,3.287868449639444179e+01,5.940267887945083203e-01,-3.945840791794125835e+00,3.520189890084213857e+01,2.469786561284740856e+01,9.370253562927246094e+00,-8.796565532684326172e-01,7.649187743663787842e-02,4.910000000000000000e+02
-2.827503970880968609e+00,-3.500561745347255282e+01,1.692159613968340182e+01,3.391553728929341105e+01,-7.338238743756164695e-01,-2.888556396074363875e+00,3.323282594511499610e+01,2.453387928223338577e+01,9.370253562927246094e+00,-8.796565532684326172e-01,7.649187743663787842e-02,4.920000000000000000e+02
-3.446308520929079577e+00,-3.134260822377336808e+01,1.621183867509267884e+01,3.280562412217338419e+01,-1.982836156065729938e+00,-3.185915625609140989e+00,3.195466667611731282e+01,2.338489876723679117e+01,9.370253562927246094e+00,-8.796565532684326172e-01,7.649187743663787842e-02,4.930000000000000000e+02
-6.484900457845299115e+00,-2.939809635411484123e+01,1.335512477442290447e+01,2.838762259901250218e+01,-4.361525873898472128e+00,-6.168974424952921254e+00,3.053649044424378189e+01,1.937872418320915813e+01,9.370253562927246094e+00,-8.796565532684326172e-01,7.649187743663787842e-02,4.940000000000000000e+02
-1.075494026885226617e+01,-3.038254565826136400e+01,8.570687246767647594e+00,2.165226857519417081e+01,-8.279561635032393951e+00,-1.146499052490497661e+01,2.844767099728574067e+01,1.253573171010737042e+01,9.370253562927246094e+00,-8.796565532684326172e-01,7.649187743663787842e-02,4.950000000000000000e+02
-1.385986141934014881e+01,-3.451302082915660208e+01,3.640297896357935770e+00,1.547813285432991393e+01,-1.291250367370537333e+01,-1.692037723733687926e+01,2.601085369827671911e+01,5.166314046577781482e+00,9.370253562927246094e+00,-8.796565532684326172e-01,7.649187743663787842e-02,4.960000000000000000e+02
-1.409045216482516594e+01,-4.082422945043430218e+01,4.824778989740252655e-01,1.272664628704288248e+01,-1.682690120177369408e+01,-1.995350918517698346e+01,2.411555776141051410e+01,3.734371009429651167e-01,9.370253562927246094e+00,-8.796565532684326172e-01,7.649187743663787842e-02,4.970000000000000000e+02
-1.185079885402524269e+01,-4.780644993284010269e+01,-3.747706060352697932e-01,1.412499399153865909e+01,-1.909574574354883225e+01,-1.938804596573965000e+01,2.336623446631540446e+01,-2.514171767130051194e-01,9.370253562927246094e+00,-8.796565532684326172e-01,7.649187743663787842e-02,4.980000000000000000e+02
-9.420806134152996947e+00,-5.435762343473503933e+01,-1.533898941768825352e-01,1.767508353227506745e+01,-1.995980085175165186e+01,-1.632671368930300559e+01,2.346056743897202068e+01,2.124086907490180920e+00,9.446745872497558594e+00,-8.414105772972106934e-01,0.000000000000000000e+00,4.990000000000000000e+02
-9.256882462300040970e+00,-6.027776578965914211e+01,-8.020324853136742149e-01,2.008257215439905963e+01,-2.055399777485956747e+01,-1.335479354960870069e+01,2.333252578513804565e+01,4.441690420800966876e+00,9.446745872497558594e+00,-8.414105772972106934e-01,0.000000000000000000e+00,5.000000000000000000e+02
-1.223939135871376038e+01,-6.596285146957103507e+01,-3.530117312634359905e+00,1.897610689713545185e+01,-2.203443499313544862e+01,-1.273932912674712270e+01,2.188456832720527245e+01,4.029839822612530043e+00,9.446745872497558594e+00,-8.414105772972106934e-01,0.000000000000000000e+00,5.010000000000000000e+02
-1.725095948235336607e+01,-7.170534342200869560e+01,-8.089852018820380408e+00,1.412488241859041693e+01,-2.484493261535874353e+01,-1.507934099739503608e+01,1.868570777405409444e+01,4.172406345657009297e-01,9.446745872497558594e+00,-8.414105772972106934e-01,0.000000000000000000e+00,5.020000000000000000e+02
-2.228609840380175910e+01,-7.732422827634309215e+01,-1.322947558485029163e+01,6.927689246883659280e+00,-2.860249367182206015e+01,-1.936640022587056365e+01,1.416825559739470464e+01,-4.716528111964237269e+00,9.446745872497558594e+00,-8.414105772972106934e-01,0.000000000000000000e+00,5.030000000000000000e+02
-2.604156461250016719e+01,-8.242453467931446198e+01,-1.775771658607783365e+01,-9.971203455365724722e-01,-3.254617637145582876e+01,-2.415757259214470309e+01,9.298932249087727087e+00,-9.216326181447982435e+00,9.446745872497558594e+00,-8.414105772972106934e-01,0.000000000000000000e+00,5.040000000000000000e+02
-2.866599435521919759e+01,-8.687928869709378432e+01,-2.131734872042517281e+01,-8.743641049949232524e+00,-3.615175094742676265e+01,-2.870804634069392591e+01,5.003745814112619428e+00,-1.220979726624526052e+01,9.446745872497558594e+00,-8.414105772972106934e-01,0.000000000000000000e+00,5.050000000000000000e+02
-3.122751529191930331e+01,-9.092621827125059042e+01,-2.439891720537374908e+01,-1.601396131811106471e+01,-3.949785614472568795e+01,-3.315964525203452240e+01,1.671561828139147110e+00,-1.452859782693128921e+01,9.446745872497558594e+00,-8.414105772972106934e-01,0.000000000000000000e+00,5.060000000000000000e+02
-3.459424974427061272e+01,-9.480175897170997246e+01,-2.779816079149563279e+01,-2.256481223119213553e+01,-4.317627673422940404e+01,-3.787497879498360476e+01,-1.021785713447656008e+00,-1.767056579920496517e+01,9.446745872497558594e+00,-8.414105772972106934e-01,0.000000000000000000e+00,5.070000000000000000e+02
-3.879315801988303036e+01,-9.841992851795288288e+01,-3.201174395262705730e+01,-2.806314151408030710e+01,-4.779968817801028536e+01,-4.275006603342599476e+01,-3.844158522507996167e+00,-2.239590504085521161e+01,9.446745872497558594e+00,-8.414105772972106934e-01,0.000000000000000000e+00,5.080000000000000000e+02
-4.326585556006729405e+01,-1.015256076222582067e+02,-3.691604626317399607e+01,-3.245664907141411248e+01,-5.343125006334845040e+01,-4.718485105057008866e+01,-7.413045122958664024e+00,-2.813072725433326582e+01,9.446745872497558594e+00,-8.414105772972106934e-01,0.000000000000000000e+00,5.090000000000000000e+02
-4.755246707855476274e+01,-1.041118497720320164e+02,-4.182186401854607283e+01,-3.623052585161572381e+01,-5.937090210031643522e+01,-5.063939377947449572e+01,-1.168353523693414964e+01,-3.347806190449683328e+01,9.446745872497558594e+00,-8.414105772972106934e-01,0.000000000000000000e+00,5.100000000000000000e+02
-5.166829530341512822e+01,-1.065087317845878943e+02,-4.584702533529129198e+01,-4.006769208796079340e+01,-6.452110840980623152e+01,-5.314540337300786632e+01,-1.597363973823321714e+01,-3.723830993198981076e+01,9.446745872497558594e+00,-8.414105772972106934e-01,0.000000000000000000e+00,5.110000000000000000e+02
-5.589152053477765492e+01,-1.089356475855219060e+02,-4.844962009618532761e+01,-4.420546494785250502e+01,-6.810541239693779403e+01,-5.526578765014355099e+01,-1.957902252040949520e+01,-3.911868485028401921e+01,9.446745872497558594e+00,-8.414105772972106934e-01,0.000000000000000000e+00,5.120000000000000000e+02
-6.029885779319133121e+01,-1.110195560235395362e+02,-4.981785628418720080e+01,-4.820766781023310443e+01,-7.015138220146415904e+01,-5.758125543808201030e+01,-2.244789722999280457e+01,-3.973846763101823854e+01,9.446745872497558594e+00,-8.414105772972106934e-01,0.000000000000000000e+00,5.130000000000000000e+02
-6.454131806207665534e+01,-1.119251086170205269e+02,-5.077639512507769837e+01,-5.141742057332095328e+01,-7.132443173964330185e+01,-6.020558339810600046e+01,-2.525112233227002889e+01,-4.007138624956843387e+01,9.446745872497558594e+00,-8.414105772972106934e-01,0.000000000000000000e+00,5.140000000000000000e+02
-6.798363902112683377e+01,-1.110699881009292511e+02,-5.214702202170965961e+01,-5.355487881613667867e+01,-7.226469892518534266e+01,-6.271955321988355081e+01,-2.869737384500950839e+01,-4.075019338576697692e+01,9.446745872497558594e+00,-8.414105772972106934e-01,0.000000000000000000e+00,5.150000000000000000e+02
-6.997680835913878639e+01,-1.086961117291341452e+02,-5.399009771526908708e+01,-5.477437064688609780e+01,-7.301810692604843211e+01,-6.447868445192779063e+01,-3.269241371298710419e+01,-4.163704963702423356e+01,9.446745872497558594e+00,-8.414105772972106934e-01,0.000000000000000000e+00,5.160000000000000000e+02
-7.004112305177400799e+01,-1.056196618371789668e+02,-5.540709776936145659e+01,-5.516159143735436032e+01,-7.305026077822981279e+01,-6.496482428044748758e+01,-3.616741273084915065e+01,-4.190619268252646634e+01,9.446745872497558594e+00,-8.414105772972106934e-01,0.000000000000000000e+00,5.170000000000000000e+02
-6.795266054942061373e+01,-1.023696720872762285e+02,-5.518911383815549243e+01,-5.434690110894149484e+01,-7.176839151125301441e+01,-6.392355688776194711e+01,-3.779469038175602691e+01,-4.060429580407367212e+01,9.446745872497558594e+00,-8.414105772972106934e-01,0.000000000000000000e+00,5.180000000000000000e+02
-6.383554754957347654e+01,-9.863800140029673003e+01,-5.282333352645434843e+01,-5.178187544494541328e+01,-6.903841460890907911e+01,-6.131983388976004790e+01,-3.699059359301077166e+01,-3.732181273093044638e+01,9.446745872497558594e+00,-8.414105772972106934e-01,0.000000000000000000e+00,5.190000000000000000e+02
-5.824941569954586384e+01,-9.366598670577505459e+01,-4.897182094819436315e+01,-4.742616923781864102e+01,-6.528648299991220938e+01,-5.729934120763135752e+01,-3.434041296749251160e+01,-3.249881588052460302e+01,9.408499717712402344e+00,-8.031646609306335449e-01,1.147378161549568176e-01,5.200000000000000000e+02
-5.212428861190838347e+01,-8.719986919717024421e+01,-4.496675239643047917e+01,-4.206965722756811488e+01,-6.120817700407945949e+01,-5.223672224852924728e+01,-3.111503424956742947e+01,-2.714056004722971238e+01,9.408499717712402344e+00,-8.031646609306335449e-01,1.147378161549568176e-01,5.210000000000000000e+02
-4.646531548194772654e+01,-7.999870750380578954e+01,-4.177800097283534342e+01,-3.687706051925621864e+01,-5.740485877159289885e+01,-4.676805618223102101e+01,-2.835841739229761060e+01,-2.219749362347022270e+01,9.408499717712402344e+00,-8.031646609306335449e-01,1.147378161549568176e-01,5.220000000000000000e+02
-4.196741768912119142e+01,-7.329362534717219546e+01,-3.938599752139225529e+01,-3.259548181376260345e+01,-5.419308225104384746e+01,-4.166812671038155713e+01,-2.633541607462257161e+01,-1.811226627302619363e+01,9.408499717712402344e+00,-8.031646609306335449e-01,1.147378161549568176e-01,5.230000000000000000e+02
-3.878905837685050528e+01,-6.768867600970772003e+01,-3.706326061680221073e+01,-2.922720482144248422e+01,-5.158907974113833461e+01,-3.757609582995644359e+01,-2.471427845069752038e+01,-1.481675748940085668e+01,9.408499717712402344e+00,-8.031646609306335449e-01,1.147378161549568176e-01,5.240000000000000000e+02
-3.662274084412564434e+01,-6.259702263799722743e+01,-3.417753423201020269e+01,-2.641973779202851347e+01,-4.935623568210667145e+01,-3.473285496032679021e+01,-2.315493737065889945e+01,-1.201861305617637754e+01,9.408499717712402344e+00,-8.031646609306335449e-01,1.147378161549568176e-01,5.250000000000000000e+02
-3.498290430379807958e+01,-5.679574559856504834e+01,-3.069468410657930235e+01,-2.401814930979259088e+01,-4.708186856535758125e+01,-3.289520593673387339e+01,-2.166663080491252913e+01,-9.431293635648557938e+00,9.408499717712402344e+00,-8.031646609306335449e-01,1.147378161549568176e-01,5.260000000000000000e+02
-3.349173758702454506e+01,-4.961019682922540142e+01,-2.698827542411800096e+01,-2.212282798570996079e+01,-4.434370031362209374e+01,-3.147679009583725929e+01,-2.042555445866605623e+01,-6.835163458433328287e+00,9.408499717712402344e+00,-8.031646609306335449e-01,1.147378161549568176e-01,5.270000000000000000e+02
-3.198588269670386808e+01,-4.162884447907332230e+01,-2.331595257935350674e+01,-2.064524431470113086e+01,-4.094884460919467983e+01,-2.983578544941133259e+01,-1.933656327050698565e+01,-4.121272897902031218e+00,9.408499717712402344e+00,-8.031646609306335449e-01,1.147378161549568176e-01,5.280000000000000000e+02
-3.042327296010535065e+01,-3.431272286349445721e+01,-1.961370242532825614e+01,-1.902273526551221039e+01,-3.710741362173200741e+01,-2.758518951637097416e+01,-1.790641191836402868e+01,-1.448901948746311064e+00,9.408499717712402344e+00,-8.031646609306335449e-01,1.147378161549568176e-01,5.290000000000000000e+02
-2.872312668584794437e+01,-2.888316140458775294e+01,-1.580993956142890511e+01,-1.660087185731515547e+01,-3.339263794666612739e+01,-2.479523464321891879e+01,-1.566890026861346996e+01,6.444034417797865899e-01,9.408499717712402344e+00,-8.031646609306335449e-01,1.147378161549568176e-01,5.300000000000000000e+02
-2.671221677259632088e+01,-2.545193695049067628e+01,-1.221896556430624514e+01,-1.337568474619951076e+01,-3.046791260848306138e+01,-2.195815789348193903e+01,-1.278702295541279454e+01,1.491883516793677700e+00,9.408499717712402344e+00,-8.031646609306335449e-01,1.147378161549568176e-01,5.310000000000000000e+02
-2.427222603557459024e+01,-2.305585375942720816e+01,-9.477352843667631532e+00,-1.025006380483159774e+01,-2.873478365790106182e+01,-1.967810953353455261e+01,-1.017563999010735643e+01,8.967109405112978493e-01,9.408499717712402344e+00,-8.031646609306335449e-01,1.147378161549568176e-01,5.320000000000000000e+02
-2.158515473334114176e+01,-2.043752699581926890e+01,-7.994620766125763112e+00,-8.357952488042087680e+00,-2.810070605467649330e+01,-1.821853869354526978e+01,-8.865357758261779964e+00,-3.939853431077153800e-01,9.408499717712402344e+00,-8.031646609306335449e-01,1.147378161549568176e-01,5.330000000000000000e+02
-1.920412254289260545e+01,-1.685810220457284458e+01,-7.440346425184316104e+00,-7.986598104210997917e+00,-2.799845287556649964e+01,-1.723395960021684914e+01,-9.085715075186271861e+00,-8.810358711675689847e-01,9.408499717712402344e+00,-8.031646609306335449e-01,1.147378161549568176e-01,5.340000000000000000e+02
-1.778845450564654129e+01,-1.239462230103990237e+01,-6.826765179850781351e+00,-8.157446611057821428e+00,-2.765725569790447480e+01,-1.597107101435813092e+01,-9.928095508113074175e+00,7.777719034233996354e-01,9.408499717712402344e+00,-8.031646609306335449e-01,1.147378161549568176e-01,5.350000000000000000e+02
-1.762497140946391028e+01,-7.725057880583875658e+00,-5.185864744965783757e+00,-7.351374465018182036e+00,-2.649419182452652421e+01,-1.385510718218938564e+01,-9.990880824780560943e+00,4.774679739254338529e+00,9.408499717712402344e+00,-8.031646609306335449e-01,1.147378161549568176e-01,5.360000000000000000e+02
-1.830707533723125380e+01,-3.757604113692053716e+00,-2.277313470397302808e+00,-4.767726861131336591e+00,-2.441082300357084023e+01,-1.099866967543061946e+01,-8.504658410270621971e+00,9.908005988829700073e+00,9.408499717712402344e+00,-8.031646609306335449e-01,1.147378161549568176e-01,5.370000000000000000e+02
-1.886837642808234250e+01,-1.348419255038862730e+00,1.278974158456094301e+00,-9.550999802775663738e-01,-2.179665344690056372e+01,-8.143270520397209111e+00,-5.935011997507444903e+00,1.438563019433547652e+01,9.408499717712402344e+00,-8.031646609306335449e-01,1.147378161549568176e-01,5.380000000000000000e+02
-1.828635249381693484e+01,-1.067786485042176992e+00,4.557834522157463653e+00,2.758810455160926267e+00,-1.922214049059994068e+01,-6.017737026723352756e+00,-3.512231681701450725e+00,1.711750244382221808e+01,9.408499717712402344e+00,-8.031646609306335449e-01,1.147378161549568176e-01,5.390000000000000000e+02
-1.599900227846080725e+01,-2.905518707002869405e+00,7.088430815255151174e+00,5.462076396267491418e+00,-1.702649974506698527e+01,-4.661938783440746192e+00,-2.124527581082475081e+00,1.848941964703965368e+01,9.408499717712402344e+00,-8.031646609306335449e-01,1.147378161549568176e-01,5.400000000000000000e+02
-1.212299003613577497e+01,-6.053614581600953670e+00,9.162037527639995460e+00,7.329580484174357480e+00,-1.510779353929729041e+01,-3.356665606504293464e+00,-1.593594908352770290e+00,1.995631020796827215e+01,9.408499717712402344e+00,-8.031646609306335449e-01,1.147378161549568176e-01,5.410000000000000000e+02
-7.350513664512391188e+00,-9.104058545343519881e+00,1.143067228571158012e+01,9.176080517217883425e+00,-1.309844320547176721e+01,-1.288449166533609969e+00,-9.587026207009330392e-01,2.272690213782652791e+01,9.408499717712402344e+00,-8.031646609306335449e-01,1.147378161549568176e-01,5.420000000000000000e+02
-2.669570606081379083e+00,-1.072064631878174623e+01,1.418409705538601884e+01,1.143531108218940062e+01,-1.077523419323506459e+01,1.629113806352052052e+00,5.821313628989628342e-01,2.662560273510894149e+01,9.408499717712402344e+00,-8.031646609306335449e-01,1.147378161549568176e-01,5.430000000000000000e+02
1.008313873316751597e+00,-1.032277808644070660e+01,1.699682733185318284e+01,1.367338220859755893e+01,-8.337645549380340526e+00,4.566120801645411120e+00,3.001673231342465442e+00,3.016376427728891940e+01,9.408499717712402344e+00,-8.031646609306335449e-01,1.147378161549568176e-01,5.440000000000000000e+02
3.278827649852587456e+00,-8.163961651099214123e+00,1.911082959508439671e+01,1.517153288410736423e+01,-6.291622285679068227e+00,6.458770203541007504e+00,5.615139482921676972e+00,3.185915948538240627e+01,9.446745872497558594e+00,-8.414105772972106934e-01,3.824593871831893921e-02,5.450000000000000000e+02
4.544150333998345559e+00,-4.721959489857340486e+00,2.022567223387864033e+01,1.595549392641476061e+01,-5.008350009248488277e+00,6.989881013209469529e+00,7.814021711056739150e+00,3.170250741359723179e+01,9.446745872497558594e+00,-8.414105772972106934e-01,3.824593871831893921e-02,5.460000000000000000e+02
5.833184894283817812e+00,-6.349922094511839532e-02,2.091216322113155002e+01,1.710591336988943567e+01,-4.341962910462370928e+00,6.967972923008346697e+00,9.583283603531981498e+00,3.139743615644465535e+01,9.446745872497558594e+00,-8.414105772972106934e-01,3.824593871831893921e-02,5.470000000000000000e+02
8.020412620061506459e+00,6.021482296761007547e+00,2.213669653263696091e+01,1.985596179880872114e+01,-3.687438230347197532e+00,7.699168080918298074e+00,1.133548940426271656e+01,3.298644261782055764e+01,9.446745872497558594e+00,-8.414105772972106934e-01,3.824593871831893921e-02,5.480000000000000000e+02
1.091832987147176937e+01,1.312902898196318802e+01,2.422116102267455062e+01,2.422917096944900095e+01,-2.521626427502724255e+00,9.836758295727122459e+00,1.331213095086923204e+01,3.694967014704116082e+01,9.446745872497558594e+00,-8.414105772972106934e-01,3.824593871831893921e-02,5.490000000000000000e+02
1.307899894821935050e+01,1.957122128554271967e+01,2.619472211941501882e+01,2.854645761402878179e+01,-1.009491268855981616e+00,1.267600723994291911e+01,1.519595525827526217e+01,4.145500707380506356e+01,9.446745872497558594e+00,-8.414105772972106934e-01,3.824593871831893921e-02,5.500000000000000000e+02
1.269280307954250020e+01,2.292191234078609341e+01,2.626011374086760952e+01,3.042696879652203279e+01,-1.061688600793786463e-01,1.452041654543972982e+01,1.631232119766127653e+01,4.353016114103638756e+01,9.446745872497558594e+00,-8.414105772972106934e-01,3.824593871831893921e-02,5.510000000000000000e+02
8.977935720840150680e+00,2.164304857378868974e+01,2.311934609101194837e+01,2.851628746102903733e+01,-9.540432328321912792e-01,1.384148954357806360e+01,1.617846484351503022e+01,4.124178675792472859e+01,9.446745872497558594e+00,-8.414105772972106934e-01,3.824593871831893921e-02,5.520000000000000000e+02
2.878615419489506166e+00,1.642738452700075413e+01,1.706382861894121561e+01,2.346948333391219421e+01,-3.995880546393891564e+00,1.030949857062842057e+01,1.484254786882820554e+01,3.505883065355419603e+01,9.446745872497558594e+00,-8.414105772972106934e-01,3.824593871831893921e-02,5.530000000000000000e+02
-3.552860784384392900e+00,9.898949669046601230e+00,9.869596272156968553e+00,1.734836511426533434e+01,-8.554937598306878499e+00,4.887482762388572155e+00,1.269701155864504472e+01,2.730039657432416789e+01,9.446745872497558594e+00,-8.414105772972106934e-01,3.824593871831893921e-02,5.540000000000000000e+02
-8.535238836402641027e+00,4.729755655008602844e+00,3.570949086893506319e+00,1.200487619134355555e+01,-1.330093218587990123e+01,-1.003239129756821058e+00,9.991298346776602557e+00,2.026441472180522396e+01,9.446745872497558594e+00,-8.414105772972106934e-01,3.824593871831893921e-02,5.550000000000000000e+02
-1.150909421080473294e+01,1.750078799056097978e+00,-8.470475877199987735e-01,7.879522169717347424e+00,-1.724963337712870270e+01,-6.471735269351029274e+00,6.573745915222389158e+00,1.470745716644887580e+01,9.446745872497558594e+00,-8.414105772972106934e-01,3.824593871831893921e-02,5.560000000000000000e+02
-1.299607564506436574e+01,-3.133666379149531167e-01,-3.794211726472894952e+00,4.156536680566432551e+00,-2.043636531450511029e+01,-1.148184592112647806e+01,2.153387733355884848e+00,9.859870243842806303e+00,9.446745872497558594e+00,-8.414105772972106934e-01,3.824593871831893921e-02,5.570000000000000000e+02
-1.379905761220493332e+01,-3.351196999683395461e+00,-6.316231001966116310e+00,-5.626645073050440260e-02,-2.367810811052368081e+01,-1.636060632983344476e+01,-3.170040430888548144e+00,4.700950612063479639e+00,9.446745872497558594e+00,-8.414105772972106934e-01,3.824593871831893921e-02,5.580000000000000000e+02
-1.446120698095592161e+01,-8.090518963135878039e+00,-9.029921499658485118e+00,-4.693090657655716313e+00,-2.767186695955342657e+01,-2.107961600250246192e+01,-8.661616833237530955e+00,-8.135197935080213938e-01,9.446745872497558594e+00,-8.414105772972106934e-01,3.824593871831893921e-02,5.590000000000000000e+02
-1.536532793936180497e+01,-1.359675482033702565e+01,-1.170160372613554500e+01,-8.727557205536641050e+00,-3.228605518611630032e+01,-2.505236319106643350e+01,-1.329843046851965482e+01,-5.663849836369536206e+00,9.446745872497558594e+00,-8.414105772972106934e-01,3.824593871831893921e-02,5.600000000000000000e+02
-1.701704326921753818e+01,-1.831565704095987712e+01,-1.369358958757629807e+01,-1.106365130257745477e+01,-3.668125877391639733e+01,-2.762489909837131563e+01,-1.643656880321213976e+01,-8.747017207767839864e+00,9.446745872497558594e+00,-8.414105772972106934e-01,3.824593871831893921e-02,5.610000000000000000e+02
-1.990802103971282122e+01,-2.149598301076605367e+01,-1.472038254232938925e+01,-1.144048857917528039e+01,-4.008003423015225053e+01,-2.876660739572298553e+01,-1.820881753762296285e+01,-9.947106158779661200e+00,9.446745872497558594e+00,-8.414105772972106934e-01,3.824593871831893921e-02,5.620000000000000000e+02
-2.402281175875123154e+01,-2.367022578472665373e+01,-1.522865976152615985e+01,-1.060236325359232978e+01,-4.243643744341079582e+01,-2.929893468219324859e+01,-1.933683057950293005e+01,-1.038797988573469411e+01,9.446745872497558594e+00,-8.414105772972106934e-01,3.824593871831893921e-02,5.630000000000000000e+02
-2.862775202602801983e+01,-2.594618413651289757e+01,-1.616065149038058735e+01,-9.703808872178569800e+00,-4.443361001416087674e+01,-3.043949618550004743e+01,-2.059963325572607573e+01,-1.171886104132545370e+01,9.446745872497558594e+00,-8.414105772972106934e-01,3.824593871831893921e-02,5.640000000000000000e+02
-3.274135150422284823e+01,-2.895699061881850866e+01,-1.838468556262841958e+01,-9.526992955992682255e+00,-4.691566638805898037e+01,-3.305103317457815137e+01,-2.246418810819614009e+01,-1.506112160095653962e+01,9.446745872497558594e+00,-8.414105772972106934e-01,3.824593871831893921e-02,5.650000000000000000e+02
-3.589186228146400026e+01,-3.241102833636966807e+01,-2.222459871419869160e+01,-1.011301331992171981e+01,-5.031696201265276613e+01,-3.717641266970804281e+01,-2.510104622076687519e+01,-2.038717588693498328e+01,9.446745872497558594e+00,-8.414105772972106934e-01,3.824593871831893921e-02,5.660000000000000000e+02
-3.836122715743158551e+01,-3.541948605494621916e+01,-2.728599324956348937e+01,-1.097119395707204603e+01,-5.448231721082584045e+01,-4.211635776804450870e+01,-2.851988575682207738e+01,-2.665892043622807250e+01,9.446745872497558594e+00,-8.414105772972106934e-01,3.824593871831893921e-02,5.670000000000000000e+02
-4.066006135716338576e+01,-3.709944693822615136e+01,-3.257490426287404262e+01,-1.159164722798504954e+01,-5.883477822051099793e+01,-4.686277695201988536e+01,-3.249936782197073626e+01,-3.250564971332141795e+01,9.446745872497558594e+00,-8.414105772972106934e-01,3.824593871831893921e-02,5.680000000000000000e+02
-4.282836053294909107e+01,-3.697169372293535616e+01,-3.684968388008792317e+01,-1.185910430874992016e+01,-6.263890976231050445e+01,-5.054124436423171574e+01,-3.640479652521753451e+01,-3.693226693197721033e+01,9.446745872497558594e+00,-8.414105772972106934e-01,3.824593871831893921e-02,5.690000000000000000e+02
-4.436019355425696631e+01,-3.508993598187339558e+01,-3.913265204278923193e+01,-1.211964330429282199e+01,-6.523497379767241000e+01,-5.267523554354374937e+01,-3.931502035913945292e+01,-3.965783804427383075e+01,9.446745872497558594e+00,-8.414105772972106934e-01,3.824593871831893921e-02,5.700000000000000000e+02
-4.486375187374551388e+01,-3.205304788702380847e+01,-3.920655269699773271e+01,-1.291885527496447139e+01,-6.628792147331478191e+01,-5.328941831661177275e+01,-4.062404391401923931e+01,-4.102012740575355565e+01,9.446745872497558594e+00,-8.414105772972106934e-01,3.824593871831893921e-02,5.710000000000000000e+02
-4.471737311065317044e+01,-2.888789266103970022e+01,-3.780357941243119058e+01,-1.463665536529947531e+01,-6.601264915909814590e+01,-5.288958048545100610e+01,-4.065067059377815895e+01,-4.166008883831091225e+01,9.484992027282714844e+00,-8.796565532684326172e-01,7.649187743663787842e-02,5.720000000000000000e+02
-4.495765752452371089e+01,-2.664396827644270616e+01,-3.628391616113276541e+01,-1.727198492243792316e+01,-6.517659729782462819e+01,-5.228339352859529754e+01,-4.056171316077325173e+01,-4.222579600477365602e+01,9.484992027282714844e+00,-8.796565532684326172e-01,7.649187743663787842e-02,5.730000000000000000e+02
-4.644198943580931882e+01,-2.580376493129631399e+01,-3.592512369196583677e+01,-2.050079899786146598e+01,-6.474934911126547377e+01,-5.223871794317801687e+01,-4.150908037033786968e+01,-4.318805229388908629e+01,9.484992027282714844e+00,-8.796565532684326172e-01,7.649187743663787842e-02,5.740000000000000000e+02
-4.911268322887872273e+01,-2.596150578739957382e+01,-3.726317475205996743e+01,-2.392323736182152061e+01,-6.537748537815150485e+01,-5.312693906681215594e+01,-4.371309532313262025e+01,-4.474286736611111337e+01,9.484992027282714844e+00,-8.796565532684326172e-01,7.649187743663787842e-02,5.750000000000000000e+02
-5.208885688253440094e+01,-2.614726252334651235e+01,-3.990295397164027236e+01,-2.726485504109427893e+01,-6.705513866268120182e+01,-5.477604202302427439e+01,-4.636574910233412083e+01,-4.675604747892839441e+01,9.484992027282714844e+00,-8.796565532684326172e-01,7.649187743663787842e-02,5.760000000000000000e+02
-5.443539844812221418e+01,-2.560619086282838452e+01,-4.284677210887502952e+01,-3.036496314453825107e+01,-6.919682040148472879e+01,-5.662616141778926249e+01,-4.843447427328192134e+01,-4.877777117912137328e+01,9.484992027282714844e+00,-8.796565532684326172e-01,7.649187743663787842e-02,5.770000000000000000e+02
-5.577220400753958529e+01,-2.433597410905201741e+01,-4.502592263825090413e+01,-3.300250622828502856e+01,-7.098099479865322792e+01,-5.804859060660965042e+01,-4.954342306471244228e+01,-5.017520399443674251e+01,9.484992027282714844e+00,-8.796565532684326172e-01,7.649187743663787842e-02,5.780000000000000000e+02
-5.612714828955677149e+01,-2.286985119322162063e+01,-4.567832625134678892e+01,-3.478065821646896438e+01,-7.168242676537738589e+01,-5.859871171205486462e+01,-5.007117909330736438e+01,-5.036566356767480102e+01,9.484992027282714844e+00,-8.796565532684326172e-01,7.649187743663787842e-02,5.790000000000000000e+02
-5.533537227165879813e+01,-2.154255644043257689e+01,-4.446957326881465633e+01,-3.525005768441928922e+01,-7.087001751145362505e+01,-5.810459499671560479e+01,-5.046002160292846384e+01,-4.907910613179637949e+01,9.484992027282714844e+00,-8.796565532684326172e-01,7.649187743663787842e-02,5.800000000000000000e+02
-5.284516037959156165e+01,-2.002768077725988860e+01,-4.153115265857786653e+01,-3.424111067296257715e+01,-6.854119546030779020e+01,-5.667667696592616267e+01,-5.057153400558672729e+01,-4.655944729339353216e+01,9.484992027282714844e+00,-8.796565532684326172e-01,7.649187743663787842e-02,5.810000000000000000e+02
-4.834671661941456478e+01,-1.767375307179054289e+01,-3.752598544986676643e+01,-3.216363784349118760e+01,-6.522708597721612023e+01,-5.472405153982163029e+01,-4.981060541322767676e+01,-4.361833231023774715e+01,9.484992027282714844e+00,-8.796565532684326172e-01,7.649187743663787842e-02,5.820000000000000000e+02
-4.263657647350100888e+01,-1.432933287985429160e+01,-3.360806040435545583e+01,-2.999305488176605650e+01,-6.192941355426864902e+01,-5.291243755048162711e+01,-4.785668047623039456e+01,-4.143045736811473034e+01,9.484992027282714844e+00,-8.796565532684326172e-01,7.649187743663787842e-02,5.830000000000000000e+02
-3.765915363876138144e+01,-1.079788765064665768e+01,-3.103913677565014950e+01,-2.883643527749291025e+01,-5.973006260746387852e+01,-5.192564226215927192e+01,-4.518137404376830091e+01,-4.098312539626613216e+01,9.484992027282714844e+00,-8.796565532684326172e-01,7.649187743663787842e-02,5.840000000000000000e+02
-3.534853429959684945e+01,-8.364871500237654800e+00,-3.048258536526918761e+01,-2.926467039126237069e+01,-5.917973520370469487e+01,-5.204650627351020375e+01,-4.276739908700255910e+01,-4.235999674168942875e+01,9.484992027282714844e+00,-8.796565532684326172e-01,7.649187743663787842e-02,5.850000000000000000e+02
-3.612014606488401114e+01,-7.744962328290853293e+00,-3.143348212625551241e+01,-3.081653422005388165e+01,-5.987650856595155346e+01,-5.282198352666000574e+01,-4.130307959596757428e+01,-4.436167882049721811e+01,9.484992027282714844e+00,-8.796565532684326172e-01,7.649187743663787842e-02,5.860000000000000000e+02
-3.839703517903899410e+01,-8.383517223894386916e+00,-3.235721140891928371e+01,-3.208050264885241631e+01,-6.062249830143991858e+01,-5.315583211524699436e+01,-4.065506119042220234e+01,-4.497811619643243830e+01,9.484992027282714844e+00,-8.796565532684326172e-01,7.649187743663787842e-02,5.870000000000000000e+02
-3.975400683648740596e+01,-8.757005063751421403e+00,-3.165769630214163044e+01,-3.146578629358327817e+01,-6.015712454913318652e+01,-5.191886346239243721e+01,-4.011813460309349466e+01,-4.268231454068154562e+01,9.484992027282714844e+00,-8.796565532684326172e-01,7.649187743663787842e-02,5.880000000000000000e+02
-3.880936090754039469e+01,-7.450235463678268388e+00,-2.887452527317600470e+01,-2.828374176962893216e+01,-5.801885903347374551e+01,-4.874102217407198623e+01,-3.916470284126080514e+01,-3.770320936545795121e+01,9.484992027282714844e+00,-8.796565532684326172e-01,7.649187743663787842e-02,5.890000000000000000e+02
-3.628112148904301648e+01,-4.157783459733309428e+00,-2.517884426852560864e+01,-2.341097384280556071e+01,-5.493623635931089666e+01,-4.441631729659820849e+01,-3.795510817027752637e+01,-3.220812549994025176e+01,9.484992027282714844e+00,-8.796565532684326172e-01,7.649187743663787842e-02,5.900000000000000000e+02
-3.434483456062298501e+01,9.886221802469208342e-02,-2.269503041588723136e+01,-1.897271003829064284e+01,-5.246088201529710204e+01,-4.058459488855896780e+01,-3.716735615960715222e+01,-2.906502515663123631e+01,9.484992027282714844e+00,-8.796565532684326172e-01,7.649187743663787842e-02,5.910000000000000000e+02
-3.491663805043344837e+01,3.599977806729043550e+00,-2.308343239813711989e+01,-1.715226805133897869e+01,-5.205906123382555961e+01,-3.886541005307572050e+01,-3.736153765186281817e+01,-3.003364312324902130e+01,9.484992027282714844e+00,-8.796565532684326172e-01,7.649187743663787842e-02,5.920000000000000000e+02
-3.834396289602545949e+01,4.907499843462119316e+00,-2.645367493099274725e+01,-1.892487197340869898e+01,-5.426115242036030395e+01,-4.002348478511976282e+01,-3.851299224918329855e+01,-3.477816420103772543e+01,9.484992027282714844e+00,-8.796565532684326172e-01,7.649187743663787842e-02,5.930000000000000000e+02
-4.348801070149465886e+01,3.582779564494558144e+00,-3.144154226808586827e+01,-2.362048311203852791e+01,-5.843637833217144362e+01,-4.369865097001456888e+01,-4.014407888537061808e+01,-4.139097251632210828e+01,9.484992027282714844e+00,-8.796565532684326172e-01,7.649187743663787842e-02,5.940000000000000000e+02
-4.887151114272455743e+01,3.300519133538273309e-01,-3.632395271013137972e+01,-2.957398945911927512e+01,-6.330853807913990750e+01,-4.878502844396734872e+01,-4.188651504969857342e+01,-4.783496901709986560e+01,9.484992027282714844e+00,-8.796565532684326172e-01,7.649187743663787842e-02,5.950000000000000000e+02
-5.372960004144215418e+01,-3.416449441741633564e+00,-4.022218678163972072e+01,-3.526762623714421352e+01,-6.779367458290471404e+01,-5.408596090336686757e+01,-4.389853154593220097e+01,-5.304298147995086765e+01,9.484992027282714844e+00,-8.796565532684326172e-01,7.649187743663787842e-02,5.960000000000000000e+02
-5.813663267683705271e+01,-6.242253580350052289e+00,-4.343940669099174556e+01,-4.005130720254828702e+01,-7.150128479612067167e+01,-5.877228702120555681e+01,-4.669855439656384988e+01,-5.693088057076420228e+01,9.484992027282714844e+00,-8.796565532684326172e-01,7.649187743663787842e-02,5.970000000000000000e+02
-6.238813207896464519e+01,-7.493574040244084244e+00,-4.677871564133147331e+01,-4.400916757436152693e+01,-7.457062479260275722e+01,-6.246156287497069570e+01,-5.054315950989075645e+01,-5.968947151888551161e+01,9.484992027282714844e+00,-8.796565532684326172e-01,7.649187743663787842e-02,5.980000000000000000e+02
-6.645657151877185242e+01,-7.616337418015973526e+00,-5.056047672578279162e+01,-4.734892453166412452e+01,-7.712573513554616511e+01,-6.509654470584064256e+01,-5.495587443996737420e+01,-6.127635109508719324e+01,9.484992027282714844e+00,-8.796565532684326172e-01,7.649187743663787842e-02,5.990000000000000000e+02
-7.007416201320666005e+01,-7.856040364497175688e+00,-5.423790266591731779e+01,-5.003328163796368244e+01,-7.895734660469042865e+01,-6.687555369700385199e+01,-5.892008206793434510e+01,-6.160400242853938835e+01,9.484992027282714844e+00,-8.796565532684326172e-01,7.649187743663787842e-02,6.000000000000000000e+02
-7.320593087446923164e+01,-9.468121505690078266e+00,-5.690384536844521790e+01,-5.197815345285698641e+01,-7.976432422399102506e+01,-6.827089833642457961e+01,-6.163727842717707972e+01,-6.105799842277792777e+01,9.484992027282714844e+00,-8.796565532684326172e-01,7.649187743663787842e-02,6.010000000000000000e+02
-7.625242110906356174e+01,-1.295068212445494282e+01,-5.815855590025148558e+01,-5.347077068996486560e+01,-7.966172274666496378e+01,-6.995073951631093223e+01,-6.317279963459077408e+01,-6.062355527131239796e+01,9.484992027282714844e+00,-8.796565532684326172e-01,7.649187743663787842e-02,6.020000000000000000e+02
-7.965655287064600998e+01,-1.780977814304696949e+01,-5.851704335182148498e+01,-5.521956836906292665e+01,-7.935728024035961425e+01,-7.248110866291972343e+01,-6.437544533999061969e+01,-6.134970190884359909e+01,9.446745872497558594e+00,-8.414105772972106934e-01,7.649187743663787842e-02,6.030000000000000000e+02
-8.327155863769712596e+01,-2.292275784153707718e+01,-5.900097144692790607e+01,-5.786427112273077000e+01,-7.973712484387760924e+01,-7.596887257201706234e+01,-6.612329740002496692e+01,-6.358753796391647484e+01,9.446745872497558594e+00,-8.414105772972106934e-01,7.649187743663787842e-02,6.040000000000000000e+02
-8.616069193019711747e+01,-2.709999520679230045e+01,-6.029890563862954878e+01,-6.137226964648243666e+01,-8.119651503222667088e+01,-7.994961704379966250e+01,-6.857513812254001095e+01,-6.669035327863184648e+01,9.446745872497558594e+00,-8.414105772972106934e-01,7.649187743663787842e-02,6.050000000000000000e+02
-8.712302079235814745e+01,-2.940681736624878795e+01,-6.222442581194991362e+01,-6.488389784516266445e+01,-8.330555124738202721e+01,-8.362184575184437563e+01,-7.107300614613632206e+01,-6.943316444753236283e+01,9.446745872497558594e+00,-8.414105772972106934e-01,7.649187743663787842e-02,6.060000000000000000e+02
-8.554444588515889336e+01,-2.920064533591539657e+01,-6.388186654224045924e+01,-6.716470894541134840e+01,-8.506899178432649933e+01,-8.621144410139095271e+01,-7.270977005403983640e+01,-7.079166278993670858e+01,9.446745872497558594e+00,-8.414105772972106934e-01,7.649187743663787842e-02,6.070000000000000000e+02
-8.184186289601802855e+01,-2.618334317109110998e+01,-6.431674658137217193e+01,-6.729026352205801231e+01,-8.551679441129454062e+01,-8.718007446619776601e+01,-7.299052833041605481e+01,-7.047890742240269901e+01,9.446745872497558594e+00,-8.414105772972106934e-01,7.649187743663787842e-02,6.080000000000000000e+02
-7.712396325382178475e+01,-2.064383116141880237e+01,-6.308709439613903669e+01,-6.503963001533566057e+01,-8.417821480422389868e+01,-8.623148121840858948e+01,-7.204438310702244053e+01,-6.889098853591622174e+01,9.446745872497558594e+00,-8.414105772972106934e-01,7.649187743663787842e-02,6.090000000000000000e+02
-7.239561235189648869e+01,-1.363879575671899147e+01,-6.037326599011157668e+01,-6.081965343253204992e+01,-8.120314689888436988e+01,-8.331249168282192841e+01,-7.034015252307108312e+01,-6.662012468261218601e+01,9.446745872497558594e+00,-8.414105772972106934e-01,7.649187743663787842e-02,6.100000000000000000e+02
-6.801944122613258514e+01,-6.717676533570056563e+00,-5.670702269364210224e+01,-5.536750990241171166e+01,-7.719234396546562493e+01,-7.875343551795958774e+01,-6.827459575864668295e+01,-6.397605338964149269e+01,9.446745872497558594e+00,-8.414105772972106934e-01,7.649187743663787842e-02,6.110000000000000000e+02
-6.385474880995298008e+01,-1.156048545999283306e+00,-5.263886024613748305e+01,-4.952828419558500173e+01,-7.287506447749365179e+01,-7.337198826792518958e+01,-6.596343674298259430e+01,-6.084346351397562103e+01,9.446745872497558594e+00,-8.414105772972106934e-01,7.649187743663787842e-02,6.120000000000000000e+02
-5.981269556040842872e+01,2.773235420082073688e+00,-4.855192540942789492e+01,-4.415822387920434267e+01,-6.874017436141548387e+01,-6.823954688969206472e+01,-6.327605208197383035e+01,-5.690747109951553284e+01,9.446745872497558594e+00,-8.414105772972106934e-01,7.649187743663787842e-02,6.130000000000000000e+02
-5.618211435381817864e+01,5.862444304537575590e+00,-4.459074560852695868e+01,-3.997491241858779176e+01,-6.477895771325711394e+01,-6.410859788480047428e+01,-5.999203213915825472e+01,-5.200292030078162497e+01,9.446745872497558594e+00,-8.414105772972106934e-01,7.649187743663787842e-02,6.140000000000000000e+02
-5.338553756437522679e+01,9.269116057815153908e+00,-4.062458095232250344e+01,-3.726023528522728157e+01,-6.053950871329288930e+01,-6.092250776167747972e+01,-5.599406073114187166e+01,-4.632225601556910988e+01,9.446745872497558594e+00,-8.414105772972106934e-01,7.649187743663787842e-02,6.150000000000000000e+02
